,TP9,AF7,AF8,TP10
0,-9.005016411521254,-14.229417972587443,-13.439924490772194,-10.741578173769458
1,-9.330916108853623,-14.596459594098281,-13.848372644040234,-11.11414758347107
2,-9.8169985706344,-15.006683937572332,-14.297029848664216,-11.586332572392466
3,-10.403867564918617,-15.416779583908934,-14.76667308123407,-12.12867872323526
4,-11.006210746293613,-15.782350592618908,-15.229714133312251,-12.6899924750983
5,-11.589213350200788,-16.113493446499255,-15.676791430653047,-13.273149690998235
6,-12.129740858150354,-16.41808441587363,-16.10233802640444,-13.883032489436928
7,-12.617338601405251,-16.740764742779174,-16.49298120729921,-14.508424179132726
8,-13.058750531611976,-17.079283982376122,-16.83876918012181,-15.132804742086657
9,-13.453660384635208,-17.38386297677582,-17.129769531039866,-15.706775147485663
10,-13.801144668418434,-17.66032098182457,-17.366059149220913,-16.188159716800655
11,-14.11897067862961,-17.95306680412331,-17.581896272255825,-16.60893489321395
12,-14.409235957208926,-18.31026854485401,-17.809736974538236,-17.008950498135654
13,-14.633391270627728,-18.705794944269176,-18.03815073640594,-17.36298433876448
14,-14.745685756365825,-19.09489042415697,-18.242147605883957,-17.63613374503519
15,-14.689652764072385,-19.46376672180641,-18.409496307765135,-17.825626810381145
16,-14.450201204336905,-19.807834916838193,-18.53237482545686,-17.939399888985168
17,-14.156860340927166,-20.133934345664706,-18.609553088428513,-17.995323430661045
18,-13.946593869371151,-20.45101173283235,-18.64918382272266,-18.019327612276143
19,-13.794497201868275,-20.739936022121384,-18.662641083193904,-18.0263105641564
20,-13.63994851661489,-20.977992315978224,-18.663746994853803,-18.027238758724465
21,-13.491148592093268,-21.168708687767626,-18.672633170506327,-18.047429532903546
22,-13.363446786439535,-21.322002728175367,-18.70476293596388,-18.10288220222499
23,-13.288475401474612,-21.43800856639698,-18.753514466939762,-18.16912068804571
24,-13.283668470156192,-21.517169945030684,-18.808310367690122,-18.218588370625238
25,-13.244991617784335,-21.566821665390183,-18.880705024638313,-18.261090403279102
26,-13.072008747477108,-21.59060609029579,-18.978542741994776,-18.31136628448971
27,-12.84395612358747,-21.578668013046265,-19.079215005182036,-18.366031838810077
28,-12.65895234116137,-21.521821411591382,-19.156408498667055,-18.41634137790514
29,-12.464191043902314,-21.42452668080595,-19.199183936620926,-18.43911118002658
30,-12.19459997023113,-21.29704433529146,-19.205590703065276,-18.415087934617258
31,-11.87199187216426,-21.15077698015924,-19.188566206384408,-18.373193214795748
32,-11.534261701057163,-20.995302576731156,-19.163406952255745,-18.343338880704696
33,-11.236648421353513,-20.833868282448922,-19.12389478785926,-18.288034748669535
34,-11.018784558982357,-20.6639737890892,-19.059825035214867,-18.16901002733754
35,-10.79348432436977,-20.47330795038953,-18.97825110448639,-18.020033783940534
36,-10.471697504846269,-20.25183227633683,-18.885816919000728,-17.878519664028623
37,-10.144587174798284,-20.012799327621956,-18.775978041750978,-17.735669866447235
38,-9.913279622883886,-19.770151661771624,-18.64042963942893,-17.57019795781235
39,-9.70793662047901,-19.5101328001835,-18.471196221683222,-17.341259736517937
40,-9.441816670536985,-19.21461559082111,-18.265198477356268,-17.02525705756583
41,-9.124669816600342,-18.886673459462152,-18.038091865647523,-16.69211966090633
42,-8.791097519688025,-18.533125519258455,-17.806646920381596,-16.416587359720708
43,-8.49914533162212,-18.14232820854387,-17.565443631053473,-16.180788743987375
44,-8.296912113360067,-17.710565588619115,-17.30341774701127,-15.938375405411415
45,-8.121409357146756,-17.273137417085195,-17.01903885363567,-15.648854546388723
46,-7.896273932179982,-16.85975381878158,-16.708950606190985,-15.285084322494853
47,-7.665147159339823,-16.45990228557647,-16.36706808117446,-14.886931743875987
48,-7.478238933152649,-16.046265710004917,-15.985138972463055,-14.50563667431739
49,-7.292045630298166,-15.566406911118472,-15.539858668424671,-14.116275701356754
50,-7.049993487262162,-14.998446649142148,-15.017729748585033,-13.683597925989321
51,-6.713182025577199,-14.371772846995214,-14.445649430687952,-13.232408325795587
52,-6.269138850674955,-13.758322522332936,-13.859871897770521,-12.785358946550756
53,-5.795270874113698,-13.18212705662901,-13.280760337878835,-12.316617573387981
54,-5.375999544373468,-12.594282536095557,-12.713861300696099,-11.792356125875445
55,-4.989681285718017,-11.935780604130604,-12.137747788506353,-11.187801115081355
56,-4.589025508315154,-11.217854767707163,-11.522338915639695,-10.488492065491993
57,-4.172810724503645,-10.466226112398907,-10.859038145460701,-9.71764117071186
58,-3.7464077590516833,-9.712598865634035,-10.147775233733306,-8.907997112945337
59,-3.3180490370997116,-8.889113456328333,-9.380981392723053,-8.048175243745616
60,-2.900782501930948,-7.988915739763992,-8.612927186327058,-7.186288690394383
61,-2.5137104939072223,-7.123425875709177,-7.978001456683505,-6.443530125099855
62,-2.172331962063119,-6.48954464216402,-7.539457157673699,-5.945042237819926
63,-1.9580766016048297,-6.1445336110350155,-7.2376119272687625,-5.607719029175608
64,-1.9287400652518218,-6.037280906693716,-6.9837967858599015,-5.271777602066047
65,-1.9808383343584184,-6.032751727642911,-6.743259856388318,-4.863107224136147
66,-1.9944543023071128,-5.981541576347306,-6.517826690803068,-4.306587275455418
67,-2.015245530727325,-5.796781116721854,-6.306666189703697,-3.768471077606443
68,-1.8752630248546507,-5.400390817768553,-6.079655625586563,-3.231874360289529
69,-1.819366676722716,-5.003923999952996,-5.888299405710685,-2.7716874341107465
70,-1.8056831174432013,-4.598239776847264,-5.7302378917112105,-2.3646154058355564
71,-1.7871838296971925,-4.16788631859337,-5.5935734929141505,-2.01202878094686
72,-1.7280563406008391,-3.7001958391453957,-5.459419558397063,-1.709537976851246
73,-1.6908965503412416,-3.208771700306665,-5.305337804137206,-1.450760538383135
74,-1.7530228297538917,-2.719753175096917,-5.11463853506479,-1.2255978761815047
75,-1.867184322870559,-2.238475345980037,-4.882408532842643,-0.9675995594162555
76,-1.959385480036332,-1.7891981430947057,-4.615779546534197,-0.620382849805738
77,-2.031301910462641,-1.3853383388317282,-4.342824444847313,-0.25460178286698676
78,-2.103964733168227,-1.0676816610798037,-4.0892735671247795,0.03839963588536641
79,-2.210566854409883,-0.8360514713475303,-3.841730478487525,0.282153234300964
80,-2.371612137192987,-0.6112485375359187,-3.573566495604002,0.5347417581798808
81,-2.501289337960543,-0.3098809739825673,-3.275926059543362,0.8210066795026265
82,-2.498736275922752,0.06970584756248166,-2.9468307861556564,1.1569451655374505
83,-2.386442867580643,0.4610930240731132,-2.591349668289419,1.5284922542037869
84,-2.227290661560909,0.8358103334452227,-2.2195771222053993,1.9066633856546076
85,-2.0397415641247414,1.2146501234798035,-1.8266621282180229,2.3130590398449136
86,-1.8368829876338058,1.6393250897513325,-1.4088970162685905,2.7694693457297914
87,-1.6270225150853632,2.083234864924709,-0.9929269291340007,3.210813706245946
88,-1.4110713092741163,2.5030523980852903,-0.6085147160974976,3.5679517060550245
89,-1.2339195296702357,2.886410714479779,-0.2559649288637828,3.8677639468727048
90,-1.13739206821487,3.2342444150339573,0.07451595141199081,4.16336614750924
91,-1.0565838707883122,3.568866194655181,0.38592926037945513,4.475885319658091
92,-0.9217375482248189,3.9205169665037283,0.6795949393531104,4.812867450554494
93,-0.8047400149210484,4.285499667638003,0.9540144270753288,5.144136915042779
94,-0.7951784309845822,4.65010923733418,1.203181107358404,5.432450456357238
95,-0.8748657192180389,5.0323186376281015,1.4177506629503855,5.713870434077134
96,-0.9791780040477625,5.448482262903476,1.5920492668248007,6.0344739281596755
97,-1.0102327825954847,5.871607223855067,1.7296868678504085,6.357994157354456
98,-0.8789272465754872,6.267263606594959,1.84064210819173,6.633311027046373
99,-0.6099545121031076,6.63402881522485,1.9455297288726328,6.861050169262119
100,-0.2771833218041502,6.976350473702629,2.059350852946927,7.05583494085091
101,0.09084014995033646,7.281785472495121,2.164574356347944,7.234640742071228
102,0.4807185313797396,7.5372971834158315,2.2355280532866626,7.410769670899402
103,0.8747974771862559,7.730268639266623,2.2657975898070406,7.552703960204982
104,1.2704845489570675,7.8558960917276215,2.262367851737917,7.6209311934749575
105,1.682752729310206,7.945212289897481,2.249195456375546,7.628511637316458
106,2.1156242200610036,8.036529367916744,2.2559719790416173,7.603702258734046
107,2.5492118612084007,8.126141148800407,2.2930300503521783,7.549685486995727
108,2.941840632370225,8.202614560390717,2.359388448372511,7.465532095248898
109,3.1925892559003195,8.28838673652283,2.45660008847988,7.352783282411507
110,3.2145240807462763,8.40381917681823,2.577708205340469,7.209477960243023
111,3.0784577874546355,8.549157379436732,2.7017573452244568,7.049411730875443
112,2.8890977564101648,8.705670979043289,2.8046651366578823,6.8846759164192415
113,2.5978742598265905,8.799668227636898,2.8579737694195786,6.674738452714774
114,2.1406330773028133,8.762671335456394,2.8445825717175257,6.383057124772505
115,1.5837456862612682,8.630367686306124,2.795059148320498,6.066655485596054
116,1.025150589394764,8.472593034020623,2.750157343973491,5.7952948836510005
117,0.5466236586119293,8.30881930363264,2.7021946461642967,5.561600289112656
118,0.20710374943203547,8.144200527861633,2.6439062408171776,5.33218406249506
119,-0.05137581319055745,7.9830848454932894,2.5697972966453495,5.066557488209444
120,-0.3085372459133646,7.822339834392811,2.5153364982458672,4.738086567276179
121,-0.4906182145614622,7.681325967831223,2.4974193840391843,4.412993625887122
122,-0.49871026248367334,7.577008339981345,2.5290939925327574,4.177251335817158
123,-0.36661857461610675,7.4717541083687555,2.599167020142004,4.017664013069709
124,-0.16445559948226085,7.319742078323147,2.6847145031036193,3.8937128187798975
125,0.07898403023540851,7.126566403439702,2.778231501675385,3.815673614611308
126,0.34200396615911616,6.896806450872396,2.8748674299315216,3.797132466440095
127,0.6127227548145158,6.676124122301154,2.9603768699547692,3.83575640078465
128,-13.119301983784581,-58.018148961405714,-77.98474254493917,-16.344891667261283
129,-13.47399083753464,-52.56952448169684,-77.5440133669153,-16.445333847427555
130,-13.769598246335525,-46.531306072062975,-76.30839561381201,-16.37112759728291
131,-13.925721336649142,-39.92820018020208,-74.30571973194265,-16.0690838049667
132,-13.860447796058416,-32.788304887276915,-71.56285074631911,-15.500116162303343
133,-13.574310209001005,-25.143768021476852,-68.05980563971796,-14.709689207910287
134,-13.097555358447645,-17.009973768046606,-63.64836097548067,-13.760060828393478
135,-12.500003664243028,-8.401625735330658,-58.14305103999164,-12.652954293636522
136,-11.849268305634618,0.7445418043437932,-51.40558112962134,-11.391731029349499
137,-11.08562281626155,10.557584281853067,-43.435608120778745,-10.015933961694579
138,-10.16755061933538,21.22631566972556,-34.35209687417625,-8.58364395554405
139,-9.243960538069459,32.91849138565733,-24.285141781370534,-7.183158191607758
140,-8.454466766772065,45.5947072950283,-13.300636011526933,-5.8670246172049145
141,-7.837371265826087,59.26816281471337,-1.5084990723771043,-4.616991117357282
142,-7.306471597026041,74.07357090491234,10.899104690533786,-3.3399557823460313
143,-6.43024830563091,89.7647539632749,23.78705012030425,-1.7820756354474376
144,-4.847252641515713,105.76668829691236,37.13570535954308,0.24483446057437863
145,-2.837618249659241,121.60707057741539,50.917395378219645,2.5752442998631158
146,-0.8274514027309843,137.1255015560617,64.97035523785382,4.942389325487943
147,1.1097718060992863,152.40961049070475,79.07720887782078,7.2116916117570975
148,2.9878938283056895,167.5947343507017,93.16029914954053,9.323760625849136
149,4.789297034716236,182.77818465968656,107.27240562213566,11.3208983649002
150,6.530293907563352,197.91134174422183,121.45107023893614,13.298028865961731
151,8.162937724735878,212.89348988209315,135.63855648974567,15.299109294284412
152,9.629210357701007,227.69867330304155,149.7275203791972,17.319958702272636
153,11.00203160342567,242.23427981553223,163.555525755601,19.293787676567977
154,12.353539792477218,256.33160982624423,177.00405160532156,21.13858868872588
155,13.5929866752753,269.8676034482754,190.00686027984355,22.835116452143147
156,14.62629581018657,282.81709479654285,202.52899156426062,24.394005409733804
157,15.514494329297452,295.2231996636184,214.5126143933477,25.830604476049817
158,16.33810878034223,307.10985738100584,225.8988864073568,27.165603968586268
159,17.097232740588836,318.454845972976,236.63317121808427,28.392769009063183
160,17.775363204341776,329.2190957316495,246.67074067624532,29.50358598752606
161,18.340910994340916,339.42291531462456,256.00483987405215,30.537122941794475
162,18.769765384155747,349.0919477486694,264.64388655134445,31.527007269063116
163,19.133758592102275,358.202296087804,272.5709313938983,32.4442260974671
164,19.508440466784652,366.72624760382087,279.7895672770928,33.25343358204446
165,19.832176838981862,374.67498962769787,286.31262438448994,33.950349602874006
166,20.03709649559576,382.04898937774874,292.18279897866097,34.54840549649542
167,20.198816348049117,388.80760685914095,297.43925579810724,35.10246090299569
168,20.396726479541645,394.90413514103756,302.05499936594373,35.65959381593297
169,20.59392406834202,400.28106297423153,305.98637172788773,36.17377063505757
170,20.735834139225677,404.9365147645489,309.19702069042035,36.586199371441566
171,20.789828685542332,408.9402185744369,311.73709366992955,36.918619272244186
172,20.744673242965163,412.41874897056334,313.6776977940653,37.202691341945204
173,20.691158372092445,415.45589391403644,315.0426840472039,37.428506299886315
174,20.709632924015537,418.01953566243805,315.83748640940394,37.58107941357017
175,20.6936066979165,419.987700273854,316.04919047056524,37.63667698016445
176,20.5207384501132,421.2534759283924,315.66562820190234,37.58271633611988
177,20.236583956190508,421.771206290911,314.7248078370936,37.47782743915297
178,19.919888770524164,421.54359821149365,313.27194129271845,37.37972707201266
179,19.586925351862757,420.5551501548644,311.30880360944485,37.25290969139086
180,19.24420166145318,418.8090672324738,308.82452113461466,37.048479289363485
181,18.87758056561995,416.39702626259844,305.81779762082067,36.772228632403255
182,18.469191947992552,413.3574893319435,302.2875509955595,36.44647106435204
183,18.069274302330147,409.6247017230221,298.23199748407535,36.107501002943316
184,17.72659133822295,405.06810357638915,293.658784945709,35.78671506297751
185,17.388454550358546,399.64687890100123,288.592342031737,35.45377831184023
186,16.996727402992605,393.47113274167936,283.05592035905875,35.06718530379138
187,16.586998920767307,386.6917399448094,277.0569439650816,34.64925345516221
188,16.218697060644036,379.3532865366262,270.5537464031271,34.210300427717065
189,15.82507167281177,371.35107644474255,263.43073948043383,33.60236703271385
190,15.344467865741068,362.59400857609444,255.61990525159112,32.704167323500975
191,14.666303409888526,353.06628945335086,247.17061048573115,31.57658162042259
192,13.719727271151964,342.8394559974396,238.15145340523816,30.34757534274741
193,12.66477109647272,331.955376966278,228.5496701461989,29.093949822446604
194,11.694808717635512,320.30620474496635,218.277466835775,27.85736784778093
195,10.770350235179198,307.75427861745294,207.2911022435439,26.599398112831913
196,9.274813375120383,287.2126501896893,193.29473331878864,24.337230125624085
197,7.726739896709898,266.74572948165786,179.31647215684248,22.01563562916869
198,6.102708546019149,246.37624008998495,165.37923120241075,19.624612868846135
199,4.377821841741219,226.06148823485398,151.45781394548007,17.09590480609566
200,2.5420937831646615,205.71372083116452,137.50673563575043,14.382504229570474
201,0.5242619743692583,185.30604712160226,123.52665863766155,11.529748672540826
202,-1.7211567274727173,164.83837403044902,109.53838193109428,8.613881416249484
203,-4.033692830852507,144.32978000594002,95.57525016082901,5.705684976300602
204,-6.224460248185991,123.77825871364865,81.66069543955311,2.85745230102849
205,-8.332163556442742,103.12102764757562,67.75847285899825,0.03578456916586828
206,-10.44990385303812,82.26345391036162,53.81683248741709,-2.8110462996677645
207,-12.528018842562822,61.205697075495614,39.76522697692653,-5.628589297705844
208,-14.508387854245331,40.05677398163166,25.5882074060137,-8.349189365823118
209,-16.39331235391973,18.882485457279305,11.292444225889305,-10.988926665597747
210,-18.2020113245845,-2.270063215085959,-3.08472206223256,-13.58146310208747
211,-20.05750727161442,-23.383958620189983,-17.50383480264046,-16.175399610909732
212,-22.030809868561136,-44.50319651210316,-31.907618863811347,-18.77695268221705
213,-23.86074392369455,-65.72928153809356,-46.26599683262068,-21.196848404009295
214,-25.213106651370794,-87.11832212980772,-60.52654706535412,-23.210698405525243
215,-25.99132217669015,-108.91423783107865,-74.58056664400554,-24.80761183283079
216,-26.231768753911865,-131.62003769299204,-88.39035098408594,-26.058883574199967
217,-26.072554375873647,-154.90430173064047,-101.97226934134046,-26.959730591432216
218,-25.739048645253543,-177.4364052123353,-115.31019789827958,-27.559041868041817
219,-25.348610467119993,-198.42410366157202,-128.58412240562322,-28.018657776592626
220,-25.014496694339087,-218.0093532353296,-142.19985621744854,-28.55327893610699
221,-25.11015415956201,-236.62518470876654,-156.36334859933802,-29.482908283124875
222,-25.922780399358206,-254.911015719521,-170.98486420551498,-31.031444689409234
223,-27.26597653021849,-273.64052283919193,-185.89931161213173,-33.05681615422388
224,-28.756299445904165,-293.1435455314559,-200.8980740559225,-35.246673312274446
225,-29.993063463759153,-313.25662073113915,-215.69133712959544,-37.27219707367449
226,-30.72342475773914,-333.2393291169155,-230.07743766643523,-38.930511094323315
227,-31.17647144205689,-351.8803715725635,-244.05487452908372,-40.41052445410485
228,-31.806162645144077,-368.47308587349397,-257.7432613026958,-42.07216314562706
229,-32.97449933034667,-382.87726392982654,-271.2344463490323,-44.19179437852927
230,-34.86139927787459,-394.97901522138295,-284.5843210193134,-46.87548150756431
231,-37.25693119875501,-404.8689116361221,-297.75709268391773,-49.84938059210795
232,-39.731667298693466,-412.80198651436854,-310.5120808914773,-52.67287409455663
233,-41.901924972899906,-419.0284144485525,-322.43207375048445,-55.046946456136844
234,-43.49916649232425,-423.8706497159107,-333.1064780449601,-56.813832468735626
235,-44.51202687265408,-427.6176238135824,-342.3118281657057,-58.04253891255209
236,-45.092529221394344,-430.4916574337067,-349.88941847391897,-58.915883310023446
237,-45.39427665246191,-432.5942758327994,-355.6603736163345,-59.484951303142026
238,-45.5394881509554,-433.94500756275835,-359.44082989744624,-59.748526509297506
239,-45.50094052305626,-434.539396145177,-361.14701953863414,-59.73692273800934
240,-45.20298615662468,-434.35678684585514,-360.9126812562211,-59.47295754057034
241,-44.73008050297824,-433.3788990283158,-359.05655378365003,-59.00267503273527
242,-44.19545365420808,-431.5982710221968,-355.97785448753586,-58.377425486797975
243,-43.60014314037208,-429.01034816931394,-351.94195938395256,-57.59081968128069
244,-42.908788910320986,-425.61497762592063,-347.10270399280233,-56.62079488238314
245,-42.06707285728068,-421.4145088131579,-341.52107318661587,-55.48838768450119
246,-41.02147551866458,-416.4113922585106,-335.1812328353417,-54.220420521970354
247,-39.8170694727116,-410.60732676207647,-328.0618341888816,-52.812702611694824
248,-38.527234163976736,-404.00364635493855,-320.1414235021372,-51.26417395594832
249,-37.12057992654634,-396.60137666187893,-311.41342479502043,-49.594636091156474
250,-35.560669781334276,-388.4003559423607,-301.8644340848318,-47.83826505216735
251,-33.93049307086629,-379.4049928824479,-291.4969334427036,-46.06609368290332
252,-32.32915001888174,-369.61621212353043,-280.3145296908315,-44.344946502955565
253,-30.782106826948336,-359.0300992775098,-268.3719626148212,-42.659236647122995
254,-29.284905813565636,-347.6597098887945,-255.87203789746016,-40.97005733257794
255,-27.78722798031797,-335.5204793290471,-243.09065665725078,-39.295710650524725
256,-25.514171591246537,-181.6891144661118,-53.312564757510316,-29.93261953314858
257,-25.860027846897193,-186.4884727392292,-54.849410200532056,-30.39145727228543
258,-26.24654827995784,-190.97410906338635,-56.29662170603059,-30.803544917850587
259,-26.638677385221293,-195.12196867464948,-57.64772743464392,-31.154002263687744
260,-26.987128021573763,-198.96575082699795,-58.93650581807164,-31.432968594972976
261,-27.334920542142534,-202.56399818718614,-60.213963832224614,-31.70956654372558
262,-27.729025056995077,-205.93758671480708,-61.49338499865086,-32.04786459145677
263,-28.204192141629775,-209.08510654462773,-62.76014803607804,-32.41719069563456
264,-28.760974658753568,-211.98041289471283,-63.981309933421194,-32.76213185822765
265,-29.255734278192236,-214.61468084445227,-65.14013187777107,-33.05164543905065
266,-29.55385691866161,-216.9823783930871,-66.22683593508745,-33.268387640461015
267,-29.747201205564817,-219.10522663864856,-67.23693106171811,-33.434925201310854
268,-29.959648130847953,-221.03343702454228,-68.16928116091253,-33.5880139293881
269,-30.149214905900447,-222.77774839972142,-69.0113074147818,-33.71796160565668
270,-30.251458489166335,-224.30796271928796,-69.75396955731506,-33.81822446798586
271,-30.262361637719287,-225.60862856927434,-70.41116733799502,-33.950864959883944
272,-30.200319704824366,-226.68102969338068,-71.002210351979,-34.1725826114886
273,-30.147242684335122,-227.50622562975673,-71.53629827059892,-34.463064186103864
274,-30.18570937183038,-228.0336429208404,-72.01740541812136,-34.78146931375445
275,-30.27841538944687,-228.20973328428667,-72.44482019785863,-35.10302479008726
276,-30.364054082974047,-228.0137782075038,-72.81027616194515,-35.402785120801575
277,-30.475695736409996,-227.48539246195656,-73.10305722948485,-35.68044517984638
278,-30.64239233397826,-226.70515879095905,-73.31086093059369,-35.92855982135546
279,-30.80449483698855,-225.69462615645327,-73.4114212786743,-36.060809523502286
280,-30.896723187477843,-224.40391634616697,-73.39956950479373,-36.003969309165605
281,-30.893027307484232,-222.78664595548244,-73.28173109406193,-35.802745916434404
282,-30.789813633449935,-220.82542252404684,-73.09206165338757,-35.533154391482064
283,-30.640033506591582,-218.51997915446316,-72.85435712208682,-35.23363760199611
284,-30.492953566072867,-215.85877365017976,-72.56356542264723,-34.92650465586134
285,-30.287990481895626,-212.81484914838407,-72.20094784279328,-34.59710078152633
286,-29.95585349817466,-209.40721337698625,-71.76364915288465,-34.21598174746341
287,-29.53318687113125,-205.70400918895993,-71.25502545839316,-33.80872110863371
288,-29.07093646769363,-201.72744048879798,-70.67890428817213,-33.39466437747356
289,-28.57091669050029,-197.44597832758924,-70.00880842360304,-32.89318451740531
290,-28.01976967758194,-192.81320395529298,-69.21484416252044,-32.23131927027169
291,-27.371795202671898,-187.82967741476878,-68.29709506978146,-31.460592331562673
292,-26.58912661200537,-182.52127948437547,-67.25407386417005,-30.648014138848634
293,-25.73036725485703,-176.93047589115508,-66.08885791915705,-29.79383697346564
294,-24.866474749107,-171.1013388247763,-64.79048887346053,-28.877243617769228
295,-23.968333122510902,-165.0795228164657,-63.34447185861761,-27.840311356823022
296,-23.002859148057066,-158.8751076570641,-61.770346361512736,-26.644946089057655
297,-22.02324594535303,-152.47574038392253,-60.114935237193265,-25.39142796249786
298,-21.082470073583195,-145.86831452484344,-58.425988760590684,-24.194784424262888
299,-20.19306979602297,-139.01558246389473,-56.70581049617191,-23.034832125444293
300,-19.339910506195146,-131.86114411311024,-54.93532168324219,-21.863868431746717
301,-18.417216468599495,-124.39269399164635,-53.09611005014806,-20.695383315648495
302,-17.339223637165887,-116.6472110948233,-51.16763410903697,-19.54408598943256
303,-16.226562843326104,-108.64104389635048,-49.13582259383135,-18.414608986923614
304,-15.214812123642178,-100.33627503703767,-46.996761872539956,-17.305964036181397
305,-14.230250056839173,-91.68689506581268,-44.75086115396235,-16.16582282558689
306,-13.172486001150306,-82.72369257091793,-42.40645986351153,-14.949896573279288
307,-12.06224094943888,-73.54178279853069,-39.98680944801989,-13.713100213065752
308,-10.943105929624219,-64.1973178725943,-37.512498130750764,-12.517034100682723
309,-9.863299795751738,-54.68122833904482,-34.98057274307443,-11.332696143198502
310,-8.85492398249116,-44.96870798873609,-32.37856454178912,-10.108684420073729
311,-7.835011150331163,-35.0480124228555,-29.702519449471136,-8.818693284250944
312,-6.7093241384286495,-24.938923400094605,-26.945287175915816,-7.438845596610832
313,-5.520801930953422,-14.659867548103115,-24.084423330086768,-5.963068863566302
314,-4.331410480608319,-4.1832197559344095,-21.103992638683813,-4.394235667317793
315,-3.1011918847460374,6.571344653840287,-18.011545820421304,-2.6949064997250853
316,-1.8108818591637057,17.2174130083534,-14.922812212698974,-0.9582596471516482
317,-0.600147302524048,26.76343533278294,-12.073895534179037,0.5754126393907828
318,0.3942806645480053,34.67164296900981,-9.581101362583965,1.638779083035121
319,1.116941633732218,41.22095516461654,-7.347558551993604,2.3186620641397577
320,1.5932375680843438,46.96302110386354,-5.243879936210907,2.8497196671846927
321,1.9832838364390752,52.39567392661193,-3.1760658888340147,3.3476780466303486
322,2.455808158777549,57.81256687849445,-1.1131801518340265,3.8766388021982907
323,2.9973527221258975,63.30835398864695,0.9902436732918372,4.450577876996432
324,3.7616528935460347,70.41469377498345,3.747155395274306,5.250285451958756
325,4.500306362271851,77.31051086974148,6.526744316656982,6.082933923272052
326,5.225129624549783,83.93059005288045,9.274640244916759,6.987036728215007
327,5.9545944949039145,90.2039598480923,11.920697170752625,7.893790012362191
328,6.704020212463867,96.06588794279868,14.430928374172318,8.720583632496291
329,7.39269927511479,101.51697620070547,16.796625370870807,9.470318264176743
330,7.937243904797066,106.61771369517642,19.01109565112302,10.177174806519117
331,8.431321095587295,111.42777126940949,21.00656725158334,10.88631654475393
332,8.99013978592398,115.96399986892757,22.70387395566858,11.632582062206255
333,9.530589425664006,120.20677006059309,24.05146867754074,12.363104490261275
334,9.94028568620796,124.13869456804618,25.050109149542855,13.00414416035273
335,10.255363961417668,127.76032431488787,25.80421713088148,13.565441928606367
336,10.547230455283717,131.08054885283576,26.453530143661,14.085938257069262
337,10.86804813237765,134.1109810794482,27.148031099693416,14.577063494718274
338,11.249435088483002,136.85784630302018,27.954459787738404,15.049680749975929
339,11.598788031109011,139.33830035352653,28.854000898996265,15.523723761890784
340,11.806117822351714,141.59164206508714,29.770141903838255,16.002944141218023
341,11.946494769427256,143.64381305573713,30.64332948687921,16.472421062848877
342,12.127781615837694,145.46376015249444,31.432284577821584,16.901723241794905
343,12.298982900764125,146.9714507312256,32.120882024402896,17.218694775002245
344,12.376542372361763,148.10968509706618,32.71807288928164,17.366794392216654
345,12.341360498859231,148.86921906940725,33.245460974414655,17.39701370608465
346,12.197707588286114,149.26822871588328,33.72119973795502,17.39176165914314
347,12.00692952154622,149.28008824272848,34.134042058073874,17.375684394614915
348,11.840243111905423,148.89881479544042,34.4624896795143,17.35092901328946
349,11.649578221305866,148.1626263644186,34.70421162705482,17.299006142848935
350,11.370019033546258,147.15564828654692,34.86425932489216,17.19748316572132
351,11.071320944270658,145.9498574341253,34.94894900738194,17.096898138437027
352,10.844750818371883,144.57252319670428,34.96800694966431,17.054551203231632
353,10.69244075722797,143.03071753152548,34.922585704697944,17.018267108819327
354,10.587057059226144,141.33102142825135,34.814864823385655,16.919381453586187
355,10.482530061863294,139.52004598027233,34.669765566939226,16.786824656297807
356,10.333785216280686,137.6631740314028,34.50704411390394,16.66821066575962
357,10.189900176719947,135.77996795596073,34.34564209175808,16.56850744311927
358,10.11391632113252,133.8270266463297,34.17949491500006,16.480442455826562
359,10.0449530313888,131.73942584797518,33.98958484013331,16.36074223147787
360,9.907105908162446,129.50408456113584,33.77701633901435,16.172430060739483
361,9.725199062493127,127.17556181953275,33.56963931487995,15.993883806847919
362,9.55352672593462,124.79448100407151,33.369401095548824,15.918156155610806
363,9.455421430922224,122.32828595771318,33.15687320779947,15.904072754659513
364,9.47336325852035,119.76265114027736,32.90157409726159,15.875640627712299
365,9.514355099901826,117.15722273818783,32.604844897116784,15.832831465056591
366,9.461935398936982,114.63973328740141,32.268855515365246,15.789001677894795
367,9.360259881891299,112.26198468330222,31.888023623981844,15.730196091103876
368,9.29399968344713,109.9717812302117,31.445841823061702,15.64876728222127
369,9.244971061897152,107.65226474684442,30.952625873395043,15.539114551302621
370,9.17867693226341,105.19129846567225,30.451812055165625,15.401643624973994
371,9.107839640811536,102.54880929800873,29.964979976526966,15.288717587837874
372,9.042065149099045,99.80039813321295,29.471838082658067,15.24502095170489
373,8.985519976710787,97.06411345636853,28.961436583915685,15.209275517213998
374,8.93238937949878,94.40866293651565,28.416797859729183,15.096565543229763
375,8.801560308105135,91.83150852337332,27.844860146619244,14.89857262908219
376,8.517965733978574,89.29545511076584,27.24996787750922,14.631728176558031
377,8.160233903041046,86.72645036910909,26.620900846010485,14.305840921722364
378,7.838728934187348,84.06695755215443,25.930339294806895,13.934841706854623
379,7.525539759363217,81.28654637906561,25.16727172477401,13.498921560069805
380,7.171836905216258,78.41261375852159,24.362937787171166,12.980742781705326
381,6.820616009262549,75.50466793728346,23.57298013415784,12.446493563454792
382,6.526664748360272,72.59133411584477,22.82132790785653,11.968675406113036
383,6.340345064974664,69.68110273405989,22.104818022067803,11.528718548278283
384,-12.356263087532405,-41.77527269461899,-20.62204844277903,-10.471642159245242
385,-12.598157430854954,-43.05100337026911,-21.05736158180517,-10.757716898853555
386,-12.794746224040694,-44.28334948600019,-21.47733079739875,-11.03794426628504
387,-12.874099512994624,-45.43673653184808,-21.85951623636024,-11.27274183505013
388,-12.790152785389497,-46.49089198443972,-22.193905599166,-11.441062171009259
389,-12.625436902762214,-47.48352397814716,-22.515308441549635,-11.628731462031434
390,-12.484293271776018,-48.458222223798764,-22.861299104891383,-11.921814845097623
391,-12.422128185198329,-49.39770739474055,-23.213555110948885,-12.279103393772102
392,-12.447425011002867,-50.2755147965441,-23.542677092367665,-12.625062909559528
393,-12.441223109363905,-51.093234708770915,-23.851166316805283,-12.922388428647544
394,-12.2912194219912,-51.85837160391191,-24.1465986586006,-13.150092948859522
395,-12.104752739738977,-52.60225888730457,-24.429445213088467,-13.322981220714261
396,-12.016664828289228,-53.33868506329396,-24.701261684893744,-13.475574894949506
397,-11.976112617011538,-53.983851320303195,-24.958223523677287,-13.61035139961158
398,-11.904793757345281,-54.447766869891225,-25.19681096723162,-13.728829308998197
399,-11.810378817400492,-54.74746569050304,-25.425324820993406,-13.877848928330575
400,-11.707769826562293,-54.92706488091978,-25.651958714059894,-14.090401785362406
401,-11.620822744146864,-54.97349874196705,-25.873931401736275,-14.326972728084822
402,-11.561159596318998,-54.89895867470921,-26.079045971383273,-14.530101988621565
403,-11.431341543921938,-54.70905324718932,-26.249701973993094,-14.669968544915857
404,-11.143072571120813,-54.45598425800647,-26.36313025265336,-14.727441906969275
405,-10.777520698582084,-54.16918393797946,-26.389933491929078,-14.700622879568462
406,-10.443809998143136,-53.79542311998157,-26.321594458326825,-14.602773080110142
407,-10.137187945679266,-53.31547334805703,-26.181720909914148,-14.423833700701225
408,-9.832881249065473,-52.719029463526,-26.023078981811114,-14.170529675323385
409,-9.544488548928587,-52.06406087224583,-25.956145496048467,-13.935719036458941
410,-9.279401001897341,-51.4101686555713,-26.061597912808132,-13.79942154591201
411,-9.047649374293398,-50.7231042722343,-26.276071722826046,-13.727725580311803
412,-8.8537729329561,-49.947539433856754,-26.49261575210986,-13.654663517141875
413,-8.638561466155453,-49.069591441116266,-26.663143972555005,-13.528802963928086
414,-8.360534369630074,-48.094782900606276,-26.761314429926614,-13.32714855429701
415,-8.102294585499367,-47.05397222481884,-26.768519789882937,-13.12441076464627
416,-7.956973853074729,-45.987408414577175,-26.687906049168234,-13.00478518294527
417,-7.934795247377465,-44.911208093012775,-26.536146851646325,-12.941612898855471
418,-8.002947480182169,-43.823481059154666,-26.3184923180565,-12.878282631503065
419,-8.063323644351106,-42.70948054779221,-26.020577413151862,-12.798570124097488
420,-8.026780941590497,-41.5446483180771,-25.611131127486207,-12.695657893603215
421,-7.956436345399768,-40.31055263342555,-25.019444521516647,-12.571587882868373
422,-7.937836807520479,-38.99484043622443,-24.203878114007395,-12.44121767961828
423,-7.919311616297161,-37.577704054475355,-23.242303566184496,-12.314564511323299
424,-7.838101380432702,-36.05692038050373,-22.242785598217672,-12.198084399502134
425,-7.720400852157197,-34.482078720725596,-21.257584156375856,-12.103746227650834
426,-7.605685269920477,-32.90732355004235,-20.310279766840466,-12.036169884183687
427,-7.532708041999675,-31.338832976530405,-19.389899109565313,-11.972125079084933
428,-7.52394861140913,-29.765563620811275,-18.468965222031294,-11.886662476569752
429,-7.502770093190108,-28.185624410157367,-17.55499939991578,-11.790199359348703
430,-7.395038827899451,-26.588994178315254,-16.65562515152038,-11.688502074275956
431,-7.273512119321678,-24.954379847487335,-15.74309447783226,-11.546576195457696
432,-7.226935170925858,-23.26006954139832,-14.782812780811167,-11.325044323723786
433,-7.229090567053962,-21.480791356991784,-13.738936933573822,-10.989586807058174
434,-7.227764482604906,-19.599320043824946,-12.593180017385077,-10.53428321516816
435,-7.202416579881396,-17.630373157729007,-11.384624182806846,-10.038303738430205
436,-7.134959281149934,-15.591987154580357,-10.164724170388899,-9.58742299429792
437,-7.016120467862524,-13.463956491473265,-8.943423832342672,-9.173200366231223
438,-6.849342611858128,-11.223996779504711,-7.713676396310103,-8.756648329729709
439,-6.632147843133793,-8.891707793134978,-6.472592569663139,-8.335034073422312
440,-6.363539584038963,-6.470301676770003,-5.207566845298051,-7.8954787572951
441,-6.058731203351603,-3.9998280793776075,-3.8909503280816633,-7.383625186815786
442,-5.722606222556492,-1.4708151708500792,-2.5041395638879282,-6.757811280557359
443,-5.329693949138329,1.1804375717044016,-1.0530794188061041,-6.018009516374721
444,-4.838103548493188,3.7897378638788615,0.37360183739808284,-5.2149808818072785
445,-4.293677336933971,6.000134043254382,1.6616408961036375,-4.4881700340818504
446,-3.740426358011533,7.619465040002701,2.6818004090019523,-3.9636136632503014
447,-3.250483301161892,8.764693402755864,3.47226846551039,-3.594880994074926
448,-2.874139559710336,9.70883438935186,4.145235899503361,-3.276134020274542
449,-2.5655311775159193,10.584811882071602,4.7522061574646015,-2.979577695534863
450,-2.261550120207634,11.419408064093284,5.318641952561299,-2.701489062918397
451,-1.991102811153043,12.124197047740031,5.853552810152185,-2.4528366790871696
452,-2.10771230534777,12.92308749726229,6.320471617795522,-2.4358821495432372
453,-2.237927252290499,13.694730959756203,6.762799870458004,-2.3922182689419236
454,-2.330434295052016,14.528271049376716,7.195515086557918,-2.2622302729574804
455,-2.368706272501839,15.385694886724405,7.585955461461362,-2.120199998703022
456,-2.3505778129595822,16.19058113641581,7.899495573506704,-2.061195521211703
457,-2.3133005519875702,16.958739172296788,8.158123451703366,-2.0570215802392915
458,-2.296766258430383,17.721557340287134,8.398105044452477,-2.0489703101641816
459,-2.249892341505684,18.457965998136004,8.632934785111175,-2.0276582137956156
460,-2.114258908878952,19.141549949489487,8.864822491608395,-1.994424110888161
461,-1.9489664926014032,19.747389589951073,9.069241937550313,-1.9783725593503954
462,-1.8345390534520458,20.26228415460469,9.21782184825324,-2.00797459838679
463,-1.7738702106811286,20.739271709737082,9.335057265463497,-2.0163115076977367
464,-1.7447835102472313,21.240502095950742,9.453960781471409,-1.931067828038194
465,-1.7111979972471076,21.748098643383454,9.55231971710157,-1.8048541471339552
466,-1.6364683138134626,22.218727802738925,9.599515644576277,-1.720532531565676
467,-1.5706441022917637,22.64485271046838,9.599945135054291,-1.702921416633035
468,-1.5723971812398276,23.024497276590573,9.572307577431129,-1.7479885614482569
469,-1.5530356629628932,23.3489657732128,9.547449024029595,-1.8015217801485757
470,-1.4136904717651175,23.616794938075277,9.557316122125643,-1.795728090520403
471,-1.234318511103807,23.820395594752544,9.602603107762418,-1.75185488447059
472,-1.1256101105849023,23.96027216719389,9.668876834608458,-1.7092792626094988
473,-1.07953928936648,24.08514514918651,9.756604863930779,-1.6099337888098428
474,-1.0528421718252507,24.244586445471636,9.864710502388151,-1.3915609569615945
475,-0.9900811783804756,24.42081790008238,9.969396449228217,-1.0911992829686634
476,-0.8422247193921547,24.575167983002512,10.051934306735982,-0.7700401540425893
477,-0.6869731854652399,24.699737365941907,10.124756281917954,-0.4580181929429974
478,-0.6180803591876725,24.792190624562437,10.21082164558916,-0.1696789150858185
479,-0.5404200939699104,24.8481512413254,10.336395368417243,0.12432080146316904
480,-0.3362741834287694,24.866783907271696,10.516218293705311,0.4638346655545822
481,-0.07517179790230233,24.820625558397108,10.710944487042047,0.8152735327481627
482,0.13222704262195767,24.685464843853484,10.871322247241126,1.1321637385919063
483,0.25616350456530407,24.510079022991615,11.006770882450764,1.4471784777079653
484,0.29413669473740983,24.3222615459022,11.140968572779407,1.7977733336816557
485,0.29711029149482326,24.116325993030927,11.2687349637669,2.1523660562939764
486,0.3198895605003248,23.79280109866232,11.375645842974274,2.4617291155675107
487,0.2855851432167074,23.32334397500323,11.432579937209672,2.6750415063634425
488,0.09891972524012499,22.706766247589016,11.413365733381761,2.7580822045124984
489,-0.19995635937158235,21.995663590117335,11.3420154659742,2.7776329620970386
490,-0.5208875955376002,21.26606121823512,11.25738931604558,2.8161698546422915
491,-0.8007716291396749,20.548065551113044,11.15740705071523,2.8139195913071524
492,-0.9832062097025784,19.845170738032465,11.031623668652076,2.692757897147496
493,-1.0250896184471021,19.160930484008112,10.90047392587029,2.5220747617265267
494,-0.919281327431063,18.48546572487315,10.78009587396082,2.395601594883886
495,-0.7070282786453099,17.79900047956191,10.652202146774968,2.3142499792930367
496,-0.444557641349224,17.084347930688068,10.489820878180844,2.253482973449986
497,-0.15959500105406305,16.321721774800906,10.268094261954973,2.1808754869602263
498,0.13708798107721737,15.50623746713198,9.97337053803163,2.06707510569883
499,0.43927002122202274,14.685499776155439,9.638617311188778,1.9705029278977948
500,0.7495973572604369,13.916205075920264,9.30746252223814,1.9598772637786774
501,1.0725552888256922,13.195850643647525,8.968683959030733,1.9711596149908497
502,1.4113772595731393,12.506047689460098,8.60046663701548,1.9190634735345815
503,1.7653183307907323,11.868940199856008,8.231156677276037,1.8407978367840232
504,2.1252719472842,11.304535793805043,7.890685289860589,1.7946330646267326
505,2.4913298315484416,10.796061406444707,7.564738525779815,1.772113935482335
506,2.8522502935195013,10.316698714066437,7.2276006827196255,1.7496929028422659
507,3.1261627080288914,9.833311408649255,6.855795873327359,1.6852698752273965
508,3.2459164549163275,9.323355203935924,6.435384918216719,1.5498087088017778
509,3.274298188284267,8.823520047849529,5.999090113539776,1.4261122311915038
510,3.3104653380089517,8.383292299823323,5.588537252975149,1.4119336189932392
511,3.418115884137567,7.994017163064159,5.191503553419095,1.4826834187000344
512,-12.98458239895072,-15.462565762511943,-11.945592357248506,-11.900585625333987
513,-13.283707968649102,-15.907287552043439,-12.444967592844318,-12.199129488135036
514,-13.586106927165114,-16.335382891535115,-12.945695686972183,-12.518435189168914
515,-13.826238737305722,-16.725009133284093,-13.40789813409692,-12.796436724463017
516,-13.93813582036007,-17.055465607530092,-13.78951130469122,-12.975208748550425
517,-13.980583080540411,-17.366488366723768,-14.095325264528366,-13.103089330700493
518,-14.033283660559462,-17.701581805487287,-14.351844497751005,-13.247322940828353
519,-14.126510310222073,-18.039730226441115,-14.572769881316571,-13.386376575436712
520,-14.266398330736031,-18.352277209957467,-14.773959366895772,-13.490382003483019
521,-14.392331067265278,-18.652596385520088,-14.986305053051035,-13.58691387368837
522,-14.445493546749518,-18.95892182894546,-15.228149265224491,-13.703297854700365
523,-14.507154827627764,-19.278181642847837,-15.48340342208118,-13.844576397548366
524,-14.661898599219581,-19.614851478700835,-15.72682215545921,-14.001371239825792
525,-14.830389233425217,-19.949151194894505,-15.936810065482184,-14.11773800317188
526,-14.925270085687332,-20.265278194045663,-16.102591525422913,-14.142978499494271
527,-14.977121051145994,-20.610996379915697,-16.254801544283705,-14.11712765911554
528,-15.053418365763061,-21.01368094893383,-16.412378838053385,-14.093063840045872
529,-15.244492160723508,-21.469249551703417,-16.57386073189887,-14.044193265885857
530,-15.614816153819046,-21.915618483449464,-16.6967123833724,-13.941433260191598
531,-16.09676280381324,-22.318971634876625,-16.76249151572019,-13.816218348762778
532,-16.582561175188808,-22.71832870386949,-16.803803389755842,-13.708443421009335
533,-17.03293388915384,-23.118701516787294,-16.830452848986138,-13.648979660037696
534,-17.432787064796244,-23.530140967917955,-16.858204073234162,-13.655332412759137
535,-17.76695827287634,-23.93324059785367,-16.89117728209085,-13.685997542634764
536,-18.03763002141432,-24.307046891315384,-16.925071986432503,-13.697885803666335
537,-18.258459794697245,-24.68690728326942,-16.97519334707995,-13.732374955265415
538,-18.43431744358655,-25.109077062142834,-17.0466071196557,-13.833766316827186
539,-18.5552188464607,-25.551944943548925,-17.088017063628495,-13.9708965066029
540,-18.60373638534569,-25.981246043027294,-17.05158374921151,-14.09193724371003
541,-18.53771750001175,-26.37508283057091,-16.955140327721868,-14.149802055748314
542,-18.33577706767514,-26.71698870000858,-16.82674632179548,-14.10889035735916
543,-18.079063268390414,-27.031312550997026,-16.709804726191212,-13.990021575251621
544,-17.849802567849363,-27.341083986289895,-16.608110772960597,-13.831039337802155
545,-17.608768580533628,-27.572159306242565,-16.50481557319723,-13.614990001020518
546,-17.296739214928333,-27.68603930942683,-16.376788361153356,-13.329955459934784
547,-16.916663449103055,-27.7116666432409,-16.250944096704654,-13.040785743231927
548,-16.48660494695165,-27.750153156446366,-16.14738388176541,-12.805084342645518
549,-16.050721183925813,-27.833012800237604,-16.06559359920131,-12.602865055669321
550,-15.643345522921908,-27.867778845853294,-15.970557466742463,-12.388927213701058
551,-15.187385172479802,-27.749249559304836,-15.821248256945866,-12.108307700999761
552,-14.610045094105903,-27.476457303144404,-15.621198343804702,-11.721444285633932
553,-13.991161511613145,-27.100406669186594,-15.383748136331423,-11.280337403465943
554,-13.424799581532426,-26.70947991294171,-15.129623282973633,-10.847633144074248
555,-12.90637735357039,-26.343626190141112,-14.846480986898511,-10.37575420967754
556,-12.395687734717985,-26.004393120486764,-14.512962999024742,-9.811433865595674
557,-11.80861759018446,-25.649830628950703,-14.129997430130988,-9.208474817769881
558,-11.079737273915171,-25.23085173678841,-13.700371863415743,-8.627217776875597
559,-10.297617968807518,-24.74955721289178,-13.212556244838314,-8.056248165119907
560,-9.573558764260282,-24.235415204360002,-12.660584941163382,-7.471437444453905
561,-8.879888192662783,-23.719502816175442,-12.053827639515987,-6.8533714870908815
562,-8.166293106721188,-23.233899968114276,-11.41044674432749,-6.193904849026296
563,-7.450788187146121,-22.807120170512825,-10.760830586031558,-5.547105053261243
564,-6.756543700081409,-22.448951340034416,-10.130769714415125,-4.968413646150451
565,-6.109335030057454,-22.122185027945196,-9.517233641178917,-4.426129134642885
566,-5.5255012377399195,-21.790643078596432,-8.905586585194207,-3.8749334721615294
567,-4.933522644041434,-21.488274538540526,-8.289085985957634,-3.3289564948140034
568,-4.26972912157982,-21.25180729258441,-7.660680067962222,-2.8077314671129456
569,-3.624252922597467,-21.052340519813487,-7.010916174991634,-2.311478748541163
570,-3.0947778779320263,-20.847611770747953,-6.335972067443877,-1.8359247180258247
571,-2.6240038825017886,-20.60889811267609,-5.635496781269734,-1.3390912704367828
572,-2.141436992471599,-20.357554036740733,-4.973175581862056,-0.8632326719319745
573,-1.768476098934734,-20.205930752330307,-4.493857343740017,-0.5583025112158925
574,-1.6074331186947344,-20.211431932030035,-4.273365954708455,-0.5888963529534835
575,-1.635219251025907,-20.28753613726693,-4.267556449029461,-0.8204646796368321
576,-1.7602123341016052,-20.31574556373557,-4.363547973323644,-1.0326309184843323
577,-1.8345288595195195,-20.26603127873556,-4.466747643997803,-1.1795586934643991
578,-1.7510374638239772,-20.18718871404897,-4.548869126246317,-1.2813165023106996
579,-1.6162426507155938,-20.131875221126386,-4.62500615257666,-1.367705929973693
580,-1.523914633666413,-19.821069023237268,-4.675054768209745,-1.4867991713555595
581,-1.4918789696333548,-19.502059728592403,-4.716636209648797,-1.5770670380525114
582,-1.4283909678629965,-19.169096249985685,-4.791927024040987,-1.5707868115872692
583,-1.2999762501933032,-18.84611073955145,-4.9186337279512955,-1.524023976319553
584,-1.093172885527018,-18.562594665064506,-5.1040238577160935,-1.5161429605817278
585,-0.823596572615124,-18.319419141005696,-5.314046977277446,-1.51532137911138
586,-0.5268528624058414,-18.101885408805657,-5.491791387549583,-1.4694538757186082
587,-0.1867703145803065,-17.881631581197002,-5.594425639065478,-1.3860438217898525
588,0.2116470456516176,-17.627298863463913,-5.590285922726074,-1.2863749058683387
589,0.5818443845520215,-17.34299446277709,-5.450109306646324,-1.2076964639747076
590,0.8357493254448934,-17.042625991898106,-5.167364020740451,-1.1810054424228065
591,1.0054778138109206,-16.691806219809,-4.781257916066119,-1.1484341699222063
592,1.1578893072375764,-16.26399517421678,-4.343784038248358,-1.0419834604774398
593,1.3267015549126984,-15.82025210298696,-3.8790638943591786,-0.9053907743870159
594,1.527310982468695,-15.435743856942798,-3.395511870624165,-0.8102660466027222
595,1.707126550776952,-15.118325390142356,-2.900985191641983,-0.7650707553846126
596,1.801801450901945,-14.847064604498154,-2.3950200277552662,-0.7602460355667323
597,1.8747160688017719,-14.59883212254849,-1.8649749865357461,-0.7883213918406362
598,2.001441734174291,-14.34362008608153,-1.3180200355448022,-0.8347773286536687
599,2.0968016975739467,-14.063501563857812,-0.7506045205883267,-0.9039840607825598
600,2.0567489697425114,-13.755631119227191,-0.204438697679276,-1.0032915652649586
601,1.90446715791635,-13.418824919185619,0.2221502517102663,-1.1015620257158145
602,1.7055075274969747,-13.064478119226466,0.4751980103913751,-1.1668796347237793
603,1.535628798218682,-12.733369154891117,0.5653534117204734,-1.217227069051899
604,1.4573838670015538,-12.466357766594033,0.5475391469246891,-1.2826925622579515
605,1.4092611331047753,-12.272244802445611,0.4802219811127235,-1.3663644697752064
606,1.2981621086803399,-12.139758639689845,0.4131127817605686,-1.4637786273101185
607,1.1685097671214577,-12.042851449018674,0.35650197279168294,-1.5707784904609312
608,1.0870406446957106,-11.949842993440557,0.2965374209536972,-1.680047882374198
609,0.9952999457856847,-11.852548810582826,0.22086257312845217,-1.7990698236523093
610,0.8235567458851123,-11.750550703568974,0.121678094195447,-1.937962134533219
611,0.5946913456842484,-11.616379671810208,0.01270616137113156,-2.0689240609158044
612,0.35521006421678764,-11.4263743308874,-0.08571807561798961,-2.1686994274992015
613,0.1498402476792698,-11.201876632743652,-0.17699881667455564,-2.2885708293171416
614,0.01590586036394373,-10.971376894925713,-0.2721446014214832,-2.4820024612201337
615,-0.0960231358006176,-10.732656016256886,-0.3720093669436958,-2.7244836410259934
616,-0.24542091610040173,-10.473204191621171,-0.4765600421250937,-2.9586552870864864
617,-0.345928131730744,-10.17444717372681,-0.5864811053990376,-3.1164514689757303
618,-0.30147912887293493,-9.822262577572412,-0.7008563417866897,-3.14404141644874
619,-0.1906466877486006,-9.448499833212736,-0.8256274224854718,-3.06896313941919
620,-0.13045818104817847,-9.094423790699912,-0.9647409886145233,-2.955862825214442
621,-0.13917108241881,-8.739075168728991,-1.0980296575771642,-2.829755387264277
622,-0.20235467337795016,-8.368662610587364,-1.204052177758504,-2.7079071093703444
623,-0.29758534176375606,-7.977542826359517,-1.294903967725704,-2.635640666442822
624,-0.3871753718374785,-7.603719170853862,-1.379160572184025,-2.6408805629875056
625,-0.4705463998245018,-7.250526225174262,-1.4706996589375843,-2.705395247224666
626,-0.5546092401711904,-6.845676593351525,-1.5455778018107806,-2.7908838435523684
627,-0.5768760333411067,-6.381577212104002,-1.5867901262593578,-2.828998733833353
628,-0.4825461683334493,-5.867334897395974,-1.5801167211024145,-2.7696939936129574
629,-0.32554180951440304,-5.353613072500465,-1.553677509079546,-2.689002857490352
630,-0.18661642204792983,-4.900104060725879,-1.5315782923728907,-2.681790605533661
631,-0.09916330634840387,-4.504439599518649,-1.5141891371101277,-2.707254783048522
632,-0.0737966965431524,-4.140018927975521,-1.4685909405930195,-2.6907658775645635
633,-0.07206697993940978,-3.796064940582789,-1.3651619290277206,-2.616518991866859
634,-0.05186956867897449,-3.4684428840073425,-1.2265179284723584,-2.4939935647582097
635,-0.08123196246047205,-3.182788837660606,-1.0914055979522657,-2.3836507808058913
636,-0.2402489502549281,-2.9675601873146022,-1.0078014633122654,-2.3521184117303484
637,-0.48608816651199777,-2.7897217852708307,-0.9805943168067975,-2.3613551642144377
638,-0.7442983669892116,-2.605732230670151,-0.9910779519832512,-2.3452517549573964
639,-0.9806986062337711,-2.434527171602772,-1.0305199182399374,-2.3225899315085203
640,-12.447117976999513,-9.48961733333138,-20.95392339011822,-12.131570920831637
641,-12.732352261009563,-9.869297651883388,-21.475915770162715,-12.490183006526326
642,-13.079786831342911,-10.24918193877472,-21.92339942290058,-12.888647647200624
643,-13.434494276660589,-10.575649008664618,-22.30170060266195,-13.311458313249963
644,-13.732729855179054,-10.855150029780056,-22.62852579325393,-13.735779895427713
645,-14.017539625248526,-11.092985575213063,-22.897892386065873,-14.19027503275526
646,-14.341064951911532,-11.313246379440795,-23.042879066498948,-14.69604482048573
647,-14.687087032094052,-11.522529925344243,-23.005740955666727,-15.175511002618299
648,-15.024299171742731,-11.722578870721211,-22.74544691619496,-15.550879840009712
649,-15.31045121743418,-11.938053379003154,-22.29685201126533,-15.84879147826651
650,-15.517614486118646,-12.18810651702627,-21.72301934771517,-16.118965821699955
651,-15.710440937808704,-12.46020629572672,-21.05112417690573,-16.37096583140603
652,-15.959431923142848,-12.73715369108585,-20.316143480254855,-16.610459428741542
653,-16.22202866199859,-13.00695453971849,-19.53848586672116,-16.836641869744533
654,-16.442867956540816,-13.265165825945187,-18.77521092554466,-17.047551389274577
655,-16.645899752616675,-13.547830537690036,-18.084531080950587,-17.28541727801629
656,-16.861347679394,-13.876780886893686,-17.511095087476,-17.579957855416403
657,-17.10402599324719,-14.181551067263252,-17.03491654413528,-17.871961822199502
658,-17.36855337184242,-14.382385041533023,-16.616070929008497,-18.090731930564814
659,-17.54882321164244,-14.471327585206264,-16.245087122721586,-18.223312892147206
660,-17.5520091869344,-14.47177987583925,-15.919020561537073,-18.278037248640032
661,-17.484870082538922,-14.420490214061518,-15.62885250360274,-18.283389753738614
662,-17.46769976760069,-14.361173560603328,-15.3684904951214,-18.266173017535518
663,-17.413404629004404,-14.312399180591948,-15.127249710697528,-18.186429363786182
664,-17.222079556862457,-14.275561826562612,-14.895857486732986,-18.004827327044744
665,-16.94597933248491,-14.258195495044955,-14.682143776384311,-17.771966498034846
666,-16.663360390913645,-14.258222384913285,-14.49617113256517,-17.550279729974136
667,-16.44000335318675,-14.241484522466196,-14.330610105875413,-17.34378941584577
668,-16.312882364489333,-14.195266693298333,-14.179706976171861,-17.142545996809098
669,-16.165416558819054,-14.104135204320608,-14.056391576765112,-16.939111003131433
670,-15.884534227464524,-14.001331551390566,-13.975641397652058,-16.72620337044204
671,-15.592230455974132,-13.951168916766532,-13.944217525887128,-16.52540468122516
672,-15.431668423231123,-13.952577557431345,-13.958078260272341,-16.35790237549246
673,-15.353444322308555,-13.932019700577214,-13.996700936887509,-16.19618048955044
674,-15.266325512978861,-13.865231487747554,-14.029148228696787,-16.00625194464068
675,-15.123816401429268,-13.82542505849773,-14.022383824375073,-15.796679393276802
676,-14.897474923984834,-13.896347301759553,-13.954313731684653,-15.579317314984532
677,-14.632212154994745,-14.051048183132094,-13.82110583957116,-15.334407885598624
678,-14.389920723015353,-14.22665403674145,-13.642636382624774,-15.048409267349133
679,-14.136518997768475,-14.376186083817673,-13.473327457847576,-14.729488508611084
680,-13.831166140399391,-14.461682375011824,-13.365916105965018,-14.397239219841376
681,-13.529996506792122,-14.482346394435606,-13.335174369303394,-14.113782122188427
682,-13.291458707288337,-14.461541066659139,-13.368836188567254,-13.920904125746144
683,-13.096845461195088,-14.409433115913838,-13.427246303735902,-13.730370110020095
684,-12.91261394255025,-14.337895322872907,-13.467630399967723,-13.44830048146709
685,-12.722567490420385,-14.282959222755652,-13.48506098790717,-13.123823471198008
686,-12.51468065906441,-14.264321757422547,-13.48711552287248,-12.826183114211046
687,-12.30515099216705,-14.246468132035831,-13.465101160441257,-12.541936796592928
688,-12.109298321934947,-14.18063658982538,-13.410080689593253,-12.238718002162752
689,-11.882342475543345,-14.036977246807792,-13.318651432397871,-11.875615342772127
690,-11.579535377358612,-13.80194712167109,-13.188121207673161,-11.418693075571282
691,-11.227891949332788,-13.497250718546113,-13.023021143280182,-10.912331368966123
692,-10.864336118910467,-13.152820472702901,-12.829696855442805,-10.409035370528768
693,-10.483561507549132,-12.76076512719863,-12.600865448928342,-9.865764167107061
694,-10.07482704653755,-12.311591004665257,-12.33248589382714,-9.235914000600669
695,-9.62653130996245,-11.828158519728927,-12.047199694723396,-8.561442954378409
696,-9.132501083805167,-11.341117131041422,-11.764643063174008,-7.894300049362448
697,-8.644408589632338,-10.8791209579586,-11.474901297434078,-7.2459417570266895
698,-8.201379848754108,-10.459652306056148,-11.156886867229435,-6.612580156725051
699,-7.723110387802078,-10.068835878769876,-10.782664037269585,-5.957260623313383
700,-7.112462021784468,-9.717732980634215,-10.371828982469442,-5.282025549993153
701,-6.505092390216968,-9.465545317481942,-10.033599962193662,-4.670210615869876
702,-6.025005966896221,-9.306586387787071,-9.83685697902077,-4.215834607718249
703,-5.690909042614923,-9.137995231187972,-9.735245498232866,-3.823522652906255
704,-5.457550844373319,-8.913685902775175,-9.628565482876407,-3.357751316900622
705,-5.203314845642188,-8.686790505289789,-9.495270572972606,-2.8242295186785284
706,-4.822357093125284,-8.524971663606568,-9.34247509806044,-2.2692116461956675
707,-4.399601101026042,-8.42946525396113,-9.167217809414254,-1.719487960253231
708,-4.039104081087077,-8.482365725895427,-8.892174314955765,-1.1939979558448186
709,-3.6916112093066324,-8.516550909191064,-8.611325052413427,-0.6542655615139716
710,-3.2675557172584893,-8.534143458572315,-8.324586493974127,-0.05203502993111822
711,-2.829956056439269,-8.542188728865135,-8.056413888105846,0.5361358736945151
712,-2.4752004259177145,-8.552560599492194,-7.832119876238961,1.0103159913970876
713,-2.2361422293469118,-8.560844460036371,-7.648841274119399,1.3699759712963373
714,-2.1137847642407888,-8.561647401576783,-7.494130935316331,1.6492684742231907
715,-2.04718966107756,-8.580391833725393,-7.3624397742014365,1.870296880992443
716,-1.9597645113409465,-8.643171436719141,-7.25071081290346,2.0596244838444666
717,-1.8660755997942722,-8.737074684031558,-7.161746455612002,2.224024709543898
718,-1.809296022093364,-8.83741445484231,-7.100840966532974,2.3604230223978155
719,-1.7780833278826145,-8.93647178618964,-7.0677151955658895,2.5017165358133537
720,-1.7554533132900265,-9.0273306130818,-7.056921487090665,2.678235152394081
721,-1.7431078090424708,-9.09779530967166,-7.057782398339607,2.854384087702752
722,-1.7455669493960224,-9.135903267353394,-7.05946120373254,2.9850837887426485
723,-1.8057898133398538,-9.119262391326805,-7.055447937097324,3.09061858187382
724,-1.956744794345632,-9.033214332627036,-7.0481451811787315,3.2015007420617176
725,-2.110365764729567,-8.898040049602132,-7.055543038661982,3.302871439180172
726,-2.1662088109758724,-8.742166666580086,-7.097171827162922,3.3742092133673847
727,-2.17029995434443,-8.585918075184184,-7.184758134536135,3.4013230778305936
728,-2.1978530538200016,-8.431641934497954,-7.3154205114695054,3.3841247553599128
729,-2.2324827886734555,-8.22034405921082,-7.447110217786766,3.3922420840869365
730,-2.2323192161441576,-7.89021058067723,-7.535591034642917,3.497412694036148
731,-2.142592502934363,-7.473974550528085,-7.5931411447646635,3.658653085937587
732,-1.9178565504828902,-7.0237613840571775,-7.65020827184281,3.8076875561068975
733,-1.6318196073240334,-6.582965079386468,-7.711578169271903,3.953093346646527
734,-1.3797697315175794,-6.159033881505066,-7.776183457685223,4.119473392213205
735,-1.093569180167787,-5.753299294912121,-7.841095037925334,4.310515865942377
736,-0.6876946307302356,-5.402453840447979,-7.903401966086685,4.523318288815691
737,-0.2606680881883507,-5.117533887505485,-7.98145621912644,4.712218401050736
738,0.0669261799804131,-4.900086239384509,-8.096005652179494,4.831423694542872
739,0.317898698267571,-4.7056189026294515,-8.24278244543227,4.9284588676161
740,0.5522059237426855,-4.482848006106487,-8.405776790675437,5.0659203359660445
741,0.8160884225663912,-4.23891593732367,-8.570220035851028,5.210800022391444
742,1.1377684987086887,-4.0004436600950175,-8.721813425380368,5.308874189103159
743,1.4262057982501162,-3.769409511881534,-8.848247458873564,5.363937016193173
744,1.5746470570008781,-3.5429616713403496,-8.949012066048478,5.387946998323979
745,1.6553910635970617,-3.318254436041669,-9.042933118050788,5.372724684323496
746,1.7770227729632104,-3.091059149005722,-9.153745197946785,5.310671706492028
747,1.898390393866605,-2.871285341550059,-9.29853897650552,5.178714143885671
748,1.9513900711182426,-2.6741093149461586,-9.473373622749287,4.965189923649455
749,1.9521666798363473,-2.4994425477231452,-9.635606516762147,4.732543616375266
750,1.9303359873840935,-2.3454901622424504,-9.719698310404283,4.553251073824724
751,1.906644348815275,-2.231257812612074,-9.653752384221884,4.4287229629234695
752,1.8991597374898497,-2.1719503117142067,-9.380782788991192,4.333335512400269
753,1.8637937584186097,-2.149288349444533,-8.8904256046372,4.23669753602756
754,1.755281024931651,-2.137321967434344,-8.209047920965654,4.111439940143281
755,1.6510997135732803,-2.120251645615444,-7.3758902721590385,4.00045284322362
756,1.641192900848995,-2.0891493815634936,-6.44309924343869,3.9506872226993757
757,1.68281412563278,-2.0715533884504786,-5.4803431053944776,3.884039074749969
758,1.7014957940944004,-2.0911923075411654,-4.5424143454778,3.7097022420906036
759,1.678791914577519,-2.0812758346177,-3.625774885047714,3.470620119567815
760,1.618322460875641,-1.9836497590770779,-2.700998628704883,3.245000891141558
761,1.5691553673295071,-1.796802429981105,-1.7655515656673095,3.05452694080886
762,1.5862049990372493,-1.5922188371065125,-0.8077584573081297,2.9068779443417814
763,1.6225494647834398,-1.4256990221773602,0.17400066385177754,2.7944361299998737
764,1.6128389515475248,-1.297248421550019,1.1953093185325736,2.699612400236352
765,1.5965865695120507,-1.2075418735590557,2.2488030026982915,2.6572744839396627
766,1.6303830813387035,-1.1363991723320919,3.25963024768021,2.699580896418252
767,1.7059775705785527,-1.0787706130537273,4.150510972682442,2.75603454824101
768,-15.212997737818537,-13.832353364904073,-17.056613977114157,-13.104575565268297
769,-16.1336093866538,-13.909761280482007,-17.68603782693097,-14.155568588220941
770,-16.805572154077332,-14.290204313181041,-18.402068416672165,-14.861945961204757
771,-17.464685983634936,-14.545104394040537,-19.092713086984485,-15.30372763875992
772,-18.308167886629644,-14.693351928559816,-19.63485817652145,-15.884681923224365
773,-19.145868549700992,-15.303169733779205,-19.887671830418824,-16.696214804942084
774,-19.654442526083084,-16.65958617514098,-19.694131459405682,-17.2306615976903
775,-19.4397352537146,-18.527370699293815,-19.05970168112841,-16.89792192423739
776,-18.332253336835237,-20.553889133054778,-18.16939393776842,-15.6834727141738
777,-16.84527293913544,-22.48002563651379,-17.218934809245347,-14.124466026302164
778,-15.6519854031629,-24.17345883257452,-16.279952535738126,-12.868449412483379
779,-15.145319139058623,-25.814186166865614,-15.298977662552526,-12.306146307191849
780,-15.369702837268742,-27.838822714046053,-14.331062743160723,-12.326703148335913
781,-15.711077962791977,-30.595804436189972,-13.603062974984626,-12.388464320248726
782,-15.447091772096693,-34.505162340113586,-13.269207793161096,-11.92864852898962
783,-14.414534968431395,-39.87873669213055,-13.293306526593064,-10.815906475890776
784,-12.792648564660173,-46.33445787354152,-13.505871993136537,-9.321983175012955
785,-11.036270099136981,-53.21898125730759,-13.717109260739607,-7.851796292726698
786,-9.652270293656187,-60.27318343712557,-13.806464601160563,-6.691210584005892
787,-8.735099462033627,-67.41152653825486,-13.837996119529254,-5.9488128296258935
788,-8.190564505734224,-74.3469543712515,-13.987580718318481,-5.66151318635584
789,-8.03926491721657,-80.68743892638044,-14.375279401528209,-5.792514091847397
790,-8.245486854435562,-86.13524373260172,-15.00588456804337,-6.2050100967136075
791,-8.615158117527185,-90.53704160252711,-15.839237098667207,-6.738875760224758
792,-8.975403143920799,-93.86375571465109,-16.866789392085437,-7.31312816300291
793,-9.289383326521166,-96.13956923826727,-18.098398186243276,-7.931478291169735
794,-9.565979027893924,-97.42839815929541,-19.547715348010765,-8.589518212987818
795,-9.825240041118098,-97.78798470833765,-21.1527249394336,-9.220214987658785
796,-10.078936048100783,-97.2638498461861,-22.836546300026296,-9.732945794104328
797,-10.224565064126416,-95.89759888649874,-24.530221653742764,-10.080593621750037
798,-10.1657672550641,-93.7223460248241,-26.190691358460043,-10.26744942336519
799,-10.008868246374856,-90.76821854390802,-27.77310672849176,-10.303241429199959
800,-9.869009347599844,-87.0636273913089,-29.22343353788218,-10.167970559944429
801,-9.650936037452185,-82.6377409103,-30.51621603439776,-9.836345710285274
802,-9.239726529935584,-77.51928196919873,-31.632597824681216,-9.32575122728836
803,-8.658024820716577,-71.73733063960785,-32.56323187301648,-8.684658575600325
804,-7.955973067963065,-65.32181749320935,-33.30206890383366,-7.933257459714832
805,-7.181104623573371,-58.29927876826645,-33.826800286228796,-7.036894603103569
806,-6.368760632624642,-50.685685486089746,-34.13179373235905,-5.964107363310972
807,-5.439267117315661,-42.40109658932397,-34.21570829153996,-4.70711640236948
808,-4.316879777137685,-33.18301621710114,-34.119096316393254,-3.3124729272617297
809,-3.112613452509731,-22.732989377737827,-33.88428120045229,-1.8604397989832557
810,-1.94993839097799,-10.887924593663197,-33.537413840769474,-0.3965159177011126
811,-0.7835831642726934,2.4248479294936818,-33.02731680514217,1.112266307878988
812,0.45971693373847256,17.198231940791935,-32.29919367819575,2.714349380428009
813,1.7871108462175367,33.244330132953955,-31.382099925182597,4.414511303518501
814,3.1848859054852054,50.32995875472477,-30.339486921464022,6.182884084318553
815,4.591623798507843,68.26438209696538,-29.225390084166577,7.99190669904155
816,5.942439761583391,86.87337083021657,-28.10142547419114,9.826649430405094
817,7.27439602462329,105.95897615870636,-27.043182313209037,11.674420698628536
818,8.630594074854356,125.28475013112859,-26.108720778752552,13.496277719539668
819,9.941397156732819,144.63022635388495,-25.300488466053896,15.258250165835017
820,11.13089353854867,163.805031865528,-24.614504027791508,16.933360570985734
821,12.203369183958973,182.68239338193317,-24.069090102240114,18.54009219451097
822,13.184746124865416,201.17052511609376,-23.685963643052993,20.097701341065758
823,14.115856228122896,219.16246155366233,-23.44209082817294,21.600548049110824
824,15.029704024273196,236.5018743520432,-23.262848361310024,23.0278244918189
825,15.86544950403017,253.07391810640925,-23.06350349289446,24.374585375287516
826,16.566652495805563,268.89574981720574,-22.764882557798586,25.67355163672078
827,17.221486676340824,283.99779014053934,-22.342766993648468,26.973271242681562
828,17.93798282030549,298.2239045972727,-21.848717036494367,28.252058205142223
829,18.556959806406375,311.29118515471407,-21.391091364030146,29.395190219701195
830,18.944038242601195,323.0563552621097,-21.031550635099837,30.334654414821244
831,19.1233846021696,333.5618105159081,-20.74836190494705,31.100617953458688
832,19.19501687005025,342.8636350175858,-20.456387530471016,31.792525621310713
833,19.29962492831141,350.9470282520788,-20.086699178520902,32.44871767799901
834,19.53448331973126,357.7860697700422,-19.61528358709192,33.03387732284789
835,19.776627964451503,363.3925642251124,-19.059491867836982,33.50204731466397
836,19.057057136927735,358.86066802428314,-18.333497530405445,33.0768471371266
837,18.294613362404597,354.32789734094706,-17.60755192232627,32.630444990154196
838,17.587215220071542,349.8053771241545,-16.874006756564214,32.14258368922384
839,16.905995791659414,345.22272069877704,-16.13167418769794,31.604093834405507
840,16.20230953574743,340.5114753433541,-15.382453772665265,31.014083572694016
841,15.494563347093385,335.6442591830683,-14.626716114171789,30.417361337316585
842,14.81017820352795,330.6192051433755,-13.86966594497356,29.85213653831209
843,14.177779344535391,325.4211401808513,-13.139475450863506,29.328466001655137
844,13.615370048629355,320.04120117511184,-12.448435680843518,28.815221598260838
845,13.062527610163944,314.4746106095799,-11.78667539185719,28.282925297661638
846,12.44795300297137,308.7231263961943,-11.107876798613812,27.7400083093488
847,11.79809563096362,302.8251234174646,-10.368219445486211,27.226749151229207
848,11.165139538558021,296.80814814616724,-9.565320031290682,26.734429738965083
849,10.547727802742351,290.67233422828144,-8.726615026826947,26.187317667113206
850,9.934580480529265,284.37593773196573,-7.895685673585646,25.530967800475683
851,9.316220503413238,277.8936778911015,-7.077888958422326,24.78260218200399
852,8.682383813422447,271.23588644944084,-6.276119843758084,23.980794327424015
853,8.074706680773165,264.41447917014995,-5.482252710503144,23.162764282636953
854,7.526357572452051,257.4287442895603,-4.713627296218625,22.33031932986858
855,6.9494472949114705,250.2832860954396,-4.009826876430352,21.464373906239473
856,6.2404542026062515,242.99871364379266,-3.372673555586143,20.56912337226594
857,5.408263486345324,235.5969068973399,-2.776645191677606,19.668900949692116
858,4.501325505475386,228.06648841478437,-2.1829721567160933,18.77975881656802
859,3.5638525267694114,220.38275869764107,-1.5872589058161954,17.869629238181414
860,2.634405179975821,212.51970501339522,-0.9976583018415078,16.884823953661954
861,1.669869046450437,204.49171445009048,-0.4099698973689522,15.823648956340499
862,0.6160413901140627,196.32797661157065,0.17888633572662105,14.746463784646897
863,-0.44271431062485955,188.04361655188137,0.7684483937303626,13.699905143316123
864,-1.4082173463324088,179.6390674447677,1.3565822042678015,12.677098251043285
865,-2.339511356946064,171.09406289472497,1.9288255273957582,11.640394946541997
866,-3.3238734112715917,162.37583575487253,2.470918154763532,10.57073846508016
867,-4.353982027026177,153.44541946002127,2.992128389439026,9.491125829100676
868,-5.397183332019744,144.28787018461253,3.509567265554441,8.429871479255674
869,-6.399285661092299,134.9473856514277,4.0210519937760925,7.389237281820173
870,-7.316764573113283,125.49769123876915,4.53133170291515,6.334703903823818
871,-8.249359796046575,116.02235290020676,5.049673921810516,5.220792862898839
872,-9.309170053901987,106.56949780578485,5.600392335189426,4.034078091487674
873,-10.401238906824107,97.12454914187931,6.187784847851206,2.79389336957921
874,-11.386158214405283,87.61069039840984,6.787052691915637,1.514597196505764
875,-12.284699188356418,77.9568316376641,7.381408311587265,0.19270334073623663
876,-13.148602453545383,68.13458443075102,7.9939616601445405,-1.1456556072270172
877,-13.949292899287265,58.14678401288743,8.671783109628418,-2.427349724529863
878,-14.660641188537177,47.997467206106165,9.410007039586691,-3.605209859399189
879,-15.269894159342318,37.674687254144985,10.142414740361888,-4.691088819468527
880,-15.78784360806179,27.18370416388507,10.808466302180385,-5.727974407796424
881,-16.349976651528753,16.549745463446726,11.406811213579322,-6.745456194922873
882,-17.071763161716127,5.795385401626518,11.99911016201567,-7.7530957315682585
883,-17.848813951424155,-5.098650503063645,12.675015883971984,-8.73794960828655
884,-18.492362741831204,-16.299087996033073,13.444081581924417,-9.644195013017521
885,-18.845554465604426,-28.074448591679655,14.21355641879569,-10.359628178567705
886,-18.81737103562535,-40.51737159059637,14.90048094358244,-10.778708711392207
887,-18.47300453703879,-53.44981863400284,15.54868566513794,-10.860335654616785
888,-17.952783457708392,-66.52699270831937,16.30592919721589,-10.659470460286975
889,-17.423039617662013,-79.4501454392209,17.252421345619783,-10.358628463027138
890,-16.976322400860774,-92.30571812625739,18.356861124138373,-10.223281970712083
891,-16.38509110366825,-105.51261719281239,19.520267664869056,-10.209946437483252
892,-15.423676299553497,-119.07686892179775,20.61314952312837,-9.91272457207906
893,-14.250936487373597,-132.40608512916378,21.464724741563174,-9.195069761619662
894,-13.201133147605173,-145.11462651037186,21.859495499292183,-8.552041911073871
895,-12.742928353788514,-157.32400345242152,21.726247298825857,-8.655754360225844
896,-23.334524048734057,-174.73559222211347,-19.286373113734626,-27.828875635310983
897,-23.758279069027445,-177.16589934578917,-19.818952685963676,-28.617776086689826
898,-24.20219946418416,-179.43791648777562,-20.332977289366045,-29.363041717232058
899,-24.638962878575782,-181.53047906967916,-20.83168872439066,-30.043001092156043
900,-25.022090519890362,-183.41973681455198,-21.31861869192989,-30.650997822450243
901,-25.403836979606833,-185.09396581898224,-21.77920392711551,-31.200394879096667
902,-25.826711117377304,-186.5015921315023,-22.197235607247794,-31.70769222774043
903,-26.209102541367713,-187.5508192547266,-22.560522758929753,-32.14245296376746
904,-26.46872174710449,-188.24559983615558,-22.862229930535257,-32.472447238841006
905,-26.62073967671148,-188.7159712952531,-23.120355490589613,-32.72424149627868
906,-26.710290150934938,-189.07081081475403,-23.351206789255674,-32.93072555936587
907,-26.802272247675155,-189.30368576892687,-23.525514099700075,-33.08408191696568
908,-26.94398371072562,-189.33959544292688,-23.617763993901303,-33.175089863114806
909,-27.062830285403336,-189.11376807824396,-23.65788043664705,-33.2070134953592
910,-27.083745018027514,-188.59542917775514,-23.688451264433727,-33.194178382967415
911,-27.069431705073775,-187.76958692764487,-23.737042201997372,-33.19654981612917
912,-27.11410200179549,-186.61766174117878,-23.816906847884255,-33.263733304137055
913,-27.269179785042652,-185.113152269261,-23.906606134086946,-33.347952630935474
914,-27.550679031561728,-183.2507936734238,-23.974877323436832,-33.38685787097633
915,-27.897328716123678,-181.0710710870284,-24.018504304697487,-33.39728468440411
916,-28.22082813920334,-178.64184125981592,-24.043529716470733,-33.40260427270103
917,-28.483755757333462,-176.00036429567285,-24.04820881358239,-33.38172188756897
918,-28.67314146323816,-173.14383683988532,-24.034208781484615,-33.308272476751846
919,-28.777437312637954,-170.06844440224978,-24.008252825399126,-33.14571337526838
920,-28.799154808331487,-166.8105796253799,-23.97570567540264,-32.87889518792485
921,-28.75424745907287,-163.43211858697055,-23.941337483525096,-32.582054004961606
922,-28.648306973744457,-159.9510853388933,-23.903709340668982,-32.33626346133626
923,-28.465978953774474,-156.330747121071,-23.84701956107926,-32.13674039303682
924,-28.18344664555111,-152.52505242635476,-23.751213509159292,-31.943881954816607
925,-27.752513246931404,-148.50225808798785,-23.602662128761,-31.72061525333599
926,-27.15043622721434,-144.23737794489318,-23.393128163278476,-31.42514898617257
927,-26.47261300940657,-139.70463100120213,-23.122470223853163,-31.027759665682623
928,-25.819122009410382,-134.889966209441,-22.799105037637695,-30.520738558757962
929,-25.148861721122834,-129.7804178003257,-22.429190706694357,-29.90704720233934
930,-24.400927640059077,-124.3909846601943,-22.02492538127111,-29.206647565116477
931,-23.610273109493164,-118.7634632000806,-21.63018939555851,-28.47891422272233
932,-22.818195928890432,-112.95922480551421,-21.279209111661764,-27.766000738367474
933,-22.033307081253888,-106.99997050213355,-20.935964487260627,-27.030867559992263
934,-21.249406782317322,-100.85162685845216,-20.56958755481434,-26.216969499003646
935,-20.39149721420514,-94.46724394985239,-20.167678293865542,-25.284294000543646
936,-19.4042240137928,-87.84748198840698,-19.761204022490258,-24.22175788824993
937,-18.396225884478394,-81.04025710396147,-19.36805301317732,-23.11091606022166
938,-17.489272897161126,-74.05572803811208,-18.95145143693735,-22.03408500197958
939,-16.654821368233556,-66.85181437435742,-18.483524097704834,-20.93814386868864
940,-15.823995796924628,-59.42454425843354,-17.937853617035223,-19.748920196106916
941,-14.968218689326125,-51.82511111231229,-17.33066917221021,-18.49306118209322
942,-14.063346941792751,-44.08058534412305,-16.69416346286502,-17.21013853466404
943,-13.096026592866394,-36.167654028873294,-16.04170788707696,-15.892082221810396
944,-12.070640001890526,-28.03185777475136,-15.381484291347395,-14.530828075365461
945,-10.987975289536415,-19.62075846744296,-14.718470675927547,-13.120997863784144
946,-9.84669047771557,-10.932965557568508,-14.055024588975202,-11.662859520267288
947,-8.661667867845768,-2.014841782878726,-13.407001609616033,-10.210717231980015
948,-7.432323154620503,7.08329341492678,-12.78561515064329,-8.803952210814247
949,-6.098955233542636,16.34310985763865,-12.173384273496758,-7.371999304611343
950,-4.607976330449982,25.75488366703682,-11.545877951528173,-5.831546385086711
951,-2.9729192558930233,35.31593265857808,-10.890847446096421,-4.177285075485557
952,-1.2391031667270698,45.01807042175685,-10.200275500465853,-2.435508613797335
953,0.5244419978408046,54.87391383909564,-9.469794239160622,-0.6540061915779822
954,2.2580904096692764,64.92610712338492,-8.696979566748894,1.1153276660729445
955,3.9795733947703655,75.2078191340406,-7.874354519037573,2.8827942265682394
956,5.634309723240742,85.07423661587907,-7.036410659881751,4.547603323251218
957,7.059579340406403,93.15176779174816,-6.2760496402806165,5.945598023681964
958,8.07056078578198,98.812443163545,-5.639653530872166,6.8797127448955075
959,8.717639208263378,102.60037176563858,-5.125460140949151,7.51052714479233
960,9.16094130891796,105.41756502046941,-4.690929672180451,8.100545447216357
961,9.521080066490944,107.89263434695226,-4.359614118503751,8.648776003122226
962,9.885409970504455,110.2169988620544,-4.134937261705695,9.096571602412721
963,10.235112183615335,112.40424178568405,-3.984180150866813,9.525609880774502
964,10.865770531587003,115.68250381560685,-3.788353905559204,10.030349105227506
965,11.439480801799933,118.72656365121397,-3.583234098874221,10.540660874475352
966,12.030807243904698,121.50249221950737,-3.389126669535806,11.00434139676856
967,12.613045443236366,123.97452249301553,-3.208300649450934,11.356158618433831
968,13.14572675458327,126.16048968080833,-3.0377805646596254,11.556267439417264
969,13.64684997338704,128.10509145451178,-2.8638009454566777,11.702599925403604
970,14.138931852147232,129.81369361368783,-2.6741578522086944,11.909592928104344
971,14.63287854813215,131.26840427997297,-2.4976981272380847,12.122059327575853
972,15.134072552218006,132.45432516557233,-2.3674636509229257,12.246292329842811
973,15.591300979453694,133.37438693783233,-2.26390467582509,12.279783735465234
974,15.960326976876416,134.07354106767983,-2.157049385684401,12.255724521377926
975,16.331431727131474,134.6176518641217,-2.0504856038118624,12.257738356023987
976,16.807688622314803,135.0205699899842,-1.9576569834242334,12.365371471641502
977,17.34546108697971,135.25306731936595,-1.8948324600894613,12.515827310483123
978,17.859155635249707,135.32231218202733,-1.8743760820173263,12.607774891511543
979,18.30990756440411,135.29294857319968,-1.8755316203375356,12.645227998349515
980,18.682313797935727,135.19877492526572,-1.8688550333327811,12.6635184495299
981,19.020801443703157,134.99939088878813,-1.8530031287467856,12.675258318472792
982,19.386208552091983,134.63341246971135,-1.8360506713641447,12.694080599678719
983,19.75389616531824,134.07266603608696,-1.8205948651213162,12.702727417491811
984,20.07465887532379,133.3362384881172,-1.8074625498046506,12.675348341225767
985,20.360599961339215,132.4595505727628,-1.7880398189136484,12.663690972933363
986,20.630353362687455,131.49582778145898,-1.7500626404737756,12.716193087782788
987,20.859220320520862,130.4988006931723,-1.6912976379931224,12.73836183793326
988,21.023250603327092,129.46345260548748,-1.6144635105329581,12.624086655488778
989,21.117594650479,128.33945881549954,-1.5210215572087606,12.421763059063812
990,21.14644658403203,127.12173271977841,-1.4163412057215472,12.218161075675516
991,21.164823636628597,125.8666506663623,-1.3114671856560796,12.03619271727435
992,21.21568675134759,124.5869834209969,-1.2197060949434217,11.872915083837173
993,21.19599805731654,123.2270442099278,-1.1584357898820967,11.676465782028325
994,20.9909693100107,121.75381867755563,-1.1423830746751147,11.385065028390763
995,20.661220838596563,120.18673490887824,-1.1649926644164486,11.037877567098915
996,20.313055097121495,118.54260822121003,-1.21236101588438,10.697815027027094
997,19.975804407249115,116.79384751617357,-1.3000718819065382,10.326925424444292
998,19.65165924361097,114.88652130953277,-1.437141056180643,9.877742750978708
999,19.29503271140032,112.82765931452204,-1.5635210668878206,9.400283493139161
1000,18.855476430522092,110.71347620431531,-1.6160511076647064,8.957680068597343
1001,18.408162980583324,108.62254956653133,-1.6117184634429982,8.551409407843948
1002,18.04760375688592,106.55385508395811,-1.5925419810882502,8.166977680759645
1003,17.728547804375467,104.46523877611432,-1.5767451024883665,7.784339787196419
1004,17.37603515920634,102.31451670659854,-1.5730989610233612,7.386507117232968
1005,16.993011089521925,100.07991914743864,-1.5651139648116896,7.022086494822506
1006,16.601340187265524,97.76656751338196,-1.5299532545465322,6.741499149980906
1007,16.236342933668222,95.40757224228327,-1.4873763795324837,6.4855270535780605
1008,15.931649421724483,93.03860078105288,-1.4670646084536447,6.174013930861235
1009,15.618756985791027,90.70056039985673,-1.4642299019216414,5.814312938876843
1010,15.223345064130923,88.42812242309887,-1.465240945497807,5.438166124797722
1011,14.845798682474001,86.19679026210548,-1.4693596321732372,5.054954909876666
1012,14.601553796694454,83.93279268375059,-1.474696619069053,4.674768770092155
1013,14.416008831179472,81.58367696063515,-1.4747174186199625,4.288383866401883
1014,14.169385490954252,79.1527683354846,-1.4624089101187225,3.888170402562742
1015,13.825801915896784,76.67789242138092,-1.4236735269611924,3.5337434178499003
1016,13.384756343794761,74.20555680479015,-1.3464771081184796,3.285871542475343
1017,12.899724646334123,71.77171901348478,-1.2402586350556948,3.1133464829898196
1018,12.443593307517798,69.4035198613094,-1.1195720785390715,2.9579224879592574
1019,11.99495868110611,67.09508059187112,-0.9792800832121829,2.7974238357969945
1020,11.507349954086848,64.83494356825392,-0.8132126444025624,2.622129206052762
1021,11.033521929690393,62.621435492349576,-0.6340388311856939,2.442603011742936
1022,10.624752665144646,60.40806315020804,-0.45860062065594503,2.274852961943935
1023,10.205540603838335,58.09574177113044,-0.3022620510827319,2.086650341161644
1024,-5.171090912744414,-24.511552181060548,-20.129684365413684,-23.609103052986267
1025,-5.369071659184732,-25.31437800294086,-20.639229465628944,-24.077489825729717
1026,-5.616024495099015,-25.969069103302456,-21.106512309801357,-24.51463262457308
1027,-5.880413416553153,-26.489417300641655,-21.533735104952136,-24.926943727936113
1028,-6.118199155649981,-26.93501559800167,-21.9467398804106,-25.312471836599684
1029,-6.388123032781287,-27.365522230139554,-22.3556013178704,-25.662565981053575
1030,-6.742735265528142,-27.834473147384887,-22.74656106712624,-25.96544449933511
1031,-7.112254761585359,-28.346806849281755,-23.117654976152643,-26.17933340626305
1032,-7.422935143881856,-28.87681472166371,-23.493933816978636,-26.287553982122393
1033,-7.690283203832228,-29.411362157322593,-23.901351993772415,-26.388546994458444
1034,-7.953959500281218,-29.93046811820311,-24.341104049044066,-26.581740953428017
1035,-8.267950295437299,-30.379281234609117,-24.792625970515584,-26.835077466320865
1036,-8.664018542218326,-30.72072453139924,-25.239324264158537,-27.08044749259215
1037,-9.05784582132426,-30.987500037269065,-25.66331274313866,-27.296410122412766
1038,-9.354537847714013,-31.22522788006127,-26.04936466110394,-27.459490226035122
1039,-9.57626407924121,-31.450609219423164,-26.371137093353077,-27.54095209931126
1040,-9.778800458188837,-31.654741258784068,-26.6125404566777,-27.518014502184695
1041,-9.992258162675899,-31.7791284154795,-26.793070632282078,-27.332823693139993
1042,-10.242273426222745,-31.76273059678982,-26.940739644960264,-26.960366695509414
1043,-10.521401819272498,-31.60710838547736,-27.066945954799973,-26.503409474060753
1044,-10.816567967691718,-31.342041143121826,-27.175770856330818,-26.08289459193726
1045,-11.175138347960257,-30.998451891436247,-27.263107454744222,-25.737166283008115
1046,-11.63739634501273,-30.611572108254986,-27.321781661599776,-25.461461507697678
1047,-12.160065336640029,-30.198300815684497,-27.358272950527297,-25.20196832518735
1048,-12.681193932903005,-29.769735292857845,-27.378539583604105,-24.895370396662265
1049,-13.174343606321642,-29.36932747344805,-27.371208816709736,-24.567043402847784
1050,-13.625134111146108,-29.03247926857273,-27.32288604966005,-24.250021188562783
1051,-14.023579038740063,-28.72202946182234,-27.225557840836323,-23.873520901948467
1052,-14.372803507006191,-28.412161934400746,-27.076955325217703,-23.36718103845781
1053,-14.681559674823161,-28.098539797958342,-26.89399148113181,-22.758727783038516
1054,-14.947600750472594,-27.813035298066364,-26.68591018498637,-22.094381931361614
1055,-15.17176875109921,-27.544298141663617,-26.450987534833747,-21.389943995329148
1056,-15.333443757887208,-27.203623216603194,-26.168614836984375,-20.653792333977393
1057,-15.317814281106886,-26.709663111223076,-25.814534032085188,-19.86539896886701
1058,-15.049555701019713,-26.09279412563264,-25.399441505675355,-19.008173798760026
1059,-14.653632486908363,-25.466071579333413,-24.964350105180827,-18.138158742847867
1060,-14.294989162192673,-24.88819080731213,-24.53074817388337,-17.31244424973956
1061,-14.052027731473462,-24.36281806803276,-24.095088218904777,-16.507964797831953
1062,-13.940541848561882,-23.849270589594784,-23.639881566134868,-15.680925330502872
1063,-13.847549799079376,-23.32440643512394,-23.15836980470686,-14.813013991820013
1064,-13.648070486435996,-22.76610513647112,-22.648144650659304,-13.889509430241196
1065,-13.410081861533069,-22.142697790325332,-22.11043744748773,-12.904166085163109
1066,-13.22978593497481,-21.442128412514286,-21.55025185601264,-11.859139327174644
1067,-13.043479871999974,-20.689381642083514,-20.972211361577966,-10.737967445204498
1068,-12.778278792147605,-19.920406288663422,-20.37705926501375,-9.534796870651075
1069,-12.460700675133207,-19.169267641354,-19.760249994596872,-8.300389927920293
1070,-12.138063177972843,-18.451475833582943,-19.115213175254905,-7.087263631147432
1071,-11.867753677524513,-17.730215720851334,-18.431384574069547,-5.889135827027018
1072,-11.695917119893393,-16.958705770238414,-17.710135334322256,-4.68791769737687
1073,-11.567785807241474,-16.131602821952725,-16.95879567534058,-3.4887750464637235
1074,-11.416281231486114,-15.256149593256165,-16.198461599096944,-2.2980178236190056
1075,-11.300699568415562,-14.338111315315965,-15.449600392309613,-1.1304963017128207
1076,-11.275584019524395,-13.38373474601884,-14.69611640662006,0.0104865195076764
1077,-11.252183421569246,-12.369708676308814,-13.907901474118628,1.1813500606157057
1078,-11.131241399235906,-11.280494130325692,-13.053840047748267,2.439425514256551
1079,-10.895613012191482,-10.16990848219101,-12.139433008675882,3.7725657593723554
1080,-10.567396898964383,-9.08963072726063,-11.184010906492443,5.150572946857283
1081,-10.230558518140501,-8.019609043762895,-10.195082428810078,6.567582940998469
1082,-9.96124741991817,-6.916629131405167,-9.176992365950529,8.020197010065605
1083,-9.705686521253309,-5.738510995142712,-8.134682040647188,9.509174381019761
1084,-9.380393502492336,-4.541147413277228,-7.115348360894292,10.941528203552132
1085,-8.97946180345314,-3.5247734688005483,-6.209897075893038,12.204161868247716
1086,-8.520573374248677,-2.792834291857966,-5.452210369059006,13.151629903113797
1087,-8.009284842011944,-2.2700885409134837,-4.801191595966875,13.885114627430914
1088,-7.462634627044296,-1.881429872318563,-4.209243257813635,14.574472330209709
1089,-6.909671349952017,-1.5536961235855786,-3.6553957848208825,15.181104752710942
1090,-6.370617967326604,-1.2571370613017203,-3.1380300582399157,15.634559148586566
1091,-5.844335275106638,-0.9972912788417758,-2.6363821632578097,15.993394278305837
1092,-5.3862407311456995,-0.6322592188818337,-2.0142272423844605,16.49901212046112
1093,-4.962831783868509,-0.32951627836711395,-1.4046198223144224,16.9809037769513
1094,-4.599383940634453,-0.06436331921689166,-0.8085226406680065,17.458939180596428
1095,-4.344881361803737,0.1865116879719109,-0.22003778160921839,17.904426105084756
1096,-4.227784655723017,0.44319664784701324,0.3684651482215099,18.28278548014
1097,-4.184361292000378,0.7267260516452636,0.9697601146017215,18.629864086845853
1098,-4.138618722514998,1.039487966301691,1.5864861377004107,18.983022740903255
1099,-4.079283734354981,1.3280863846081354,2.1783643209901835,19.29061257265451
1100,-4.03400507612032,1.535526517375789,2.6997508073712275,19.488866338593553
1101,-4.100904416223263,1.6766072070016,3.1513799327835352,19.57292088887852
1102,-4.355326951608709,1.7888799050465636,3.550685542210234,19.56622286882428
1103,-4.684720539565046,1.8804301941812644,3.9081140007332453,19.527715704214774
1104,-4.917085227919235,1.9507171470612694,4.233029493705808,19.51676104636175
1105,-4.970189182545946,1.9896863591606255,4.510914333374003,19.505142315756878
1106,-4.819595321357888,1.985409221514935,4.736671810757618,19.439237798788596
1107,-4.512276869082639,1.954681962758908,4.923076655318447,19.3395765729673
1108,-4.1356614379432575,1.9221783415265534,5.109123605655297,19.235478346415306
1109,-3.73161194829305,1.8939628979584375,5.301763016303153,19.094308727019953
1110,-3.3139133748599137,1.8677022599828976,5.456520819472275,18.878952560960283
1111,-2.896138046254789,1.8350979608259506,5.532369397993046,18.588595735073113
1112,-2.4778459933175503,1.789874950788911,5.540249301235041,18.24163103807878
1113,-2.046562075873316,1.7407172866305387,5.5316144880521465,17.882887350833325
1114,-1.5981618732391856,1.7085031699928805,5.543192596936175,17.562624464590805
1115,-1.143568661800394,1.7281053102180457,5.576504921237854,17.287740613418055
1116,-0.7087348523046036,1.825959774859601,5.629533590916105,17.04024653861844
1117,-0.3546950590256149,1.9936451551015861,5.712454815577059,16.82341314301449
1118,-0.13245997842110924,2.1983699120698503,5.808051724137804,16.623561054320152
1119,-0.005941642554090604,2.3833461529223903,5.86476607984944,16.35253678066492
1120,0.09055900849122252,2.4967896379536363,5.856921953109637,15.93092224413607
1121,0.1672673902445868,2.5425359721391736,5.804961541370175,15.3710561667947
1122,0.2268262046116791,2.545594972625953,5.754081583689088,14.736783919663747
1123,0.31922020543003315,2.5173985963985492,5.746086958519384,14.139294361226916
1124,0.487163619772674,2.4643303150311064,5.808425248076569,13.677065078802178
1125,0.720798535042172,2.3569870176454337,5.9229054170920765,13.312646145773366
1126,0.9923150833977136,2.192990181560416,6.058327739485903,12.960105532904064
1127,1.2633870906557279,2.0037712692117875,6.188004950074117,12.608377464119384
1128,1.5025767565799766,1.8774866794922702,6.309119656619495,12.266077259882977
1129,1.7557263548869362,1.862561116665239,6.436695014732956,11.929494203374405
1130,2.070826155973665,1.8936540231353338,6.570519303088457,11.599973329986788
1131,2.3669646398260955,1.9125634758149777,6.6868274378595345,11.247373567496382
1132,2.542938496077135,1.8528320538395924,6.7732933452605115,10.84172252111602
1133,2.609510207813318,1.7205968143667087,6.830595006986711,10.439278912315205
1134,2.608588718588126,1.5543027796959703,6.864326915596591,10.099012336155207
1135,2.5630466364886644,1.3393768901808702,6.86077323043573,9.75786585328805
1136,2.4928274914383572,1.05924953725311,6.805254960590629,9.3342598355204
1137,2.3481806547627477,0.7577532738408628,6.70001549080864,8.84086665162342
1138,2.086662489441291,0.4855827460667445,6.556804725884155,8.323238387528027
1139,1.8470478296247141,0.24839864852989973,6.3950591881130325,7.82830780140589
1140,1.7796890348114567,0.04475573196343083,6.236307936683315,7.396674392896577
1141,1.8147227472282257,-0.11123213528372372,6.09083920791706,7.008903591750491
1142,1.8215131445819968,-0.20626367025773815,5.959033620765664,6.622133362376118
1143,1.7627623220410484,-0.20459857051450905,5.8398103773960095,6.2333212632121855
1144,1.634644274401475,-0.09158484721278443,5.720931846862611,5.8526407019320335
1145,1.4753839928403032,0.036822566351668085,5.588138584874151,5.478510579397156
1146,1.3432744444322766,0.07060560116056513,5.4197549575418495,5.112340114326449
1147,1.2117801924990816,0.006519188857963765,5.214294059561206,4.762450056042879
1148,1.0357737943049188,-0.10799340809799907,4.996053216591603,4.429301775865884
1149,0.8741387944192666,-0.2161075133529584,4.776579707827875,4.105892225352765
1150,0.7893002078102626,-0.2575171685784925,4.543423193718369,3.780399613175502
1151,0.7207449455858788,-0.2148415473118563,4.294700345370542,3.406296098797743
1152,-10.189664789979616,-24.303539485745755,-14.19982503019944,-7.919027693787835
1153,-10.294211896983995,-24.90535610069381,-14.716574490673452,-8.10639696449882
1154,-10.46394314095298,-25.460666477135696,-15.423582888185425,-8.25841077504457
1155,-10.599936491084238,-25.966101079156186,-16.23775950960343,-8.371999984279686
1156,-10.609035110243568,-26.437245737715163,-17.070928265451744,-8.454912096968279
1157,-10.612491773373723,-26.88122725000297,-17.866912417710427,-8.504097032844879
1158,-10.740342051360935,-27.30325295602843,-18.599840612580596,-8.524876802462412
1159,-10.896775270751668,-27.68554403477992,-19.25782046819046,-8.51361174651232
1160,-10.966039783074617,-28.006805563279514,-19.84566904405052,-8.482600403882568
1161,-10.979235408837235,-28.27408295730058,-20.379862658464734,-8.521569708498047
1162,-11.001479225975803,-28.505281657929952,-20.854725029649813,-8.707274333821722
1163,-11.103794807841776,-28.710555269742695,-21.276888156364972,-8.995660367620346
1164,-11.33682111584314,-28.901151385704942,-21.609809319901206,-9.313377640142413
1165,-11.621532139250721,-29.096900936926197,-21.774803118868324,-9.633081064136576
1166,-11.858628311471833,-29.304050886492224,-21.76280600045421,-9.94204684125889
1167,-12.078523808892387,-29.498551433737674,-21.624686803965517,-10.261082591787265
1168,-12.332126915179392,-29.643973614317837,-21.43773406178358,-10.608979259230791
1169,-12.594313221631362,-29.703364727024695,-21.237669263490293,-10.915528287207925
1170,-12.832874797221523,-29.657325098241216,-21.040540367225972,-11.113051652823946
1171,-13.0350620478035,-29.520918850555724,-20.854508547802222,-11.245709807917926
1172,-13.194657528811728,-29.335549247680234,-20.67738780855631,-11.37670658368885
1173,-13.34306695003245,-29.168066348319865,-20.51036599058567,-11.515704756518936
1174,-13.51305637532103,-29.070634928874444,-20.354972997827325,-11.652548321606094
1175,-13.668811881741565,-29.033017909263553,-20.207121568719923,-11.749203175085022
1176,-13.773657123292033,-29.00891482194994,-20.058606765609298,-11.76516276845475
1177,-13.873231296459592,-28.943547341145898,-19.89547255804467,-11.726169320221972
1178,-14.01687254335792,-28.78268908866733,-19.703156247182203,-11.671307745136076
1179,-14.184630317186043,-28.48776811347025,-19.47118628757558,-11.56641334254835
1180,-14.341204027806052,-28.047453291304578,-19.195813938574556,-11.387194100098757
1181,-14.471329465356382,-27.491341237748664,-18.886160614283337,-11.219134335251228
1182,-14.563080973101282,-26.860945104115686,-18.554567053370608,-11.140157978328402
1183,-14.611770046099943,-26.16953126104411,-18.203284283308616,-11.11473640082257
1184,-14.62160234658577,-25.426171735580695,-17.83305044795794,-11.077256231480328
1185,-14.589670930662711,-24.656736022009362,-17.45062754159448,-10.970591188528088
1186,-14.51322279648272,-23.884512377905484,-17.06303742572199,-10.763692902409765
1187,-14.409308748531977,-23.130377113387006,-16.677129882606625,-10.530400928430277
1188,-14.278832364811809,-22.401290911314124,-16.297616627284572,-10.358335113775698
1189,-14.079923642078576,-21.65650680353427,-15.918400170714127,-10.215616137694449
1190,-13.765356272522432,-20.85207614013078,-15.532642373777636,-10.051542582585176
1191,-13.272035925205158,-20.00348410087599,-15.14737151342286,-9.89676388634425
1192,-12.58562400425067,-19.132364869190905,-14.767015770621576,-9.784474772425432
1193,-11.87485692384231,-18.212784882565227,-14.380809009427738,-9.706147538771125
1194,-11.305012590376,-17.219527625655026,-13.97172768726128,-9.643224625658833
1195,-10.808198749789923,-16.15318506278967,-13.5146417375972,-9.55511672490456
1196,-10.267521061708477,-15.033047109069336,-12.993616811543577,-9.412210463922944
1197,-9.673935371298823,-13.922967076955072,-12.429862618803908,-9.260716649623284
1198,-9.045288642580838,-12.883417712983883,-11.856006844764142,-9.155802362440449
1199,-8.437391452418233,-11.8945628645165,-11.284125584074836,-9.089716801109528
1200,-7.904524634616084,-10.920086268897663,-10.722385553219075,-9.036291666408959
1201,-7.356872667212586,-9.98147410069136,-10.189581592811335,-8.972531596471255
1202,-6.707817054981146,-9.09733707477058,-9.695559330795623,-8.882397156622574
1203,-6.08480632096508,-8.240255301073237,-9.22963046848971,-8.791534680505745
1204,-5.62210476259975,-7.373644650026973,-8.77237752988146,-8.732091274089978
1205,-5.247967232331102,-6.454860966564143,-8.299113372063065,-8.689244739171132
1206,-4.853735398768566,-5.457713069769234,-7.789456798031078,-8.637950368069493
1207,-4.417851235178004,-4.424001680231306,-7.247553519030869,-8.582133354489962
1208,-3.9367962076373404,-3.401681284483775,-6.684431196332133,-8.522193197375287
1209,-3.4283209318980723,-2.3759580253147488,-6.090175752271045,-8.431493384217694
1210,-2.9165295115134007,-1.3079242959346578,-5.46410789812525,-8.28604024133188
1211,-2.3532672408375532,-0.15856224655722484,-4.802661593462679,-8.0741319120808
1212,-1.7240287365466367,0.9891343287782146,-4.1662526972381935,-7.839342627886089
1213,-1.1613428208726642,2.048766052497697,-3.6733048615810646,-7.652358219504053
1214,-0.8026385172435132,2.870604746641664,-3.3499037284549376,-7.5952667381160035
1215,-0.5917943798676304,3.536986380772114,-3.1074312304733818,-7.549073334152703
1216,-0.41045756641613385,4.206751701492296,-2.8776193196646296,-7.372179323237459
1217,-0.20870142414441867,4.858437040489821,-2.6455678231362683,-7.179123497682013
1218,0.03696239794371507,5.4231014199048895,-2.4289008555251788,-7.111596188825893
1219,0.29066067639753124,5.901355980460227,-2.208047372232331,-7.080959920352721
1220,0.38887506712728154,6.374250154178651,-2.0105792958987614,-6.918959109071504
1221,0.5335074953346214,6.780407357421087,-1.7779226891699944,-6.701150627983533
1222,0.8133847283683011,7.151302596866933,-1.5251622220168395,-6.478096607230733
1223,1.1332892188643724,7.457411728371416,-1.2825515328131372,-6.338738745690225
1224,1.3663298083415105,7.6668468244283225,-1.0816414941063754,-6.353476734967269
1225,1.5072761713266372,7.83710478559055,-0.9150798400133927,-6.430703983353932
1226,1.5940496772902262,8.037074225083611,-0.7606874808140183,-6.440025279559231
1227,1.696741212415527,8.257134309312804,-0.6138777681983743,-6.391137101654877
1228,1.87840596019636,8.465494591456999,-0.47479966778388866,-6.33612132569758
1229,2.051688422151101,8.654421889963583,-0.3369191052411809,-6.278541587423
1230,2.102758623921624,8.817342098466684,-0.1987227181318822,-6.21858178285659
1231,2.09531187651167,8.957236879807196,-0.07268667582843426,-6.151643324446085
1232,2.1304781593523403,9.079057122356488,0.030028976567876547,-6.065112702913549
1233,2.1854567563130347,9.147436668198083,0.11208608721840352,-5.982426623509893
1234,2.215345946132149,9.132433984612916,0.18391576214050068,-5.926511632321644
1235,2.2238558297316997,9.074441437253817,0.2671564399863052,-5.850022553036536
1236,2.220234397918969,9.034293603393849,0.3772501795430132,-5.7020613539304215
1237,2.235627261063593,9.045429984325445,0.49315150538955593,-5.509595916999977
1238,2.2970214902356916,9.11997487655721,0.5809596241286271,-5.323493067541111
1239,2.337576007724596,9.2349330793015,0.6244126269052404,-5.1734436761900415
1240,2.282373660196273,9.346125319787385,0.6184592462663432,-5.075228441458628
1241,2.1806051516476024,9.42642477339594,0.5651091704676142,-5.0111766460922285
1242,2.108478983175403,9.459809034233944,0.47937324707208195,-4.944933658486215
1243,2.060393849037996,9.419307176835305,0.38932174802150776,-4.863614657420755
1244,2.008672789913293,9.297683744030346,0.3211541373613568,-4.762418444782764
1245,1.940477535313585,9.151081457095637,0.2917892829183464,-4.6125167834357805
1246,1.842976345606944,9.043090199679853,0.3022023795043627,-4.39892963242329
1247,1.7264162637791365,8.980675166660614,0.31496359327752027,-4.166179030073147
1248,1.6125168361551714,8.9450993740601,0.29199297466174834,-3.968266977080042
1249,1.4867807763826135,8.90253842465657,0.24826344260470973,-3.8261506808270735
1250,1.3369919361210432,8.819893805679923,0.21649126284397877,-3.735758978386997
1251,1.2191393539307462,8.73047599035507,0.2177176957032693,-3.640243853276277
1252,1.18762190540459,8.673357854291979,0.25765690445282646,-3.481803680983849
1253,1.2171811294875274,8.588400108568866,0.2957590017280915,-3.302064717692767
1254,1.2566762252568555,8.400684412260592,0.28012863519440084,-3.1667692706976993
1255,1.256903162914248,8.120465160761517,0.20711524515502994,-3.066842339908541
1256,1.190360043939663,7.787597675829989,0.09384899702276835,-2.9735428053433584
1257,1.125859135119894,7.42775643613597,-0.0533156240967901,-2.87594312637574
1258,1.1513290443990702,7.0717887496594996,-0.22286932788079092,-2.7649642262873244
1259,1.2495930452119786,6.746312031294392,-0.39424342454167965,-2.6602398911359155
1260,1.3701360158080658,6.468974628039061,-0.5497258338018122,-2.581133294979627
1261,1.5044180302463297,6.269584825044001,-0.6748222471173643,-2.476671144061473
1262,1.6463921795053071,6.163069510152891,-0.7657027331060168,-2.2887183832251776
1263,1.7937911236500295,6.107528704696706,-0.8439351687870885,-2.039271278784763
1264,1.9447765082866642,6.043109623032794,-0.9403930479733535,-1.775766026680818
1265,2.0315843006780536,5.940607044640252,-1.074598269222044,-1.5112037555190376
1266,1.9928398224808195,5.784525938901385,-1.2608510824357286,-1.255905917224741
1267,1.9149615638901725,5.559142756003706,-1.502986087726318,-1.0390073132628341
1268,1.9020075256439448,5.266447429102464,-1.7983650824871484,-0.8794263523835378
1269,1.8912655400644858,4.925269958102942,-2.1657861331190977,-0.774317956184976
1270,1.7906102193474098,4.566632686054063,-2.593459424787407,-0.706397537910086
1271,1.6211936702231924,4.2555765354832005,-3.0503867162046676,-0.6293532320448686
1272,1.4306910326655358,4.043493645979874,-3.45103465139873,-0.5038774612729235
1273,1.2651687755843894,3.8892856749230513,-3.672140670914593,-0.36047666895526626
1274,1.1574664864011672,3.7270216606690756,-3.671827319834181,-0.25138778116811195
1275,1.011950646982332,3.551551656535246,-3.502452972320962,-0.18537974800450938
1276,0.7223682878374738,3.377562916276645,-3.233735839222596,-0.16046318201725296
1277,0.3982235603388196,3.213155770968957,-2.9144235311483846,-0.18549965902907212
1278,0.1786846648032596,3.0656424315482727,-2.569540944376658,-0.2612390839354985
1279,-0.01911032719944597,2.9184108054117406,-2.21344091664016,-0.3977185361602976
1280,-9.196398256283619,-16.84242628569098,-16.95182482557867,-12.970621359259004
1281,-9.385493837306491,-17.48782820392344,-17.34080930567912,-13.357953640304945
1282,-9.59798713761753,-18.076505355230637,-17.711683143310502,-13.6397671102154
1283,-9.774991544279295,-18.59361926120013,-18.077596398666632,-13.85620637911376
1284,-9.854998022376439,-19.042998343167408,-18.446049705588937,-14.069004013626227
1285,-9.906457837623211,-19.46932866693202,-18.79806840230227,-14.288691736272163
1286,-10.003338520183831,-19.912572819347837,-19.1171989050935,-14.514624306988326
1287,-10.084491105421643,-20.33828594510633,-19.42297216670044,-14.721555923503992
1288,-10.082140590100165,-20.700052202574525,-19.73999384139132,-14.886741325022262
1289,-10.0301157802785,-21.01033338890298,-20.081079802069546,-15.067598018792594
1290,-9.977065758873708,-21.293224909708435,-20.4422458114438,-15.316334844171688
1291,-9.95782879014013,-21.54558159697752,-20.774208811140646,-15.575272797210497
1292,-9.988902004930779,-21.77008643110148,-21.02882192803413,-15.770405990818285
1293,-9.98243564186409,-21.990596649251405,-21.218699345754054,-15.88535089095257
1294,-9.86272014860673,-22.23006027138903,-21.375159224054414,-15.928274846752851
1295,-9.750285400777882,-22.510682926847576,-21.515113171612548,-15.943912689887773
1296,-9.77527829174025,-22.839433790551617,-21.648261574851315,-15.977187359988163
1297,-9.875133974725996,-23.170071344440597,-21.76109820054807,-15.994850199147542
1298,-9.952232584198153,-23.4563080901877,-21.835527528907583,-15.953242382802772
1299,-9.989560110055672,-23.72111066429546,-21.885882497198278,-15.880184358897733
1300,-9.992825646077714,-23.999575532673752,-21.930419904360647,-15.814013634266221
1301,-10.005090866766531,-24.285549240565228,-21.961356560609584,-15.757966127094704
1302,-10.078497618952317,-24.565542656446443,-21.97794908433155,-15.713169622580523
1303,-10.17672598162154,-24.831419434146998,-21.954984870141313,-15.676320918256724
1304,-10.25815861790348,-25.078906454797746,-21.90825054180546,-15.648776263846973
1305,-10.401366822495593,-25.33020047163693,-21.861124274583577,-15.6865571329475
1306,-10.673410751950733,-25.612693022849125,-21.83401789152792,-15.830480374148078
1307,-10.994873143919882,-25.916542990250885,-21.798495210254718,-16.00956009692946
1308,-11.266454509579782,-26.231462006622195,-21.721159752884205,-16.138169294440466
1309,-11.458948793694196,-26.594329885965788,-21.608881367600805,-16.21180632592261
1310,-11.577773723276831,-27.02934128343924,-21.478823176189145,-16.248128781260228
1311,-11.691150327130362,-27.497766162583314,-21.350964806245425,-16.25997677598326
1312,-11.868658782136354,-27.935373930810947,-21.233468735807318,-16.258951527266174
1313,-12.062077960147205,-28.26823186372671,-21.078058855528813,-16.212473657768804
1314,-12.206668687832881,-28.440396391762864,-20.844673420825625,-16.087132683142865
1315,-12.333121461573047,-28.46332165256422,-20.524478029172084,-15.927474914742824
1316,-12.478079828137048,-28.384166735409124,-20.158730253324922,-15.776897411622459
1317,-12.643306441742588,-28.2388559521827,-19.781799530977096,-15.58690248984065
1318,-12.804845201016064,-28.06573569410061,-19.392975637040077,-15.298571685945337
1319,-12.84340182448676,-27.920104591070018,-19.00494427577988,-14.91452535118196
1320,-12.660294555186736,-27.830415455804307,-18.614705688255935,-14.452288327408544
1321,-12.362258206858083,-27.761872790225215,-18.208127660218747,-13.921612334269662
1322,-12.084365616043474,-27.65494388101526,-17.769489663434904,-13.337971993972344
1323,-11.787474171536756,-27.45525070484366,-17.280384006781237,-12.706356803599457
1324,-11.413056864143236,-27.124814671457784,-16.73274857078762,-12.033912735864348
1325,-11.003270767760863,-26.668741968893304,-16.147734839033173,-11.367820982311
1326,-10.609800141063694,-26.11641900150622,-15.55545236436102,-10.749716858966574
1327,-10.278469671124233,-25.48829860941896,-14.969926608091717,-10.15206846978966
1328,-10.03575756665141,-24.806867797595025,-14.399212941301274,-9.541529412722893
1329,-9.78929675561081,-24.10611504494885,-13.854936929515572,-8.947381109971028
1330,-9.447354021298644,-23.40678856814313,-13.336100208802705,-8.401091119260833
1331,-9.109061323944552,-22.70422006892421,-12.822740423334292,-7.893248564883229
1332,-8.876253723966325,-21.97619551387184,-12.286214307395376,-7.39992735119421
1333,-8.642347471274695,-21.176685891392736,-11.685193802632051,-6.875148585347037
1334,-8.280810255864541,-20.268612477334937,-10.993729596536872,-6.281070495684839
1335,-7.794862618880532,-19.269257908620403,-10.24111771413645,-5.65108840783756
1336,-7.225508896373984,-18.213880826096872,-9.469672438512582,-5.026181276643605
1337,-6.6414970632873125,-17.116835829980698,-8.692805656523346,-4.382309737025632
1338,-6.105645743149561,-15.987485041945806,-7.9103725985871955,-3.6880698440423285
1339,-5.552980544454923,-14.835780818667844,-7.109809737579344,-2.9362819869644468
1340,-4.959821073601003,-13.72863300394722,-6.321005279510025,-2.20357004318651
1341,-4.4965801426276,-12.725219271016877,-5.646469067365921,-1.607526640275461
1342,-4.350113844330325,-11.912737107725313,-5.1533098618087685,-1.2904042332676071
1343,-4.435670387591053,-11.25109478593276,-4.836909922175982,-1.1758625115403327
1344,-4.590093129877934,-10.660169292881571,-4.68617219924465,-1.1234238407004582
1345,-4.768741360759509,-10.18186013963334,-4.6972889721488,-1.1619627502781555
1346,-4.958332288769863,-9.863715650184776,-4.8493852386047855,-1.3389161959299978
1347,-5.159679966830945,-9.622258151109255,-5.041661225256311,-1.5637726602351674
1348,-5.462291543539937,-9.17657753422318,-4.673181226663193,-1.5475480041964562
1349,-5.732968799773705,-8.710978616596213,-4.272075979631473,-1.4552748388919794
1350,-5.9063844216469,-8.23106124923953,-3.8532589719329353,-1.2798347159549877
1351,-6.025506661952093,-7.717034960098,-3.42611213052687,-1.0516209547211184
1352,-6.151158727091173,-7.156332962760777,-3.001473033357843,-0.8173179919959015
1353,-6.261934975157716,-6.5636741221679245,-2.589351878481079,-0.5719553447463969
1354,-6.32090028681891,-5.9608022321085015,-2.193935695843621,-0.29798967227315215
1355,-6.309142331388297,-5.374978709570633,-1.8205249567556905,-0.032431041285662265
1356,-6.225793016203763,-4.823915773129832,-1.4698638630327001,0.1874782682498542
1357,-6.1546414038279815,-4.278588723405675,-1.1199195015255454,0.38534419914954265
1358,-6.184394089875992,-3.705187081725371,-0.7513232959370434,0.5958000521856901
1359,-6.257816778088575,-3.112026583687719,-0.3833343630311698,0.8244326078198927
1360,-6.28548030935473,-2.5260366657824784,-0.03408383803807776,1.0649491038347016
1361,-6.303852083514425,-2.0026841945585616,0.26088572924742204,1.2884434804093168
1362,-6.3684986904547465,-1.5796863737457567,0.514191203805758,1.4675041962891375
1363,-6.445186512691582,-1.173183596734978,0.7553477216869517,1.6360340140716785
1364,-6.489564737591652,-0.6769726012537627,1.0182217355695213,1.8410995538101667
1365,-6.492505504545394,-0.10288747436518957,1.2821561508385033,2.0688966812530842
1366,-6.457492814497539,0.4986729316963179,1.5130902759581313,2.2925406389725973
1367,-6.436194867872487,1.1126772976327937,1.7174017242989803,2.5237562200403194
1368,-6.472813374604796,1.7273875941152057,1.912902485224771,2.7720879203203928
1369,-6.487825551782985,2.3427870763373146,2.1133155382905224,3.024743177580961
1370,-6.379551175173063,2.962474743491231,2.3258349048768556,3.254074267715067
1371,-6.158979625860311,3.550152113540223,2.524137575225806,3.390741847635769
1372,-5.875029661178134,4.064350081872338,2.6738617450257562,3.373538306161747
1373,-5.547723913041659,4.505254041018819,2.7747516794977365,3.232161888969739
1374,-5.19469826655083,4.89100267638199,2.8408000867262118,3.0302766932809067
1375,-4.8282820357888445,5.236971652148594,2.8772919190834716,2.7968037074452377
1376,-4.446893078196494,5.559606317347471,2.8924367383498337,2.552256645346683
1377,-4.049195047043411,5.874404950961033,2.9056198409310348,2.3133231409865087
1378,-3.6373251917400418,6.184663165501777,2.9319935172825256,2.088994942370295
1379,-3.2041492469664625,6.469353347045404,2.967417910036433,1.9124766755546747
1380,-2.7571941145362904,6.702766791783022,3.0016578339123727,1.8108472189623885
1381,-2.3603548986754284,6.8783979842205385,3.030551727226313,1.7449981963283248
1382,-2.078757957733097,7.0027222767599495,3.0524713883319188,1.6645189524422226
1383,-1.9164749018975435,7.091260984785087,3.0735930544625005,1.5813416141694998
1384,-1.8452254404759068,7.162987978700642,3.0983251592903898,1.5185122827204574
1385,-1.807589088202549,7.231048867435066,3.1112719873374126,1.4653769738342697
1386,-1.749355586775886,7.300081706988982,3.094522802744069,1.4041424974236871
1387,-1.7044439525328696,7.356296326859244,3.041816735950218,1.2987583031587289
1388,-1.722517781305558,7.385106550910635,2.9606105472228474,1.1260362470855931
1389,-1.7623098958397174,7.402757394406424,2.887639600915461,0.9589922792824748
1390,-1.7654567350973807,7.432112302634923,2.8632803060179857,0.8836665684515649
1391,-1.7081843557705179,7.472114689347292,2.8920015969719417,0.873015417089491
1392,-1.5883552207986549,7.51402835463319,2.959776674076481,0.8690604077225473
1393,-1.4896448029500888,7.552967615750118,3.0546312800754283,0.8781992344631683
1394,-1.4912937822457208,7.58515069888719,3.160961212500259,0.9140636199428527
1395,-1.4810108800895796,7.613480365921885,3.25929264598722,0.9594015619058699
1396,-1.3194738149900993,7.646582477945836,3.335697538836473,0.9978708229502896
1397,-1.0684744886964221,7.690301764063854,3.39159406302952,1.0076932090247883
1398,-0.8383727721833192,7.748794145972,3.432861211316488,0.9750929587950952
1399,-0.6405856018597822,7.833520711476017,3.4527464121223987,0.9581429229459856
1400,-0.46237485261883154,7.946075053718839,3.4445863110781794,1.0140107509828802
1401,-0.27719231836690317,8.05488184624202,3.41491077021418,1.0732492577260104
1402,-0.05455922696150796,8.122355195115736,3.3739255554344485,1.0468148216019582
1403,0.1474085019913859,8.12643370264065,3.335533063538153,0.9632164873043572
1404,0.25758027429911834,8.062163112525239,3.309865095692893,0.8804055298945765
1405,0.33457224742867037,7.9689380032182235,3.2798242420568515,0.8111009008489167
1406,0.4540744316221713,7.888372515629001,3.2279299364240437,0.7579069174938895
1407,0.5579553187358107,7.788339518498087,3.172877829125318,0.6968675551112502
1408,-11.089460187674367,-13.445855964959755,-12.95517481279509,-10.36569707224048
1409,-11.508889428682544,-14.090511746057345,-13.579155128433246,-10.754987593502896
1410,-11.920099786802014,-14.737691111272923,-14.177301973199215,-11.086962838461734
1411,-12.247948897989723,-15.364711706032255,-14.742768133573659,-11.336390747973967
1412,-12.43136016839675,-15.958382607235759,-15.285398085130334,-11.508615349989391
1413,-12.57626809370384,-16.495265060027112,-15.819665444109647,-11.657682501476653
1414,-12.811263911386925,-16.965648899287046,-16.35990489799196,-11.8475683301528
1415,-13.138246700401846,-17.369682081645532,-16.89534043455726,-12.07106632742617
1416,-13.5262697331491,-17.72595805129466,-17.412453844765658,-12.308888109845125
1417,-13.980375263348954,-18.10632080976415,-17.932579902265143,-12.612281291584775
1418,-14.491407918188093,-18.571277522339862,-18.475990740316167,-13.019766508100693
1419,-15.018054305588668,-19.09450557835773,-19.02348920749375,-13.477113612212932
1420,-15.521887757287281,-19.622482788990542,-19.550949618552654,-13.916435321178996
1421,-15.984892983259755,-20.120146518408458,-20.055110585012773,-14.312472009826841
1422,-16.3991255653698,-20.565777837108637,-20.53798031407991,-14.660140778327401
1423,-16.763933137995892,-20.98165241020294,-21.01018483832011,-14.990201196909586
1424,-17.084612909947747,-21.39712556426249,-21.480194942314856,-15.337451401656997
1425,-17.360412077831935,-21.783278763027784,-21.920951039468047,-15.669205204257258
1426,-17.59032778588268,-22.108486704373174,-22.309136539664497,-15.94889584026877
1427,-17.787150604113226,-22.394234928134576,-22.67872093714887,-16.219538893204078
1428,-17.95319280855134,-22.675081821029533,-23.069521625787715,-16.526592549260833
1429,-18.06543666356855,-22.97299044071445,-23.47401674384888,-16.845071082779725
1430,-18.094188036142434,-23.301632772414454,-23.873029018627435,-17.138423557062364
1431,-17.98686080906869,-23.660267326003165,-24.26445946624641,-17.394515492519883
1432,-17.721797859910485,-24.02877186418627,-24.641247687879144,-17.60524402736599
1433,-17.40819970893432,-24.367385096711924,-24.981899673261186,-17.785412834832407
1434,-17.156287650113143,-24.637765456572993,-25.26861641912738,-17.945646750696273
1435,-16.92569120017239,-24.820232875465237,-25.489584121355136,-18.02294019044817
1436,-16.644158304900827,-24.916780177840263,-25.646009548341652,-17.96587001093808
1437,-16.294924914148503,-24.959646648103313,-25.774642098198026,-17.842199079391865
1438,-15.885351521453709,-24.984310807170758,-25.908964255773185,-17.734942359569036
1439,-15.483173671011151,-25.00287471969361,-26.032885021583347,-17.649176625787945
1440,-15.152621316950487,-25.00883912369523,-26.11590132158894,-17.564316559747773
1441,-14.838354896915153,-24.965659426373364,-26.140621655647134,-17.447776106133702
1442,-14.466665171674357,-24.840526926748893,-26.099588547146976,-17.268980295081796
1443,-14.049650629748902,-24.66028834468041,-26.008260934919278,-17.05434019226002
1444,-13.61974029579231,-24.46255297589869,-25.889561521030288,-16.83989954875401
1445,-13.20465443910036,-24.23905997294253,-25.74946567448953,-16.60647337777301
1446,-12.824691778448512,-23.97626192474039,-25.586067089017106,-16.325934262919805
1447,-12.432921423966807,-23.683815296832087,-25.39610805194546,-16.00186880561435
1448,-11.978546663342488,-23.373824377718066,-25.17525161848904,-15.640694299940499
1449,-11.519918524954802,-23.05923078560436,-24.92354509429756,-15.240003232818822
1450,-11.114736847052555,-22.74683717727399,-24.64744453922716,-14.802827095031198
1451,-10.686451600397412,-22.417848535578475,-24.35723667375468,-14.32734896068033
1452,-10.158244264599805,-22.046726222841727,-24.06413846853142,-13.823010574226283
1453,-9.570830044743385,-21.625154544329096,-23.785575496892502,-13.352136863468543
1454,-8.990985524776095,-21.153592814526515,-23.52729402585886,-12.96842843911607
1455,-8.476661998554743,-20.629137999625218,-23.256493556485466,-12.640786483627027
1456,-8.062113861111369,-20.059401846404924,-22.938921617572902,-12.32163430467954
1457,-7.66381792889885,-19.478949020303045,-22.5763216967486,-12.00544845555942
1458,-7.192099353253948,-18.914692920114522,-22.186073469692957,-11.69928580618224
1459,-6.73046521681638,-18.35702014541725,-21.792532697485715,-11.426874962618
1460,-6.370800873073841,-17.778273015121357,-21.41649371166382,-11.204745122005
1461,-6.0287582235961965,-17.133207509992634,-21.04896448949478,-10.983856265015596
1462,-5.611059782564341,-16.390524021129657,-20.66947911074406,-10.705928428496422
1463,-5.144473567708387,-15.585552310704497,-20.2724519507419,-10.37894525694592
1464,-4.690207332688239,-14.770482122815729,-19.852154772579965,-10.021931750748564
1465,-4.326708812911593,-13.956383366732776,-19.389185518789773,-9.607324145271509
1466,-4.111114720633275,-13.142453411990179,-18.86699802170336,-9.116401642624824
1467,-3.9847523960548523,-12.334593154105072,-18.286029053155385,-8.581422560900963
1468,-3.9026593421592617,-11.572146569468245,-17.650866567202005,-8.075703751625703
1469,-3.8842243716430214,-10.934377196023613,-16.95537871882018,-7.646395826582519
1470,-3.9786973134556485,-10.434657645070992,-16.194709807297865,-7.338156910731432
1471,-4.115143436969801,-10.055347564332394,-15.381018033918911,-7.072490113321518
1472,-4.190471771480495,-9.735724049377204,-14.525840115325746,-6.749265977598594
1473,-4.174898478780785,-9.446688575717168,-13.619656135142892,-6.415777625158214
1474,-4.070540432745973,-9.16509562647713,-12.66043306789655,-6.148896226266549
1475,-3.896162121223362,-8.825489142138792,-11.668973370841073,-5.9198548384614975
1476,-3.3673306144188424,-8.250596301584066,-10.676865615345061,-5.666260118559379
1477,-2.824707236296933,-7.631878578867031,-9.775758862981446,-5.406876951063255
1478,-2.2563169386918807,-7.041590892859039,-9.039619815709667,-5.1489258796069315
1479,-1.724397855426729,-6.530734879813596,-8.46409897909088,-4.927583385657716
