,TP9,AF7,AF8,TP10
0,-11.129056402450423,-15.240562083824003,-14.158106343258282,-9.279884994082044
1,-11.538985358632443,-15.798513090490994,-14.600399639575176,-9.556026536886037
2,-11.990751397385697,-16.390309401546105,-15.06906529547931,-9.795876271365689
3,-12.445441559462742,-16.98484187569588,-15.5300660726021,-9.98130451980058
4,-12.86080851411319,-17.54374866585963,-15.948180335381993,-10.108554708421584
5,-13.255746369277862,-18.033402074282687,-16.31033919836713,-10.239337518728775
6,-13.653962836895563,-18.438535262972096,-16.61672829495627,-10.426950365438902
7,-14.052788129847576,-18.77422281680302,-16.862206689176837,-10.58902386636429
8,-14.434846429785527,-19.070863559282927,-17.04922771199996,-10.638661716101044
9,-14.730776693031078,-19.36816720608177,-17.20104008423629,-10.642638568124724
10,-14.890839874301237,-19.692423278587853,-17.334988942829675,-10.682860196473616
11,-14.999616087243291,-20.015940380402732,-17.475154459904076,-10.73399738247658
12,-15.158605773584213,-20.305070494370856,-17.621856429651515,-10.75583337143348
13,-15.356494264323457,-20.573765420862834,-17.753878755809513,-10.72810240879706
14,-15.554646821589843,-20.84687054744068,-17.872497783123332,-10.645969984033215
15,-15.748204771243191,-21.143702460880217,-18.007309375581464,-10.59038637203397
16,-15.92967522936213,-21.466628978263845,-18.155403928164354,-10.631753623055735
17,-16.100646359642607,-21.76615520453198,-18.273052851814082,-10.678930434513733
18,-16.26480098637936,-21.987390499348468,-18.34821420802977,-10.627299222615274
19,-16.37041083840385,-22.11864366900251,-18.395246277719174,-10.514171318563786
20,-16.38266222509503,-22.178372122150197,-18.441953964834173,-10.408412811885814
21,-16.39388191164349,-22.217522330922204,-18.49690098517662,-10.339702345816175
22,-16.499886493104217,-22.289794784018564,-18.561849680493403,-10.32834517493543
23,-16.662275823525572,-22.4085384698397,-18.64050104136298,-10.3536842193161
24,-16.817716121489617,-22.560072851642353,-18.729227597532137,-10.390305055551636
25,-16.96684728018967,-22.71613193763368,-18.814601889681015,-10.490031568745046
26,-17.11979093877201,-22.844020413370377,-18.88051771847541,-10.701817668348244
27,-17.28918961514302,-22.92418476634296,-18.91191692012944,-10.981248739132047
28,-17.484279396588082,-22.95524926432404,-18.8983817787772,-11.26326415081749
29,-17.655924838456517,-22.957712605686677,-18.83909912076454,-11.520745819799867
30,-17.75573033877962,-22.958117049511905,-18.74036171395444,-11.738083837312304
31,-17.824964107023,-22.97228615032477,-18.610387940793323,-11.90454819204348
32,-17.90876974929887,-23.001605354662342,-18.458870021022864,-12.02268693824107
33,-17.971761085554686,-23.02539439694198,-18.2982301967513,-12.102036085781444
34,-17.966641251698725,-23.017106225507845,-18.13460586211528,-12.143915416772032
35,-17.87103418892068,-22.963446316098477,-17.96044833341556,-12.142725824181364
36,-17.68422125460463,-22.86321271087286,-17.763683544119942,-12.078718412336478
37,-17.468258948604916,-22.728997843300625,-17.530776819424805,-11.888041375832092
38,-17.291478924107484,-22.577720640165456,-17.257776245457983,-11.5330333751929
39,-17.13535253187416,-22.418109408859536,-16.96683332425093,-11.078000631691317
40,-16.96781476027382,-22.247453857292,-16.679912097724312,-10.617799046478924
41,-16.825853894706082,-22.0502706791707,-16.423474208970944,-10.237579074986218
42,-16.73957137551738,-21.806250716043913,-16.18929455027573,-9.978926774782508
43,-16.683212378163866,-21.489667006035784,-15.95361536180268,-9.75212956496025
44,-16.612876961572457,-21.089378176846644,-15.685511823933725,-9.444442834837412
45,-16.452418918758106,-20.64451006177588,-15.374266364486665,-9.063759050871171
46,-16.147654027998332,-20.195653445360968,-15.019026501265422,-8.64675727871426
47,-15.77973375718304,-19.72966249120097,-14.61752297420378,-8.183048347232765
48,-15.441116950764414,-19.220925385383172,-14.171388707861329,-7.66359023776391
49,-15.07290992382824,-18.654873800140827,-13.686983395269406,-7.078685451803908
50,-14.605427400480197,-18.03032150148283,-13.170190969915442,-6.428769929782086
51,-14.084562855341225,-17.39070580365092,-12.62359213815282,-5.781492235301888
52,-13.571173807391505,-16.777239394539023,-12.050350108598922,-5.203669049855049
53,-13.107165919154376,-16.170133146910494,-11.453935996753135,-4.663389231138329
54,-12.703925437556023,-15.528662684800628,-10.839298586529262,-4.114065600964834
55,-12.244783285535219,-14.816930844313987,-10.222314282721257,-3.5896151753893686
56,-11.61600465268293,-14.011778265036329,-9.605526136830324,-3.1220831462730776
57,-10.906194711479715,-13.136623524310632,-8.985137900455697,-2.673437031291722
58,-10.231458144229569,-12.227718272980379,-8.332035586500853,-2.2003231866042365
59,-9.53706841604724,-11.283849356191439,-7.618813626295799,-1.680301341230557
60,-8.769281228108916,-10.335756526627936,-6.8892761537468274,-1.1513194589871658
61,-8.075578701439909,-9.484132406880288,-6.241665559613567,-0.7095962243941216
62,-7.593572535772827,-8.769161297708163,-5.729612485070778,-0.46090480326739025
63,-7.321135699392916,-8.138600128149985,-5.316945077263539,-0.29263411389898175
64,-7.188937645971566,-7.523134377374365,-4.948896338271421,-0.05965560263590638
65,-7.086750267956669,-6.912795513702453,-4.61721580414247,0.17100649130636636
66,-6.92587760244924,-6.35461013293732,-4.325489904381513,0.2933223230881389
67,-6.77679463454493,-5.910150703074252,-4.089212727017539,0.3135418358698866
68,-6.7134018284413255,-5.5842358419263745,-3.916768735445269,0.13719200006424329
69,-6.680755077970642,-5.260073770147798,-3.7560651421849514,-0.07164124984139418
70,-6.571522881928738,-4.88399668271507,-3.6019467622861554,-0.2700295592283135
71,-6.417091093170763,-4.477570572477496,-3.4881542025887042,-0.4735236587389575
72,-6.2799946197036975,-4.0897546662179876,-3.4244268675473837,-0.7069754119673803
73,-6.154866614210298,-3.7342966672896507,-3.3824198644387273,-0.9172364655718565
74,-6.019610860731091,-3.419128509744768,-3.3199410626403516,-1.0487570943286484
75,-5.836413040074421,-3.1762301957652785,-3.229096292655449,-1.135575416156448
76,-5.570116106333738,-3.0199942099364367,-3.12013465109683,-1.2291643867129056
77,-5.267072811196545,-2.910907380294851,-3.0032865868991947,-1.346278568526702
78,-4.990143752362172,-2.7909959534122173,-2.904676651579564,-1.4850136186958736
79,-4.713354552488205,-2.609009412422941,-2.8419159883180507,-1.577925896952902
80,-4.396380202457607,-2.3336384213828643,-2.8383216281411414,-1.5637213959289402
81,-4.059111908163937,-1.9893872631037597,-2.8927713874488847,-1.5367172840488297
82,-3.7338331455945624,-1.62595707185128,-2.958173919372858,-1.613530524139662
83,-3.460460388021487,-1.2646119003974468,-2.9821172479294114,-1.7578581992300941
84,-3.263358512471289,-0.9182884014199627,-2.9189189671768836,-1.8872344188901402
85,-3.057552088659855,-0.6151905211677451,-2.7684493276140554,-1.9574160352299497
86,-2.7475011147238,-0.3746581394665485,-2.560377335567923,-1.9415689612345333
87,-2.3925599223090654,-0.1887001712281642,-2.3373013144473203,-1.8776073519329992
88,-2.080846615624324,-0.03825968856290746,-2.1386186869490107,-1.8209123104088523
89,-1.7831769078811774,0.09251823112175797,-1.9640511248820458,-1.7357607096190044
90,-1.4460815163929384,0.2211384100706701,-1.8028827282556656,-1.569456858733774
91,-1.0352571052450559,0.36566187585907695,-1.645416627901981,-1.346334845892487
92,-0.5381182882848501,0.5416965959463745,-1.506053884537032,-1.1119485552025608
93,-0.06773711936218965,0.7666613753073117,-1.3881824028371912,-0.8901262309901371
94,0.2553365623602213,1.048908398422934,-1.293719613151085,-0.7019289292147579
95,0.5305415611625359,1.3769947654888037,-1.2002922830867122,-0.5574780884766168
96,0.8944879818576272,1.727006241455332,-1.0828159353220825,-0.4539094504055836
97,1.2735602112374922,2.0613023068905245,-0.9569118152068402,-0.404048230155602
98,1.5564159982233383,2.346972534715883,-0.8363299706545417,-0.41097825941974014
99,1.7548415648026536,2.5918060368241864,-0.727947434539291,-0.4143894805750655
100,1.9119574016963663,2.816780480099882,-0.6092767564660427,-0.3541513979499081
101,2.086214831726476,3.0114133004524386,-0.4525226275068327,-0.25493026219334813
102,2.3280521542661914,3.161857492907072,-0.2621837710099049,-0.16805818427682426
103,2.5570906070496022,3.2841476073661515,-0.07210676315247522,-0.11317588764801481
104,2.669991826259769,3.3947785950466107,0.09662094073156585,-0.0984826082912734
105,2.7266505205486706,3.4892119338314487,0.23514589205415914,-0.11401661571035981
106,2.817806873432347,3.556242407111243,0.3461076689871086,-0.13994486388853555
107,2.9039567920257756,3.5719110478820566,0.42448277865342615,-0.19216336047265373
108,2.9243590301228486,3.5216732251857636,0.4668580471793461,-0.2896604774024586
109,2.887249262850114,3.4484341907430087,0.47813302377773037,-0.38960487825796747
110,2.8166681000892195,3.404610466125154,0.4667240089425305,-0.44753232656154046
111,2.743808823984,3.3916534273670935,0.4437764779891929,-0.5005310332420511
112,2.6999571991871862,3.3886557628569807,0.4204486757400954,-0.5965418298671468
113,2.6615018842878317,3.366854042998614,0.40213877784435975,-0.7209163682026757
114,2.5933362792782013,3.2995588825234643,0.38833550264788175,-0.8392428707933678
115,2.5251140044985516,3.204065686970689,0.37881321635891135,-0.9126115501752297
116,2.496455338884069,3.112335808233826,0.3711961104809176,-0.9109288303398079
117,2.494251163943843,3.0158832864589327,0.34525667861002535,-0.8743774413195161
118,2.4949949156217954,2.9034270769431396,0.28996774058857844,-0.8579752516362821
119,2.491562902628524,2.8038055983385832,0.24694859463329136,-0.8347495538156233
120,2.483592757844253,2.7508708265471578,0.26634426311062515,-0.7645325110578153
121,2.499240054987445,2.756430400294438,0.35475748084633446,-0.6722941020973101
122,2.567418028020106,2.816041517218386,0.4956939190904751,-0.5945934838120212
123,2.6557169592070786,2.905724276373943,0.6606309915237601,-0.554689642514277
124,2.721907217776996,2.9888229793089183,0.8143071407178086,-0.5638202499176577
125,2.782875846357699,3.0273002355907246,0.9393987893808596,-0.5633614662012589
126,2.8638583723921323,2.9968458690404156,1.0303394850671967,-0.4933629868677146
127,2.9656784327808787,2.9027009714453866,1.07530608041002,-0.43148790174080365
128,-10.140480782214224,-15.238511351224524,-15.02927182781321,-13.415889624085779
129,-10.219183738310345,-15.457226496310245,-15.347637645747735,-13.70935318364124
130,-10.43627303593897,-15.7388917873824,-15.665195450818823,-14.036029406949217
131,-10.69829497259009,-16.09202396588466,-15.968192844774045,-14.343387086861206
132,-10.883062664231975,-16.493019812534882,-16.237519962546706,-14.587148393262542
133,-10.98688291052386,-16.931202638599824,-16.469990806454486,-14.80102236976768
134,-11.040713074441683,-17.38435347822918,-16.670152017941753,-15.03510375742535
135,-11.090604681701619,-17.786655192135335,-16.85015800251349,-15.24480656334774
136,-11.182126016506416,-18.089548015351106,-17.026137895322922,-15.389852678444154
137,-11.255207775406697,-18.325029269232868,-17.207433140413194,-15.549946823257045
138,-11.253223826837461,-18.54515301574603,-17.397931382619614,-15.80241323495283
139,-11.299217141930766,-18.77009995117777,-17.601123906875006,-16.117787531280232
140,-11.512196770419417,-19.007393083052722,-17.81434098929427,-16.43602215643224
141,-11.81001660512125,-19.242101976268415,-18.02160062387681,-16.69801294458992
142,-12.079977614475002,-19.455944159340604,-18.207679043618032,-16.860885877496276
143,-12.304881770712688,-19.679136293941422,-18.37470200253567,-16.966826224183762
144,-12.504143470997041,-19.94023007602988,-18.532089553610042,-17.074144390135373
145,-12.749144124350746,-20.200697937454656,-18.68170171082395,-17.155176171797244
146,-13.108812023835311,-20.415755353696,-18.829251038073313,-17.17358327414592
147,-13.541277139821059,-20.590054880634085,-19.000044388540747,-17.15923302925133
148,-13.970541040910366,-20.738067374711996,-19.211701838344524,-17.147136547932018
149,-14.370109571341457,-20.866377481159297,-19.44825958808007,-17.143240542883248
150,-14.727375772901244,-20.978723801225463,-19.684881087784863,-17.147247943105107
151,-15.030257745579446,-21.050010670424225,-19.8994356008976,-17.138494010894874
152,-15.280772829773436,-21.058919832033773,-20.081598111015506,-17.102992187291512
153,-15.487110397994806,-21.04687749674569,-20.26453255161336,-17.094794537170934
154,-15.650511602567509,-21.056829076031047,-20.481982770849772,-17.165921419873392
155,-15.76944030782908,-21.06207718897947,-20.705950116459295,-17.277489923558893
156,-15.82897176157662,-21.02848695520521,-20.89663585656546,-17.37436930520214
157,-15.768813205355414,-20.96304884461348,-21.057629246059978,-17.454269958194846
158,-15.54570642794499,-20.882530652084476,-21.1918271045794,-17.517253018344647
159,-15.20819544272254,-20.814859598020693,-21.271858440091087,-17.55017126890377
160,-14.82464656242304,-20.777066363223074,-21.271533476982235,-17.533317626642198
161,-14.432636120545109,-20.72166847360277,-21.168345743631544,-17.398836153989162
162,-14.045315060345557,-20.596811271674326,-20.96258355657417,-17.101784915512198
163,-13.601805399569454,-20.416160400009886,-20.722922048508796,-16.723815466609235
164,-13.05008455948985,-20.210835034687424,-20.521245389623083,-16.367468109160832
165,-12.483458047496446,-19.9972545062329,-20.357697468035774,-16.050920340602705
166,-12.010258881150918,-19.78315756483041,-20.204611335166216,-15.765449737933324
167,-11.607788879828455,-19.54830115233053,-20.038054817612135,-15.493840578277885
168,-11.228094302619718,-19.26644790905111,-19.83454731624362,-15.215326491386344
169,-10.87822150912484,-18.938221076948302,-19.590903189323633,-14.968982223392269
170,-10.565958913082222,-18.57125160023467,-19.314949413603244,-14.788916466505261
171,-10.292841720204514,-18.174793094019464,-19.00416136443207,-14.595211140967937
172,-10.055475280565902,-17.75092058278522,-18.65669206140726,-14.308030972750002
173,-9.802704939200016,-17.26165443291016,-18.280356883419977,-13.975342033966115
174,-9.487104460350553,-16.67782423873837,-17.883103747886924,-13.661339390458517
175,-9.14796876705034,-16.03610355725217,-17.468603444288455,-13.357103151797403
176,-8.833050849531181,-15.393500030419066,-17.03999158139851,-13.037520693977216
177,-8.504622065749517,-14.790902127106943,-16.59875324719641,-12.66597256535287
178,-8.124132982694432,-14.24834165516512,-16.148323883718227,-12.216452174616718
179,-7.725855221401901,-13.752825210830023,-15.698719189927882,-11.751937217283388
180,-7.350204798606539,-13.263067405301548,-15.25729522544902,-11.338334631986426
181,-7.02019290360887,-12.708060691506647,-14.828314183493424,-10.927657075165945
182,-6.73738629545834,-12.033967510929445,-14.403537399087867,-10.45877699326963
183,-6.412409542305375,-11.263992632101441,-13.93778009390669,-9.94842415720421
184,-5.967856643495995,-10.44787625779835,-13.389647297106889,-9.427771373448467
185,-5.499402899518122,-9.613080343282935,-12.7734812177062,-8.920551844037048
186,-5.113095856057964,-8.774038129233158,-12.11714342269847,-8.437111119803921
187,-4.74878473568332,-7.918770135894173,-11.421936919501675,-7.918978329656839
188,-4.303672537567393,-7.0636612258674925,-10.724371598065025,-7.341694910508835
189,-3.8225250877629775,-6.29052799830941,-10.085334591021894,-6.776339904487958
190,-3.3498871556938825,-5.684204302583377,-9.571923524633725,-6.3166443478402865
191,-2.9473741269755904,-5.193588149941278,-9.164945322188705,-5.871004368302529
192,-2.657324004456265,-4.715216811503334,-8.801346180620087,-5.32153804294947
193,-2.4039110391537495,-4.199786039583942,-8.443415851224774,-4.7223380116315585
194,-2.0991189095219673,-3.6312737849548737,-8.070601148046316,-4.159328465795473
195,-1.7849539007207196,-3.02752088026647,-7.674606754848699,-3.630602232331768
196,-1.6042722730931607,-2.4474060069080585,-7.212309055327548,-3.1481662839180333
197,-1.4647945214818812,-1.9109231964245483,-6.77321343216598,-2.663761127065449
198,-1.343792179193542,-1.4358160115577654,-6.383317418919494,-2.1585310609560797
199,-1.2466684068041252,-1.0113209777231087,-6.042449590336821,-1.690729280873144
200,-1.1817004569570078,-0.6114687510381803,-5.735070974354299,-1.3264421692647241
201,-1.1589919992511226,-0.2167430351671731,-5.428735086023023,-1.031753961360459
202,-1.183566254356677,0.18375970566307726,-5.095658128608742,-0.7476318479152085
203,-1.2197916668488042,0.5852504524503779,-4.764934655897458,-0.4757742727677008
204,-1.2283291961299951,0.97544675329326,-4.4748329454267095,-0.22902476980772396
205,-1.2264903141999655,1.3424620347059548,-4.198660438939939,-0.005567523629720123
206,-1.2435234655134904,1.6780929260223896,-3.897605999219574,0.1974358998540798
207,-1.2691324607602579,2.006269651282285,-3.576538174690919,0.41714643316290567
208,-1.2828622813299069,2.345636593586515,-3.2541865501684564,0.6874744198845093
209,-1.2681357219296587,2.6343648928232364,-2.9497611304736693,0.9477143696675977
210,-1.2081515669232639,2.8080270096348263,-2.6816205664251114,1.1316753496458625
211,-1.1199826923109928,2.8989873322308655,-2.4456475583258475,1.2955898216303812
212,-1.0245672362599176,2.973342048325218,-2.2263994277653656,1.5183009946903676
213,-0.8592533469260204,3.0785082913230104,-2.018841615708337,1.8031776861092514
214,-0.570402235013336,3.2455497777976827,-1.8190730977567722,2.1218377586127875
215,-0.26325221744440097,3.4586691045447613,-1.6173195455330944,2.410889198852357
216,-0.060779246980467154,3.6774034179660124,-1.4056238947792494,2.6059690403057525
217,0.0582220819716945,3.881757195962975,-1.1786948768613241,2.7444835300343713
218,0.1636304612914638,4.06272885156194,-0.9364360488239081,2.8920709488282186
219,0.3240553260918227,4.218151515320083,-0.6918346526303101,3.0138417282938486
220,0.5878083472960758,4.354828639554595,-0.461436062993984,3.06948600664221
221,0.8683517948896251,4.4735491022426155,-0.25126027674281787,3.129019202512441
222,1.0512479702074773,4.574573733962729,-0.06118505791686647,3.2749174351360355
223,1.1853641403013173,4.6771018800815645,0.10790913716977371,3.5163648497095936
224,1.35488893709313,4.798664119765931,0.26061943953723715,3.831072433581984
225,1.5239202788307504,4.917962835816189,0.41338900017613134,4.166520515922562
226,1.637278342129197,5.00974710737588,0.5824223456883472,4.466110120933692
227,1.6982925258385522,5.099398943408346,0.7736187069639949,4.751405999359389
228,1.7219217002328426,5.216601581885007,0.9830727516022302,5.062653022186847
229,1.7349102786084187,5.338132896548234,1.1920007193797773,5.362246356055555
230,1.7684087439486564,5.43065875324352,1.3788528769128436,5.605352204708689
231,1.7931709765172092,5.487764263866956,1.539393136225737,5.8052994831618445
232,1.7760361376842757,5.515124183974743,1.6781602102723945,5.99250004631082
233,1.7913751339375956,5.535618628717489,1.7987772382787528,6.215923332858088
234,1.9155035931735769,5.576726497525137,1.9087935371380695,6.509486814577887
235,2.0912703135450683,5.631907358469544,2.0147112396791926,6.798629858644688
236,2.2304603509961076,5.683953901141442,2.125219360010223,6.989891933671472
237,2.2998088281306286,5.751693694182134,2.267217388984183,7.107650434163698
238,2.298574121433617,5.850178175904852,2.4620379521371794,7.211095459045005
239,2.2967442274105005,5.937372848322279,2.694167354698776,7.297707268698607
240,2.374721893839564,5.969408414123365,2.9340751158087475,7.358775555185668
241,2.49530278764589,5.947180232842124,3.157309263573384,7.421138458458647
242,2.585966718321697,5.8939979742621595,3.3478152838861437,7.501495585817818
243,2.653594790012813,5.874618970660209,3.516897013262486,7.58861118869826
244,2.715325485204061,5.937521778150578,3.684348336191412,7.658390273950939
245,2.7440202903756576,6.00289154211484,3.8472212849294682,7.645764354604055
246,2.71498423995845,5.962678444213113,3.994714019842358,7.505527285405177
247,2.602521297063176,5.804848232128376,4.117748475436863,7.324981572290697
248,2.4016711357334604,5.564506720587543,4.210051430356376,7.216665645064564
249,2.2208073273655673,5.29887397210925,4.2858270825875096,7.184671468068848
250,2.165973536880579,5.075305747457002,4.3610266725867,7.188688608563696
251,2.159905673793639,4.914462018902989,4.422304167598635,7.179661824996648
252,2.0792850195037857,4.804665326464135,4.448166420755863,7.108687836561484
253,1.9082630429180936,4.745242822035314,4.430933903333523,7.003547248865277
254,1.6669888441513432,4.721996236524285,4.370428759364619,6.915201455960183
255,1.3965092451848988,4.670169254048441,4.275170067770105,6.800510268971863
256,-11.634381015739436,-16.52117665616056,-17.22404080663581,-12.21531649632034
257,-12.044704087509245,-16.980851322619895,-17.825637869723536,-12.76765468640725
258,-12.572957998453012,-17.418390031889054,-18.432919807779374,-13.396754149442266
259,-13.139673788353857,-17.818919966427686,-19.002946205202186,-14.011910784681522
260,-13.633398724996903,-18.164379673071082,-19.49600108642295,-14.509701669546548
261,-14.047285573161863,-18.474676609411986,-19.91505649553491,-14.888442371973257
262,-14.399622497822058,-18.773760335554783,-20.282431100976034,-15.180783507846572
263,-14.727646853872216,-19.062742568045078,-20.621073340916162,-15.391571799557758
264,-15.065592021464374,-19.33714687795837,-20.94880719560478,-15.529673770960038
265,-15.342312712848578,-19.587312497512436,-21.25875265287193,-15.605339931545334
266,-15.486877948073158,-19.807063387954926,-21.53249738934012,-15.626700010230467
267,-15.58677148249416,-20.01997521666858,-21.7642936786177,-15.631601188133457
268,-15.739473307013984,-20.251937987215882,-21.951991161018714,-15.652782231693015
269,-15.892651292742652,-20.490505526525883,-22.080868181222797,-15.652164465182889
270,-15.981532892649271,-20.718069619631848,-22.14884588233976,-15.596033495981827
271,-16.03218713732315,-20.95186480292087,-22.19633048521111,-15.553079031960335
272,-16.086583506961045,-21.204473690351914,-22.26249985539521,-15.593393157380765
273,-16.197066265256698,-21.44557160166678,-22.34786502263282,-15.687886646857141
274,-16.393326280217444,-21.64071405390242,-22.434787282985184,-15.787219563560969
275,-16.57794360641719,-21.78185854513429,-22.48546762889762,-15.871869719320015
276,-16.650933835501533,-21.87065913787498,-22.47333716287481,-15.93377799158664
277,-16.67090534125443,-21.91624211480032,-22.438876536369172,-16.006726364289353
278,-16.726555551631744,-21.93072652889231,-22.434943164207308,-16.12851974031386
279,-16.823380624863983,-21.90940078754625,-22.466338017992925,-16.251277742785195
280,-16.94967074937709,-21.84939316039073,-22.520735678108323,-16.330305593506424
281,-17.08810777487575,-21.773328161301738,-22.585447321657238,-16.4475450148435
282,-17.22030364000844,-21.707094201539608,-22.644804028429377,-16.680671206940907
283,-17.39146225377464,-21.665839093150055,-22.695482964007518,-16.971903476565675
284,-17.64244497033282,-21.656274690102347,-22.743064510710372,-17.24082043563378
285,-17.90266925708988,-21.660599128845405,-22.786136273774616,-17.45404695862704
286,-18.09574119243495,-21.660240427234715,-22.825065147592586,-17.602813111908247
287,-18.254027675579906,-21.679155336057118,-22.883997602585527,-17.757514174740233
288,-18.422210621278527,-21.737502451608556,-22.976502667611953,-17.981490503200266
289,-18.58763826849475,-21.798184882676445,-23.054713517176857,-18.17205375785506
290,-18.72621118629015,-21.813020507577246,-23.071684626204938,-18.21898182188841
291,-18.790276838247387,-21.764310314458932,-23.05127958423675,-18.189922494317585
292,-18.748341094000914,-21.644725624245922,-23.030317799644212,-18.176323644599943
293,-18.68769453174135,-21.447035825345257,-23.012949202674697,-18.170729425736642
294,-18.69315656846132,-21.178781564414056,-22.99130758161316,-18.144243460624015
295,-18.69130421865958,-20.86128903265477,-22.93923593575475,-18.053297776007355
296,-18.586180697918675,-20.518928587868764,-22.827428598250396,-17.864482813920056
297,-18.380998546756032,-20.18807898266441,-22.664480372024165,-17.648958443029166
298,-18.10101679036717,-19.883282691347773,-22.462177673533937,-17.479500974671332
299,-17.773741799723282,-19.547959554179204,-22.190698263970702,-17.297125208305268
300,-17.42011187304084,-19.11850140682998,-21.82128980348002,-17.01993602034616
301,-16.977108909713525,-18.585877284526273,-21.3624921870185,-16.636729736612946
302,-16.38566112451387,-17.96874539299677,-20.83681645900669,-16.15878253988871
303,-15.723757942554716,-17.312276581500413,-20.26970140020279,-15.612122159682595
304,-15.083603255384162,-16.65831050581637,-19.687140945118685,-15.032573976421466
305,-14.441238913730327,-15.985589059413046,-19.10191981446585,-14.421520689602715
306,-13.758582009511347,-15.256728037183935,-18.516553480250966,-13.775741740019063
307,-13.054158916117204,-14.475137383824727,-17.932327504982652,-13.136150353016978
308,-12.353062338317034,-13.651761751941574,-17.345004905201087,-12.537713051751375
309,-11.695247926534696,-12.782905016806913,-16.7403894221541,-11.96132330396233
310,-11.104923919897214,-11.869259361154072,-16.106591451427175,-11.376405628251248
311,-10.500309354111629,-10.91721401541109,-15.443888295007277,-10.767687247334269
312,-9.801644964400653,-9.935266344867427,-14.757149700604757,-10.128033750156785
313,-9.073661500243912,-8.946292172114719,-14.05433430292488,-9.479968489877352
314,-8.399478609726179,-7.967434002747317,-13.337855165657784,-8.847999191729015
315,-7.762988372675851,-6.976816087822213,-12.5879139370355,-8.197591910918907
316,-7.129790288614225,-5.993103945903677,-11.842420806285803,-7.535884716160436
317,-6.5483001056843895,-5.093540026947953,-11.167251450675687,-6.986370643699124
318,-6.061660485092804,-4.37532345516652,-10.653212790117625,-6.675629945819346
319,-5.739731134017127,-3.818223834869077,-10.26239479001626,-6.534272720826012
320,-5.6178539901635265,-3.3557609065926597,-9.904877470177226,-6.427990665838651
321,-5.581865876267369,-2.98272834802888,-9.553683768878292,-6.3041387308405294
322,-5.498103053355743,-2.6678000737518146,-9.201058871267696,-6.142701579951938
323,-5.387062157329924,-2.414164654144568,-8.834533387326523,-5.959381050395763
324,-5.132028326193418,-2.0892259968868334,-8.32389578227829,-5.664191103540437
325,-4.887554378761523,-1.7406327932221177,-7.798892134532434,-5.314362051716881
326,-4.609130250420291,-1.3641331888138353,-7.247982890030565,-4.8347057903322295
327,-4.290853922435895,-0.9775613954918871,-6.698372300606733,-4.319822279448146
328,-3.935599674162738,-0.60537122110351,-6.1822714581476,-3.890580060623942
329,-3.5669516614997527,-0.2553769876513646,-5.694469720339546,-3.5065436629331823
330,-3.2097311391903913,0.07526768082124935,-5.221671503454924,-3.089495542241095
331,-2.823157640067257,0.39362837920304783,-4.772216705896027,-2.6394535049850685
332,-2.3623346361601056,0.7155415773087773,-4.354457734952675,-2.1737757438195238
333,-1.8752669140992089,1.0577096830296884,-3.9670269863626166,-1.7169655376614477
334,-1.428468539041508,1.4364621596393616,-3.6014082754210786,-1.2981175998662333
335,-1.0219314534095791,1.887708991710495,-3.2250996115828108,-0.8841985907396921
336,-0.6396009971573202,2.43096478229622,-2.8067776525508066,-0.4339105214049742
337,-0.2760534523448833,3.0078935982477026,-2.3601872500773906,-0.007159769709208013
338,0.07630759021160363,3.5433989748765145,-1.912067401195434,0.3288912770603439
339,0.38137336553241963,4.024942359878734,-1.4635140835962432,0.6278517939587056
340,0.6114797903747462,4.461084463277332,-1.010206988181392,0.961075348584496
341,0.8752141023327946,4.848476003250899,-0.5510514048771167,1.318461249083224
342,1.2833657278841764,5.1845674675937214,-0.08866026226449625,1.6640451333219135
343,1.7523614153043645,5.451192956514093,0.35076567643991247,1.9412057465602255
344,2.154046597517375,5.631682514680101,0.7376591726383209,2.106033900413046
345,2.476587301603517,5.751637123328977,1.0741933604077618,2.2344455219167503
346,2.7406232243359576,5.846760494938005,1.371894225274497,2.4212352891656197
347,2.9771545887985846,5.92458521960238,1.6260771104246674,2.6331439761162696
348,3.2132335111201646,5.982419196590235,1.8318965719088636,2.8021101328969116
349,3.3571176418780517,6.014002462304899,1.9905528613846997,2.8999260305992944
350,3.3126408300778496,6.012732470336493,2.1083768784464723,2.923152886164157
351,3.1720110948701232,5.994537961144176,2.2107189828084723,2.9451520563415308
352,3.0703731728844237,5.979044385634866,2.3225911689686844,3.04790123518416
353,3.018500271273901,5.9564934289257865,2.4380825256545977,3.189707147248026
354,2.9877165704239075,5.910900079009699,2.539909662630731,3.2900763329746328
355,2.961971545753235,5.845649303176724,2.621100204251643,3.3399855401709746
356,2.9192003245517553,5.767161344382865,2.678484826720486,3.3468202432499665
357,2.865376517342943,5.679844002079145,2.7143379061986943,3.2904634243881983
358,2.821903822202828,5.586673996236225,2.736817820357923,3.1650184314863528
359,2.77594472763468,5.466344920022866,2.7476356054981554,2.995549433986717
360,2.7140396148900736,5.302490079151913,2.749422458505904,2.8171414347487524
361,2.670953708230933,5.138060382249254,2.766321820825852,2.681295629284829
362,2.6773718028737616,5.0229590565200715,2.818709783066311,2.6248222056634916
363,2.716200396255718,4.9503846684030535,2.8858414386608104,2.6063280954683385
364,2.7497489285837884,4.8919520176872116,2.939314814127459,2.5656336576125955
365,2.704790927484076,4.821956690362966,2.9803995245518693,2.5083089048320426
366,2.5291554395401046,4.720483282892463,3.0224129481511075,2.4602633232115716
367,2.3162443318365096,4.600564126388396,3.0823475527958784,2.4242972259295694
368,2.188661185834175,4.4921513911620705,3.1758842945077803,2.404223489869262
369,2.124733568795118,4.4060050755204525,3.297854671365356,2.4011802225989234
370,2.065444504167096,4.347402884525277,3.4317762203816913,2.412580051054074
371,2.02939929019433,4.340295974949745,3.5696080327579454,2.4748282253708482
372,2.0393063066004413,4.396646725776443,3.7057465995163996,2.6147202175275557
373,2.0923391566971254,4.478422028353376,3.824632754824197,2.750680276568622
374,2.178546743781589,4.537475856780048,3.920494820792778,2.799357487521954
375,2.2246721185738942,4.557725979606112,4.0221912926044245,2.8123661510443805
376,2.1691120444440246,4.539058892369903,4.163151392242856,2.880113545395212
377,2.1208016178925435,4.495916138074507,4.353390808601337,3.05470309841322
378,2.208268128152295,4.4458865423225244,4.583147630372384,3.3518873955194657
379,2.3689058321985264,4.372519197447845,4.8118483183125385,3.692039295731813
380,2.4929715684364444,4.253182572697379,4.995147675759621,3.966844510456082
381,2.5651666015807875,4.102991678659763,5.127781695184265,4.16011553171242
382,2.5955724958538418,3.9445204174699717,5.225316565393283,4.291401101042822
383,2.617329856135026,3.7795869105865694,5.307306871883897,4.3545557183596
384,-2.69252472406637,-86.83599615506621,-23.69891704450671,-5.418179758044241
385,-2.9088979011470584,-88.28429846111904,-25.995685991335186,-5.804008120608333
386,-3.25713694273756,-88.86044752284353,-28.31089347500556,-6.32886416935119
387,-3.6796669746886526,-88.59582620819259,-30.74197851192386,-6.927152462155229
388,-4.111230448599945,-87.5182072409016,-33.33496059224792,-7.56028536797585
389,-4.529347335631447,-85.65643821335625,-36.02369977836253,-8.233307874822914
390,-4.996452418347238,-83.03865790611594,-38.70211232883678,-8.947280675638707
391,-5.5706907492161655,-79.68787300323204,-41.278968370967114,-9.647184136464494
392,-6.218676825064232,-75.62157043580629,-43.70236562082654,-10.255277855328037
393,-6.882073969067486,-70.85398710162227,-45.939239087053565,-10.760966219811598
394,-7.482676373633582,-65.39638026086271,-47.9376309701248,-11.226557185279223
395,-8.014476263155155,-59.25830940756737,-49.60831560059552,-11.68880021434345
396,-8.476667686902935,-52.47777932414271,-50.85671506067381,-12.122479331040148
397,-8.854916461397103,-45.04876521519486,-51.60407721294486,-12.441223156459234
398,-9.105310685322124,-37.048008789067765,-51.75281472236482,-12.576157181481538
399,-9.214537851953594,-28.594690269937917,-51.223604961287926,-12.539979329651477
400,-9.213294254069925,-19.786982820301986,-49.96686459273163,-12.415518286188084
401,-9.142764687048036,-10.590012085343833,-47.996615004108826,-12.251416283538083
402,-8.98325861270176,-0.9091709017958234,-45.35864115878954,-12.009540566150456
403,-8.688507716490406,9.332001582413493,-42.087907101031085,-11.62412600604536
404,-8.214744466262028,20.216320527186568,-38.23773303143194,-11.098052825022329
405,-7.617353732713252,31.838207258231314,-33.860896879465166,-10.496198808714237
406,-6.953940077264459,44.26806565301936,-29.040319688349783,-9.831071844721546
407,-6.255527752378903,57.533266279189995,-23.851809088496513,-9.027789682923222
408,-5.498579452658557,71.63386438615335,-18.34890436230767,-8.036405203469617
409,-4.646526232262681,86.5452709098515,-12.532547093260698,-6.931856730140574
410,-3.719655603921014,102.23145129550137,-6.3807982427958665,-5.852392075318676
411,-2.7943866892551923,118.61120270794922,0.1346915350348103,-4.87249382456103
412,-1.9312997881472438,135.59303092357,7.00534171974306,-3.9604907789330994
413,-1.1134354711347758,153.0353138676584,14.125524572889312,-3.0429605679040304
414,-0.26341793352917975,170.71806018968942,21.351691095513917,-2.108028517277829
415,0.6491291143200094,188.4149102321785,28.542812610489225,-1.1680020793467771
416,1.58787474746766,206.01524777879743,35.59168294213295,-0.2548159798157742
417,2.5148353635638054,223.4998176414951,42.41804292552891,0.671939330091984
418,3.447017276935023,240.81301815627853,48.969069454707444,1.6507363890590698
419,4.436621299250605,257.87606226880075,55.25504816918602,2.629294152863644
420,5.388843476338552,274.5625967678841,61.31428696406377,3.5586335134500593
421,6.067383191744515,290.6968110615739,67.11930504285948,4.400631465261309
422,6.379767343556075,306.1220513090912,72.58792000831104,5.181627905420154
423,6.4222171862066055,320.7158156711933,77.66951297230347,5.919648281835262
424,6.331331781778387,334.45930641301857,82.35878120935628,6.629141693343014
425,6.199058601548036,347.30808343957045,86.69218467013002,7.261220186966089
426,6.081071732064015,359.256270451859,90.71921805594512,7.76505698098654
427,6.003522795688863,370.3794592146679,94.49392749505023,8.166590190205664
428,5.9593202606950975,380.72971910597346,98.01447245959683,8.513081592748474
429,5.933817103752917,390.3122671853371,101.23899323580358,8.829526702861695
430,5.92498200301916,399.06185172450364,104.1291720022172,9.132279858616457
431,5.9354059982715235,406.9152682727741,106.65506358139129,9.412030161017634
432,5.993864516596621,413.8690901517565,108.79618359099263,9.645364290935035
433,6.220371097152069,419.90031529500544,110.52657615142378,9.846144846585613
434,6.682697017152975,424.9902075836368,111.82959818819259,10.01794361374049
435,7.307729410463207,429.0820118752136,112.70422983305627,10.07155604915083
436,7.938713990372607,432.120386859657,113.15997605213342,9.948974385746967
437,8.45739197093652,434.10707518442774,113.22684577791757,9.684734006240069
438,8.870100705064958,435.06644180141893,112.93296911778536,9.383788567526592
439,9.227971744281792,435.014920193569,112.26361876872403,9.113420152571807
440,9.601232482317997,433.99086389399804,111.20853778214807,8.87130744397084
441,9.938092649010292,431.9835653129884,109.81995093616287,8.63638377339801
442,10.186374125465337,429.0273210985858,108.16209762056867,8.386686460491019
443,10.319798598338657,425.2112296523748,106.26446133304782,8.142561493700777
444,10.392628608918981,420.53253172721685,104.10185226891694,7.923873880973656
445,10.49548562232154,414.9255016917551,101.60323213178211,7.658469554169376
446,10.599235218754846,408.29435262911187,98.75806547877617,7.227471547562929
447,10.625531124005771,400.69370835803903,95.64087509576851,6.6477684443100795
448,10.487903513129355,392.1887724191322,92.36407781047426,6.065691397614822
449,10.282748179821509,382.82809343241564,89.00503178984442,5.554592254802971
450,10.114219495706791,372.6237156461306,85.575005042593,5.011594241380058
451,9.947568854944583,361.56586471861135,82.03683885748873,4.28581939259232
452,9.215154863848273,343.03589538732115,77.3718986276287,3.199596425820833
453,8.42540697061232,324.49964428657535,72.72746508252918,2.165747373738958
454,7.653981833140635,306.00695570938143,68.12208579960931,1.2337684931718065
455,6.9748574846525235,287.54043807841606,63.53556153762905,0.3508291220759625
456,6.334360243017183,269.0637090694773,58.94586382772128,-0.5670568134296772
457,5.5665286554422915,250.57298814490264,54.327589086254065,-1.550838517654025
458,4.6126289936800395,232.07072828558228,49.68806952120525,-2.5743378956270577
459,3.5766708873825674,213.56009851245614,45.04977756245671,-3.608309594816728
460,2.596233232531176,195.04391583348686,40.434700106736194,-4.655919290143956
461,1.6830121938149916,176.49656645204323,35.80808895178094,-5.74415476310638
462,0.743264281876838,157.89399544670667,31.12714012779289,-6.863624547161425
463,-0.28006480644739196,139.25794317831003,26.376213153403768,-7.958923905510457
464,-1.363726543614011,120.6271152863744,21.569970165873862,-9.025795138191745
465,-2.471104436604085,102.0253273673127,16.724224652872177,-10.125328483265601
466,-3.6117436052616223,83.46293916554471,11.844564425145453,-11.333019272941481
467,-4.814858708790908,64.94074319016767,6.939217964180157,-12.636476273652537
468,-6.0983305568173005,46.418090802572294,2.0402559635776925,-14.005884093514737
469,-7.39709683547654,27.86850947776466,-2.8301407947447874,-15.363516475550728
470,-8.614798080528821,9.227080346029688,-7.655212336446641,-16.688045754420273
471,-9.754562331026253,-9.56344725831637,-12.444060324859086,-18.00943917050088
472,-10.92713902080781,-28.469510167891638,-17.2128261127441,-19.345978365898088
473,-12.152586817939302,-47.36694000924126,-21.967674399012484,-20.598910119150098
474,-13.307810377603337,-66.15842138186115,-26.699934407026614,-21.63976262745755
475,-14.302914873228193,-84.83882690548306,-31.403414627544144,-22.478442426953073
476,-15.151063263901884,-103.52367032948918,-36.078905790006516,-23.255197104536425
477,-15.90598670490183,-122.40469067973224,-40.73608911289015,-24.0670765017166
478,-16.61511776272417,-141.53551510560095,-45.44119603086394,-24.90399957376666
479,-17.29997103079826,-160.79387710192182,-50.31181306599478,-25.706626318601213
480,-17.853314910666096,-180.13318293128452,-55.26749081785914,-26.370250736070357
481,-18.046189128522094,-199.65574125561974,-59.99791002417485,-26.78004237506654
482,-17.749498183588653,-219.3487313215811,-64.34828379979552,-26.858786551629972
483,-16.91155622380625,-239.01611859809165,-68.41719228148132,-26.46499855044169
484,-15.480474938552478,-258.5399963993888,-72.34304283956178,-25.41590537766832
485,-13.717676219817914,-277.8743176910664,-76.28742687383956,-23.945219592237386
486,-12.28006256739595,-297.01848156012886,-80.48537328624377,-22.768761164413878
487,-11.66065774255302,-315.99135911291165,-85.09159632919645,-22.39367405465624
488,-11.802243223619755,-334.79570789519926,-89.9784631960524,-22.698838384799156
489,-12.264633903121302,-353.3681148308373,-94.82276342792021,-23.16550160953839
490,-12.542843527772105,-371.69218757513386,-99.42221180671632,-23.352541172831266
491,-12.545776918300408,-389.54451591617175,-103.86324996580632,-23.28883739822891
492,-12.579391085964513,-406.3139298358113,-108.40132702266467,-23.37275928456914
493,-12.782126950565232,-421.41328969671474,-113.19007529301216,-23.6997888623236
494,-12.963228329374822,-434.1509760143845,-118.14007975327281,-23.89877059007956
495,-13.204665599426232,-443.7930122323766,-122.9813134247942,-23.977150724226068
496,-14.009341019394268,-450.37656777460063,-127.48321875094997,-24.530069211162598
497,-15.541835476820529,-454.6310993055464,-131.61638058608594,-25.828494568988667
498,-17.322249093766946,-457.3347210781016,-135.43865546235187,-27.419642056242104
499,-18.7637711236707,-459.01153306460543,-138.98524327550885,-28.65905745997031
500,-19.674445369613494,-459.93041233977453,-142.24308709419776,-29.347766220326545
501,-20.223905185326636,-460.15795290235434,-145.1569986191302,-29.741556975827617
502,-20.649820744316493,-459.67062411780614,-147.61191058081994,-30.090863146612413
503,-21.07137351398862,-458.4128801861115,-149.4703250296253,-30.43545209090615
504,-21.504713042130327,-456.34734344214235,-150.7287974146148,-30.69600033272281
505,-21.850182733511215,-453.4441537308637,-151.49156349128714,-30.775108616336226
506,-22.03222758056276,-449.69406278312846,-151.7479924153988,-30.65099958304189
507,-22.08784071582821,-445.09602305266964,-151.34910421586534,-30.365808623716678
508,-22.070637694120855,-439.652490152321,-150.18111106416544,-29.941766967815628
509,-21.99813979596885,-433.36490511493037,-148.23906295966842,-29.359078033688263
510,-21.79912596307424,-426.23540761937466,-145.56766700041894,-28.60024901839433
511,-21.395509554431722,-418.2717222132277,-142.2096036761746,-27.707285406209316
512,-14.757802804223084,-137.58323909374013,-40.36622140369952,-18.134952577098453
513,-15.236426256868947,-139.9927164832263,-41.123791837168426,-18.56053106041203
514,-15.831957911270582,-142.16815176722756,-41.89264640118164,-19.079230413898863
515,-16.49465157747733,-144.06021663960166,-42.63361041932729,-19.613568114939174
516,-17.157589814627947,-145.6335613431353,-43.31578691198043,-20.081316751713473
517,-17.815560777372244,-146.9077588735203,-43.92096909320685,-20.501692315460456
518,-18.47401758879041,-147.93890381807682,-44.44874908286355,-20.912820926774025
519,-19.147985734557928,-148.74691374753849,-44.92008506539648,-21.293861106025247
520,-19.838188843715287,-149.29777388820494,-45.359493130341804,-21.62160027993759
521,-20.44882870050132,-149.5611783330968,-45.774912222159564,-21.890256466567735
522,-20.891417659117174,-149.53762429171525,-46.1632958403137,-22.10490490948014
523,-21.22001776441643,-149.2421855282661,-46.50671082032891,-22.321501860753685
524,-21.51543104485371,-148.69633023542653,-46.794741419394946,-22.587171515788032
525,-21.782761955607107,-147.92652679311797,-47.037614923953136,-22.84405787793955
526,-22.009834420545513,-146.95553952706382,-47.265579347840756,-23.0217185066262
527,-22.172608830472793,-145.801239068715,-47.48328426379104,-23.14437872659697
528,-22.252915236081638,-144.47089779343383,-47.68268938302844,-23.247376453329977
529,-22.316510906001284,-142.95419111475977,-47.84110567318721,-23.30744232729775
530,-22.427586377298145,-141.2291757367478,-47.93383324042311,-23.300345919187194
531,-22.52867716999026,-139.2874985908129,-47.92544147349213,-23.22212206049719
532,-22.54878781999239,-137.14402381045286,-47.80950164322857,-23.081523342926825
533,-22.50859726753832,-134.8221166638754,-47.61265117748986,-22.936387879726837
534,-22.442946731153103,-132.32466558586398,-47.35885490699817,-22.838683555426197
535,-22.362524580471906,-129.63200976288292,-47.06100254099134,-22.74065001687914
536,-22.27080280617567,-126.72925064383315,-46.72019372006164,-22.586090340648724
537,-22.11828087550205,-123.62947012331563,-46.32973767384634,-22.419460175048354
538,-21.86557119065288,-120.36815216608862,-45.87583217766088,-22.29022847192329
539,-21.609891906158932,-116.98727886243553,-45.34499111873821,-22.174193447113904
540,-21.44630793997646,-113.49720674630414,-44.723826157521145,-22.032680030401334
541,-21.290855823282115,-109.87679019489403,-44.012204017329246,-21.828930522886743
542,-21.04701377354469,-106.10224059193949,-43.21130479965789,-21.54407877938771
543,-20.76085890265764,-102.17766995209037,-42.33855871083042,-21.235139727259913
544,-20.50205706927683,-98.12715326365598,-41.426150999501054,-20.96741377531683
545,-20.30809041707923,-93.95808425582416,-40.49104671710864,-20.72738896573929
546,-20.190135262779453,-89.65524651517207,-39.527002518239776,-20.477292908471792
547,-20.052511613293454,-85.20983855759488,-38.521815075089634,-20.20387914915299
548,-19.79791628563198,-80.6494785657107,-37.45873720573859,-19.892039555104002
549,-19.50332560051981,-76.02461227057815,-36.32979158340572,-19.520190354369657
550,-19.262411854571074,-71.35700374292172,-35.137934963752954,-19.080890965005842
551,-19.002938149122247,-66.62841731741553,-33.89792321481688,-18.571668705901153
552,-18.64416961609446,-61.79520083793843,-32.62598077160239,-18.009173736894038
553,-18.225602663294055,-56.80323072920395,-31.331465627327834,-17.473756906780906
554,-17.805662623587445,-51.615154611726915,-30.010674408424197,-17.028706215656673
555,-17.422694265989126,-46.20878883068977,-28.63619647817351,-16.62112272484536
556,-17.0908001590661,-40.58888362226356,-27.181566435929867,-16.170487383697065
557,-16.734756655528237,-34.78141828132409,-25.623538962027993,-15.646839060745517
558,-16.269989823238387,-28.82238748887026,-23.968577898288746,-15.040992139268333
559,-15.711408130034421,-22.738047340014983,-22.23441819400659,-14.377931074061822
560,-15.101325470056631,-16.531276576978126,-20.44414812061025,-13.690689527644937
561,-14.453807554750366,-10.170700002842985,-18.595187139718995,-12.941523017313965
562,-13.77869373602892,-3.6186841361942554,-16.688825296296827,-12.095610258907001
563,-13.056231373137491,3.117806173983813,-14.737551155123214,-11.22578859760366
564,-12.267163828163762,9.987703566897759,-12.768676085850638,-10.40113689338296
565,-11.474844936440983,16.946701548789576,-10.785720347210814,-9.580367815160754
566,-10.731299335337456,23.986660816743203,-8.763052023055508,-8.698299381951102
567,-9.955628999864395,31.123112533556245,-6.677102418698465,-7.712633643277645
568,-9.056621628625711,38.37210271983257,-4.50456018514191,-6.602665632268319
569,-8.046545938245552,45.73850141520611,-2.2358912129172186,-5.4313655587772445
570,-6.967958127237192,53.228519657606746,0.12240826111268435,-4.2696156273783155
571,-5.862920613211204,60.85426471662995,2.545979482129004,-3.0585892425510917
572,-4.789523984062356,68.16992017688425,4.892403699783347,-1.8347936604889925
573,-3.8060302271100968,74.21596914398198,6.90220308226327,-0.8058021596951767
574,-2.954535058426146,78.58246002295144,8.462235062559964,-0.20272854238268512
575,-2.3504728042307317,81.66006449772945,9.657095647618215,0.10614184689723004
576,-2.0440830932442373,84.00654565438893,10.621155088137021,0.3737599595745415
577,-1.8004807275188501,86.02811085910474,11.480827991459892,0.6970030613472189
578,-1.3703021155911848,87.9087041144619,12.33617939251191,1.1029552406330225
579,-0.8172540231134544,89.65962103113976,13.218172465601922,1.575106930259911
580,-0.3739103223272082,91.71283301004779,14.250301050952006,1.9372823019772456
581,-0.007812431134321944,93.50872696899056,15.207513294708292,2.267083866119826
582,0.25861034485228984,95.03414790028516,16.03867753751196,2.5473734132160764
583,0.45843683555022285,96.33583169608274,16.73368484614872,2.7467486449193186
584,0.6535765848038039,97.49953632386342,17.324605703914628,2.8556689890291667
585,0.807824062849654,98.56433610198113,17.847071698946433,2.9327117998435073
586,0.8761955119683705,99.53007238939256,18.33853362549913,3.0456831657831134
587,0.971069995922835,100.3959973044253,18.832249668614466,3.215990557973688
588,1.2096098503194535,101.12717957982923,19.34504759150758,3.4377520402047144
589,1.5113247422798115,101.65913235985988,19.863095765308387,3.6505817294466403
590,1.7608834191969984,101.97681275204393,20.360749417756452,3.800048367766574
591,1.9774325281436524,102.13081178822532,20.84013170182966,3.977310666685179
592,2.216867574003452,102.1542879814416,21.29585698722306,4.287585938334883
593,2.5289174412004822,102.03332563211184,21.70633603286392,4.665991576459801
594,2.9507627145035014,101.74774785234926,22.031568442427815,5.004237141609932
595,3.4083213583048595,101.30663628587747,22.265811197209512,5.261528002647787
596,3.8068537594566245,100.73764493455279,22.44816408276015,5.432333020722986
597,4.200493659930976,100.04461813344123,22.600108101059927,5.586664446836984
598,4.667988117985956,99.21280412039933,22.706754118170263,5.8109551981242324
599,5.160742006763084,98.2470061808118,22.757095216259113,6.069315826925714
600,5.605756116874217,97.1726098571998,22.765847927901,6.291022542948334
601,5.980710267256314,96.01557541355866,22.75632312473421,6.4992814250823105
602,6.283889033823293,94.79046221762968,22.724373790907652,6.72379076133441
603,6.568599577005344,93.4795037125017,22.64831950022439,6.920974865843016
604,6.8955273147725915,92.03225041901042,22.507953208446057,7.041210542785185
605,7.211657702693742,90.40103035654437,22.313017270530846,7.052267328143394
606,7.444779505865013,88.59588532652893,22.097349080874785,6.950908096937707
607,7.6451619402135105,86.68482782777899,21.902122060391438,6.841098064274703
608,7.874693419089611,84.71337321133437,21.73671919520452,6.837865677630566
609,8.103287226502536,82.67458112343867,21.58940394677483,6.901760425198663
610,8.272128252730898,80.56468040330715,21.435175770008414,6.950853386132747
611,8.29484185670446,78.42165460507181,21.280804277100156,7.010291002757474
612,8.110705863277802,76.28180477726211,21.132643290053863,7.114956429214201
613,7.826780940963688,74.13012208758673,20.98535194678078,7.2224870372945515
614,7.5885344947381945,71.91986060661256,20.816089250300298,7.284653536328368
615,7.383767140615771,69.61393498138503,20.61649757466941,7.27476110542973
616,7.158330203894157,67.22164052126934,20.407186922154875,7.187484464038952
617,6.934102600111769,64.79157152607218,20.200588135643113,7.103953912090648
618,6.738353901315789,62.342611119682594,20.00127713102067,7.109574137401414
619,6.586317562186077,59.84786974639116,19.78852888022097,7.141747506117492
620,6.484204532861912,57.29698978691891,19.53202495136679,7.10827732268545
621,6.362268550283341,54.76386888720724,19.23408876589179,7.043586901323859
622,6.148110363523089,52.401804538612375,18.933300834309094,7.006095985271902
623,5.90096788323293,50.323019093138655,18.653341842111278,6.990779637891063
624,5.7038757182767,48.51288431764853,18.37974885505112,6.973330989168151
625,5.525220618112143,46.88143518174391,18.077109286403378,6.9062157995991535
626,5.306346314509865,45.33966209030238,17.706838039092244,6.741059837694763
627,5.038074654132689,43.82924624480886,17.260311103621277,6.50094444183423
628,4.723129472757512,42.34132950869047,16.75949043558841,6.232961502367405
629,4.379292553835876,40.90747529894977,16.23513245017041,5.93259646600894
630,4.034864395263052,39.54709408731509,15.701874213245102,5.593618926335091
631,3.674347804334013,38.258114378759366,15.156233302680278,5.2519976566056235
632,3.283247015151643,37.045728560613995,14.610602006359414,4.950213306129784
633,2.936551378966023,35.917211360219156,14.101661286161901,4.734106845982342
634,2.7137160363163493,34.85371154105828,13.637913768569483,4.629472513317067
635,2.5843595166432802,33.804482043356664,13.187590883943264,4.572607952126733
636,2.492459501477434,32.72488444435296,12.721729401223213,4.482360915534656
637,2.4383485897854644,31.62265138922296,12.21992797551691,4.373616610010135
638,2.4334909223855172,30.54722901943596,11.677750285922603,4.2847617934558615
639,2.5011804253791303,29.51756921957109,11.113542800955512,4.196724004104864
640,-12.08090137221767,-25.884888421000326,-17.084594158448468,-12.155060624217352
641,-12.410184981149426,-26.463655111941247,-17.475102458165598,-12.5635113325935
642,-12.659206182999185,-27.070711542129917,-17.824433334326468,-12.956629350265192
643,-12.855839338547337,-27.631642766385315,-18.115690432561575,-13.268853507675416
644,-13.001870620861032,-28.116507826206544,-18.35842479257544,-13.451066481854186
645,-13.114741987269776,-28.550010493108104,-18.586271420398045,-13.563790883234129
646,-13.251190343083687,-28.97779099710642,-18.811819209934722,-13.687272314447204
647,-13.433899918127436,-29.40421559933772,-19.03207137078716,-13.835595587928768
648,-13.667454978443905,-29.815166895416468,-19.24033839635298,-14.00386913532767
649,-13.898392393852571,-30.191438726623996,-19.459975436078654,-14.18636140694815
650,-14.06832912025547,-30.507011665297195,-19.71375406414858,-14.374463214502754
651,-14.185592235366803,-30.73569104510446,-19.99618054485967,-14.58787285947203
652,-14.276744693802572,-30.868816105104496,-20.289150604147153,-14.847398429879636
653,-14.352537878266078,-30.93182718364508,-20.567366564012275,-15.130662148379901
654,-14.416349066255282,-30.96360310388359,-20.8068096279074,-15.40646991176102
655,-14.437615785804942,-30.998504611167707,-21.003354660261657,-15.67601181285794
656,-14.395631207965895,-31.063354334231132,-21.164879255820296,-15.940151932365834
657,-14.345149348007206,-31.155974164538993,-21.296697710219018,-16.166598245462485
658,-14.361205218674224,-31.26765609214974,-21.407912468256107,-16.336428650261073
659,-14.480218813285791,-31.430210584756317,-21.521923896068312,-16.471268191870927
660,-14.721082864593791,-31.660877793116487,-21.654340570733055,-16.61107795657623
661,-15.10258343130532,-31.900286370507857,-21.786644094128867,-16.83387418262174
662,-15.61319446042903,-32.0751676681462,-21.89575873355777,-17.187432095455176
663,-16.185327819471002,-32.151164869853915,-21.983334255097795,-17.57717489822873
664,-16.743922706535283,-32.1200962042758,-22.058953924844996,-17.892751733923546
665,-17.254132780444568,-32.000031072239736,-22.13134913403219,-18.14838417229843
666,-17.702307289475353,-31.830172357702825,-22.206602219024337,-18.39532605269685
667,-18.08412981196784,-31.659184633619777,-22.281210458690307,-18.66162916810798
668,-18.407054403208203,-31.520316793905263,-22.34702598463793,-18.971084963748808
669,-18.67361604277129,-31.400901667199385,-22.38453412515754,-19.316406910866657
670,-18.883404543876026,-31.26551981072164,-22.38337312844565,-19.671707131235884
671,-19.05388732954415,-31.09375898101667,-22.38743333147836,-20.041371381454905
672,-19.172336354173673,-30.86628941796346,-22.42539265388677,-20.421502441751652
673,-19.2344508081016,-30.539494935124154,-22.47674630826926,-20.744619297138833
674,-19.192880467219283,-30.106654969807458,-22.481614224620156,-20.953712129217983
675,-18.97683955145206,-29.596079978250742,-22.412342535160274,-21.074064739421193
676,-18.625945340508196,-29.09610864847272,-22.28875233463656,-21.15422886708784
677,-18.250386770467273,-28.63461225777075,-22.133365685011555,-21.2294445348341
678,-17.962122806685795,-28.21364274297889,-21.947294924981755,-21.319707061624573
679,-17.737923962691617,-27.797187863589837,-21.73140235006197,-21.389679886819742
680,-17.507945708656457,-27.334019452619454,-21.47450740221688,-21.39489146018047
681,-17.23086509111729,-26.80550994779623,-21.174729985009595,-21.35927287296557
682,-16.886185077450072,-26.195253779710477,-20.826496886415875,-21.311380282545002
683,-16.509845274813006,-25.519692792508906,-20.399487758078074,-21.21639273989611
684,-16.15441796258657,-24.770919196017157,-19.868762251279794,-21.035957479148376
685,-15.824670924525217,-23.907519154353707,-19.242408967648572,-20.767912087678546
686,-15.5038769687881,-22.941302277911525,-18.542526822407584,-20.423458791872584
687,-15.17120032792749,-21.915721946546466,-17.798239579770435,-20.038343792977777
688,-14.802629114658348,-20.875199909834,-17.03461672592536,-19.6470329848841
689,-14.389813153089841,-19.79275439935738,-16.243189213113002,-19.21591142623979
690,-13.935056922050132,-18.627610908936138,-15.415554324582041,-18.711112299198614
691,-13.435675679827826,-17.384867314777775,-14.551628489951419,-18.19794942353334
692,-12.890893606636947,-16.080392060610855,-13.670810031295638,-17.73599637750942
693,-12.314076896981833,-14.721531364554277,-12.775266507593567,-17.275561575303318
694,-11.696276526311161,-13.31762544746312,-11.839951269908168,-16.75109561742373
695,-11.041160678767625,-11.871137594444564,-10.851947191027127,-16.13029451624655
696,-10.31366173927606,-10.382082691673505,-9.805332758214238,-15.414417841888595
697,-9.440715917285216,-8.864247246924107,-8.728349751491397,-14.709300154483326
698,-8.420573835410126,-7.3297098974852775,-7.6503854393499955,-14.117131304647884
699,-7.333740550924985,-5.7689749122562874,-6.586882894304309,-13.570377045488543
700,-6.2336726287834,-4.255064465635659,-5.583139592779526,-12.980558230420295
701,-5.186666353678027,-2.973406361364471,-4.748417135769324,-12.469695668835659
702,-4.246308855106653,-2.0087565227825688,-4.141599081183277,-12.147109811912795
703,-3.5601021192892466,-1.276758577561264,-3.710624550095346,-11.976800155054953
704,-3.17202923920507,-0.7100166137358863,-3.3643666089450126,-11.859563289021024
705,-2.865421613828464,-0.26224207533768434,-3.023726803340385,-11.655735840728422
706,-2.375024612845884,0.06444350153131287,-2.657804459629764,-11.264424563547045
707,-1.6683248465214096,0.3017148243343135,-2.269423469479558,-10.790772570898996
708,-1.0154037746446922,0.8174566262175078,-1.7815581870608008,-10.15375845403975
709,-0.4798242213074607,1.3860642435878288,-1.298395617323447,-9.594306070508154
710,0.004185940661919197,2.037889312857785,-0.8381996627381949,-9.04518208417121
711,0.5432642727118913,2.750227701082635,-0.39283995531115273,-8.4920422356578
712,1.1622404469409267,3.4763872777597435,0.054349974058460884,-7.925898143036955
713,1.8366402974604497,4.181800716077403,0.503010310027365,-7.326748265182822
714,2.4977610526905245,4.844898941329995,0.9467366246906086,-6.69211034095501
715,3.1405992299483487,5.468199208837682,1.3787622233351413,-6.0328835239843634
716,3.78255063845207,6.0698890134875825,1.7935093913419646,-5.3690541285984
717,4.417451294455469,6.662041201256012,2.195411984545576,-4.752651664574153
718,5.040301698934661,7.248876297326907,2.594420858002318,-4.223978128967526
719,5.6469362379632075,7.832015866186429,3.0016613268180845,-3.7372378067521583
720,6.229637079263905,8.401584898216068,3.4235264743192646,-3.2261468574319245
721,6.80615275858436,8.91697034865427,3.850399966681437,-2.69123636424444
722,7.389112400384495,9.344942876498047,4.270574417840982,-2.153473198722992
723,7.921687751300691,9.708197136877088,4.655941901413416,-1.614899817768288
724,8.36123920106506,10.050093464225064,5.000652802014266,-1.081354246421327
725,8.704239800409741,10.408516323356858,5.296496249627305,-0.5533159472047177
726,9.011576226242253,10.803477713807236,5.542216516776906,-0.03358978910789655
727,9.360154568252259,11.19228952089927,5.728720754573155,0.4254418866850081
728,9.759457000642083,11.51499894344873,5.8538181674610215,0.7751837167060657
729,10.172329860344389,11.771090327030588,5.952883488111346,1.0602605360377708
730,10.529784707390641,11.978716534584432,6.063907043848832,1.3410497258863296
731,10.824923972553728,12.128316337685991,6.183009493809443,1.6007239137387765
732,11.051704723207774,12.21165766253887,6.290009152859833,1.8024535016861432
733,11.190348209720803,12.23620444319026,6.371294327864241,1.9231845902299816
734,11.199987553297937,12.213523096797752,6.418262205527183,1.9513060615432747
735,11.084824299496107,12.16364815773433,6.435473264136865,1.9422279313372661
736,10.923567481940594,12.10430254317401,6.439558516086242,1.9594484415598696
737,10.801351086670481,12.032329485532058,6.453299319101355,1.9485200969806995
738,10.719125177282088,11.93805094565571,6.494562629284447,1.8417750942209656
739,10.600318588962534,11.809513569731685,6.564874043057248,1.7079268866356394
740,10.42116896076496,11.642953281491645,6.651028748053651,1.6342446542687288
741,10.228655515092699,11.485714641119111,6.722369350658003,1.6121775709237969
742,10.079513728456167,11.37276721734662,6.749435328997164,1.6052319876394578
743,9.955917872612147,11.298108205977396,6.73217708638224,1.557873753165699
744,9.799397212087323,11.20903428223751,6.685643611168862,1.4330512035023988
745,9.593046724315347,11.091678235461426,6.624803868368529,1.3382744580954113
746,9.404406544874758,10.993814471289495,6.564435669072249,1.4030420293322252
747,9.319241073614414,10.940700281136268,6.5071453062696625,1.5897853479710768
748,9.32816210433762,10.899924321957226,6.45256050941176,1.8148438765088672
749,9.332788469773948,10.860376126049678,6.4145943762682265,2.0713156387391733
750,9.272981523510524,10.807601974827312,6.408566953636118,2.368160389028381
751,9.219558332423592,10.765964752517574,6.443903491436525,2.7257483755433927
752,9.251811247976491,10.76674174472823,6.519854423301506,3.1590982589574925
753,9.372324434039147,10.790418863111885,6.607458877686514,3.596563008967002
754,9.490050254812028,10.79930048101087,6.672685957820703,3.9515145346416136
755,9.540326742281149,10.775946482077215,6.711826229662719,4.227838320378623
756,9.556670483384277,10.709531317670125,6.728182755215974,4.463087965624757
757,9.584490593934753,10.584519966318574,6.736604684640248,4.674838077489554
758,9.678438275568972,10.411921515349809,6.737041798522397,4.880306678710428
759,9.784629542433459,10.195530328504539,6.718960654203417,5.088220691791968
760,9.827799864374796,9.970123263702703,6.678484297384113,5.291959518494819
761,9.769832454220621,9.794408735629622,6.615711730346863,5.496439437672917
762,9.630603317320505,9.668247743009081,6.516427327021593,5.6960499611488125
763,9.428380967285898,9.521225138958037,6.357845843753432,5.819220055583501
764,9.157117248728008,9.31867261732652,6.142507337037777,5.8003548228747785
765,8.827449865287479,9.079703024905145,5.900218482942123,5.683104659105965
766,8.495217181009252,8.850004549148503,5.643468723162543,5.541682514990365
767,8.189080867246393,8.6383526352082,5.370030956978545,5.391894699188623
768,-13.321258602162944,-14.380513505225872,-14.623905190470662,-13.016416374896252
769,-13.737926546834995,-14.629193737693951,-14.904805514719644,-13.001124068499914
770,-14.278967287423233,-14.996676026204018,-15.13957932580698,-13.066191353461582
771,-14.898695588471819,-15.400084037270272,-15.317371562675625,-13.17081235480808
772,-15.524187455855522,-15.751620162796153,-15.441823001296521,-13.248845598898297
773,-16.12300272372241,-16.04246461730777,-15.554609534052553,-13.355402717803539
774,-16.67522260924711,-16.348124642539993,-15.702624501050515,-13.548215142334389
775,-17.1716634770836,-16.710621146673965,-15.91095991685715,-13.805705647697012
776,-17.61773040234252,-17.092153511345813,-16.185554686540105,-14.094880589834224
777,-18.01358218053795,-17.430615853115498,-16.505822918508546,-14.382161963920698
778,-18.359155473968034,-17.723780302879955,-16.839291643668425,-14.647153200957582
779,-18.668639830248818,-18.029168249830565,-17.166892582180672,-14.957096031473935
780,-18.944725182386883,-18.37741723469104,-17.476153154016167,-15.375895615171615
781,-19.163183148597824,-18.761690167057736,-17.753140334163753,-15.826852962009491
782,-19.294187737193624,-19.150928936963936,-17.9936163683846,-16.221386083038468
783,-19.286090651249257,-19.512497596687776,-18.205900325138135,-16.598452136274013
784,-19.118256770700526,-19.831736650829,-18.403487412802306,-17.0089248810064
785,-18.911541084031544,-20.11555721649377,-18.60840359237072,-17.432929559404375
786,-18.782698315188334,-20.397801720458276,-18.83264202338272,-17.833740280328787
787,-18.65606483067125,-20.69006566483443,-19.050545443530858,-18.153530286798066
788,-18.43212322716463,-20.969426935997888,-19.231062529314016,-18.350809681087114
789,-18.142337733085544,-21.214450512106147,-19.371412578638093,-18.48789449972334
790,-17.845323379311257,-21.441872866582717,-19.481544732084032,-18.642465300042367
791,-17.59333351730525,-21.697035204242475,-19.575808017963105,-18.800951352827553
792,-17.416300003079897,-21.985628588564243,-19.669707790928747,-18.92945168992199
793,-17.225837702247137,-22.274569914173036,-19.768918456404315,-19.025632015407467
794,-16.92448831596958,-22.51447748963645,-19.86796796201702,-19.08794206286818
795,-16.55904697438501,-22.687445411284926,-19.951055985873953,-19.12570243917418
796,-16.20246813352358,-22.791341454710004,-19.998021031680654,-19.14512630701461
797,-15.842601529566222,-22.830045157560683,-19.992075772318696,-19.097047893604124
798,-15.457504682428814,-22.816336025322,-19.923170805097577,-18.93887766183687
799,-15.047666281730182,-22.76595755783872,-19.79138313797242,-18.718264439192282
800,-14.61567640991174,-22.690978296104394,-19.603703999775263,-18.493653728831944
801,-14.19852726921431,-22.593828585975903,-19.373145145478404,-18.25729250557499
802,-13.826418612282497,-22.473603948309805,-19.11435276406757,-17.991175931563756
803,-13.439272408473222,-22.3352818205307,-18.82669193354715,-17.690954614106616
804,-12.97866819306925,-22.18352241662824,-18.521142594874142,-17.360942602404283
805,-12.495852363386755,-22.01834009494253,-18.21488875990118,-17.056774172053935
806,-12.054444701274846,-21.839615509464448,-17.941711189159705,-16.82240350832481
807,-11.656069026264706,-21.644435689623897,-17.70148205206287,-16.59261561008605
808,-11.280187852907693,-21.433270841977702,-17.45137758793299,-16.28970544820385
809,-10.867440403141703,-21.221852608564692,-17.155262678699394,-15.923967731600754
810,-10.368976580967027,-21.020431691883253,-16.813307586151357,-15.528708878541735
811,-9.86050409415048,-20.820034973323736,-16.420540081662956,-15.122203163083256
812,-9.425469212094105,-20.59401338269663,-15.987278303412578,-14.722772801244231
813,-9.00148018913878,-20.311340220892802,-15.516424913584594,-14.320780591994644
814,-8.521564955921203,-19.94457173050914,-15.014846557423805,-13.904824281846695
815,-8.03754148328587,-19.50491172403381,-14.530252764894414,-13.52530614328785
816,-7.627637695262304,-19.0475448289524,-14.089021225279208,-13.225720787494604
817,-7.361167935190666,-18.620021979670376,-13.665817486710232,-12.953975365750296
818,-7.2737618634746894,-18.20762242553508,-13.201291065081966,-12.649369306880345
819,-7.288700392589391,-17.749411071931704,-12.672430107307585,-12.329867358208583
820,-7.2970024180530055,-17.232097880299094,-12.105401015274063,-12.025804581880614
821,-7.258864465204806,-16.703972318417687,-11.528124641449038,-11.734554117611797
822,-7.1621025370564215,-16.17522649349053,-10.944350538261864,-11.449182156717152
823,-6.99478420806688,-15.598801525352,-10.341361228954165,-11.149207244306918
824,-6.760631172489794,-14.978863846616319,-9.729593648660687,-10.815953636323066
825,-6.471384417439342,-14.387615825600799,-9.147444131802851,-10.489015701912626
826,-6.131935302887154,-13.849023759045775,-8.587854666679009,-10.197932683229684
827,-5.73744858452986,-13.316712569277593,-8.00548251807969,-9.86796887365462
828,-5.266843506712243,-12.762775403306234,-7.371482353351387,-9.424584650380547
829,-4.72512236737326,-12.202024594590792,-6.743211279788718,-8.955594715620176
830,-4.117617739491419,-11.677710131334358,-6.198950115498239,-8.556979027464724
831,-3.5247243304940428,-11.181547529686236,-5.750854116951769,-8.223282288222256
832,-3.0170535519097283,-10.691012998692884,-5.374951109323617,-7.912178449256053
833,-2.522605871845081,-10.168889344699057,-5.037765591199932,-7.598003753363813
834,-1.9521983813479762,-9.587416306956113,-4.7038700023448445,-7.263027595207225
835,-1.3423806840189618,-8.977210969403023,-4.36552779183214,-6.938226928091316
836,-0.7648711735745762,-8.359812645380408,-3.9207916538726257,-6.622302270684511
837,-0.22072920399540277,-7.75939000294668,-3.4910975185467397,-6.289678529985394
838,0.28635695992972077,-7.169378569759008,-3.077263686062067,-5.86736778237721
839,0.7790898209817873,-6.592509009575833,-2.682027952998579,-5.380045596901201
840,1.280882260372571,-6.038116662124212,-2.306486922667376,-4.884579696922999
841,1.7390057673230093,-5.537832227086028,-1.9531670724205739,-4.435090779286139
842,2.0973167622605704,-5.12025922873533,-1.6250353686107994,-4.068561564227776
843,2.4071720976802524,-4.765795391648098,-1.321722336256054,-3.721499430548532
844,2.737102241124151,-4.448350323913183,-1.0432245610201685,-3.314628052402059
845,3.0788662869808787,-4.149825761283764,-0.7925468731303628,-2.9028113938425024
846,3.3993716877329607,-3.8802938112930234,-0.5746477642642804,-2.572576647946465
847,3.649292477903459,-3.6542750642042865,-0.39878905289308525,-2.31254578331288
848,3.788674562985578,-3.4718844880982553,-0.2718613390176001,-2.0948335680717576
849,3.8867740300861806,-3.3365009139527633,-0.18830685830278973,-1.9407122539717632
850,4.026902888174608,-3.264422242677297,-0.13709969317564805,-1.8688298516867081
851,4.149169365230035,-3.24151213851804,-0.10810444330427264,-1.8919512249669366
852,4.168719345847379,-3.2158942396628314,-0.0924886081420687,-2.00556852189827
853,4.104903001323138,-3.15581253201114,-0.08931836709065018,-2.104881619302245
854,4.007152135330142,-3.070135842730982,-0.09804090001323594,-2.0855304280599394
855,3.927273293833243,-2.9712494034282195,-0.10587191246696459,-2.0245396931416
856,3.9063356554073767,-2.8948126801894287,-0.09753448062852324,-2.031169931972941
857,3.8827861950726072,-2.8747591507937322,-0.06381374183176859,-2.0460795174864135
858,3.7757698897751975,-2.9376964636897367,-0.002661499119357716,-1.9796272215840323
859,3.6436661682718774,-3.0550747957042077,0.07553049732316716,-1.8408221326324776
860,3.5684636231786473,-3.1457622571327706,0.15553486236761438,-1.6644617306569547
861,3.4949640913639217,-3.1558014318154637,0.2230477496347949,-1.499480545737603
862,3.3561202849038834,-3.0806568108742827,0.26959643025815716,-1.3892621510592147
863,3.201708268221081,-2.9284027455825132,0.31247209164000894,-1.2757499731161126
864,3.101374581734005,-2.701802729272554,0.3615221377571866,-1.0827879566485874
865,3.0903418368273705,-2.423779695578565,0.4207497015800419,-0.8515756557172787
866,3.175554863476183,-2.140836690893341,0.46462168080094013,-0.6505636905373237
867,3.2609283358449344,-1.8786672073713557,0.4901881958157094,-0.47589208601642485
868,3.2425948972853793,-1.6260856817744618,0.5336168376701852,-0.3061786705169174
869,3.188608786652716,-1.3818797270235414,0.6185417043017667,-0.13644825353759227
870,3.2045655306866396,-1.137140190962576,0.7329160974885787,0.04200006633675211
871,3.2590034270722374,-0.879796978620614,0.8711430460318451,0.23313268949286436
872,3.289541679686002,-0.6044497239302072,1.0182688072192856,0.4336598121626744
873,3.289650841783115,-0.315205766093829,1.1687887579264038,0.6562660031067096
874,3.2629900833493677,-0.022498089476882074,1.3218413494122478,0.9064225140848019
875,3.2302959800853634,0.25719279718546373,1.4639523364161573,1.137603908740168
876,3.2163921294658,0.5103523266240195,1.5845076987702669,1.3039292345748907
877,3.184293801449476,0.7397508048188133,1.6928438123934746,1.4223638475858276
878,3.0879934989300697,0.9557166919029034,1.8029121100357066,1.5334958622810826
879,2.9616047370953984,1.1675370483874807,1.9263137563431785,1.680597884835404
880,2.8517510342058676,1.3842322550546728,2.066359610465321,1.8950704446506348
881,2.7347206200725416,1.5968696516517824,2.195621509112752,2.133441662474508
882,2.5749429089539024,1.7968559274444444,2.284304087610165,2.3370871016162025
883,2.378830800859535,2.0016128139096883,2.3420062143232507,2.539391555629885
884,2.161738618722284,2.2197506381803565,2.3922159080779886,2.781705629688593
885,1.9377518725127247,2.398877287028825,2.44841937182715,3.024163519496851
886,1.7243696945510898,2.439990226427086,2.5159888843418257,3.2039071473940592
887,1.5088257020821745,2.325615645972776,2.580238727080586,3.246137128880539
888,1.2846096552655384,2.160337410111173,2.6151662781625142,3.1022302587284063
889,1.1288961212861204,2.0598791670836007,2.607485388116002,2.868064121622953
890,1.121915606808541,2.0611921661655352,2.5495647848725285,2.6697715589618536
891,1.2398569652915077,2.0951106694564947,2.4228795750225265,2.474628393680285
892,1.4232133800147129,2.0739460046412126,2.2221529317943842,2.2160629272942693
893,1.6449016949128454,1.9806401665789022,1.983365762075213,1.9478424499921236
894,1.8861987750816152,1.8875956823014752,1.7549868515262337,1.7361293029016973
895,2.1366132669867537,1.843731954194309,1.5701422960825704,1.5717241647429707
896,-10.89719198630717,-13.375444202030423,-14.251136836902566,-11.206208174676776
897,-11.235038085954255,-13.687637574315982,-14.738160988764111,-11.609693121337418
898,-11.592329492567266,-13.994803504879862,-15.24889667971329,-12.073839443110053
899,-12.016393139362275,-14.30027914881552,-15.785158232342253,-12.54111927284552
900,-12.536367858303898,-14.605887070029704,-16.33846401597658,-12.957814716648745
901,-13.107888030194019,-14.935935734558248,-16.89727420009548,-13.373960376464543
902,-13.664635059143613,-15.301774539399988,-17.446698063508116,-13.848772219972112
903,-14.18398280458518,-15.67033224030359,-17.977394517879027,-14.377616659700479
904,-14.659401020123642,-15.998847334147582,-18.48556434693832,-14.926977548617115
905,-15.085160931385627,-16.25657133930386,-18.973196032342237,-15.41908133976565
906,-15.464899917869305,-16.429630631685047,-19.441871926143893,-15.784686586677873
907,-15.80013010174539,-16.548156473067486,-19.88390276309705,-16.06489538693965
908,-16.09170008826417,-16.6506981712872,-20.29079905245393,-16.320331830583978
909,-16.349561531022218,-16.727931816742544,-20.657802060783148,-16.524074234363354
910,-16.576263145414092,-16.76659006527022,-20.98706322421856,-16.639812718845576
911,-16.75632010734649,-16.795832919695417,-21.298927379923562,-16.67795068322493
912,-16.86321848106816,-16.84584449612894,-21.613118892838244,-16.661203788348494
913,-16.85674929559909,-16.921258990255087,-21.924423984582234,-16.623557553246354
914,-16.70907285978382,-17.0151505604889,-22.219571803165298,-16.597481989619073
915,-16.435867412740492,-17.101923291126326,-22.491991598171094,-16.57872175237142
916,-16.076355246977737,-17.155147454767782,-22.734496108934312,-16.547553286305728
917,-15.672860406547791,-17.18625805411835,-22.943922293543935,-16.501179538205122
918,-15.263156718352228,-17.210506087366163,-23.117365131381995,-16.436190798190278
919,-14.875386675890834,-17.203677349527972,-23.23612403419627,-16.326841466667105
920,-14.517121836612148,-17.14440441976929,-23.292382560357055,-16.162681436013965
921,-14.150190210021387,-17.045904561449493,-23.31889418736155,-15.980459683592088
922,-13.742824526594912,-16.93496581507077,-23.36473615867645,-15.82616005302413
923,-13.336983322527951,-16.852684829562513,-23.469404321027618,-15.740946325748373
924,-12.985823071776748,-16.829594664030303,-23.66319642490075,-15.740467861537327
925,-12.701656338976937,-16.841832465995708,-23.972755669406926,-15.755605115561345
926,-12.477261841884186,-16.849889260292834,-24.394095677163026,-15.717595283294266
927,-12.267916284271772,-16.843454015924383,-24.860266453994612,-15.668957877571735
928,-12.034776780886732,-16.819846123266924,-25.292886668717173,-15.672977093175513
929,-11.829430643194923,-16.77478426969077,-25.657962797696584,-15.73351167086627
930,-11.709685513352673,-16.71299286996052,-25.9435930997811,-15.833282089491993
931,-11.63911621810122,-16.630703918870843,-26.14086826020424,-15.936041093602395
932,-11.56369630104783,-16.532767505019105,-26.25327622658438,-15.998757781077996
933,-11.47468511668077,-16.481651823894012,-26.296578750871436,-16.02131752915448
934,-11.367247646101479,-16.520710464726783,-26.275594190857596,-16.014034798979353
935,-11.237741754632188,-16.58024810512081,-26.175108646337765,-15.940323919879535
936,-11.085374449172715,-16.572267797933677,-25.966744188601297,-15.774988458341426
937,-10.859364166913174,-16.474033970572137,-25.592670181108982,-15.573712147556538
938,-10.529910208947852,-16.295994436569153,-25.020899416256707,-15.395027314975946
939,-10.209009139039654,-16.083272680889547,-24.321677807747584,-15.225589370909562
940,-10.00426542659656,-15.889133734407887,-23.58816028497462,-15.039233599104499
941,-9.851939943933088,-15.716726467670206,-22.85415364692509,-14.824735724790871
942,-9.654830504583206,-15.547114641816314,-22.125293281574443,-14.579362001546249
943,-9.396037633579978,-15.376902392479215,-21.395734314299055,-14.359119317651116
944,-9.079897882023412,-15.19378290676561,-20.64238307282419,-14.200298630911739
945,-8.734708614179956,-14.961866271509438,-19.831326416034443,-13.995403804024718
946,-8.394017102951087,-14.649418006928741,-18.94300017597769,-13.629100785735437
947,-8.007205020730803,-14.242775029849055,-17.999564015424564,-13.116733564120219
948,-7.524334241003504,-13.745446740315309,-17.033579799265386,-12.516175630896134
949,-7.034218958125655,-13.189467856116252,-16.056022675072278,-11.882146418367642
950,-6.6179880542951315,-12.609218805381857,-15.06764988669688,-11.262074630460535
951,-6.183863157141508,-12.006322235170066,-14.056040689594791,-10.62985015862194
952,-5.625880900312844,-11.37017124035923,-13.008215959756615,-9.94525956040799
953,-4.954237143389957,-10.699178671473504,-11.941409680503629,-9.255684405898865
954,-4.214083614195777,-9.993512861661827,-10.874884465529028,-8.608361627223681
955,-3.4744601181249215,-9.249131817076343,-9.794681688557686,-7.958903599892358
956,-2.7781577053659414,-8.497493780350506,-8.723702163311092,-7.264453840989039
957,-2.1109617133587553,-7.828238752868301,-7.721709371210229,-6.584067732468506
958,-1.4309425851965192,-7.33066021834023,-6.860531162054754,-5.983976594891108
959,-0.8295473651468934,-6.995626930812092,-6.126266328637625,-5.522172298298027
960,-0.4017397924109709,-6.765949570061748,-5.458628093823179,-5.217465882313511
961,-0.1123413958266738,-6.593350544278788,-4.794792533190835,-4.947862102555067
962,0.10799064196376296,-6.440289336212808,-4.089915815069885,-4.592029957778484
963,0.2842939745519752,-6.304784089299962,-3.3665368028872855,-4.246660282527599
964,0.3447476584552152,-6.391811457276776,-2.6550850003549264,-4.085862251141634
965,0.3384190369395529,-6.47318705851655,-1.9916581918445728,-4.01345625410557
966,0.23117966023730727,-6.5268689383084935,-1.3755353726846324,-3.935107417657703
967,0.060238680359414,-6.55088833887645,-0.8075403712563477,-3.8300196794059596
968,-0.11325505275295063,-6.555457922126287,-0.28486821786394834,-3.6988127794272314
969,-0.28754989904696426,-6.563768497645012,0.1883949648926293,-3.561696477927049
970,-0.4739542881514649,-6.599736562565414,0.6056987017697146,-3.4510533721444188
971,-0.6494027455355328,-6.664176593496632,0.9663294620537977,-3.34746831131113
972,-0.7959505890172146,-6.744497063305298,1.2781469090765665,-3.220611003294747
973,-0.9061008086834627,-6.8363899952927625,1.5630648726005598,-3.1071842639714067
974,-0.9865787338912416,-6.932623643910585,1.8484623806700455,-3.04545628968135
975,-1.123580287193037,-6.997846601590151,2.160687534686213,-2.993548871579775
976,-1.3900760759219801,-7.005500255596468,2.516527154214383,-2.892010149441868
977,-1.6800517854288886,-6.992129605586993,2.9021646617743295,-2.7267746260450236
978,-1.852020456542468,-7.00441970996261,3.295612589983049,-2.4952525333657305
979,-1.9228791832546717,-7.039560353875594,3.704003056749,-2.194573472042409
980,-1.9493709361300977,-7.073474639941914,4.137688390833292,-1.83063557400188
981,-1.9183511065375374,-7.071288855369242,4.583973235480573,-1.3824394553440655
982,-1.8153904073450982,-7.001943432038943,5.023286091100366,-0.8435372690044017
983,-1.6252126491991126,-6.882780456883509,5.430221786791853,-0.3121941882488635
984,-1.3459302725321547,-6.747720457701117,5.787515240199503,0.1086821599174135
985,-1.1001976954799004,-6.601725116627197,6.118688656007234,0.4404401263812414
986,-1.007671695209835,-6.441420314493732,6.459789553431618,0.747671921170604
987,-0.963852333269771,-6.259466981679413,6.821296329765562,1.0717755128829332
988,-0.8219273105857287,-6.049903774020952,7.202444900213334,1.4371183949970918
989,-0.6267229237222012,-5.848604764477776,7.597482501592893,1.8026263742449196
990,-0.4691951431163744,-5.692169132071745,7.994880529000821,2.1072178861368043
991,-0.357879544430352,-5.540071174202491,8.39560110966389,2.3661726756579418
992,-0.288586003488245,-5.34117395514707,8.798302328675685,2.61186995331086
993,-0.2452806644328444,-5.12537907543911,9.170231576599397,2.8209834137575105
994,-0.2091156103962551,-4.9374456391866195,9.475510431440474,2.96245135383347
995,-0.24358720685402716,-4.768880870954861,9.708714042690184,3.0290714781630226
996,-0.41444505913791446,-4.601322421095989,9.877765693896242,3.023022606675356
997,-0.6569434569882258,-4.4251950408815155,9.991593840995113,2.971277998023285
998,-0.8759058852438595,-4.237228894464619,10.06361528712262,2.908732408821431
999,-1.065682211864644,-4.0776615435685,10.098767604454855,2.822754868453131
1000,-1.2438778049261783,-3.9859810839751577,10.1002050675573,2.698307314614672
1001,-1.3990993722443814,-3.924561808151675,10.097308479061827,2.600962486404196
1002,-1.5278604831718443,-3.8379856243253943,10.113203227074417,2.595402188735083
1003,-1.6360274342384131,-3.7173086248642964,10.114177299378937,2.641308681613054
1004,-1.7357653280653336,-3.575170232829924,10.057467473448,2.6718038722574837
1005,-1.879754139044302,-3.4441937857827725,9.94372837548233,2.664707055081178
1006,-2.1132064618910795,-3.3607707388389865,9.790878429185845,2.6172836357193425
1007,-2.396979972328468,-3.316893336802186,9.627660448580043,2.5622884491880167
1008,-2.6693822996729137,-3.2857866182981237,9.478987186693159,2.5381456620403866
1009,-2.913610848699305,-3.266739399416992,9.316315691645572,2.5082979725474615
1010,-3.1307580731481353,-3.2584350816499654,9.101691786665178,2.4217063995972965
1011,-3.3449684853265857,-3.2297788295250762,8.854661764270567,2.3029805689279037
1012,-3.582715708497634,-3.152676362309519,8.60913136059216,2.192704868693498
1013,-3.7973595566913922,-3.0289006931955447,8.376291317009038,2.086868546719429
1014,-3.9361958506548556,-2.8754247994790796,8.156484955863492,1.9760344620256085
1015,-4.049772059117924,-2.7215717790548783,7.9241135008089785,1.8627551679283718
1016,-4.2017302033886335,-2.5944581702994185,7.651457462483989,1.7522513823202905
1017,-4.372995916844652,-2.4866292897286457,7.357906215571248,1.6809014523603945
1018,-4.514511953673271,-2.374728229807015,7.077127384156706,1.6819998533719258
1019,-4.56913859574775,-2.254100666558705,6.817110757009464,1.706371267054281
1020,-4.4904286285377655,-2.1210211849695293,6.575541545750573,1.6997032917319803
1021,-4.305287057192158,-1.9468218357378628,6.345867729085936,1.7110613526787022
1022,-4.070728733032179,-1.7123018341942382,6.116340586342619,1.8081024781941304
1023,-3.807065816216244,-1.4438843660949905,5.878941345879204,2.00009838684908
1024,-10.636443086278792,-13.331286510113625,-15.004287740899334,-10.907864030015498
1025,-10.84086935826078,-13.768395317588304,-15.526383437018158,-11.1369311944761
1026,-11.075067594167866,-14.120082155902,-16.043728197825946,-11.395613113720898
1027,-11.387823255245948,-14.398953533488129,-16.548158938974193,-11.65065546018923
1028,-11.797116022318885,-14.635270507277484,-17.034452404373038,-11.863428998242558
1029,-12.19377201420361,-14.854603428213919,-17.495169084694837,-12.032400946475047
1030,-12.468633064894409,-15.07646014812884,-17.92531702424133,-12.168825276636973
1031,-12.706505593552404,-15.318227831385423,-18.327011789567756,-12.293220050127887
1032,-13.01262786478287,-15.584291761714129,-18.70172453537664,-12.425789426580272
1033,-13.324352369343568,-15.848048069586635,-19.042133866085173,-12.548894035062501
1034,-13.562167699159925,-16.081882288708435,-19.341088554895343,-12.643462214290409
1035,-13.741181794402472,-16.303469178162256,-19.601581142027865,-12.748698190858569
1036,-13.89614495466952,-16.532848556747968,-19.83404440801563,-12.902387694701146
1037,-14.071149597358756,-16.735693627838003,-20.04683283802855,-13.070565825614311
1038,-14.30508983933711,-16.880918538914543,-20.25658418340741,-13.21611469884945
1039,-14.55505678639686,-16.99799787838099,-20.50730275746062,-13.356726040529232
1040,-14.769821061618593,-17.12454000630124,-20.830558383193043,-13.517465200225873
1041,-15.00269691418466,-17.270240897897658,-21.206115571050255,-13.722332430029358
1042,-15.305426967583792,-17.43338015231321,-21.591818456188996,-13.976158570719841
1043,-15.621427979552896,-17.591328286169613,-21.941577428370337,-14.193431287553311
1044,-15.882178542635716,-17.725430326853303,-22.222254227545303,-14.29810617301613
1045,-16.0671544571177,-17.86458065674094,-22.447532266802128,-14.358028282467895
1046,-16.18507153367232,-18.047704485732954,-22.651098629599133,-14.46390186743185
1047,-16.3074429710182,-18.28561691321401,-22.852430656438756,-14.61848834694652
1048,-16.505522837741967,-18.5757876028965,-23.067525952022866,-14.800745907663103
1049,-16.747772443798222,-18.90422922608129,-23.305770700123087,-14.97541496576928
1050,-16.97837926856734,-19.247961138462106,-23.567889898642875,-15.113720981155119
1051,-17.199544251260278,-19.59390431322659,-23.869231966782433,-15.280009513603927
1052,-17.418981669268312,-19.930371432054383,-24.20907657190699,-15.538264456467706
1053,-17.62905672927429,-20.225262707577738,-24.519191719814692,-15.816989517524485
1054,-17.82029726590389,-20.453813483199205,-24.730934735030498,-16.02965684319322
1055,-17.948429398198044,-20.63749867003951,-24.853508415153776,-16.199736363575084
1056,-17.97942869364357,-20.798273866119896,-24.91461809910609,-16.36102900739004
1057,-17.978754428827465,-20.909639214807658,-24.90733224997853,-16.489886484444085
1058,-18.01099423556677,-20.941349423446884,-24.826343107741913,-16.55567963247395
1059,-18.012342188347738,-20.887933670185724,-24.679137004438356,-16.5153673294808
1060,-17.91046430483512,-20.760805218955007,-24.47929790132686,-16.343357792238894
1061,-17.7354631050198,-20.60741097221336,-24.266688600719306,-16.121637916808275
1062,-17.535787806552655,-20.46947789858303,-24.07534836545327,-15.936284890061852
1063,-17.342577306919566,-20.325190336105805,-23.885163516440002,-15.728108660134636
1064,-17.16847169739372,-20.1322611671259,-23.665190729881076,-15.430282280350113
1065,-16.940514011967206,-19.86554761602005,-23.41732268553477,-15.112286046142064
1066,-16.586991124483845,-19.51218395059805,-23.148007447614244,-14.851854804022366
1067,-16.176003101551164,-19.085267966671324,-22.857719523078313,-14.64841829787667
1068,-15.790386172839579,-18.61080119475843,-22.541960134299124,-14.467523230101461
1069,-15.388325899606457,-18.1026392658433,-22.169831926819885,-14.22334466425712
1070,-14.917552319661821,-17.571039099028102,-21.714990655668036,-13.838881290775483
1071,-14.40254497805739,-17.02722246297315,-21.19909025907908,-13.35464930302127
1072,-13.880197771336473,-16.48048869079365,-20.6570769419617,-12.84604293943263
1073,-13.389803940320604,-15.945620749585704,-20.10141611664594,-12.328512920569702
1074,-12.959524511952708,-15.43532616076444,-19.540847141576716,-11.814512681677341
1075,-12.531065112633666,-14.941573692143908,-18.992089131517172,-11.342172550136462
1076,-12.048286481099948,-14.453644152297255,-18.464257477141132,-10.945409816833028
1077,-11.592946670743702,-13.99086978058417,-17.95136644075673,-10.666835192449136
1078,-11.253484847732121,-13.564850042830813,-17.44240079850164,-10.526664468876302
1079,-10.98133553986984,-13.129532343870414,-16.925537359388514,-10.456699963842269
1080,-10.711465212828932,-12.638353010127476,-16.390586010416875,-10.377973052014854
1081,-10.454102415577836,-12.104272971178336,-15.838457130820697,-10.299866801679622
1082,-10.234170609704957,-11.556044463660585,-15.26952295004011,-10.243105163054533
1083,-10.08668062635131,-10.999327248207422,-14.668378216379322,-10.16921208070368
1084,-10.030850342659486,-10.479723907329412,-14.069874330813093,-10.059269746984317
1085,-10.022403472791968,-10.04507956591562,-13.510056468177238,-9.946549403403253
1086,-9.999534499453526,-9.74891930003101,-13.051961631119353,-9.874130247330847
1087,-10.019280085903844,-9.570021567839653,-12.692246415068723,-9.88921918089063
1088,-10.129156582584406,-9.442751974937215,-12.38416156552031,-9.99247693699708
1089,-10.211529652604643,-9.292571493068625,-12.08109148304193,-10.033728869368028
1090,-10.146494288606771,-9.067712977215216,-11.74548913641976,-9.880017878324146
1091,-9.949847028308012,-8.767185617613611,-11.361408297246644,-9.637813679954021
1092,-9.377816018770273,-8.417504119348164,-10.643950139355804,-9.226497928470327
1093,-8.832349441016511,-8.065830966192884,-9.923152722234637,-8.870381914033324
1094,-8.387031328791384,-7.7559844220183205,-9.217640472617818,-8.50541509312738
1095,-7.99223287502536,-7.492707925223907,-8.5365330511227,-8.113526222618317
1096,-7.570464305472949,-7.257700983217891,-7.8802994799577215,-7.688860351198099
1097,-7.153999398285833,-7.016310109048152,-7.2454395458792575,-7.257598858089294
1098,-6.792554799360542,-6.732609053981946,-6.622296591309468,-6.853365192659093
1099,-6.4593656163909925,-6.389225963565037,-5.9856852362251605,-6.420135873322167
1100,-6.11806144965768,-5.994638499246993,-5.31664929318528,-5.900244925830795
1101,-5.754892429233006,-5.611321150756376,-4.6387355361498965,-5.3828200809445415
1102,-5.367013383778075,-5.3021498246569925,-3.987021416013122,-4.975000237484416
1103,-5.01187313790757,-5.042166396470739,-3.362524030811829,-4.644741446264542
1104,-4.74461658976579,-4.778604939727095,-2.760384189533248,-4.322480782827851
1105,-4.48454435433101,-4.505237627045423,-2.199397827414804,-3.9884137923739984
1106,-4.1352255988407,-4.22787094337083,-1.6968557582134172,-3.636851852481412
1107,-3.7537058225455167,-3.947573116985258,-1.2574625327411943,-3.288702656653501
1108,-3.431013135335876,-3.6697647990651174,-0.8744282747144227,-2.979287526821349
1109,-3.1713010042006133,-3.3842421749668516,-0.5070874793623259,-2.6911764693681604
1110,-2.954568843631482,-3.0809807219582526,-0.11464556864416514,-2.400654989000191
1111,-2.756629372939317,-2.788011463530004,0.2844970440466777,-2.1686922472244063
1112,-2.551478953581632,-2.538130587087454,0.6557686487755925,-2.0560427761397784
1113,-2.3699661811531687,-2.3234483373628425,1.0053566185734757,-2.0085500509538607
1114,-2.2553006766758257,-2.1275988527528664,1.3470286174495278,-1.953895820387512
1115,-2.1798197144539486,-1.9553622011547063,1.6740622619448446,-1.8977847776362948
1116,-2.1053253612258405,-1.8149383042981897,1.9780280001201709,-1.8705922444176168
1117,-2.051998087468423,-1.7199794576546596,2.2532211949774,-1.919426191841153
1118,-2.0504373858008216,-1.675541423531755,2.4960413273336273,-2.076308067318736
1119,-2.112140188345554,-1.6401823195317309,2.718940333621552,-2.2572931334791515
1120,-2.235476088006142,-1.5668360532238679,2.938532519158328,-2.3563304783033483
1121,-2.3741619042099913,-1.451038965927216,3.15097596352635,-2.386812294035539
1122,-2.47264749412366,-1.308984479781022,3.3518787242482824,-2.397321500796383
1123,-2.5473341121867823,-1.1783049787503523,3.5598510060349264,-2.392829505180142
1124,-2.624062597594448,-1.09032161970296,3.7943351101751404,-2.3716438058815785
1125,-2.6423651561700563,-1.000766905541514,4.066817551570356,-2.3075347355007887
1126,-2.5401562845495564,-0.8509857765355189,4.3735312756693245,-2.1732401905844627
1127,-2.3388315782784908,-0.6579201532035506,4.66155067745676,-2.037847978172887
1128,-2.087992204917783,-0.46092806592019525,4.878121584506372,-1.970582744854714
1129,-1.8519391047430191,-0.2694723141252451,5.041518747971493,-1.8841507987154005
1130,-1.678557735932149,-0.0868857025805561,5.195989777481509,-1.668469464893714
1131,-1.494081653439556,0.08437247814927613,5.372519877428571,-1.3419058130593062
1132,-1.2075032992896029,0.2489334707568197,5.5878351609829435,-0.9645615000903338
1133,-0.8783736437124735,0.4075003010753912,5.811216333818989,-0.5955455654557484
1134,-0.6000486347531417,0.5566999905603891,5.997992054609725,-0.2831537434352599
1135,-0.37388682773765664,0.703815429784106,6.151378535720461,0.030776531635703375
1136,-0.17588766990301713,0.8512652418032478,6.289732271809109,0.4211944977068063
1137,0.023978353478035563,0.9625034498603076,6.412569165217194,0.8168352297038504
1138,0.25403003948706027,1.0078556879170468,6.516250179228761,1.1186503335791325
1139,0.4594795782288037,1.0233926486876046,6.592984052040824,1.3424490963899895
1140,0.5730510951556482,1.0664612313739905,6.635812005949527,1.534030075219543
1141,0.6549785716590546,1.1767554142187697,6.656859762216569,1.704918717142066
1142,0.7820930898792205,1.3711364716410415,6.6756113494213105,1.8647026710187349
1143,0.8923109178500601,1.6176507164780853,6.705290276947432,2.0118799959706326
1144,0.910136418309423,1.8595653113413264,6.752926406309029,2.1382940536497204
1145,0.8740360648415284,2.0541644314568175,6.813127578447767,2.2700788978576445
1146,0.8498055305035335,2.1757088939546256,6.8736416095328385,2.4325164095600487
1147,0.8953515414657701,2.2255618145425906,6.927550431356849,2.595773365353247
1148,1.0444123451466722,2.2255216097351003,6.969844016170395,2.7187106704930457
1149,1.19703438029799,2.1968575019365133,6.992237196829665,2.7936000418378817
1150,1.235109240804584,2.1583710155162397,6.987762766017503,2.8258387155615003
1151,1.2316166709210947,2.1299399950258966,6.956166638517269,2.832381344378386
1152,-11.419523006273746,-15.518234234346721,-14.015578595543433,-12.63471786188125
1153,-11.72662824631589,-15.840658748690409,-14.433644971958387,-13.017810264523964
1154,-12.061214042359818,-16.19431956033917,-14.830554555906692,-13.42621287400208
1155,-12.468196455816026,-16.586781521615276,-15.191236923116504,-13.828864474716926
1156,-12.972022132323705,-17.01751103977937,-15.515186301176032,-14.190587113174272
1157,-13.49099132937426,-17.48582498685495,-15.841286591852901,-14.526705287408129
1158,-13.938843432008927,-17.982106780031508,-16.207771959393185,-14.866798880899324
1159,-14.354354036563548,-18.49912642928563,-16.61186878851779,-15.260236631713333
1160,-14.805141131357937,-19.022959610862284,-17.03414400288783,-15.742047886117689
1161,-15.301209142919715,-19.500366210480195,-17.45344397878064,-16.251951552445046
1162,-15.839683016403475,-19.89359457584267,-17.851716118007634,-16.719838465304115
1163,-16.41811572875795,-20.248275384677775,-18.23201480692103,-17.18145291848446
1164,-17.01572419763004,-20.623667578862598,-18.60648843468075,-17.67825808187508
1165,-17.61111845721456,-21.029791721350747,-18.980475565898857,-18.16371638846741
1166,-18.17691904323457,-21.450700955711444,-19.35542704366707,-18.581998962215113
1167,-18.64072536436746,-21.847907776521744,-19.7233103448613,-18.905910980655296
1168,-18.95348050574805,-22.17670661556874,-20.071720571458364,-19.130677206343055
1169,-19.18316883672282,-22.415624205707722,-20.40423317714006,-19.324006242155846
1170,-19.41154162018608,-22.567872314437313,-20.72096956517843,-19.555780498780923
1171,-19.630684738060225,-22.666784569844076,-20.98425610524803,-19.77338193663692
1172,-19.809888156868933,-22.753786335068973,-21.163941550799766,-19.914155885656914
1173,-19.920026004104514,-22.847161481490062,-21.288989320043846,-20.04753226693853
1174,-19.942786755313122,-22.95344861633395,-21.397289909536454,-20.237736196620624
1175,-19.947619021742195,-23.073876297442535,-21.494694668595994,-20.421159174397395
1176,-19.996877623412654,-23.205471573947634,-21.57227220737339,-20.51359330427768
1177,-20.003282347915523,-23.354524539453838,-21.602242929551426,-20.4631814013066
1178,-19.87115616186093,-23.51990875182053,-21.55733430332891,-20.253951994622287
1179,-19.634948852555592,-23.67841639187222,-21.449355051345485,-19.976436075276904
1180,-19.362551942066574,-23.795527929675817,-21.302287373993853,-19.72981850850095
1181,-19.107793453298722,-23.82316352946793,-21.120374694004564,-19.482852737869997
1182,-18.90811091983368,-23.729636559013713,-20.908018624250644,-19.175331031525488
1183,-18.715490758164304,-23.538534027978187,-20.68141169146437,-18.81126152004825
1184,-18.46907519828003,-23.296707883105327,-20.456565436480922,-18.40941366088552
1185,-18.21609114761434,-23.044966643063816,-20.24773676766692,-17.994611292128003
1186,-18.01069473776804,-22.815911811354454,-20.06450319271877,-17.598322286619293
1187,-17.801434430121013,-22.612571302361665,-19.900147815009586,-17.215397450882936
1188,-17.53129325022402,-22.422894113581098,-19.742454794826447,-16.836015456856206
1189,-17.21726392931229,-22.25796206595673,-19.594772479127244,-16.511894172565082
1190,-16.887023800159817,-22.116308909567753,-19.45677844902842,-16.280292764840212
1191,-16.56097391264596,-21.93926858561947,-19.297330589618145,-16.068904102900976
1192,-16.24891345990055,-21.668820003403592,-19.08963445385659,-15.79911368820145
1193,-15.887965438910356,-21.302991532550575,-18.847813844091768,-15.485716823784731
1194,-15.428106555149208,-20.866633771885983,-18.597304226480322,-15.16701946385161
1195,-14.9602499794111,-20.38942727504133,-18.349014294070788,-14.864372644337378
1196,-14.586289827031791,-19.91480864465285,-18.109392039452462,-14.590085160041001
1197,-14.288606794961641,-19.490011640800564,-17.883169442368686,-14.314305603799761
1198,-14.016598053065383,-19.150581224865103,-17.66523766527099,-13.999021904059456
1199,-13.73330904467907,-18.92739591629761,-17.43993754428909,-13.661298628663426
1200,-13.411435687163928,-18.814276138784734,-17.18813635642611,-13.323069459443895
1201,-13.080009369717732,-18.724404515745466,-16.8888236605257,-12.95501491631272
1202,-12.779088999127334,-18.55635641991915,-16.527947085249615,-12.52855667416416
1203,-12.487662431415378,-18.26299725469891,-16.113326968827437,-12.053505318401907
1204,-12.17264900384724,-17.835410991078827,-15.656680298901893,-11.550658621436959
1205,-11.83230259126704,-17.291766766376686,-15.15313313533038,-11.0485993901588
1206,-11.467402502665358,-16.68053290797243,-14.595347204994574,-10.56668066740843
1207,-11.077111622959098,-16.06714629045639,-13.97965435969668,-10.074244662558113
1208,-10.660207056460285,-15.499999431969334,-13.30779864611694,-9.529840090863807
1209,-10.181829850610466,-15.001861029722514,-12.60198558279879,-8.936253612323409
1210,-9.612007604924097,-14.550346604196905,-11.882847729684933,-8.301593100884114
1211,-9.00597216584613,-14.02605963534256,-11.13817120600364,-7.60014548050705
1212,-8.415737647139181,-13.350141181948617,-10.375365914220936,-6.804437632326935
1213,-7.740579420248656,-12.589738475422442,-9.631912428101327,-5.980327085911748
1214,-6.8939473646169445,-11.866806619299389,-8.955120916029873,-5.1867844585968355
1215,-5.9908914675616085,-11.232817262885245,-8.337179968182602,-4.512866569631779
1216,-5.179276520311358,-10.67727694409263,-7.744545875637659,-4.00241538867514
1217,-4.459836777562207,-10.171109664573759,-7.145132253182906,-3.496836331479913
1218,-3.7911398642909737,-9.66403939074237,-6.519640833212564,-2.8357336961376025
1219,-3.15375996751032,-9.149407315019705,-5.8935456490782405,-2.11790026836861
1220,-2.6114169260638844,-8.762156096882915,-5.368362646009314,-1.7004831341870064
1221,-2.1794087696564075,-8.400909396161717,-4.875289606667254,-1.3532056421021748
1222,-1.943658704369415,-7.972497261399953,-4.404603287588458,-1.0402431029278425
1223,-1.7964519443285591,-7.4561623381354325,-3.9662375004625567,-0.7725052855313149
1224,-1.5864581281444639,-6.874874594960761,-3.5711022390914757,-0.5622380104145804
1225,-1.3324860258994882,-6.288633472683277,-3.2246419043109738,-0.4268535123579682
1226,-1.0964368834919096,-5.763556136704048,-2.9261291133977467,-0.37223003372888386
1227,-0.8631238893379706,-5.301859626865965,-2.6493914498245847,-0.3158748290567926
1228,-0.6145171971636472,-4.878333119836151,-2.3688218697100036,-0.17297071622028326
1229,-0.3393426358451488,-4.484784496181693,-2.1016191655570733,0.010848519092805313
1230,-0.03775216316011586,-4.1204706568582035,-1.8762868532844237,0.1552630645329785
1231,0.19290233211969027,-3.812693922080368,-1.698504842483156,0.2500021960963316
1232,0.2571110070870185,-3.5907614759402873,-1.5636272644238256,0.3071651890054335
1233,0.22771486116081,-3.423098210233215,-1.4550436433122327,0.348093690236744
1234,0.21986917437319267,-3.2627998344840874,-1.352986210670422,0.3989454462766479
1235,0.23699952520858153,-3.117342906673878,-1.2602956475137819,0.43732537240550984
1236,0.25647301753946034,-2.999890173552753,-1.1834763771825232,0.43180346814620696
1237,0.28716543966014296,-2.874200342389983,-1.1121423608242782,0.4124278005355426
1238,0.3385968576274409,-2.702210464618582,-1.0271615570478017,0.41924586486368615
1239,0.4508086292550096,-2.4811399557767526,-0.8947396342564398,0.44833868910156854
1240,0.6576084622942534,-2.225736064309428,-0.687107332039905,0.48717113777998183
1241,0.8924359944810689,-1.972315382408793,-0.42085876094927843,0.519859799421193
1242,1.070037428736207,-1.7566671416953306,-0.13132066106960616,0.5360142893087348
1243,1.2067840077170031,-1.5678106178256705,0.16476953290576823,0.6023377288688012
1244,1.3425764490446264,-1.375578896166078,0.45569273892464995,0.779969229823997
1245,1.452683428674053,-1.1723321811888878,0.71848760789347,0.9655564574146963
1246,1.5099331434486778,-0.9564887804228439,0.9418665611556623,1.0377357346870881
1247,1.5297032800732717,-0.7116341684693154,1.149443642654378,1.0559760650365584
1248,1.5394128831262996,-0.4313820787557736,1.373236593845735,1.1209423148466287
1249,1.5763008257558757,-0.152924683754518,1.626942278252771,1.2389117164596835
1250,1.672817648807976,0.0830377030371571,1.91134319899375,1.3864457278690183
1251,1.812737531832467,0.2867859647755262,2.211752043595254,1.5188186499288687
1252,1.9638581856344277,0.4815282468483218,2.5051872308204053,1.5869456808431184
1253,2.126397282418605,0.6621905294776914,2.780335888746691,1.62043853210663
1254,2.3013903882676163,0.81989817432612,3.0302408253312145,1.66938602853336
1255,2.476906634036884,0.9494495288255934,3.2411249243172984,1.7093756522226335
1256,2.6318237884583273,1.051534538998545,3.4031213353500442,1.699591580961001
1257,2.6902260834478575,1.1607137181036915,3.5158763712426473,1.6452100043947404
1258,2.5902716415437568,1.3118853418924743,3.5871843158242385,1.5581272243989814
1259,2.4159467407890665,1.4907779892705697,3.637746029885867,1.4294517184112303
1260,2.2804156830058666,1.6685957760058794,3.6899428153260385,1.2564701237910305
1261,2.1608436192584812,1.8260740987303152,3.750061781197474,1.0482171705930634
1262,2.006284878058226,1.9563519014140713,3.8137888358794907,0.8213689618180757
1263,1.8459724328170999,2.1044551511977754,3.878360611191816,0.6300598196211347
1264,1.7171333221046936,2.31578194007801,3.9349335489041155,0.5182867034319785
1265,1.6445313177476797,2.5482629483173094,3.9559185022140966,0.4290676089391621
1266,1.6343234891273564,2.736104523881442,3.9193170888757205,0.28889638277441226
1267,1.588973309825848,2.862048969688328,3.835912201188085,0.12218180779834342
1268,1.4056242336418316,2.9274291269280206,3.73205790538096,-0.02261447511538922
1269,1.1530734001335232,2.9461231768934923,3.6365432576344117,-0.1380869498561263
1270,0.936753251559039,2.938992406785786,3.571432154282776,-0.2309025189441504
1271,0.7199232717546713,2.894634965550656,3.5304371230168514,-0.3379483062768867
1272,0.4437561644791229,2.797523484485986,3.4913027385239674,-0.49926069646010474
1273,0.1328068653497933,2.6745960526642154,3.4401117662912664,-0.6811746173829052
1274,-0.1707386856113789,2.5632982892331246,3.3666965770154977,-0.8362312681652173
1275,-0.4130787535875452,2.4776769375848495,3.252953721654246,-0.9918334680189949
1276,-0.5540365000999806,2.4249107423163707,3.093763670010707,-1.1849193803654474
1277,-0.6631701109139982,2.412638231458232,2.9263747629954975,-1.4037799645106088
1278,-0.8281393234507444,2.439425220983237,2.7939922575039806,-1.6188333909502302
1279,-1.015811691295664,2.5054918600298803,2.7023665064826843,-1.7738180728003086
1280,-15.782930723848722,-15.57222163239802,-16.76883058780692,-15.016720999313074
1281,-16.028365280928085,-16.087996400638627,-17.147399136895093,-15.297603193878244
1282,-16.138931573776592,-16.63218375945905,-17.53609473063984,-15.574071916087464
1283,-16.17751717410997,-17.189668684794444,-17.934066287280235,-15.821808987017496
1284,-16.211262937370062,-17.723084659904313,-18.30548554236123,-16.00393908434377
1285,-16.187160823403502,-18.214153620191006,-18.623855657673364,-16.11130831504628
1286,-16.047934368094605,-18.64745015012371,-18.893946141363354,-16.149480954009544
1287,-15.859421173073086,-19.021741624213025,-19.126196999174066,-16.177184022745145
1288,-15.704780399954558,-19.3443076339555,-19.339176544074537,-16.244338191774926
1289,-15.61692259500894,-19.602919070660274,-19.529366873904802,-16.268202642335133
1290,-15.602102173064754,-19.795005200023613,-19.693593630041466,-16.190652864138645
1291,-15.599039485346546,-19.960561763685153,-19.836148939937605,-16.0547481744741
1292,-15.54411924855386,-20.14609628034207,-19.974452450658248,-15.980073653124094
1293,-15.497641343605228,-20.377119571945997,-20.12298854172314,-16.02643841106775
1294,-15.528190824746009,-20.65888972327613,-20.27862734047646,-16.15212027364275
1295,-15.569249310472335,-20.969197589914305,-20.434476944289784,-16.276244610053446
1296,-15.549017940025818,-21.2723730730947,-20.58017889820758,-16.387286843879473
1297,-15.500486250966816,-21.531439394641936,-20.715564215151723,-16.516455081220847
1298,-15.473795278274853,-21.725350615053763,-20.843802114437786,-16.71040648616536
1299,-15.510445485841672,-21.879486806873924,-20.96433243364591,-16.920379027024307
1300,-15.62842455537099,-22.026498507044334,-21.07468426556675,-17.084235927311212
1301,-15.724947013786563,-22.161085318077415,-21.170115862459458,-17.212770259947114
1302,-15.702994737540987,-22.268480715544197,-21.246637283419606,-17.330030721638224
1303,-15.663317297088732,-22.33604882965193,-21.30245285380814,-17.44007814891114
1304,-15.723517831914089,-22.36212838758505,-21.343474276372156,-17.546974173712094
1305,-15.824443545249151,-22.389999751081376,-21.390137790589986,-17.633688480826876
1306,-15.883060781931427,-22.46445280848376,-21.465323875237523,-17.689844559844875
1307,-15.900493724670534,-22.573471036402804,-21.570722491107492,-17.77407614832337
1308,-15.90035467491468,-22.686163616544516,-21.6999120054284,-17.937996104236685
1309,-15.934239244649428,-22.792839927059735,-21.831596911730138,-18.138028594047125
1310,-16.047800339235337,-22.877998951187465,-21.92907550144813,-18.308395219550906
1311,-16.200785571391695,-22.900108623347712,-21.962950901989572,-18.420170108302532
1312,-16.328221551325345,-22.82429728939266,-21.928534149746515,-18.457041636347473
1313,-16.410831920015358,-22.651387515954994,-21.837372945490852,-18.42539456194326
1314,-16.443272722708457,-22.398715101654325,-21.69655171918606,-18.339326943862552
1315,-16.414372773986077,-22.076542894630915,-21.50419431537571,-18.166874564447152
1316,-16.32389693286569,-21.70734403930042,-21.272584934943385,-17.880170616377633
1317,-16.18694944296087,-21.344523846616852,-21.029735255158563,-17.531668330013193
1318,-16.006877426656743,-21.033394635860766,-20.78544272407933,-17.158683015437333
1319,-15.766063211639882,-20.781630130696566,-20.52938442086975,-16.76896526879886
1320,-15.433471190065907,-20.568621141488755,-20.242801299722746,-16.316731025202735
1321,-14.938462373703784,-20.34127055933685,-19.92127393942538,-15.7604785625927
1322,-14.244759434381221,-20.04376266555258,-19.559882149901288,-15.126958381504211
1323,-13.45097929067686,-19.66335090108646,-19.15782053978494,-14.490164169639735
1324,-12.675878365370552,-19.208044927020197,-18.705078909168172,-13.86667552751342
1325,-11.959838128064922,-18.678808471838526,-18.197601889340177,-13.22793561583469
1326,-11.293889766389317,-18.09036450133495,-17.635648611158132,-12.53726103754901
1327,-10.587413884437813,-17.475272625333776,-17.040726199096486,-11.852853838292425
1328,-9.755039301915062,-16.867675640004855,-16.428773251545646,-11.239050698409027
1329,-8.866810682577539,-16.311544239833946,-15.811054005970593,-10.678892234987405
1330,-8.026656823529121,-15.818527288858553,-15.186991321550604,-10.13746406534989
1331,-7.2279996648528195,-15.31985235874866,-14.552048220918994,-9.583671996385643
1332,-6.4504453016797205,-14.72829873714031,-13.944915823926548,-8.999763158827546
1333,-5.735528771946299,-13.970268726554679,-13.442506987232303,-8.454476100922088
1334,-5.10936899560375,-13.018962114035652,-13.057422701049461,-7.99648715863461
1335,-4.562024470362671,-11.981881327988717,-12.728936747852902,-7.591250449417638
1336,-4.069786549013225,-10.967788930605165,-12.38923570327343,-7.156185854115037
1337,-3.531034411775468,-9.93158297614103,-11.99595645654467,-6.6835797593378015
1338,-2.896571771482229,-8.78506970763545,-11.525345123051755,-6.268719658203425
1339,-2.3593388064228655,-7.475141027721163,-10.973332466088905,-6.002056383678572
1340,-2.167766318486132,-6.060667701240658,-10.375171423509299,-5.945064138355782
1341,-2.3543827170834586,-4.718481393666162,-9.825600457638703,-6.189622662954793
1342,-2.822276063614589,-3.700866734102029,-9.410142733010561,-6.768468145752303
1343,-3.39279425374148,-3.1926643498899816,-9.123309497204216,-7.484787436024666
1344,-3.7942114994025307,-3.24708380200783,-8.867027320764455,-7.952708664253782
1345,-3.904284085793287,-3.6919083857370105,-8.498915938916895,-7.900139260750024
1346,-3.8550841687174504,-4.286977838739215,-7.988516990652615,-7.411434467450132
1347,-3.8272105606833424,-4.936507054739309,-7.42570970651705,-6.8620912455805705
1348,-3.116289620700886,-4.973331470560754,-6.776647660238598,-6.044674253385539
1349,-2.371390117544479,-5.053255834447335,-6.099820384846747,-5.240802236475995
1350,-1.6579785202234636,-5.161646110040954,-5.391177338434054,-4.396712777950142
1351,-0.9544579187853919,-5.278498109713932,-4.666444575851712,-3.47124922338846
1352,-0.22176060696941707,-5.379643874428678,-3.944414624437818,-2.51360890851367
1353,0.5122528918624163,-5.467578382152676,-3.2498471799345547,-1.5691295771159126
1354,1.213620825224177,-5.551600264580712,-2.5898845549339353,-0.685487306011772
1355,1.8831060528694357,-5.605699906028193,-1.9510749463805945,0.16964543141465152
1356,2.532688848725126,-5.604190430318565,-1.3238330086738455,1.0482771696059345
1357,3.201585701477308,-5.559840884349904,-0.7073309806410732,1.9282985791591982
1358,3.927310498332495,-5.497596630738379,-0.1049050948250412,2.7693512057990395
1359,4.662746633987775,-5.445971814885383,0.4896478326097901,3.550996191438846
1360,5.349588811226017,-5.4251404641707115,1.082760184785887,4.266866229082604
1361,6.044371575797798,-5.403732633187146,1.675393216507169,4.979964888270488
1362,6.812380487449617,-5.3464404387518885,2.2637972618384725,5.7581727181455085
1363,7.598150591908055,-5.2813150780871165,2.833897691945498,6.53521507565965
1364,8.32287534743255,-5.255601550453955,3.3706058068079012,7.250218870135911
1365,8.957581804258902,-5.30393592998809,3.872081074027848,7.905259484032637
1366,9.5028129976682,-5.438951599915435,4.34304352019416,8.582503086853123
1367,10.034784953575613,-5.610000110782856,4.788317212598437,9.3300061380106
1368,10.634455169477972,-5.747128365936022,5.212775145324107,10.09173115749477
1369,11.245886581727396,-5.827398710974826,5.61602740258785,10.75765797218222
1370,11.780978299980836,-5.8580489187341795,5.9943978737404775,11.302934505748993
1371,12.246670335094704,-5.860479506899006,6.348537090875602,11.752680224641828
1372,12.676456465922927,-5.870998053148651,6.67795473836373,12.168409620008001
1373,13.107354910655422,-5.9338981317246695,6.973102647948177,12.52291916730327
1374,13.566419541272879,-6.0764525307054065,7.225845689237502,12.774995468572637
1375,13.972202023727862,-6.27767347558038,7.438595398366863,12.976929069782024
1376,14.233089199191397,-6.495361590338604,7.621904678416534,13.170674244373918
1377,14.42454001184489,-6.704398863600858,7.79418561115877,13.407370615610072
1378,14.652892969367459,-6.889176841847039,7.972824018802387,13.66458966966466
1379,14.880288365611278,-7.036469048614712,8.16704359301444,13.862028357297826
1380,15.040401699641874,-7.147434614924281,8.368863457575294,13.994615987385973
1381,15.143820466735768,-7.245284420174823,8.556871006499689,14.09936425802059
1382,15.214636211951884,-7.357187219484464,8.697470398398156,14.227405930382478
1383,15.27510939429402,-7.495674546067542,8.775765596945561,14.309581833118353
1384,15.349854679822498,-7.66157130072643,8.80734024712106,14.263941001823357
1385,15.399423137645034,-7.844079544584523,8.808981094648964,14.140938866344179
1386,15.38533034113501,-8.027193621040817,8.803244541119879,14.02734899736468
1387,15.411842554476763,-8.201365466608047,8.798273014378823,13.963092024423226
1388,15.5891232254656,-8.36211364299792,8.797802675075504,13.970535374432952
1389,15.838367313947614,-8.51441100609295,8.825446310212334,14.029454652753573
1390,16.041515740345588,-8.665448526478889,8.900054443566612,14.107152476805513
1391,16.200180089992397,-8.795707300832124,9.024674894907802,14.251441960224613
1392,16.35072051879218,-8.88458991181725,9.182476777355065,14.51792705535975
1393,16.531196868188236,-8.969871286523626,9.355476390022528,14.855111921650735
1394,16.777366715894562,-9.087255969156242,9.52995563162473,15.2084704533773
1395,17.032793445779788,-9.175567343511572,9.710657310315007,15.533308145294743
1396,17.226737117364625,-9.164621352185076,9.90699405313499,15.846787094136461
1397,17.42412182332243,-9.075652093662368,10.11239902820232,16.15844672644121
1398,17.704285140996415,-8.959701666165868,10.292225459417047,16.414080890620323
1399,18.013931164137542,-8.861266105514648,10.406833243863497,16.600875327397524
1400,18.26675731251428,-8.809772718320556,10.454816524387182,16.711208441742304
1401,18.41507813580723,-8.762274618066238,10.474607716648721,16.780299853790694
1402,18.43253660169448,-8.657143417879382,10.508298628795226,16.8485578418573
1403,18.366939997828837,-8.502126815590213,10.559571971752451,16.891703935804983
1404,18.280358171209542,-8.331150356131385,10.594349699835908,16.86758745713936
1405,18.115525188979056,-8.163598672681285,10.582628042925798,16.757327815621718
1406,17.80098245769249,-8.019037860480509,10.523489268888492,16.55562722942314
1407,17.387949068217054,-7.904651490632761,10.422535067577876,16.315032478059628
1408,3.6455127977330744,361.2664737461653,44.673521507390895,0.33177113839654515
1409,4.2449780853353944,367.65789074363073,44.914678859471465,0.4916496684159533
1410,4.778797124402396,373.0607533194074,44.974183539148754,0.5615423134047461
1411,5.183121338514087,377.5233068143267,44.85410344528396,0.5181957429553198
1412,5.42862575984451,381.0563985937099,44.55654320466244,0.41897880497167955
1413,5.59501090712955,383.62707425277404,44.09328887616481,0.32620939614282485
1414,5.760903337760297,385.1863689638213,43.4806047456886,0.2054676512819033
1415,5.888724167840675,385.69470065071914,42.7239252577099,0.013270836696461619
1416,5.92233331497749,385.14047100134565,41.83820840091308,-0.29403878645177955
1417,5.84473606211643,383.52805569120085,40.84083505118005,-0.6639901424535278
1418,5.666626676819234,380.8830888251567,39.76517367557046,-1.0183305029457173
1419,5.502162063047304,377.2715118709383,38.6370426476446,-1.340210211622486
1420,5.445957379761471,372.7787726627248,37.451209766949475,-1.6297557708329484
1421,5.364997368816661,367.4781476967478,36.203246682941966,-1.8736536285767493
1422,5.1092867236976875,361.42317398590575,34.88000297888757,-2.0778771788055073
1423,4.755689953140336,354.61414534719216,33.468887417580106,-2.2686768015405576
1424,4.413588958510713,346.9844384789475,31.96231038123517,-2.483798604416732
1425,4.0678774201347565,338.4773146512898,30.354709358115738,-2.7966869970544583
1426,3.6845225473726337,329.11698069734587,28.647943969954525,-3.258456589773402
1427,3.23281773144624,319.0111822156304,26.861204127935743,-3.8118950146266957
1428,2.6965405722318296,308.32038392441433,25.01142171520034,-4.379790849804551
1429,2.1622335300631494,297.1813114308891,23.09217304509371,-4.964193861832869
1430,1.7186598427026851,285.6207505925103,21.088363692203114,-5.579838852392122
1431,1.3228440501665184,273.5642329224068,18.988491261328523,-6.206187890417708
1432,0.9015414675873165,260.9305572116234,16.786059577436777,-6.818456649488913
1433,0.4402647973785397,247.69984688161122,14.48366004783409,-7.386970810885955
1434,-0.06084620528855339,233.88080962535105,12.094140105307035,-7.885229486535336
1435,-0.5946952304194266,219.45471986496727,9.64264536057284,-8.323389206625409
1436,-1.142790867441752,204.42197454890757,7.151108258622559,-8.720796666499261
1437,-1.7040103939453735,188.8245987643102,4.622192112486359,-9.063761831139
1438,-2.279362855676488,172.73087310616881,2.0492405628225123,-9.346246590289603
1439,-2.839283835267671,156.2349453813824,-0.5797540520432765,-9.608278036610427
1440,-3.3612207469692508,139.43429619252663,-3.270469019362138,-9.895227501199681
1441,-3.873607646887032,122.4021541920311,-6.001694164732573,-10.238068718463959
1442,-4.409991165844577,105.18167596525878,-8.745460952703151,-10.65056500004739
1443,-4.96791624613291,87.76789789936034,-11.488883128775,-11.085917840305079
1444,-5.538198415616992,70.13271508686657,-14.226262034900254,-11.49748716477721
1445,-6.111380552588876,52.248270957779425,-16.959137813402826,-11.945789903742297
1446,-6.685937378331785,34.07947842377622,-19.691491394636227,-12.464221755984719
1447,-7.3101279526354555,15.591982135640098,-22.41447345271129,-13.047251077718876
1448,-8.026047098803026,-3.210345658068077,-25.118080402082192,-13.599298830367543
1449,-8.788206166993401,-22.280328166012048,-27.807822647182995,-14.05819617202005
1450,-9.541274997012437,-41.58909740558937,-30.484211513657517,-14.470297215596924
1451,-10.297487340501743,-61.14369018449727,-33.153449874249475,-14.870202673275953
1452,-11.078388352926737,-80.91758660060952,-35.8042348071434,-15.294072502899839
1453,-11.891214914982408,-100.84349400753423,-38.41317050269401,-15.676976088846233
1454,-12.730383374154274,-120.87612979711041,-40.97614455416013,-15.944496214448275
1455,-13.519143521414597,-141.04759848420997,-43.511282047989,-16.14298028811139
1456,-14.189309688243751,-161.4447223641786,-46.01958434737995,-16.335954022273384
1457,-14.825233039152112,-182.0987011173808,-48.47825743098999,-16.516724657933015
1458,-15.512997151927486,-202.9542513930865,-50.881635768217734,-16.668476901735858
1459,-16.152360215202343,-223.92840544480833,-53.23553821905813,-16.76700135746903
1460,-16.63853995126266,-244.9357645871388,-55.554125457694845,-16.807904036134882
1461,-17.02312153606836,-265.91037506694676,-57.84502545638347,-16.89140825275134
1462,-17.392364414927005,-286.8267386516238,-60.116473812212206,-17.113050279398337
1463,-17.824792997896484,-307.67378684481906,-62.38282793740954,-17.431540539544272
1464,-18.366500741195576,-328.4334463881827,-64.65534294014948,-17.763673026172164
1465,-18.902251793394374,-349.0870448627468,-66.9362390643805,-18.06107850426895
1466,-19.307912389190072,-369.61814367910665,-69.2197693345968,-18.28573373005881
1467,-19.680983144431828,-389.991567941161,-71.49262863032887,-18.428544242903538
1468,-20.137953759052024,-409.8893116773084,-73.76085331229356,-18.4976460013158
1469,-20.73015861072778,-428.7360715197517,-76.05346943353554,-18.592359988548548
1470,-21.628483415095758,-446.3162228752387,-78.37560583918714,-18.96287325921827
1471,-22.95244869851057,-462.91148781766435,-80.7086782632579,-19.788480789401437
1472,-24.447253963094393,-478.9557125448679,-83.0329150466279,-20.87419544837238
1473,-25.6733143620086,-494.83261232302004,-85.32687444365521,-21.79089871761213
1474,-26.280029860455585,-510.78849430703167,-87.563342795318,-22.159945893441336
1475,-26.28952692527899,-526.4622065211422,-89.70585335159286,-22.076737919005375
1476,-26.127637441698077,-540.2212084841558,-91.39002463918345,-21.825340399814763
1477,-26.001457952590115,-551.3876854222337,-92.90540087182069,-21.9062640064508
1478,-26.026268596015715,-559.9721028092955,-94.24278699044486,-22.381305433585226
1479,-26.193670677941096,-566.3852156785134,-95.44026576127992,-23.112800716419297
