,TP9,AF7,AF8,TP10
0,-11.275394350673514,-14.092012263023648,-15.420671354248828,-13.592426101787948
1,-11.637043291285648,-14.594100647335067,-15.746452126713912,-13.876427003872452
2,-11.913689356211162,-15.146956507294385,-16.018686660135437,-14.14397360261748
3,-12.20057568128101,-15.734442786733366,-16.243025166561058,-14.433360702544688
4,-12.597823402112569,-16.327841763832254,-16.43384340576174,-14.764508420452573
5,-13.036778263386637,-16.888615039144913,-16.600640850955003,-15.098893307535576
6,-13.430489113909328,-17.38872435668619,-16.754666326165392,-15.385946954590821
7,-13.80261168243979,-17.83418245280275,-16.923957683362755,-15.646131274876284
8,-14.195098308622912,-18.24740545518524,-17.129912480585162,-15.909946330400341
9,-14.632228661504776,-18.65018729455296,-17.361085973752207,-16.154288366539575
10,-15.124926057244211,-19.060367738869513,-17.59714788397956,-16.35546757629493
11,-15.610955986064134,-19.47683911549189,-17.83151560413666,-16.51805963502832
12,-16.021644224891638,-19.885687210707687,-18.060832149909658,-16.658388301047495
13,-16.39885071207778,-20.28559393649546,-18.28155418121269,-16.81889710472093
14,-16.791347178726276,-20.664357424059073,-18.49364300855044,-17.033763009214614
15,-17.129053705197236,-20.957194960148147,-18.694284188563852,-17.27031885894349
16,-17.345230438431233,-21.109529679723266,-18.882103384752387,-17.478700879040833
17,-17.483273743009875,-21.155349643935686,-19.06943171609093,-17.656135088293556
18,-17.60547806373455,-21.138954651535972,-19.263816915780517,-17.804144834246827
19,-17.75428977855079,-21.09662110273841,-19.44714346426855,-17.882957295028262
20,-17.947014909035833,-21.031767016359858,-19.597550969719695,-17.86914738258746
21,-18.098454236023116,-20.967299186576497,-19.70436719261332,-17.799641263955056
22,-18.12880940052836,-20.966071644826794,-19.767094244875473,-17.724158335079636
23,-18.122947478027044,-21.04672333401481,-19.808766934349464,-17.690936286890462
24,-18.18591770469114,-21.213770562857434,-19.852057103513935,-17.720053379744183
25,-18.302516771178958,-21.436315452064786,-19.88342280110203,-17.731979885348398
26,-18.427485752513963,-21.679027413907754,-19.88156143071293,-17.644033322767932
27,-18.520427501726825,-21.91750050794454,-19.847871303978422,-17.496346671105385
28,-18.55057483640159,-22.145999376651474,-19.78873675419881,-17.35599789476216
29,-18.569760135298942,-22.345612281434654,-19.701065503888415,-17.228202288337524
30,-18.632947600866697,-22.466542523224096,-19.58501680142444,-17.107360567837766
31,-18.68100624267949,-22.468949116667158,-19.45568488409026,-16.99338790117906
32,-18.641740874451614,-22.372025158457912,-19.321927950929656,-16.87991288798496
33,-18.522515993524003,-22.237565418441847,-19.168053068222918,-16.780799471673717
34,-18.351529148457146,-22.135107806250453,-18.9738657232312,-16.70693542774633
35,-18.16165889898051,-22.07758786627113,-18.722511731411693,-16.61256776685408
36,-17.983360650376074,-22.044161422783063,-18.411621155702353,-16.456510695760727
37,-17.780036303496928,-21.991399893955073,-18.0827263174397,-16.284145473631824
38,-17.514573585259573,-21.87701402193421,-17.779947153137705,-16.14274470615897
39,-17.265793089075572,-21.70449412211805,-17.496424621195015,-15.998217531358293
40,-17.105639473082746,-21.497396371681173,-17.21204555178303,-15.806073334663578
41,-16.955505597396865,-21.267475824342064,-16.928140380333982,-15.54699441894164
42,-16.72426573688633,-21.023041865560014,-16.647620579056852,-15.224495863131441
43,-16.425574383278775,-20.770080771284665,-16.3684629493545,-14.916722026370007
44,-16.10043413815395,-20.50407356468685,-16.089716550439938,-14.693840568882777
45,-15.798867541028313,-20.206561974727023,-15.805891332649182,-14.494491198607221
46,-15.556835507349565,-19.859696616607707,-15.510151277538837,-14.232371860311346
47,-15.300282053367924,-19.45861100210721,-15.204187300357491,-13.909583245434158
48,-14.946399779738943,-19.005676582623558,-14.887950747303256,-13.543492658617552
49,-14.560013352055526,-18.5124380284125,-14.546379856909793,-13.120289527660336
50,-14.214698913228045,-17.985397930194978,-14.164796778408324,-12.632163814521505
51,-13.835521901051074,-17.404802262533398,-13.741081198335106,-12.073315515784117
52,-13.343764352304808,-16.747390876051703,-13.276983889281192,-11.446360274296147
53,-12.780286003759826,-16.008835308151486,-12.780124534733103,-10.804012407471275
54,-12.203858348018036,-15.201369698600569,-12.251185219429626,-10.190987024370159
55,-11.643524536844104,-14.353983824199968,-11.661189567363735,-9.566112573922826
56,-11.108625129428766,-13.515001442157665,-10.98042622688015,-8.874110970129012
57,-10.530143063460322,-12.707372154068977,-10.206845985563696,-8.116211837858302
58,-9.842341891738348,-11.961320245958964,-9.354207485093957,-7.307297504942631
59,-9.118090869909176,-11.307467886839005,-8.451241125607998,-6.455549193440611
60,-8.498788337519917,-10.758870882931213,-7.595736116746688,-5.61675524054448
61,-7.97710200439864,-10.326778633790033,-6.862055350640828,-4.864203674063596
62,-7.553652217524687,-9.97404727374458,-6.33563284517894,-4.2763580531285
63,-7.2206548366891115,-9.66369471068619,-5.997515074641645,-3.8994033612140506
64,-6.939555113169968,-9.37161744854319,-5.760939358459885,-3.7086848863046664
65,-6.695544124191026,-9.05296489624772,-5.535680645445307,-3.54589576071456
66,-6.480071758758396,-8.679841284462693,-5.256120722997616,-3.251200313603006
67,-6.222218694328822,-8.225861583808951,-4.9295137001191085,-2.831013189226276
68,-5.609779475269933,-7.5567626681581315,-4.62549763922784,-2.325803539912474
69,-4.990279304521583,-6.8690978270669,-4.330330274685699,-1.855448795749032
70,-4.45491027678029,-6.2365736726251475,-4.050454101564555,-1.4829400497618412
71,-3.9745308305777862,-5.681195061927082,-3.782246336579971,-1.174373831507076
72,-3.4895902884194987,-5.1571017022575125,-3.5153657741208373,-0.8617326810669299
73,-2.976692008348303,-4.622938560156226,-3.254039201434521,-0.5677331696213859
74,-2.4336062816564947,-4.071779485345289,-3.0060388004771634,-0.3325927990105557
75,-1.943643197912308,-3.5036726516851537,-2.7631874857810654,-0.13190232905671542
76,-1.591396262592374,-2.9447649907848823,-2.5159867795384945,0.06784346267394226
77,-1.2839036706289764,-2.450979681995901,-2.2715738812834436,0.2814384745391118
78,-0.8976419065000047,-2.052081935068343,-2.0388468363281698,0.5143582772356161
79,-0.485274559840126,-1.7377997144526705,-1.8112707230055802,0.7313469579420833
80,-0.13468342523940585,-1.4409979968757467,-1.581456505603061,0.8924195838959157
81,0.16974386977151792,-1.0759687209076956,-1.3542971429786845,1.0321390060344644
82,0.4639186797718736,-0.6135737511854611,-1.1384907081611588,1.1985134764089145
83,0.778672963738926,-0.08632549872014668,-0.9442913992954146,1.3588245332868383
84,1.1370351094253854,0.43681548739535697,-0.7781808340899222,1.4734473881760541
85,1.4686486944220898,0.9294644306582819,-0.6309296726257656,1.5795011381888782
86,1.6965276155464493,1.3716278102886177,-0.4882201187368938,1.7255446986332397
87,1.8959326953227922,1.7642662142881325,-0.33942390724553906,1.926317880918929
88,2.1699088329375154,2.09759709693107,-0.17915918119503732,2.176747633257029
89,2.4913048621896405,2.3672664783659974,-0.024944216009374968,2.4198786831849666
90,2.802645594892137,2.6151705532256253,0.10627452557728705,2.598383700684023
91,3.0999730590368464,2.89607712854041,0.24348428249341644,2.7557632415110778
92,3.3869080464999373,3.255125634472086,0.42052530424596535,2.9594400076773697
93,3.682769384577205,3.6533793094161506,0.6243274241237847,3.202745122547556
94,4.006109435426429,4.034024425511001,0.8275892911427609,3.457110690076013
95,4.291787774657415,4.36433021291738,1.0103910323186078,3.702783106604676
96,4.471375170089709,4.655989899101792,1.1592698631976488,3.9191501450112787
97,4.608333259302536,4.917392411634204,1.2953765114746647,4.126388598155458
98,4.788046808958057,5.150283939142543,1.4444010589401357,4.3473608771693035
99,4.984125886739701,5.332734612660803,1.578146711020466,4.512345149187928
100,5.14152720387733,5.429213956392146,1.659668511457055,4.5504805924479985
101,5.244917603628986,5.46291341333451,1.6997937994643828,4.523700609601815
102,5.289212235018923,5.524003521187803,1.7245477947075507,4.520228570760982
103,5.289455192987633,5.657893532950371,1.7472827872801835,4.538740772019196
104,5.273480733294081,5.811836670531592,1.7804599979416422,4.552329444026927
105,5.23438510005795,5.89542815244804,1.8371946667411243,4.537425079743236
106,5.163443496246991,5.891663203532844,1.9228434477588567,4.474285929674131
107,5.108567769942437,5.868067380332622,2.031077512943258,4.4097094378595685
108,5.117702978060792,5.872168992104247,2.151396208336076,4.398176975324677
109,5.17550714531555,5.904846462209211,2.278724600252082,4.389295220814111
110,5.246156903795477,5.938335949994005,2.409037243336572,4.315646023512561
111,5.297719631941959,5.966284878681596,2.5351137014343226,4.203357110187339
112,5.307438852718107,5.986928927539791,2.649879921504536,4.10121612652103
113,5.311421358845491,6.007734849091306,2.747662348459444,4.021298396344767
114,5.352011071657561,6.035715474573867,2.8268142024388436,3.969189234553911
115,5.38016720588239,6.046374162524376,2.888976363511829,3.9342096264206843
116,5.332960252036331,6.009529186390071,2.941347726062823,3.899986557875627
117,5.224440222438521,5.921252434639147,3.0087150259165485,3.9102165226534775
118,5.0896995084231955,5.79416201674582,3.110243736340865,4.00233788252746
119,4.961236357443466,5.652559103468681,3.2251740878906525,4.090969817829499
120,4.862211990080718,5.527915571553254,3.3188730027187963,4.077844753209225
121,4.7297922162827675,5.446951417142498,3.373127609530814,3.984810541930009
122,4.497084211750388,5.422732809622008,3.378093204168304,3.8730054089783943
123,4.253533362252494,5.449495708057976,3.332711739431259,3.7828584554369074
124,4.109993184247611,5.505903700802252,3.2458420608128664,3.741693124345891
125,4.012247411495784,5.555590169077903,3.1231041873651395,3.717428630304834
126,3.8755295755855985,5.567082214540984,2.973381105681151,3.6587589587198255
127,3.720382041770729,5.54074150874276,2.825604768294627,3.5827320501558955
128,-10.039385644291595,-14.960719012118574,-10.461252604746415,-16.004003882573205
129,-10.287714286131914,-15.34369500620992,-10.853093609774872,-16.440253882350337
130,-10.469840920017889,-15.771813592921506,-11.222143091906357,-16.838940707949423
131,-10.64090744096569,-16.25182103017595,-11.561266867341415,-17.18895885662345
132,-10.868288443504966,-16.76672347406886,-11.88416774255351,-17.489950618522244
133,-11.133359373399173,-17.286149400914617,-12.20921609892132,-17.759842628413143
134,-11.401407478678289,-17.772865833805728,-12.57346721395549,-18.020574450499673
135,-11.679319146869048,-18.222066388738313,-13.012550098654474,-18.3150021430168
136,-11.970642760540656,-18.63254672650103,-13.50682435525706,-18.667446131560702
137,-12.271654230586494,-18.951801671069965,-14.016204502834894,-19.010140732708614
138,-12.566892155768205,-19.141751720213097,-14.497548797799762,-19.272708535053386
139,-12.77312849391998,-19.25158617418695,-14.959059969845246,-19.492661412509428
140,-12.823264433971165,-19.34728087883145,-15.425817945156737,-19.721511384740463
141,-12.795851588141604,-19.450326494493442,-15.90010879265869,-19.943642685090378
142,-12.786570593115494,-19.56563683854566,-16.37860891604701,-20.128585134069368
143,-12.75748800895254,-19.686646707686624,-16.861504714531822,-20.240323708544157
144,-12.661593118128366,-19.797255182203752,-17.340167382657516,-20.252335661049315
145,-12.547435380167649,-19.90156084529177,-17.79465675693472,-20.21276810010116
146,-12.47361624620618,-20.00591204436326,-18.205980233881473,-20.175845443525997
147,-12.478203583287518,-20.082341869196895,-18.56079522622372,-20.097492263753146
148,-12.576289536453334,-20.11486601386276,-18.858541901295133,-19.93114468946742
149,-12.691408719688258,-20.147120204853703,-19.123279274512115,-19.729667659313087
150,-12.744006731688152,-20.231601566887743,-19.382373332060993,-19.55359446061334
151,-12.794626207558268,-20.39434577793677,-19.64754627472718,-19.406022241923154
152,-12.913003025757257,-20.635726434857073,-19.916274170150576,-19.27158443062663
153,-13.02881927331111,-20.90849269228912,-20.16152877162035,-19.107606058259815
154,-13.063035529900326,-21.155816180405694,-20.355888530660955,-18.881502914823518
155,-13.032993587742009,-21.364516794022062,-20.50827408846618,-18.652966244774916
156,-12.977174797813785,-21.542527481230877,-20.637028627256388,-18.49000747423546
157,-12.937926640224319,-21.69471234237908,-20.741588004446424,-18.368090633864917
158,-12.94723635459292,-21.831165877946617,-20.81991299377216,-18.243686566193237
159,-12.94294885095977,-21.974663342422577,-20.877476222693492,-18.10992041994168
160,-12.863361589522782,-22.130334168287728,-20.921329490058504,-17.965233736695286
161,-12.791210918035972,-22.252656265479658,-20.96098130845912,-17.82198732241011
162,-12.81184581894151,-22.289665037311277,-21.007802246629144,-17.69060444383838
163,-12.871044807799118,-22.22234027709827,-21.071840487406355,-17.52287311146738
164,-12.887682224595435,-22.053283498268602,-21.15842769809282,-17.274980812585454
165,-12.819074589017811,-21.814509292123553,-21.2667826374645,-16.99531401105997
166,-12.649865914765865,-21.540503882038063,-21.38866440123316,-16.73761076505771
167,-12.447002978798286,-21.22265301063387,-21.50603555458939,-16.476505110847576
168,-12.28677540303358,-20.842632737996084,-21.6013032219657,-16.172655913921215
169,-12.134052274334197,-20.404405956043586,-21.664949887764774,-15.804235026380228
170,-11.935354913491558,-19.91963777734273,-21.69484843681634,-15.363292719683132
171,-11.718534411660606,-19.410293581245536,-21.704218443921473,-14.90448657456313
172,-11.516120578808689,-18.896366780265758,-21.703062633185144,-14.478387473836442
173,-11.318046533170335,-18.3668758244555,-21.669765973440775,-14.021330907736251
174,-11.107794502374944,-17.802697359325897,-21.579309397360174,-13.463040121527005
175,-10.856294399617957,-17.20904540093474,-21.43224890827546,-12.844914352151848
176,-10.549249132364038,-16.59022848220554,-21.236510864070638,-12.22649753498834
177,-10.246161829930083,-15.924508012316181,-21.000156442994165,-11.616790519946589
178,-10.014478813367719,-15.19496216739948,-20.728984767260766,-11.011721612142926
179,-9.853937843723058,-14.411700310155206,-20.41118303862721,-10.388354507422491
180,-9.73941602776391,-13.59902236781149,-20.035886239013255,-9.7231941660415
181,-9.653516903995886,-12.793035951590737,-19.61445609254509,-9.049881820132203
182,-9.572136455278613,-12.027625499868277,-19.16759930531073,-8.40738027358485
183,-9.467588601714588,-11.31002149457319,-18.71705334065433,-7.763614565609634
184,-9.31982319644876,-10.630810744917717,-18.277075231548285,-7.082863458990838
185,-9.119257797152205,-9.983248144235713,-17.84647344398984,-6.403116099916748
186,-8.863435346944776,-9.350665777370127,-17.40751408013808,-5.759340794797238
187,-8.553235376445823,-8.690035065149457,-16.917712608146697,-5.116293607775864
188,-8.216620332616772,-8.003271954993407,-16.382096783639472,-4.440517808974387
189,-7.862696539817529,-7.329746209556065,-15.894472547411397,-3.733158113381043
190,-7.514914035091779,-6.738423359527506,-15.517830820699036,-3.0214100363918415
191,-7.213961880122574,-6.255833105133957,-15.245109039791638,-2.4150848788783628
192,-6.973083784180257,-5.867656188184542,-15.016701199384135,-2.000742006430912
193,-6.711198101850585,-5.503329250333104,-14.729588314013327,-1.673123176695976
194,-6.35191467837233,-5.1025301255633835,-14.3301844408765,-1.3094186905403367
195,-5.896274286294967,-4.700542383049382,-13.820184727541365,-0.9581125505060675
196,-5.341728269368669,-4.237292680990642,-13.194860551854783,-0.605259354508985
197,-4.849266473982013,-3.884472020353618,-12.52663882831958,-0.3669282492247865
198,-4.533632244754673,-3.658137154594854,-11.829386075400178,-0.2406554475532386
199,-4.346747605353963,-3.533782240471331,-11.115400795446597,-0.18760975034614932
200,-4.189649569598981,-3.4630898164791923,-10.386279796785383,-0.15505595152275914
201,-4.019888381957111,-3.4025275681205747,-9.62780630773106,-0.1328840624997228
202,-3.8169641964770005,-3.3138383296999456,-8.849369046895701,-0.11929609330878471
203,-3.6092981893769034,-3.166024199979747,-8.046552496724685,-0.056919607105204544
204,-3.4414293733936656,-2.9467312988180945,-7.267463394819082,0.09808238316111492
205,-3.2707439414455055,-2.6662165151720814,-6.625108241322655,0.2982966841478764
206,-3.0421020120710685,-2.347280239166338,-6.168556143580579,0.4701626969902847
207,-2.8023884578392657,-2.022720987385495,-5.8660772615576855,0.555326460473676
208,-2.613756956646411,-1.7179587236046954,-5.639145114307753,0.5258686859155313
209,-2.462731410338746,-1.4154603333175255,-5.433687765997195,0.4594010152315078
210,-2.3202691593129754,-1.0866556758606258,-5.216487260365844,0.4553647681869556
211,-2.1721256296838245,-0.7453417315314462,-4.9877194251924735,0.4860462350365401
212,-2.0127735949821237,-0.4102555923875188,-4.769333536609728,0.492928427177902
213,-1.8903091724481638,-0.062428856253812955,-4.577533857035872,0.508369829300559
214,-1.8472517264209096,0.3227404783417691,-4.417304265914365,0.5742533774571108
215,-1.8222348416451186,0.7530629052075414,-4.267820145799004,0.6806260573353399
216,-1.723238437208454,1.221881970419612,-4.101272962206403,0.8036919804416606
217,-1.5033221482923536,1.6976614519885411,-3.9163992484343857,0.9031449930503963
218,-1.1470996021201982,2.1343046605209044,-3.7255212648271625,0.9425749977608889
219,-0.6876466781030051,2.4939365374015763,-3.5389751540163954,0.9522088533953706
220,-0.18236673300228928,2.7499026697486646,-3.3691593059225498,0.9786777052301674
221,0.34289398665121507,2.881539946905726,-3.231363834387981,1.0052162097522415
222,0.8803410699837867,2.8936515483498586,-3.1317562556199925,1.0009193762685749
223,1.4199297061964975,2.8391892012825775,-3.055466798812336,0.9774541955731373
224,1.9605393976360634,2.784543257458129,-2.9795823192124105,0.9468924294491656
225,2.5150984173342974,2.7776751421424235,-2.8877147423217973,0.8934999063181852
226,3.0892483364686854,2.8425625729085424,-2.7715363347359108,0.7978272177414392
227,3.6640561610757136,2.9512065256076916,-2.633852265174096,0.6306348134218241
228,4.207834478377841,3.0600944196040856,-2.487127558386402,0.3798921929121911
229,4.6761476637171,3.17912401576802,-2.348774537507394,0.11482638918542973
230,5.03313884935775,3.3289927725585904,-2.230660993262352,-0.08145128762012596
231,5.303635682121713,3.4863703917050874,-2.1337899969877556,-0.2051903579555994
232,5.530780418696278,3.6216508368810674,-2.0443326463624425,-0.2820833239732346
233,5.689916203692434,3.724470083335825,-1.9185287965998001,-0.3247939543310816
234,5.755372417289249,3.791320320973974,-1.717215986427401,-0.34720352021597556
235,5.809360334775814,3.8394100655515855,-1.4510656237409365,-0.33953905353019226
236,5.9361379614747705,3.8867525057117085,-1.15495448706349,-0.2897524788592951
237,6.087044538954836,3.901616037209839,-0.8707774802862589,-0.24948465661952832
238,6.186066552744713,3.849215172636102,-0.6331589018792232,-0.27264551160992156
239,6.232371163235119,3.7595512209958684,-0.4269959861316875,-0.3208055336839212
240,6.249728823837762,3.679643652633914,-0.23027546699810028,-0.3388661874098561
241,6.283675916865944,3.6206910240087398,-0.03475950385659466,-0.3417910363538962
242,6.3765824189702,3.5835183341388075,0.12962606464274895,-0.3587338606863619
243,6.4741447114749295,3.575158596586139,0.2586875482798793,-0.3986695489373573
244,6.5063702609790415,3.592217180279347,0.35230274412683693,-0.4589585610419765
245,6.514783215320269,3.622129917993132,0.42432340812562896,-0.4907527303904139
246,6.562936823017011,3.6482736314307744,0.4928129252298994,-0.44390738563062876
247,6.6493582682649475,3.633108444242961,0.5568703282906103,-0.35124061156189235
248,6.7509808249798215,3.552939025896883,0.6044794965258248,-0.2702259275716806
249,6.822066092886204,3.454749654488395,0.6246594743675784,-0.2065781154669422
250,6.822331557929873,3.4027659276146593,0.6076425078453263,-0.15360255559756816
251,6.8013826743243975,3.414393548011237,0.5418524994695155,-0.1258696319856155
252,6.831256607107803,3.4833472324323522,0.43680004833410685,-0.12850472450537734
253,6.902658428413028,3.5867756594007965,0.30915763636670274,-0.14723455069314118
254,6.986390905144638,3.6897305138327683,0.1990259784374308,-0.1606183826687359
255,7.092919707478324,3.786218246470591,0.15173083095697643,-0.1207027395252939
256,-12.258281463855768,-17.860438998689396,-18.390159001308188,-13.613340436620822
257,-11.234998984002338,-23.716515702972366,-19.810431587299696,-12.51045214144418
258,-10.326793003249973,-31.00004022796964,-21.01654945579892,-11.611508046018855
259,-9.495998285933503,-39.11019277040587,-22.25324698125647,-10.831483722470198
260,-8.795879888163029,-47.49256951412283,-23.798702217774522,-10.155868027431342
261,-8.29575007201491,-55.80872783409619,-25.920610770482202,-9.721166566262664
262,-8.071729955255536,-63.8113264270307,-28.913400922376034,-9.661697945142853
263,-8.22042699467948,-71.21826843302206,-32.89081372839337,-10.048933457518956
264,-8.77348610834641,-77.77424547277495,-37.65697415274319,-10.79195316460465
265,-9.601336420121735,-83.3225072198324,-42.86210937893085,-11.727086571787824
266,-10.525687949718877,-87.81146626582024,-48.214296382117986,-12.673399241796355
267,-11.423390935980578,-91.24412787965416,-53.49727301606205,-13.601092878474105
268,-12.21468014352301,-93.67214820729694,-58.6193503657538,-14.507700605047031
269,-12.897490755551857,-95.14597943443638,-63.52609319667869,-15.386896801660063
270,-13.499767777745221,-95.71095023307718,-68.20032090865136,-16.17566895854189
271,-13.979710196040415,-95.41004864776278,-72.5710797972154,-16.81223166429704
272,-14.293865403121066,-94.27844501339412,-76.45437809221116,-17.316345928855075
273,-14.47709043173695,-92.34524614725525,-79.63028426185383,-17.734883548396763
274,-14.564629262732494,-89.64334057989767,-81.95250932667193,-18.10176282673435
275,-14.53936630567224,-86.19889769733996,-83.31666226869858,-18.308334058639176
276,-14.370947799858715,-82.04282917275636,-83.63285128794195,-18.241768870898973
277,-14.005620317339817,-77.20189784076418,-82.70517253810719,-17.826024843296956
278,-13.407687834852977,-71.66699431935719,-80.35798422567794,-17.08179924113364
279,-12.66134106348849,-65.31289707726599,-76.56209325654703,-16.076975297488357
280,-11.849673692461044,-57.9199697045424,-71.37381994152969,-14.821068485967832
281,-10.888816943059231,-49.35146433832241,-64.89919846292027,-13.315034841187503
282,-9.679186296385826,-39.63153115696069,-57.276858693174816,-11.546953193675607
283,-8.25564881347384,-28.83806059178732,-48.64528115031123,-9.581067163963391
284,-6.6471650931500825,-17.032189049824474,-39.114913943217545,-7.4761053418035495
285,-4.947720481545097,-4.306064591617855,-28.7186462859706,-5.165315513414718
286,-3.1273252119715234,9.22056742536899,-17.513970958405864,-2.6034961363090425
287,-1.1394005827017495,23.478154643645123,-5.583498100927568,0.17516793332053185
288,1.0586149655153152,38.43199642697338,6.902780669917758,3.0604024099693414
289,3.3593355133311973,54.00284616989701,19.782522042634263,5.94548483332051
290,5.6378057547339955,70.11904069012469,33.00266063997584,8.805665619120525
291,7.922590609090815,86.82716827107387,46.49513766217474,11.67803508880675
292,10.25637206285867,104.18282580468725,60.19330380821468,14.558534434462832
293,12.571729055008175,122.07386313081447,73.96802676709598,17.405515690442275
294,14.792162982585864,140.26758711306104,87.6591275612456,20.159039101835106
295,16.873584899323397,158.52584087650294,101.10487300786694,22.823050926918683
296,18.801562531224725,176.63264381673036,114.16657488813281,25.404726878997998
297,20.655503108876953,194.3802901469085,126.7816692846532,27.839924706388395
298,22.518844687610844,211.55772493953722,138.91316896668505,30.095870784204884
299,24.34367468008162,227.97655493797325,150.48393255253245,32.15612104732983
300,26.058698100454546,243.50113645331993,161.4199072797344,34.097555399207614
301,27.67963740591764,258.09337726207434,171.67784956256565,35.96735965401374
302,29.227698332127172,271.7610196263793,181.23987786841158,37.787025863026656
303,30.689185214873156,284.4713750559856,190.1288361896454,39.46839281484518
304,32.03862547770507,296.14846405545984,198.38852033089384,40.913706525917355
305,33.20625414002402,306.7198678320089,206.04765577092607,42.13885885789035
306,34.137062369883026,316.14743286399084,213.126847254108,43.20194553659074
307,34.892922117507425,324.4315118393467,219.65765899745824,44.15540165517271
308,35.555015595004214,331.590376426455,225.64715848484502,45.04196688955553
309,36.10750286631201,337.64793080955815,231.03595619749325,45.842953699233576
310,36.52197571730818,342.6426193476907,235.75742046909184,46.51315503090315
311,36.83079231760497,346.6230184419324,239.79922492012835,47.05566045279858
312,37.061856474745646,349.60722604263003,243.1707503702101,47.45466392877199
313,37.2096788056211,351.57999220128517,245.88239547175195,47.6720528266434
314,37.25869777798782,352.54878147885927,247.95318535687892,47.648583305426385
315,37.15788488906429,352.52618760821935,249.39536307705694,47.39062661564183
316,36.8294323594401,351.4848722590638,250.17338719970644,46.95312628785379
317,36.33862286823367,349.4144505402194,250.22342826992056,46.33292782838551
318,35.728832993514786,346.3323821411225,249.55959254767149,45.44527958585304
319,34.93713670731356,342.28344754776884,248.23044966299204,44.27658044907348
320,33.90646593833397,337.3342509335706,246.33365140081276,42.849440777221226
321,32.68422206310548,331.58971136673716,243.9016987636497,41.243335373988515
322,31.345765949536066,325.1492925931559,240.99376242849078,39.57479707333922
323,29.95752759901573,318.0578168996471,237.61708905571618,37.80640988382504
324,27.82749293771632,304.3075187171116,230.0452273924145,35.11759635198442
325,25.696159363926597,290.5773323821608,222.4508523406733,32.43527320359468
326,23.488406828346733,276.9052836065059,214.83470131045297,29.792144417532427
327,21.282334496946504,263.3049374548418,207.18924703602352,27.226447967901013
328,19.178556460071206,249.78252121960048,199.50546364951788,24.767698916264745
329,17.1196232562308,236.30471931956447,191.7607137816082,22.37153083773352
330,15.015766966842868,222.8320617883042,183.9383969601747,19.97708067574268
331,12.865618205451435,209.3394842247482,176.06967419987316,17.614078410281568
332,10.691253798804604,195.83110279658197,168.1910344655221,15.322640472283545
333,8.52070929503506,182.3163096512682,160.29046360866266,13.046339432056687
334,6.382599319814848,168.7818999316083,152.33792629988164,10.734114736937617
335,4.24300352379506,155.22099412313182,144.30794252965146,8.342640976141782
336,2.0550108427145384,141.63668346678193,136.18154025629823,5.913763495928693
337,-0.15257784128313978,128.06918298769946,127.96865323511237,3.4640175344841158
338,-2.334138544515356,114.57589663970958,119.6929797500727,1.0172541422281984
339,-4.497319031910678,101.21962312954942,111.36072945568256,-1.4417081080579512
340,-6.653498126869611,88.03723846819872,102.97185472664076,-3.9365931635151106
341,-8.785574417178717,74.98875153323313,94.53982076593925,-6.413249231669715
342,-10.871889104813343,61.998637707679514,86.07250960754934,-8.835398919375166
343,-12.865472126111042,49.006321366912104,77.54384820787767,-11.223959965424106
344,-14.735078657756757,35.96810029125163,68.94233058701988,-13.652610692929894
345,-16.56762452546747,22.87851445681083,60.258063751629905,-16.191481381365264
346,-18.460194261524773,9.754618591570722,51.52851221627386,-18.806387431182717
347,-20.36410013592244,-3.400305217184692,42.817208924089265,-21.37068905979165
348,-22.194763009659606,-16.58192824932359,34.14445778813528,-23.807877836174544
349,-23.94055015439809,-29.77559016265205,25.480465673959372,-26.147051707589213
350,-25.61920277714744,-42.955508311470744,16.82060709002733,-28.442162879298177
351,-27.287392640841222,-56.08217562194471,8.205890003133097,-30.706999389541988
352,-29.01358621539997,-69.10659990127097,-0.35813152769449896,-32.8982279816635
353,-30.76760313471536,-82.02809643630849,-8.922412366731,-35.02665330977423
354,-32.4972628053717,-94.87708630528834,-17.49834189290697,-37.19071252552403
355,-34.28631602539621,-107.70589730825915,-26.06664011650318,-39.44558557316895
356,-36.165490799355574,-120.66414057492636,-34.610952996952236,-41.79121261661519
357,-38.1025905894788,-133.95266491710063,-43.18969006186449,-44.12472311551365
358,-39.906804773968936,-147.5452394806307,-51.8813565024274,-46.26730931270893
359,-41.43283366386416,-161.17761819428858,-60.74581530166758,-48.134773309180076
360,-42.68903298107633,-174.8042930647724,-69.7755635380065,-49.772315770887516
361,-43.61824862035906,-188.70565993306283,-78.92858948076888,-51.0751216073335
362,-44.01081035876287,-202.8925659104439,-88.07064464823173,-51.72518813687519
363,-43.950218508203356,-216.9600524287821,-97.00650591441283,-51.821337279381005
364,-43.89527770318764,-230.76728455064438,-105.66767495125426,-51.9938339647497
365,-44.086931085770125,-244.68283744236538,-114.13285809501217,-52.51989958673551
366,-44.28718078200225,-259.09121891671515,-122.50926553872078,-53.020024680756975
367,-44.158567662223994,-273.97587541826647,-130.91019727811943,-53.07732508757178
368,-43.64643383708652,-288.97389556000365,-139.53260753266693,-52.637918019424525
369,-42.89474371697776,-303.71080333921026,-148.6191045140617,-51.92248375124746
370,-42.11334051551117,-317.97275666823384,-158.40896562514678,-51.287779100080925
371,-41.709352725997775,-331.7030730005575,-168.67765325687594,-51.14890540952057
372,-42.15130047508538,-344.99191930026916,-178.72375031917352,-51.8228694364282
373,-43.39964767050196,-357.9996827500601,-188.0891760562268,-53.26223382464873
374,-44.913858491254445,-370.70616341734336,-196.75530006092023,-55.10032194610271
375,-46.31787347126339,-382.5219498384078,-204.90297686111037,-56.98048043597983
376,-47.59904448966747,-392.4672560511054,-212.79995801607058,-58.72298667501713
377,-48.835404386015355,-399.9173748730713,-220.69866869875082,-60.30331915237986
378,-50.04036059264227,-404.84737684191686,-228.6331849842483,-61.76210545268273
379,-51.24409032512788,-407.5689948127232,-236.35601729666973,-63.16560050294605
380,-52.3836804048811,-408.42474967993667,-243.54080611020103,-64.5164272979621
381,-53.36853821995165,-407.60261710123206,-249.82037372080688,-65.65443366683198
382,-54.08666322467173,-405.23975405307885,-254.74378179899887,-66.39597215672157
383,-54.38738003586751,-401.5471191407056,-257.9924027606363,-66.59805223500234
384,-24.964506803441044,-129.46626175406456,-50.30811578159675,-29.83517051827247
385,-25.38569946404421,-130.92866729588434,-51.36695431123424,-30.346577099725902
386,-25.827842448757938,-132.4640941009864,-52.37690483779885,-30.92788050404283
387,-26.253924395871653,-134.03892441649637,-53.278460050359485,-31.456650957892837
388,-26.634253521387965,-135.54159156210793,-54.030405055954176,-31.8131873692937
389,-26.954003126529162,-136.87868589935783,-54.64564198353648,-32.041217271921965
390,-27.2164303720416,-138.0034958331357,-55.172861088444954,-32.22852270004798
391,-27.48244382404573,-138.893200918971,-55.646601954509286,-32.430768605662294
392,-27.79583858640225,-139.5331958928745,-56.06867322802461,-32.675878944176134
393,-28.073990102326434,-139.93865011605428,-56.42330474831606,-32.8973653915676
394,-28.223780567444884,-140.15261505569092,-56.69932344626491,-33.0168710892147
395,-28.260131374786837,-140.2292446844795,-56.90892478912374,-33.068313521161585
396,-28.231997575237585,-140.20599349562232,-57.07477314411153,-33.11104571454137
397,-28.184910961651365,-140.0800227268112,-57.21107359920062,-33.15606091707685
398,-28.15948505017069,-139.812722417097,-57.32251152133383,-33.19938248149071
399,-28.135881410596774,-139.36544785679274,-57.397895030565515,-33.212858675823405
400,-28.08289759237194,-138.71438842835474,-57.41688260979161,-33.163809109473696
401,-28.04320545055022,-137.84120482653148,-57.356650200589854,-33.071372128161
402,-28.052374683732992,-136.7094970243661,-57.2055358336039,-32.960886574416506
403,-28.062147877262806,-135.28282234026508,-56.96674791250112,-32.8027184433423
404,-28.008428743929713,-133.6082206846124,-56.659535767846705,-32.564657980825665
405,-27.84280702895156,-131.80901242451858,-56.29916268200559,-32.2635045688628
406,-27.545477750546738,-129.95241634071104,-55.885533586798324,-31.91976181108316
407,-27.185140249720046,-128.01514760907085,-55.407964167435445,-31.5214175556297
408,-26.84245028306466,-125.93053461578404,-54.849652344695805,-31.054296654394648
409,-26.500088408803418,-123.64821867338273,-54.20022181357164,-30.518236364193342
410,-26.121772502896587,-121.15059318510471,-53.45611467067292,-29.917127229348957
411,-25.731193148819813,-118.46513695428445,-52.625340562447114,-29.266107150888356
412,-25.351074373896083,-115.64993179750843,-51.71801840969206,-28.58001674903535
413,-24.972437703461733,-112.71353641200052,-50.74212656387278,-27.845913945363158
414,-24.580532336363884,-109.60599210805351,-49.70222150570712,-27.052556318866763
415,-24.13460277705521,-106.29917814319943,-48.609564531754344,-26.228278594883243
416,-23.60519186302199,-102.80651537216148,-47.48681533664592,-25.40527808283684
417,-23.063037824528198,-99.11992712024217,-46.34649781585626,-24.585211945591322
418,-22.570436576165797,-95.1973527067908,-45.17767111080352,-23.762511088245823
419,-22.039741125453858,-91.03196329487957,-43.95748670969832,-22.934046815878148
420,-21.372554966104964,-86.68289593732568,-42.66775792312461,-22.09115483923559
421,-20.585732021894874,-82.21893092112859,-41.30099935287123,-21.242779795278214
422,-19.730235210516174,-77.63402832507506,-39.85220613807,-20.38680893863796
423,-18.86912942636474,-72.85424838605734,-38.32396101029491,-19.440398230370896
424,-18.051477850574397,-67.80239761538243,-36.72011520557272,-18.33723336464223
425,-17.21114684509574,-62.45289269988254,-35.048455378268685,-17.15325959947128
426,-16.27170813292882,-56.85024788774464,-33.305469832744,-15.979111261451719
427,-15.302689413903046,-51.07824160746304,-31.47349426144453,-14.804912640442245
428,-14.383874704154028,-45.174205594336456,-29.525565781130453,-13.5923653360326
429,-13.460320680821019,-39.11656359343935,-27.455712742524785,-12.28626760445477
430,-12.46492966933982,-32.88285930874358,-25.288708807883122,-10.853103813474265
431,-11.41509013547415,-26.47604498120936,-23.06155128053515,-9.392312314488905
432,-10.335802585211873,-19.917766200898004,-20.835322949798066,-8.012686674893482
433,-9.23584739477872,-13.245045517878733,-18.673234093392296,-6.669506957050021
434,-8.114146999908517,-6.487560565312964,-16.56880127074225,-5.288725817691733
435,-6.90059210646519,0.35448687491024855,-14.456496602828706,-3.8800687680767614
436,-5.543774900420732,7.30796354915711,-12.272000026456888,-2.4596537836546357
437,-4.146356859153031,14.405855220390498,-9.975973552213858,-1.0198279857337471
438,-2.8249409826539096,21.672241618221854,-7.55062782652851,0.45172393407947586
439,-1.5650214841459649,29.126639408067653,-4.994572659561673,2.0040024426546577
440,-0.3163827096963723,36.79382979342393,-2.313366028086152,3.6759741840039344
441,0.9516852425213951,44.68399399602653,0.486126175350983,5.417553428813031
442,2.264342286820442,52.77193838213149,3.398026349507636,7.165641283191073
443,3.596550052821539,61.01505300770208,6.417991811043639,8.92640185786294
444,4.843416845789916,68.85238647361354,9.307177980660368,10.607692515643675
445,5.941096619710203,75.16047399871113,11.550213988336692,12.064131085254017
446,6.80976054818916,79.46118274753289,12.878125237874,13.114041365556536
447,7.4216757013248635,82.20704385150755,13.433916205734736,13.75860746716934
448,7.822166096967751,84.09753142006201,13.502188527506693,14.115315875588909
449,8.11047925636445,85.73603115578008,13.336128061846638,14.334004540931256
450,8.385066767195307,87.4627517039804,13.076959950083953,14.544230182545538
451,8.698476270704191,89.3106610547483,12.75950996970824,14.743779154090673
452,9.078613145088122,91.47918499552799,12.711718536424163,14.983662343016272
453,9.437881939949765,93.37992492097311,12.645340775570933,15.20395142087844
454,9.701783202417182,94.92166884133547,12.570199178192624,15.462461765269746
455,9.909606082539232,96.07837604812792,12.486300311186861,15.737189142915945
456,10.129151069391442,96.87113901111118,12.591421724991049,15.991032464643734
457,10.33414761607489,97.37065937144833,13.283582884230126,16.19941020126551
458,10.483274480959416,97.70092724631725,14.70388463076895,16.35507536179406
459,10.595263840330867,98.0149016537749,16.65895624552157,16.539234951313034
460,10.695171335739767,98.42960100198303,18.89904546716887,16.830318922382286
461,10.790078575579047,98.95784705075246,21.239901397396668,17.150711633396984
462,10.880234315473109,99.51139937346481,23.5850751995744,17.382341214540073
463,10.927824766059498,99.98348798252167,25.903846475305553,17.50106113584198
464,10.899030857506109,100.3080059869206,28.200417987270228,17.518362704158776
465,10.847312244372882,100.4610106844408,30.490519897287186,17.458018088924057
466,10.841178666598147,100.45920093402047,32.78881344865298,17.359132077428477
467,10.872517152595735,100.35123477431988,35.104617675601084,17.219783869656748
468,10.908265486014306,100.16866152456373,37.25685636200918,17.03169086892327
469,10.927182299893937,99.90295861606111,38.859711515982596,16.859613156167708
470,10.911857916624866,99.54418114649124,39.74999429067404,16.766423744113684
471,10.880763834492061,99.11633771187357,40.081987389337584,16.72055760093743
472,10.861524400236808,98.65893201856758,40.08354982637802,16.665488552991363
473,10.823006095039075,98.1764609887472,39.94529476873374,16.574072994729377
474,10.73022878855767,97.68346100697696,39.797805704795394,16.435952468072422
475,10.624697681665843,97.24492507728252,39.73161781167926,16.29704312918242
476,10.558260346806067,96.91596405296075,39.78671870251987,16.205814821667722
477,10.522099905661074,96.64623144292386,39.92755932390401,16.097285592335172
478,10.489632762463684,96.30027904190702,40.07639257974044,15.886780121272563
479,10.440614176550463,95.77695418276775,40.16868979745747,15.600255425999805
480,10.356872192683824,95.05582673712942,40.174434390547724,15.290743499557555
481,10.258295998426854,94.18395426441752,40.09419524123274,14.960309709276883
482,10.169792079058771,93.25896991438408,39.95245295271949,14.60821135115473
483,10.044009972661364,92.36523137997357,39.76324969533733,14.232007248215133
484,9.83382337289198,91.54831293214971,39.53481606832777,13.836362282168627
485,9.588942070114626,90.8287937407059,39.27519088887646,13.51183035640339
486,9.379814421200194,90.18070791783465,38.9892524237387,13.339750938492324
487,9.23436674162048,89.54402871888146,38.68226113488982,13.231405292490908
488,9.153475070395945,88.84052401540133,38.36064622269315,13.06055245436771
489,9.074455820537132,88.00555973099782,38.034235413459626,12.828114836228934
490,8.926100239204555,87.01517458519216,37.70878804870047,12.570856782054388
491,8.75281437531724,85.87377807480868,37.37533383286928,12.293868626930374
492,8.623950022960159,84.5777986730741,37.019079442064566,12.003676268809333
493,8.491579119984284,83.10774704841482,36.62552856522657,11.675393218434964
494,8.297633285613571,81.44758914101986,36.1850939764134,11.284639723838964
495,8.093469875113376,79.6129801811918,35.70815524298561,10.911304817674711
496,7.942601558242033,77.64326770808732,35.20629241252671,10.63860813571005
497,7.8558092782020745,75.5782564477872,34.68294903448545,10.397084234022476
498,7.810992012498166,73.44035267435217,34.129230099079955,10.085785044139813
499,7.70540298292995,71.24342732649046,33.54233249057825,9.719329861714888
500,7.440210037408422,69.00463441583389,32.93672207751115,9.340772312817746
501,7.075279733960075,66.72824696003558,32.33179184313043,8.94474364308762
502,6.721887604187959,64.39809441969557,31.742701351820255,8.530811035001229
503,6.403556750311782,61.99171589223612,31.18235958459448,8.116283205254994
504,6.11731980899154,59.53256942195961,30.659387099815827,7.7194758153926575
505,5.88119734017763,57.13461714327668,30.175428684443578,7.402933038386378
506,5.695213286242152,54.91652220368566,29.70773380978094,7.207437665619634
507,5.5285650452493,52.883321846692375,29.19713951184717,7.020471963228734
508,5.352483755192389,50.95266187192924,28.593979998462377,6.711994640618861
509,5.149247288950602,49.0448425195362,27.899452760541728,6.307837657492452
510,4.917935217341702,47.11562926618559,27.15483826298675,5.887735489523845
511,4.720473776076864,45.138601525818316,26.39382588377374,5.511058765795797
512,-7.375797805024072,-8.966164815588149,-13.270496533392265,-12.812249189224772
513,-7.53014937444033,-9.309006753354861,-13.631273619512479,-13.083416494774264
514,-7.686965705420366,-9.681907227850203,-13.97180738624608,-13.392911037233377
515,-7.906523653926808,-10.075739745116119,-14.302458912983692,-13.710196454432412
516,-8.235041401575698,-10.489894014781655,-14.635953805703181,-14.00328409827928
517,-8.610711696834754,-10.94110007776564,-14.987210803092985,-14.330216677351622
518,-8.956435610069473,-11.442341188171403,-15.366326481102089,-14.747092486065128
519,-9.315741193098546,-11.990059264630645,-15.778878874677098,-15.237040944422878
520,-9.738094849383307,-12.57028076426687,-16.22216782586494,-15.758840376826214
521,-10.15657466067002,-13.142194358926146,-16.680852121651387,-16.258103854921334
522,-10.500890775628909,-13.68716642224911,-17.13413700939854,-16.688312077229305
523,-10.7878079788798,-14.218512666818661,-17.56265908200241,-17.073934651614948
524,-11.051433043845748,-14.782803974983759,-17.952702725011005,-17.453305038131354
525,-11.318088900458308,-15.383298344264631,-18.299906155026907,-17.793298746323583
526,-11.608648207667464,-15.961195775008372,-18.608993298383204,-18.06202233135846
527,-11.879032937885308,-16.464890770114945,-18.894994116491254,-18.300281178412032
528,-12.091628021301,-16.91172435574283,-19.17241403092367,-18.552520404503547
529,-12.343884768537174,-17.333482499804102,-19.442659190946628,-18.826461735148115
530,-12.726258634346811,-17.773868367046536,-19.702653445276017,-19.109791392624743
531,-13.157557510512493,-18.222739872441984,-19.948050372218024,-19.343988138173952
532,-13.532945840864913,-18.655454840386327,-20.177417550061232,-19.47980259207922
533,-13.846315804768965,-19.080501646275827,-20.40903949605028,-19.57028314506019
534,-14.121357077141365,-19.507577629275556,-20.655655818046185,-19.68649318537351
535,-14.402797405687734,-19.93031218253034,-20.894614124302603,-19.817238654997773
536,-14.72996862254644,-20.33592023059553,-21.10368381425512,-19.938289349796513
537,-15.05311887645808,-20.69826711221019,-21.239097440277664,-20.071655299515992
538,-15.30587850640124,-20.991065605076773,-21.305222189536295,-20.228950120341
539,-15.504817920700471,-21.212325759327648,-21.330613395650374,-20.387614076491822
540,-15.68039630113825,-21.37142457945291,-21.352088841966754,-20.51532262356768
541,-15.80884675087343,-21.46638096741705,-21.37080187726935,-20.54890788719542
542,-15.87529393973031,-21.50524116270806,-21.37243073915671,-20.453664316382707
543,-15.919334521114779,-21.533116024237604,-21.34912661799955,-20.321151782469414
544,-15.98430993185584,-21.58956330537268,-21.2903370136719,-20.256444959396845
545,-16.093771453363477,-21.667941831298496,-21.177515956551524,-20.253560649884207
546,-16.251004310736132,-21.74413629999771,-21.002180859304435,-20.268750552969905
547,-16.405119097394483,-21.794353789628843,-20.780490006004037,-20.272442275447855
548,-16.503117056438644,-21.80137134197653,-20.535479416270285,-20.2284210640499
549,-16.571089214477432,-21.775443700994845,-20.28581895563721,-20.118144482059694
550,-16.645411319374535,-21.737956085557244,-20.042572397442534,-19.939252811919506
551,-16.699868372599376,-21.69880912257921,-19.791503237425083,-19.654869727997188
552,-16.705530044216662,-21.66205650339228,-19.51846771374691,-19.26012516660412
553,-16.660042998565718,-21.629357517454785,-19.246078811857057,-18.8817359007493
554,-16.57456615948238,-21.598078671875175,-18.999192186839778,-18.64226070248272
555,-16.511240081318483,-21.558551982515244,-18.773777922718057,-18.519694192909412
556,-16.51434275327192,-21.50831730469986,-18.55219332449901,-18.440224030196593
557,-16.502027422037045,-21.468660590803132,-18.307036279868335,-18.34098191290957
558,-16.38118687876837,-21.4611673954889,-18.010568605103252,-18.165553024573136
559,-16.16081774163495,-21.491417023568612,-17.653524364208792,-17.909887171643884
560,-15.883946288965525,-21.547268895793103,-17.240669897320316,-17.59201985208409
561,-15.605005842785303,-21.58233061097899,-16.781968939778814,-17.187695723919905
562,-15.365108172360172,-21.551131109532356,-16.292940210147908,-16.674958378998443
563,-15.108272653891984,-21.452689536341005,-15.796090824062226,-16.08659897251267
564,-14.761531846178972,-21.302521697627707,-15.30437746627408,-15.455605802482198
565,-14.355435465575846,-21.11597783568022,-14.805319759214802,-14.763807451588717
566,-13.933260695763204,-20.902923392938046,-14.27866268760058,-13.993672238974174
567,-13.447563969701646,-20.63775266579369,-13.707443301132942,-13.160900029023248
568,-12.862158397177847,-20.29563943241743,-13.08595023300292,-12.291626670760943
569,-12.238903430047252,-19.904256162487204,-12.439944151290888,-11.440270785657383
570,-11.645726992863247,-19.50070997540862,-11.79878820319957,-10.63931666973571
571,-11.111136359939302,-19.091245671665458,-11.160024768610864,-9.807456911627336
572,-10.64836161862695,-18.759014767954746,-10.546361354806855,-8.861446907702666
573,-10.211843246633874,-18.68256287709115,-10.035094190018118,-7.9155869612716065
574,-9.774630281883223,-18.937167194410744,-9.665527318695586,-7.092925648316371
575,-9.436265616127114,-19.44469370222786,-9.420431491461214,-6.424187690723533
576,-9.300596764125325,-20.116851075231764,-9.240736572933697,-5.880410584754964
577,-9.370556194534284,-20.863397831807365,-9.09477641113813,-5.350204812833824
578,-9.586677504940479,-21.638024569171215,-8.961213989552967,-4.716227875912653
579,-9.837274592413548,-22.430952676335163,-8.812551669764135,-4.003981355216896
580,-9.638835140423671,-22.67531354963576,-8.551601377693009,-3.4124313917330724
581,-9.411540022248817,-22.894195287037054,-8.266812913831076,-2.8200280217505633
582,-9.200092039807615,-23.030572541718136,-7.964562845104656,-2.231073921572921
583,-8.999288931469549,-22.993360958055543,-7.677292810801375,-1.7117722697716455
584,-8.797121833947468,-22.751037567991997,-7.43035747151516,-1.3207327380431868
585,-8.653404711595046,-22.346928147616342,-7.196309193765888,-1.0786756571272396
586,-8.617596988572416,-21.825070746345975,-6.931684064933757,-0.9681631188110477
587,-8.644000172261986,-21.191664888013094,-6.614123908528968,-0.8761804387667628
588,-8.6477610433426,-20.484114990521263,-6.238582470430567,-0.6836276583156071
589,-8.530686857993183,-19.748479703614798,-5.830722901039869,-0.42089804930071073
590,-8.219217200385817,-19.02314456701156,-5.4277350567113185,-0.16311246185581138
591,-7.752312473574778,-18.289813020251483,-5.042904895676064,0.11087280665801347
592,-7.215703773394419,-17.511768983847524,-4.676919399125551,0.43059536826626277
593,-6.644798030983953,-16.687454772575137,-4.324473327172876,0.7635080993853399
594,-6.054780418311919,-15.821859071341928,-3.97792168395533,1.0681633673012718
595,-5.4584466491566594,-14.899931470454522,-3.650080472498941,1.298451992470375
596,-4.853141664888979,-13.913306473479295,-3.35589454257762,1.4255603445659344
597,-4.2360743577452835,-12.860898588459921,-3.076669013807813,1.5184545773366718
598,-3.6076639667322516,-11.7583063842583,-2.787268592501228,1.664646051268593
599,-2.958451577467105,-10.689901775105456,-2.496812769195754,1.8405250180634114
600,-2.292253717366405,-9.72332674198367,-2.2106435985284376,1.999331116935306
601,-1.65038685917757,-8.861437376602703,-1.9346592439920731,2.1700705320544103
602,-1.081226744156429,-8.042641441761734,-1.6545611771373878,2.389200757906553
603,-0.6334538684208831,-7.240264389001862,-1.3706413824498824,2.672514158916073
604,-0.326749654268011,-6.495086641059005,-1.119025460500261,3.012934987641624
605,-0.06524188383543789,-5.83788128785767,-0.9363527075393646,3.3093279199797236
606,0.2579365277842368,-5.240356735756435,-0.8089017616908967,3.459249368080105
607,0.5940537856548578,-4.65088749902147,-0.681724521116684,3.5161833491386503
608,0.8614438209963262,-4.009050162734965,-0.5181668381796916,3.57814261106369
609,1.0808038570293246,-3.323141645372877,-0.3168747196021471,3.6510090280067358
610,1.305967355299133,-2.633709400264796,-0.10120999826103586,3.718963008012616
611,1.5981580378770848,-1.9753722934438709,0.131850922508382,3.79020572378724
612,2.0047104426409135,-1.372927626161394,0.3706009262837334,3.8694085685300723
613,2.4876285529917586,-0.8096284998994565,0.5935511871159265,3.975804944667797
614,2.967940648998702,-0.2529684658065531,0.7572724219412491,4.129240369446542
615,3.383873721999243,0.29793783460923484,0.858617674570749,4.29524897712589
616,3.697290467743321,0.8319086661956694,0.951726791675937,4.434235116979302
617,3.919752629982189,1.3424368609339,1.0824375590501867,4.580882178489051
618,4.091301309738865,1.8230595704658947,1.25403891267584,4.7759335555897025
619,4.251371469081286,2.274544104010711,1.4583179558936212,4.990246744201155
620,4.42286941571069,2.70398697197767,1.6662651202912737,5.175383490521116
621,4.569088970721045,3.113456744045121,1.8535801748694671,5.2884637806831405
622,4.644114420250617,3.4998848409538312,2.0028810646622004,5.301951175227718
623,4.6668845668696886,3.871763509519548,2.113797161522572,5.267120874344556
624,4.6781943124547,4.213991110901512,2.192725402321498,5.249952910849515
625,4.719180614455164,4.493248475812521,2.2165517180367953,5.210737559828396
626,4.815558928618831,4.650739127087133,2.1795583317901235,5.0934966974900355
627,4.897839285853078,4.679097560687823,2.100820460998871,4.942753503663708
628,4.88455785415903,4.641758184959064,2.037295745031224,4.817743193527055
629,4.838178896042969,4.6027194573414345,2.024582076890067,4.718653791184849
630,4.8425424280991205,4.580007514565073,2.0393426956215515,4.625228287152316
631,4.8392541382693866,4.580680853259,2.0553038036295033,4.4942437507677395
632,4.748999192930796,4.587320505423516,2.0365845848506754,4.283864537731069
633,4.581994184472845,4.590366885534154,1.9753527068965337,4.031914482044234
634,4.377913473631377,4.586665547212178,1.882580277635968,3.7966789044498377
635,4.200781163857619,4.570205926011754,1.7668862326960677,3.551822839464381
636,4.110221746198488,4.543009256831855,1.6411626452367956,3.264542443400782
637,4.057702077214227,4.526154202868806,1.5229651309261174,2.9943129624763274
638,3.9685158469559827,4.540014219427057,1.4274799455208131,2.8087626621213717
639,3.8859085781951643,4.58995325181814,1.3672215458550432,2.7069979520060987
640,-8.56637738155763,-9.994218020725524,-15.752987053727283,-11.127949834421408
641,-8.71939032157155,-10.363791806812875,-16.232561871327793,-11.283052049035822
642,-8.935375478394164,-10.66426107592167,-16.72530197166814,-11.547603163280986
643,-9.207827665031035,-10.924652735085912,-17.212116775257886,-11.854313116471783
644,-9.506339733330428,-11.180600064453806,-17.67849728140457,-12.120674188976984
645,-9.817984894773755,-11.472453983505227,-18.12520479259764,-12.37085332152749
646,-10.141450329735704,-11.82462250980902,-18.558100321172052,-12.648176445166165
647,-10.531669141741904,-12.242593585877087,-18.995465084728764,-12.948872795736959
648,-11.04154824886633,-12.713654169147922,-19.440950240496242,-13.259707285232526
649,-11.640042024900227,-13.194370695629068,-19.889943330429436,-13.55171264090026
650,-12.268281905786232,-13.651194832170507,-20.330413678398042,-13.7949064108698
651,-12.88737695926075,-14.10942811079264,-20.752658177242203,-14.01939402343722
652,-13.466614455290198,-14.615279292174147,-21.14994474351823,-14.25824916326671
653,-13.994484123243502,-15.197329426472816,-21.51487005107034,-14.451347560698208
654,-14.475286724570719,-15.871411274816017,-21.85010702616105,-14.550347042391493
655,-14.90828136141971,-16.639788816819443,-22.16436127939652,-14.63983922424144
656,-15.294246303907023,-17.47779582438796,-22.470917859029957,-14.812162826157438
657,-15.645549057074291,-18.329327973435067,-22.767725222716233,-15.063465522400062
658,-15.966327314769794,-19.135304266604987,-23.027960971286415,-15.35490652818973
659,-16.238636896173148,-19.850610890775943,-23.22315188755799,-15.615607695007217
660,-16.43649090515875,-20.46037848803158,-23.355391306816756,-15.783750020487984
661,-16.526815887910487,-21.015046953310108,-23.45128087281111,-15.919532847783008
662,-16.488008152681058,-21.577075729016375,-23.531216289677978,-16.092225428377084
663,-16.35460885012736,-22.147145482260978,-23.58452646000582,-16.225054091925063
664,-16.17284121381826,-22.711970373211727,-23.59590601061545,-16.23556580519095
665,-15.91655327013196,-23.293078575558116,-23.559203046358352,-16.16610952441525
666,-15.571083325080034,-23.90374884426797,-23.48443712509662,-16.087719914381594
667,-15.252727983584462,-24.529394231421005,-23.376968518064842,-16.045764644230132
668,-15.066318889380373,-25.14480657539341,-23.231268888699354,-16.071754881559006
669,-14.949864497658321,-25.69924164439167,-23.051903008458606,-16.147521298079273
670,-14.811178334235978,-26.15845857190737,-22.85970353381046,-16.23053370467693
671,-14.642948888958847,-26.57051360866653,-22.661219118782203,-16.31954121429999
672,-14.457172563069497,-26.994787879171753,-22.45886135104433,-16.408427565071808
673,-14.275944566202321,-27.430308340201346,-22.242027542602848,-16.41790838529724
674,-14.122270547473558,-27.850594130197674,-21.99878025419595,-16.28957100439679
675,-13.94536155111405,-28.21760079692026,-21.73414486158071,-16.0765351785723
676,-13.698010803603033,-28.4937202080518,-21.458869047494034,-15.858404465378625
677,-13.457849549464513,-28.675525197702868,-21.17913353698735,-15.688292008658545
678,-13.304317154333024,-28.780240078085566,-20.899484932968154,-15.585494773850028
679,-13.187524330970819,-28.821659698953347,-20.620142739591095,-15.479047690772022
680,-13.038571060009504,-28.81315643446865,-20.337980645308768,-15.285421319051382
681,-12.849928196902999,-28.779760775692274,-20.050928685001725,-15.016830872948196
682,-12.63250245798794,-28.726586336267633,-19.756424099502244,-14.71245111196017
683,-12.426409405728108,-28.595120085079845,-19.436888060124925,-14.38213070513846
684,-12.265961710733452,-28.33107055573631,-19.07943433210792,-14.030212843068876
685,-12.0990582968334,-27.95286888150482,-18.672811941785127,-13.641800385934353
686,-11.862897487587539,-27.509927041200758,-18.20219329717083,-13.19936861544274
687,-11.574942021555604,-27.06054735900696,-17.675749872830163,-12.732838631921204
688,-11.27050104966054,-26.653866030835207,-17.12514791287498,-12.277390630042595
689,-10.952120613620815,-26.283103113500342,-16.56995992825796,-11.808161134268904
690,-10.623123981311993,-25.91832917217872,-16.009749854904104,-11.304477371960136
691,-10.294863525410326,-25.554666258807053,-15.442000963612447,-10.823644228455061
692,-9.973353072108646,-25.185123897810623,-14.868643521478324,-10.417774477341984
693,-9.67699893545463,-24.779171616733,-14.28621640680601,-10.064206617650985
694,-9.410011032014642,-24.309375944857813,-13.68036781217351,-9.713791524743051
695,-9.109324369547245,-23.763678789839037,-13.04317672758559,-9.303156623651269
696,-8.718022552156716,-23.137128849246288,-12.366430602452025,-8.782339309428384
697,-8.266386910125663,-22.444124423685583,-11.642530810470005,-8.188766352052056
698,-7.804955189885058,-21.6962624069395,-10.871874337547679,-7.576182086580231
699,-7.363927258271566,-20.855489902833202,-10.051084841430907,-6.910282968889716
700,-6.955193416736235,-19.92869832955207,-9.246656762889028,-6.211964047401814
701,-6.5160749683585,-19.013674662936978,-8.5896196132361,-5.614527375682789
702,-5.986586535375068,-18.236646957452006,-8.1467020497708,-5.262524152534877
703,-5.444102528523401,-17.618559361621198,-7.874215807020756,-5.093857647449864
704,-4.9740389010082,-17.126788260741478,-7.682251328878927,-4.969832662468888
705,-4.511070893645774,-16.731805951727637,-7.481626455522019,-4.818156290336772
706,-3.9835938650673612,-16.384342228264646,-7.226337327306649,-4.603072471871925
707,-3.4340449615528748,-16.017159632673934,-6.923526267231232,-4.350304388201613
708,-2.936093903340323,-15.365655930709295,-6.517601109995685,-4.067719916449494
709,-2.553198415799412,-14.640806558430521,-6.145453107328161,-3.8370360291092656
710,-2.3357171800384213,-13.845316654656356,-5.824198219759975,-3.6535154055772443
711,-2.2088161682010523,-13.030536633853078,-5.559641083635868,-3.5366359619103895
712,-2.066181776480189,-12.250888975944717,-5.339357744960819,-3.490008527991807
713,-1.8993854848571607,-11.494981793199175,-5.135071619339961,-3.477868033412994
714,-1.7305133628089433,-10.734560011384582,-4.9191125646575165,-3.4575740730720126
715,-1.5536816692899336,-9.982082516274666,-4.667186485365584,-3.3840050406906057
716,-1.3672341952293798,-9.256087839769387,-4.375712140655564,-3.234014755752886
717,-1.1608198014098834,-8.564679224305042,-4.057657694201802,-3.075163203612125
718,-0.9282764857702067,-7.905775430439841,-3.7315553435710846,-2.988497724414388
719,-0.7297701445826985,-7.240057952420225,-3.4256809283897574,-2.941578478770401
720,-0.6252118364392736,-6.524376149277816,-3.1796267608843545,-2.875347477306669
721,-0.5710075268085388,-5.761755526049187,-3.017457300483766,-2.8113308392890843
722,-0.49857621590251183,-4.978623149470317,-2.935523671233562,-2.7782351018524256
723,-0.40465344061292574,-4.204451567122953,-2.904101638228744,-2.762859610290949
724,-0.30326561806326224,-3.470747926820008,-2.86710417035775,-2.73645960996956
725,-0.1989426604280637,-2.7911157906286896,-2.7621676598502596,-2.6294389701448257
726,-0.09677172286634814,-2.1652679262793466,-2.574830938932748,-2.3821535859514062
727,0.028604241773351757,-1.6027489926622702,-2.3525056710755328,-2.050087929833976
728,0.20688104482590988,-1.1005710629640917,-2.1503841442307814,-1.7193600905914632
729,0.397295847897066,-0.6107829056710743,-1.9812902742510263,-1.3934930868211135
730,0.5501679650481351,-0.07997610510727048,-1.8108555738662269,-1.0554454086402754
731,0.7246149395142875,0.5078970294020322,-1.610421645725644,-0.7140316774006288
732,0.977602032644135,1.145188096643934,-1.3890420577798426,-0.3835557875146478
733,1.2032280643992113,1.8073809001893053,-1.1819564554127937,-0.10574613036492335
734,1.2769965712227735,2.4581117624064466,-1.0147533997473883,0.07527706786662511
735,1.2141415003339386,3.0732008675892986,-0.8861329665597041,0.18194886979011576
736,1.0764981207332411,3.6394695862338655,-0.7766393619905962,0.2519333415930282
737,0.9271894775150894,4.132114021072284,-0.6735932745351051,0.25537592502435297
738,0.8203838921231784,4.543287778314799,-0.5683386461894036,0.16582619389174133
739,0.6906748505732564,4.932015929959019,-0.45983139705486464,0.03470534603720799
740,0.45951551476751085,5.361198378881287,-0.35484827022452764,-0.06462404167472877
741,0.237770684788685,5.8182978526027105,-0.26306679703758507,-0.06715943859754794
742,0.16222012455247387,6.26237412662161,-0.19198653802070176,0.06479239182145027
743,0.18830546515127647,6.6637476498722625,-0.14070624579675461,0.28189904709060776
744,0.22311366949283998,7.002049194434533,-0.10149877924968458,0.5019778389852761
745,0.24315555261742572,7.294224588220656,-0.062370585998083025,0.6953415205378378
746,0.2381078804079239,7.572058391968205,-0.009975496469856848,0.8568497998021136
747,0.2106656399981517,7.835821832741867,0.061929043321262436,0.9751630375992318
748,0.1779875489290748,8.07654711978487,0.15389123861339807,1.0552803897652672
749,0.10792777482680566,8.296179968681734,0.2718720361734268,1.1330814480394777
750,-0.0296814474900544,8.493869193527573,0.4094983411181652,1.2408263240226207
751,-0.15824602970006313,8.680416243917508,0.540227162097179,1.3730122537189
752,-0.1944190496715268,8.862376834547446,0.624399412076046,1.5074218970881956
753,-0.1860941974242126,8.980311885885577,0.6412942330286275,1.616649138022339
754,-0.20991510457353885,8.985502681224038,0.5952798088507243,1.677547461729839
755,-0.2609068576070122,8.958832877923435,0.5021991858227196,1.7111966309179854
756,-0.31911406416372184,9.004044951810606,0.3773347100678917,1.7435229335657996
757,-0.3796714625173681,9.13150287860748,0.24092982835183752,1.7380009178448583
758,-0.44546086405292373,9.302921584039309,0.10979867664591053,1.652923209133724
759,-0.584099951419265,9.444431614407547,-0.0001927591715187582,1.4947271103347088
760,-0.8586500397299405,9.472735487762339,-0.07936022517091973,1.2943872544098542
761,-1.199498069973248,9.366068871746284,-0.1285935507822437,1.1251775583703958
762,-1.5076967329661963,9.14212826878749,-0.15636723178445164,1.0517306522397085
763,-1.780569743576922,8.818422180969481,-0.1783602515027886,1.0202049030482496
764,-2.0416998257872447,8.423806438124897,-0.20827269183677607,0.9497168640333353
765,-2.3003193071463164,7.998001628727957,-0.24563890173777234,0.8611528269204612
766,-2.554925071789779,7.570492086009184,-0.2843231344117033,0.8001688760176956
767,-2.7428287500929645,7.155007129797651,-0.30362706388435057,0.7689912010964687
768,-10.347171557666858,-12.90974817972071,-14.568281281112865,-11.843369865605023
769,-10.840268622085828,-13.279668320940845,-14.63583411204775,-12.339300772051919
770,-11.49346483785112,-13.615876697928318,-14.754119517521037,-12.871978410150628
771,-12.254983890731628,-13.928967744528173,-14.90464962826195,-13.385670769789108
772,-13.03499088788478,-14.233197568282673,-15.065459510717229,-13.827270517811208
773,-13.794749557105945,-14.52490182337105,-15.227346455022312,-14.232261441095375
774,-14.507708347064453,-14.80187373877208,-15.397694190593935,-14.645749483923243
775,-15.159550937275126,-15.085624076591559,-15.575116371967425,-15.037306401865335
776,-15.755645135751077,-15.39827766549174,-15.734586549451523,-15.371255202379066
777,-16.299013319704233,-15.73837134338384,-15.847558569198554,-15.636360747410121
778,-16.788572013416427,-16.095202807250338,-15.921395240875198,-15.845463480601737
779,-17.237720754431614,-16.47095053554234,-15.997009832398696,-16.103313885622764
780,-17.644508950199455,-16.857276492949705,-16.105010235330173,-16.4983096986984
781,-17.94134798188294,-17.20162476191665,-16.23829426579203,-16.93372174376064
782,-18.073497463929293,-17.46235457044572,-16.382856394377,-17.290377696509346
783,-18.081733261184088,-17.663801240962407,-16.530184733006674,-17.60914778201693
784,-18.031551771354366,-17.850350776699724,-16.687066627038536,-17.95105297081399
785,-17.976620596828035,-18.06042301199207,-16.84390152283611,-18.294192671708664
786,-17.941347802337027,-18.31546955515885,-16.969599877017014,-18.605780578255352
787,-17.845639823229654,-18.574590232963526,-17.05227308066003,-18.840149755878116
788,-17.611224222037098,-18.788874337479854,-17.117287886288576,-18.9697939208135
789,-17.299713090901026,-18.980738477020303,-17.19916526942543,-19.088659068568205
790,-17.00585032023886,-19.182916311493354,-17.305242080207794,-19.291336406097937
791,-16.776452231846477,-19.378758705726778,-17.41765284797297,-19.51290051654862
792,-16.631656612388355,-19.545337571613924,-17.518408030076625,-19.66444511262359
793,-16.51904347997135,-19.677253024670133,-17.58512245355945,-19.763137257537227
794,-16.37884800202967,-19.77207020324387,-17.603673965126283,-19.846588218606577
795,-16.272911496366852,-19.837160380090776,-17.572114260686494,-19.922095532804313
796,-16.266474272132943,-19.880327734972404,-17.4976306234769,-19.99789760444803
797,-16.287117046552698,-19.88914274018762,-17.39533908427901,-20.078094088059423
798,-16.25128631962628,-19.852379482210186,-17.277438556166384,-20.156231351758002
799,-16.16650040141675,-19.775183829152105,-17.13866376145681,-20.233877519813202
800,-16.06120636352109,-19.67466038390424,-16.96784652847947,-20.30672131256035
801,-15.975797203788803,-19.590815377638034,-16.75932306664654,-20.33394487500423
802,-15.939582851491705,-19.553769864911896,-16.51199001707108,-20.282532854203996
803,-15.872572297057431,-19.542062373183196,-16.23293327899283,-20.181946505267803
804,-15.701822260474366,-19.51287565663028,-15.933638843972178,-20.069987611418327
805,-15.527628804882832,-19.430740536938,-15.622181400120137,-19.94248898615973
806,-15.463890656322143,-19.26894865615782,-15.304907008991876,-19.784557640164785
807,-15.477314576150585,-19.017406651458863,-14.985530616805024,-19.57773170601374
808,-15.498887681213288,-18.68695891564631,-14.662289180908454,-19.30759596773918
809,-15.500017772022968,-18.312620941865127,-14.33421285934556,-19.00691863072679
810,-15.456897931016714,-17.93116240172719,-13.989474008202476,-18.706485543386915
811,-15.355776007651626,-17.5527174602468,-13.588905055591031,-18.359417554331042
812,-15.200521782601557,-17.17704568360637,-13.095571859738872,-17.92028119961601
813,-14.99438973417201,-16.810398943041914,-12.499659291787253,-17.424189094321946
814,-14.735960835491062,-16.45771169934462,-11.814960715182213,-16.923993521868315
815,-14.434946517382725,-16.12181673451759,-11.084785042132914,-16.455443122133286
816,-14.083936865072339,-15.80680973048427,-10.358176651067968,-16.037706949479748
817,-13.608289955033529,-15.512184651848377,-9.656826841277578,-15.631138214326867
818,-12.949366153770347,-15.235346095759867,-8.983618730965533,-15.188988191415714
819,-12.153431602014452,-14.987039132662897,-8.333435294998825,-14.743927692954935
820,-11.30078574934897,-14.767251935194269,-7.689025857871847,-14.33344329751976
821,-10.460170259356703,-14.527830359502314,-7.020444250942403,-13.917761174923172
822,-9.675967018416804,-14.221068524305416,-6.302596793480661,-13.450837150166585
823,-8.91077002869502,-13.850686169925893,-5.532877858225042,-12.930962952417264
824,-8.107636532064106,-13.433204540366152,-4.719015614419142,-12.367666559858911
825,-7.28311506295945,-12.980149099886955,-3.8672597612628574,-11.78961159881711
826,-6.4660966527515615,-12.494832935468889,-2.985682176913333,-11.220295098285716
827,-5.6407277617078275,-11.934163049274261,-2.080483351952471,-10.604174615184434
828,-4.789936934259951,-11.338000731194134,-1.2157357148608643,-9.916660949789248
829,-3.9544107124487793,-10.859549010336485,-0.5259247034570382,-9.298718878781775
830,-3.1737601436013025,-10.682175029794308,-0.07078066741001435,-8.893000718970283
831,-2.508886363642128,-10.798222926521671,0.21283839536857918,-8.642352169826012
832,-1.9967366675736065,-11.084798030114767,0.42402969540151786,-8.422691264664744
833,-1.5596104658643755,-11.386093660918895,0.6335596824500349,-8.16634070547106
834,-1.108077635314899,-11.567966025850746,0.8492940842571546,-7.844428267171599
835,-0.6746875264362973,-11.61524461845411,1.0452535786578927,-7.507026170505224
836,-0.3151234016288886,-11.339261618903235,1.1877769647576228,-7.07143753688251
837,-0.01140384568166293,-10.990863102150156,1.308516905866609,-6.652926073691063
838,0.26801672353751765,-10.574365079123675,1.4362578414403318,-6.183138816070768
839,0.5583870603357053,-10.09831042374999,1.5666513455231112,-5.66143371670652
840,0.888117546178102,-9.574475670179739,1.6879809767405167,-5.113463210759195
841,1.2206715500588332,-9.02380918210873,1.7753678550966825,-4.5606282068002715
842,1.5117551184141471,-8.472481490173173,1.8258890195608282,-4.025318463949956
843,1.808903213639113,-7.945128469642393,1.8695130519001277,-3.5029363370237747
844,2.173947344735591,-7.461540987796503,1.9409600799388242,-2.9786770261864923
845,2.590741625230081,-7.035860954786889,2.04252577401021,-2.4772759539381095
846,3.019923028926518,-6.671089512526694,2.1521926747268116,-2.022823686529125
847,3.4364370461344453,-6.345585818978463,2.2505848379071867,-1.5771850975511041
848,3.8164990834317414,-6.030822846897571,2.3288612374867896,-1.0991791885971056
849,4.166024058264644,-5.72730547621809,2.374133777535408,-0.6078472535695207
850,4.49848925099101,-5.4373583657541396,2.3670816609638288,-0.14196389582822566
851,4.762753696144507,-5.124009988231906,2.307133699373665,0.258069766836395
852,4.911860413481004,-4.755782991262373,2.22552942607228,0.5632367208337499
853,5.01591689450099,-4.342097025557337,2.1611679716414334,0.8183287878555527
854,5.161811281644341,-3.9191119297719625,2.1213658374106426,1.0845513870469874
855,5.32752142443689,-3.5662837686993005,2.0713432986134546,1.3243553498366496
856,5.465536379789437,-3.348589357207379,1.9696673241790983,1.490640985333453
857,5.576812651764409,-3.230947161298308,1.8024382157963823,1.6560083249109465
858,5.67428774790485,-3.1341016387650362,1.5914879645149524,1.9024537936616603
859,5.786926122532939,-2.98213002831003,1.3752156497102659,2.2046038528800884
860,5.942635500225672,-2.7259496739681026,1.1712654195334404,2.5082404417863358
861,6.1063699944966086,-2.414920909337851,0.9606431108863339,2.771678667520486
862,6.228943178920201,-2.1352600863340325,0.7323085559944695,2.9685196965773413
863,6.32357091364038,-1.9020405214632354,0.4903501093238424,3.168543041804921
864,6.416694966684727,-1.7048264795089432,0.290834465321329,3.4516937452941865
865,6.4975033546162955,-1.567529005707255,0.22444174541658965,3.7363763730726323
866,6.5539551701517995,-1.497592105221654,0.3216723827721846,3.918207794586909
867,6.58112790316857,-1.4382243377341135,0.5435565890362194,4.058089630531522
868,6.582353874032883,-1.328860264668326,0.838283670770014,4.24651729879614
869,6.619752418585611,-1.1585282748409715,1.1695822167551257,4.477328540783359
870,6.745208272060835,-0.9440029650138098,1.518998434827582,4.7166530025735645
871,6.878593102660936,-0.7336489244506144,1.8750723912976073,4.908780964982962
872,6.913016817309771,-0.5765303566432077,2.2435863074835884,5.002073293045522
873,6.847162884263297,-0.44704451674568363,2.6266637793172145,5.063544601185387
874,6.7109093576669645,-0.2988326914377094,3.0263968801335213,5.177555714495646
875,6.517510334410772,-0.15452509487916694,3.4451194374629472,5.272461272595719
876,6.279851690474997,-0.04391417010643439,3.847044602883243,5.253477859564523
877,5.952705728183785,0.06796874353489962,4.143984863671738,5.160127777451248
878,5.497045913251989,0.22104147802333451,4.284538506134533,5.064595139235384
879,5.026912315535935,0.4122187496454508,4.287914633336352,4.993478556277236
880,4.671001427869959,0.6210752096453397,4.2146137971108555,4.959093039383335
881,4.3784627717420275,0.8086554757698297,4.115826198125882,4.940258340540643
882,4.053858364900568,0.9397784788999766,4.029556083251562,4.901147823400535
883,3.6964403778808745,1.0354250427412663,3.9656309246033183,4.860420765168697
884,3.327296448297674,1.1353518895201624,3.9071648643601686,4.845896298806322
885,2.969147878625139,1.2460642401482815,3.8168197284319496,4.81720152296351
886,2.649404153102924,1.3613694340921436,3.6626855845164408,4.733116213178123
887,2.322291631403429,1.477685317024778,3.4553127549803424,4.629097289884782
888,1.9446675875293895,1.585565139894558,3.226374079965681,4.5557187089876425
889,1.6211482705884954,1.6694954264153954,3.0065270640336017,4.531955506139266
890,1.473780737886296,1.718406117701039,2.8193498105076573,4.556774975876046
891,1.4778503804445435,1.739406652248294,2.653715204880408,4.57909067218207
892,1.560583875485467,1.7451665427983334,2.4921821607760415,4.541386501317329
893,1.690545894358962,1.7312611992223599,2.327788828336011,4.472830922536837
894,1.8433667527662743,1.6941919508317662,2.170226077793586,4.418687991183647
895,2.003467367558765,1.6557898538345965,2.021162792600319,4.349994456485171
896,-10.791811318090382,-13.330433892566232,-14.747896245546027,-12.516742966577391
897,-10.993700836471895,-13.77704250179568,-15.142799942423533,-12.730836414541717
898,-11.233817843123603,-14.197499466031154,-15.512295312544635,-12.886792451153397
899,-11.449230136658514,-14.531556451696499,-15.846984610613132,-12.975691477343616
900,-11.570101270128317,-14.771706364264926,-16.166576115693893,-13.004060023185353
901,-11.631805005110238,-14.934000056809786,-16.475195797173544,-13.076673768347
902,-11.691429818880538,-15.058722220272761,-16.777713045651105,-13.286314482242199
903,-11.799835339386478,-15.17356069041248,-17.062862062064756,-13.572859615323226
904,-11.990754058878656,-15.294453890639232,-17.318308402082423,-13.84563400603873
905,-12.201627846246327,-15.426089693589425,-17.55832344899978,-14.102742168080827
906,-12.361705182227118,-15.561002391820162,-17.800442189586406,-14.355790781290116
907,-12.535724540967356,-15.682171550642718,-18.039307544774378,-14.591795422993075
908,-12.792468437340048,-15.773787015105803,-18.265731106187026,-14.79984872936224
909,-13.053647873032377,-15.835873347354456,-18.48213639314764,-14.951213061683921
910,-13.23462087999357,-15.872181399983978,-18.689290481362697,-15.02619366909727
911,-13.361472469570717,-15.878234856439306,-18.88163451065769,-15.071133523962658
912,-13.482229268179434,-15.85226454353582,-19.05355924046706,-15.137863982984305
913,-13.638480204078965,-15.7904373748746,-19.19357080961372,-15.215956271202343
914,-13.854375963096993,-15.700022379467164,-19.29949765377948,-15.282339037820089
915,-14.048539573194255,-15.632960701771612,-19.401063470086882,-15.333713915060995
916,-14.141983140255082,-15.631164608778379,-19.52940747438547,-15.372116987006734
917,-14.224748860450964,-15.664909490756196,-19.692037397478465,-15.42699930309172
918,-14.39995994979856,-15.681666492426402,-19.87848292926933,-15.524362965620547
919,-14.61517939180791,-15.644777679975123,-20.050221511173074,-15.615967784515082
920,-14.797086128876888,-15.534673393897677,-20.170534473730847,-15.657775758263067
921,-14.952780645600631,-15.36520569718336,-20.2488654365288,-15.711178419478342
922,-15.104581375378414,-15.17226873644349,-20.31049605178875,-15.841574198922467
923,-15.280449608496257,-14.996738903284756,-20.36282664791102,-16.02510557674218
924,-15.504547941669744,-14.8676921827947,-20.415534843806334,-16.212079168718425
925,-15.736164676346258,-14.781299990898493,-20.461176290256528,-16.35384876125727
926,-15.925797883769826,-14.71437615507112,-20.49841142595496,-16.408881209287202
927,-16.101212705663453,-14.639407557797778,-20.523595205072798,-16.401261261738096
928,-16.28709368371874,-14.535020347968493,-20.506028843958124,-16.365518047495254
929,-16.43113256659977,-14.397591579819547,-20.41851031533916,-16.245560269819496
930,-16.472857405841502,-14.235610369405373,-20.243128875240643,-15.996640557999621
931,-16.370248319353838,-14.076744258115685,-20.002612736545966,-15.701920153036431
932,-16.115858584243465,-13.937503872226594,-19.728847745427768,-15.453250735717406
933,-15.810390680085481,-13.76959849707596,-19.424108498393462,-15.255553531944102
934,-15.559198817941724,-13.52518633781382,-19.08471985418343,-15.079083178485917
935,-15.32585820051463,-13.23104127451931,-18.715570286396822,-14.860724117663102
936,-15.05070692010779,-12.9326227128714,-18.324765608872664,-14.543976843927659
937,-14.766054847210619,-12.654036024621421,-17.934019584567924,-14.173797766552793
938,-14.512235668974373,-12.406240305046419,-17.562029157733647,-13.816954913982798
939,-14.306409599203274,-12.167842288800001,-17.201250297321366,-13.449451898004877
940,-14.148495277726262,-11.907352291589437,-16.83568850760431,-13.044409992334968
941,-13.953242432299078,-11.62482641942077,-16.452891180236918,-12.6615817468335
942,-13.643790051247667,-11.327383558317765,-16.046850799315706,-12.35421326151146
943,-13.311052128654547,-11.001597403790619,-15.6317834479,-12.097831544910813
944,-13.05374196499818,-10.637122177479563,-15.22427409053629,-11.847207188614947
945,-12.792263035261723,-10.244424102413676,-14.819626674985797,-11.554798688931125
946,-12.434770244506064,-9.83517486340281,-14.403725876729803,-11.185221933792368
947,-12.009334314421759,-9.40991458808333,-13.964492135390627,-10.780014671573436
948,-11.579669974806352,-8.964716770962882,-13.488963127844725,-10.386889974000269
949,-11.229892357657397,-8.490523768479619,-12.959723202585312,-9.946237814371143
950,-11.023328364788878,-7.97955469992467,-12.368079796942038,-9.397418227786176
951,-10.904711327066062,-7.436047823745314,-11.732180364120067,-8.798948483210362
952,-10.780947226496526,-6.868647668983997,-11.070549652420187,-8.218420454110154
953,-10.618314687358502,-6.286448758106731,-10.374200746322957,-7.642509215278174
954,-10.403677927777972,-5.696022182359447,-9.627234788964124,-7.042100011643425
955,-10.120732101529585,-5.0878070951364815,-8.818063942145459,-6.389581256618838
956,-9.794943665644178,-4.502411598995109,-7.987240630841804,-5.729410520880837
957,-9.50368121105756,-4.060317386507116,-7.24894554725046,-5.202368253988301
958,-9.31193062162033,-3.8133019330891154,-6.656980658177064,-4.954121195380649
959,-9.209818272259692,-3.725876633695448,-6.1543872078038975,-4.828445029869326
960,-9.129401898004284,-3.696037724643481,-5.688907611325291,-4.599100558456049
961,-8.923154168884853,-3.645745797240471,-5.24110206514366,-4.2763164983005
962,-8.479769757816937,-3.5374556198362104,-4.821050440698729,-3.9427473379517304
963,-7.891223726050024,-3.4029822848802724,-4.429212635176634,-3.637758787230974
964,-7.458003835893306,-3.305138401177502,-4.167283842148918,-3.365116578062548
965,-7.007339747480544,-3.2634610631933207,-3.924836953960923,-3.1319477376760205
966,-6.512956167887863,-3.275558645594445,-3.694503842800229,-2.8790605345574485
967,-5.985907942087495,-3.3025994961264304,-3.4737296019600494,-2.654466816991787
968,-5.444649288530695,-3.295007965689706,-3.2599431621708193,-2.5134519038816574
969,-4.925891886833827,-3.235908433089014,-3.0387411262974955,-2.3800279878110073
970,-4.461265135174401,-3.1282369544669466,-2.798740922028207,-2.166535594597647
971,-3.9957092968290024,-2.98024162946798,-2.5464550646094684,-1.8937151707193194
972,-3.468636441097918,-2.807972841977109,-2.297895113390393,-1.6190584850483651
973,-2.954604792058752,-2.6277891637776882,-2.0756847178119338,-1.400533176721262
974,-2.5413155606573166,-2.449867403811376,-1.8977067189902328,-1.283331414166074
975,-2.180980050563761,-2.281378123131083,-1.7589678076324786,-1.2329028604913668
976,-1.7929729997356652,-2.1349345321184723,-1.64166582816736,-1.182912502774442
977,-1.3353163623141362,-1.9561987524627138,-1.524369074582725,-1.1186875453539329
978,-0.7922017248502145,-1.7387842727770564,-1.3896304229406582,-1.0390565954891031
979,-0.24501230871367896,-1.5173282973264917,-1.2427163993843306,-0.923857788094362
980,0.21271437617880312,-1.3386055454580823,-1.0976728018107842,-0.7608484656324873
981,0.6533544000946923,-1.1957665605159533,-0.9549294834906694,-0.5397992804181002
982,1.174609352414311,-1.0640125628796002,-0.8117988744065826,-0.2656189045651381
983,1.7099540742006967,-0.9353739125374914,-0.6707821672285115,-0.008481102258966828
984,2.158071141126816,-0.8096753217808925,-0.5427302477336859,0.15992368688936415
985,2.5000625372807375,-0.6967622573829344,-0.41233359216654675,0.25907171802671275
986,2.74433275964868,-0.6176040593252116,-0.282511237612748,0.3396115745044468
987,2.9251885098904236,-0.5982512859625444,-0.18381951506612118,0.4180617627462908
988,3.08931182572191,-0.6563972300291081,-0.11389753471016124,0.5012076537489931
989,3.2206971161178997,-0.7882520089135787,-0.04942523620163408,0.5882581645474407
990,3.2907454688458744,-0.9718772682680221,0.03617153468871662,0.6672295830503296
991,3.3494860236314326,-1.1676472877183164,0.12717121145510019,0.7440275178129491
992,3.454121582999748,-1.3349935887017756,0.19207342625265122,0.8272346798360554
993,3.5816461990371415,-1.4612758182515038,0.2111490965931187,0.8768182866112628
994,3.696297096266485,-1.5519072032344041,0.17443234238049127,0.861054483082674
995,3.806669951207612,-1.604370399913195,0.09047459189505615,0.852716576278462
996,3.9311959626941775,-1.623980889769318,-0.018477297939821502,0.9303724794158899
997,4.105037211709419,-1.66262468303166,-0.12972573663868026,1.05940147070032
998,4.348852218467924,-1.7654172339153849,-0.22368403151014585,1.1700666122216998
999,4.582843399866973,-1.8842318028149148,-0.29021760453195894,1.208924543583528
1000,4.716397466442646,-1.9798108447698706,-0.32778831075294307,1.1465835347546243
1001,4.770434235911253,-2.0228894794759307,-0.3369156088984301,1.0547423126345863
1002,4.806822647405928,-2.059300497395507,-0.32116318511497566,1.0284299711316085
1003,4.8726647895290185,-2.1882282837384577,-0.2907530623832016,1.0361110194729952
1004,5.004367245879144,-2.4161501984239195,-0.25428677232046193,1.018649914492007
1005,5.175565688117575,-2.6320608327755615,-0.20694979635155814,1.025077955391878
1006,5.339402840601511,-2.7427403380675055,-0.14207681957353788,1.110158430724558
1007,5.532032989848479,-2.7351577538042866,-0.06434296739587034,1.2390261337119428
1008,5.795651123174387,-2.6480464154000933,0.01738150516185788,1.3607877547585734
1009,6.062949862339246,-2.520697724208798,0.09094758618019982,1.4359334370583097
1010,6.2575783694136184,-2.3931858973074878,0.1463750893671882,1.447984510616754
1011,6.4039183605931145,-2.2680003409917067,0.1955733729819777,1.4907376587959085
1012,6.551013353511676,-2.1277636502154578,0.2542109575573299,1.6638553603265371
1013,6.724127698704887,-1.990686378416329,0.30624178191728657,1.8953514145025443
1014,6.931945396423089,-1.8585491888860421,0.3397225880078075,2.068302070453054
1015,7.109514386927143,-1.7240447560888341,0.35429131319418683,2.177914575503281
1016,7.183328151719972,-1.5442496397346355,0.3725863044126272,2.244871402663011
1017,7.210916237705445,-1.301497953013541,0.3999362645036659,2.25547187348087
1018,7.269909228977006,-1.0407908212604744,0.41288814284059927,2.2034195687401104
1019,7.29949826126824,-0.8272132739106491,0.39939072684223875,2.069852771963663
1020,7.22064046376588,-0.6794481450579631,0.3771853818440585,1.8503292876812112
1021,7.055746611143334,-0.5928623283750619,0.3503557049019298,1.647438369548574
1022,6.855910047158958,-0.5346813801899305,0.3245308184065899,1.5688213701285332
1023,6.674923453278474,-0.479458226187913,0.28873754351972214,1.5733886785750981
1024,-13.757609089245111,-15.703880728281018,-17.36262422103129,-14.159862551634228
1025,-14.139553975887523,-16.05847127948572,-17.89682968487316,-14.55747019469312
1026,-14.595865865589758,-16.383880204420965,-18.39275951801962,-15.001678520451623
1027,-15.076286681516994,-16.702470681014326,-18.848330651112143,-15.45158289763327
1028,-15.522022162312807,-17.033733132359227,-19.270183626852003,-15.863500816285429
1029,-15.943706422565747,-17.385013697940632,-19.674607897078626,-16.265089402671794
1030,-16.3597179489475,-17.75054962260142,-20.075466372697985,-16.685029133133643
1031,-16.74944126004793,-18.107947916151893,-20.463676483082924,-17.047693653676564
1032,-17.089864955845,-18.42983053154667,-20.822813019747294,-17.279699780542316
1033,-17.356083298077703,-18.698313562798674,-21.154209861120233,-17.418151778983148
1034,-17.532670503714783,-18.90476081284036,-21.449419272182773,-17.52053192667608
1035,-17.673907296213606,-19.049878657656595,-21.700898685635977,-17.604450534974443
1036,-17.82503080525592,-19.144526303444167,-21.88605013307043,-17.6735364457966
1037,-17.901623332043165,-19.20106105035914,-21.994980627261096,-17.694265397887815
1038,-17.819704603314747,-19.222320010636082,-22.055925296992807,-17.637307954981132
1039,-17.63522746092192,-19.273045966937534,-22.11644708151517,-17.557907146022785
1040,-17.43296977796639,-19.356822000444826,-22.1892911021565,-17.519606704951716
1041,-17.248651782735816,-19.43066844856381,-22.26364829222753,-17.51166567138447
1042,-17.101222011251537,-19.44452302012995,-22.31733793495714,-17.50454632016144
1043,-16.961331605651914,-19.41337325503103,-22.35719698859272,-17.48200390728103
1044,-16.797044354052574,-19.368742842617213,-22.39550717954007,-17.432490329593136
1045,-16.681994085866158,-19.31806433242996,-22.431196880302664,-17.375519469196337
1046,-16.685861300060164,-19.262976622719755,-22.458447390872696,-17.334032527241813
1047,-16.73515725132855,-19.194671208742463,-22.46118033417346,-17.279021074529936
1048,-16.744098234460804,-19.10182071316625,-22.424445792257774,-17.179059390304143
1049,-16.728187528336118,-18.999870251247692,-22.35800363493319,-17.062879094039552
1050,-16.7224253021031,-18.903924916576866,-22.276819639826552,-16.960431035713455
1051,-16.760662900484537,-18.79387231037455,-22.17552184935644,-16.844600977752037
1052,-16.852804251495765,-18.64700775779586,-22.049488843285797,-16.68349632566381
1053,-16.88709705704965,-18.46496325534154,-21.91297947460397,-16.477624335192072
1054,-16.751035778266367,-18.257082896899874,-21.77922166047992,-16.233681154439516
1055,-16.503031711987887,-18.03821186497021,-21.65179837853189,-15.970794426941234
1056,-16.231049635093022,-17.821117980214627,-21.52367717222013,-15.702167632049054
1057,-15.906467543066766,-17.589011188506245,-21.362279035262723,-15.37314552075993
1058,-15.496107964239089,-17.321524582821464,-21.136516359163487,-14.939579722398637
1059,-15.033216647838797,-17.038889751830226,-20.852827021537273,-14.478692818097725
1060,-14.561034673410406,-16.741702490352054,-20.52154657023311,-14.073273937906839
1061,-14.13643179350922,-16.44018885761363,-20.172671696633135,-13.698449503713993
1062,-13.795453410814002,-16.099263951966986,-19.809727638966898,-13.302907286957913
1063,-13.471037749885912,-15.658427675546873,-19.4088427964297,-12.850055786598428
1064,-13.084608001252692,-15.144116590411953,-18.974549596839616,-12.322359200575244
1065,-12.652359780044788,-14.67015937571964,-18.52505847082165,-11.776879714147531
1066,-12.215060558393594,-14.291764725073012,-18.079918484257107,-11.282723433789863
1067,-11.792297107559884,-13.995601452927033,-17.623893231028134,-10.826266730334545
1068,-11.393562656558455,-13.725350538874045,-17.131599318163513,-10.373496957615206
1069,-10.988554229686455,-13.444993037176813,-16.595940054262908,-9.937986250546231
1070,-10.540863563134643,-13.123985806987966,-16.014168560258256,-9.526415020424624
1071,-10.071779901809045,-12.73628431212311,-15.371451466558442,-9.097113225291636
1072,-9.615567039497758,-12.273867868401638,-14.667111893231603,-8.614948118300752
1073,-9.157074109465832,-11.744116560003082,-13.940087377973558,-8.077110713919284
1074,-8.68776233381057,-11.164177721981671,-13.232597267960635,-7.500698391454692
1075,-8.267977873510333,-10.5615987207149,-12.560095974959781,-6.957729979245692
1076,-7.9436129868681995,-9.956769023184176,-11.917441086146738,-6.500254640649477
1077,-7.681527781999716,-9.342673227186221,-11.273760959834199,-6.033794630353187
1078,-7.4198843135132675,-8.700587724908093,-10.590773657488317,-5.452007180512087
1079,-7.067313138346646,-8.01547636305807,-9.85245990814344,-4.798661249583229
1080,-6.564246953962227,-7.265588957899786,-9.056373415291946,-4.142639911002981
1081,-6.010006621135177,-6.488092174174255,-8.20260484105013,-3.4658522953055946
1082,-5.520220896549365,-5.694403005374327,-7.302063125883599,-2.7463797085934116
1083,-5.044195156040567,-4.854544642558085,-6.376541295574875,-1.995307848230253
1084,-4.514688788505842,-4.063396039104688,-5.50213713094232,-1.3123810366651099
1085,-4.059887791569802,-3.5140143259131644,-4.813944189037974,-0.8171673672285151
1086,-3.7967448749413437,-3.2877391923426207,-4.364645937167949,-0.6355927411052423
1087,-3.7261740355799855,-3.2454226452859003,-4.073791664076863,-0.5657419429020736
1088,-3.783470833401482,-3.206701216915196,-3.8365376570428795,-0.34339644001760544
1089,-3.8493831402074625,-3.095739648103186,-3.601318932643659,-0.029788060440429247
1090,-3.8168179478195134,-2.9140751379689402,-3.3542547382157974,0.23548690417235085
1091,-3.7077897036536958,-2.6856201490747176,-3.07802056024108,0.46858453304132985
1092,-3.6095496683944317,-2.4250841504654828,-2.709829049928573,0.6916784982451298
1093,-3.4759440130615893,-2.207149870422503,-2.309841544111778,0.8984560870380022
1094,-3.2812074324876987,-2.0457751240521977,-1.8782589544080406,1.0904912395928825
1095,-3.071336818154327,-1.924743404516558,-1.43905506907249,1.2371159184343057
1096,-2.8984024879358854,-1.8144947335179449,-1.0193796900657603,1.3164194748113616
1097,-2.764101742952932,-1.6982636519372787,-0.6204237912055854,1.3912418579714856
1098,-2.6492907586640033,-1.5680988764785844,-0.23468066389032774,1.5321670799935825
1099,-2.5029492622872955,-1.4217801820279192,0.13616629473032907,1.728020573619601
1100,-2.286429054892516,-1.2627937462561136,0.4875699095740439,1.933429715413639
1101,-2.077856506623318,-1.0958238495089827,0.8110604041282738,2.093619739350124
1102,-1.975475135196451,-0.9223319478024659,1.097630146367656,2.158902095653351
1103,-1.960930711260835,-0.7337687582515067,1.3465959009445376,2.153769173842814
1104,-1.980114767611812,-0.5212567518878438,1.5643508575770395,2.126771188921736
1105,-2.0124679382510755,-0.2879160283385853,1.7627097686663242,2.044583343013465
1106,-2.0432433782688757,-0.04458189300123796,1.9551772270885046,1.8769288839092995
1107,-2.0930273639005135,0.1914575072221004,2.152381000359312,1.7083703987659378
1108,-2.18368001355697,0.40296880633714494,2.358760221455512,1.6385297801385916
1109,-2.236820382992111,0.5849053148461402,2.566354214067394,1.6892403101339033
1110,-2.167105686467855,0.7396461303859067,2.762738727880326,1.841081097193056
1111,-2.0263077176971866,0.8701075162395461,2.94385073659698,2.031623759623139
1112,-1.8968063230840675,0.979566342778206,3.107206273244276,2.185244404752665
1113,-1.763695073007292,1.0716096811104354,3.247926440658461,2.2988792373446816
1114,-1.5983644903338254,1.1473167182630735,3.3619127106745954,2.3946874675424974
1115,-1.424978913282516,1.1981042521307557,3.4371091523203856,2.4319421318938295
1116,-1.2737176486784147,1.220106811194305,3.470177288212019,2.375638956259672
1117,-1.1836819550647835,1.2282219072304206,3.4929871715177994,2.280021399228062
1118,-1.1813474802992912,1.2422732863144337,3.5440892902808216,2.211450180629729
1119,-1.1919604922829392,1.2924583086110444,3.6426561951906016,2.1754345700704025
1120,-1.1336522960734934,1.3797528259725271,3.7866267362863613,2.156011151042466
1121,-1.0715518090255902,1.471268821084294,3.9366773618487794,2.125335837589543
1122,-1.0968407101973718,1.4955498674296455,4.045234900284028,2.0609498325611484
1123,-1.1890755397690378,1.4317521389503471,4.096095786286994,2.0091853191998386
1124,-1.2957034435327135,1.3316468555843652,4.097454238493862,2.028312100799785
1125,-1.369628505115578,1.2431115743539547,4.082916679732246,2.101035220627114
1126,-1.3759829418909126,1.166402757524674,4.09100735832897,2.1876173889770705
1127,-1.3736040595148002,1.1121072376719676,4.128899168746751,2.27484657140735
1128,-1.436859696552374,1.0744435584149705,4.183296060069103,2.3556438967492745
1129,-1.5168541626668286,1.0611204249214998,4.232542093227276,2.439138327530457
1130,-1.5372385543073785,1.0805024009972934,4.252764407247847,2.5345226028256698
1131,-1.506179625876549,1.1080052404996172,4.235024338367841,2.6040804794248222
1132,-1.4520847668334642,1.1155020584157957,4.182288073891575,2.6013320695928583
1133,-1.38722241792746,1.1134855541440443,4.101959196872074,2.525424056109016
1134,-1.3253133895754485,1.1179019647836383,4.004003291518019,2.393020238839791
1135,-1.2452507927314989,1.1139893136783114,3.8961265222049666,2.2077035056377827
1136,-1.1281578615575214,1.0843233487870436,3.7826292379033664,1.9816128981240375
1137,-1.0503490294926539,1.022115775757164,3.6617123875332096,1.747106716194509
1138,-1.0920124222055092,0.9329658015136834,3.5329744324562444,1.534567099820086
1139,-1.2074659082559205,0.864743154918405,3.4100449484186166,1.3739259654243787
1140,-1.317667705072388,0.8647690134506042,3.310277098195121,1.276108279191592
1141,-1.4078199496289499,0.9109442389010228,3.242151852075233,1.1747546612082558
1142,-1.4782921294132905,0.9574737581411898,3.2075052014865553,1.0033874070885993
1143,-1.5287444146661704,0.9896482794363697,3.2031719684633755,0.812863029451809
1144,-1.5610617335552985,1.0034945210492219,3.2192990535591584,0.684960741747174
1145,-1.5337277670156515,0.994002535717178,3.238711451739978,0.6387625423777554
1146,-1.4043488521628653,0.968531101800181,3.2463557084849324,0.6686939788449633
1147,-1.2106894614186074,0.949268466282407,3.2379360751067927,0.742798719349333
1148,-1.0074729380841465,0.959162428073593,3.2180783439149594,0.819734804741949
1149,-0.7838622503952208,1.0116542542924227,3.202872183912538,0.9282737366187144
1150,-0.5187727337414666,1.1077395353870576,3.2085814938950072,1.1031656981699194
1151,-0.23011294610315677,1.2299098129502835,3.2291427353659397,1.2712540230045084
1152,-13.93667906190954,-15.957701996738415,-15.453768570175807,-11.946528722301547
1153,-14.19031621743291,-16.430756769512037,-15.95986311212253,-12.289840852815766
1154,-14.525823397944002,-16.95940094666293,-16.439503548883234,-12.571640974845636
1155,-14.849292920113044,-17.52611048218846,-16.877744778033406,-12.79761616535846
1156,-15.06580499374146,-18.09395040319325,-17.26620524651513,-12.986491705965774
1157,-15.263793316613071,-18.652345839033895,-17.61222188483798,-13.165769987906213
1158,-15.546579842381703,-19.19518065268163,-17.927888840318072,-13.359890672872119
1159,-15.865608109852314,-19.686619777461264,-18.210625836877654,-13.544701064059357
1160,-16.143448448556928,-20.10408058633195,-18.456836564284966,-13.689900703387435
1161,-16.342311618234383,-20.477593690973812,-18.67517343675425,-13.828798760332113
1162,-16.444646283596477,-20.851563642976764,-18.877543958379405,-13.99299367348426
1163,-16.505629250927974,-21.256427539109534,-19.073581996086862,-14.135150939810774
1164,-16.590940320107496,-21.705860099975418,-19.271863879881657,-14.210768056547801
1165,-16.65907437930594,-22.18573868801271,-19.480307375417386,-14.24628007829769
1166,-16.6593072397275,-22.659918124797368,-19.70045945772603,-14.284624293311838
1167,-16.650859371631476,-23.081014818785366,-19.920889667747755,-14.373773799220789
1168,-16.693635455590293,-23.409518972882232,-20.128174169635454,-14.53923003467137
1169,-16.750883025365898,-23.63331613798008,-20.316851602957758,-14.700052727223326
1170,-16.77427855732575,-23.76671058872139,-20.485658939721347,-14.773570068934525
1171,-16.748588180929907,-23.84637197338748,-20.63926195723708,-14.815294220052635
1172,-16.67252262087875,-23.91584118588979,-20.779608294160614,-14.900538168957187
1173,-16.604146180556388,-24.01445862526638,-20.894301675636928,-15.019364314119425
1174,-16.58891341587499,-24.16075883147095,-20.96901945213718,-15.141841059213805
1175,-16.527590720878838,-24.323045005203657,-20.993355624696616,-15.226653378181178
1176,-16.325344052749355,-24.46077225071048,-20.969429137347674,-15.241354835161774
1177,-16.050272823151083,-24.579693981204745,-20.930109667569226,-15.252363729769604
1178,-15.804387556305771,-24.693414139936745,-20.910907478393344,-15.325429870804866
1179,-15.653750457306643,-24.78920295395088,-20.91890147794829,-15.379141278578524
1180,-15.620360338090844,-24.85308176986158,-20.945628475870922,-15.327208425290058
1181,-15.576059113766334,-24.8762805066846,-20.973411811121284,-15.220442553814346
1182,-15.385280650217906,-24.858757380659924,-20.981609300056395,-15.135437005312532
1183,-15.130095654785041,-24.826869768991212,-20.962423708062712,-15.105787212333949
1184,-14.922016963269407,-24.81083330244469,-20.915330601145858,-15.140384601822054
1185,-14.691112274745935,-24.816670406775415,-20.839438616162877,-15.186812389747855
1186,-14.361408218690215,-24.834667583193266,-20.735850500660376,-15.179291484716169
1187,-13.982360671954536,-24.851417756868624,-20.6055127445231,-15.124437754296357
1188,-13.620058394692009,-24.84163537660346,-20.449630528708898,-15.048095203497697
1189,-13.33483277192709,-24.756290071029426,-20.273251279717368,-14.932893214545008
1190,-13.155573557525274,-24.558298730279866,-20.081283571870472,-14.769758977107452
1191,-12.957508898422038,-24.263020276773037,-19.87442942012922,-14.597803481934292
1192,-12.616058795011316,-23.906492192949926,-19.652657118358537,-14.455145854968775
1193,-12.231372757949808,-23.51169769049875,-19.41627727043173,-14.350202923360643
1194,-11.930153934390747,-23.102358874322572,-19.166898195551113,-14.272249480673155
1195,-11.653104753841456,-22.70668786929883,-18.910817002487992,-14.17814824281055
1196,-11.321592555281269,-22.342512982234656,-18.651534783768145,-14.026726822866314
1197,-10.958597624357925,-22.016628502542318,-18.38552364506454,-13.831900464447555
1198,-10.595953286838036,-21.717528321427555,-18.103307509673844,-13.622382184909714
1199,-10.26465593756532,-21.403776565924165,-17.781006904532003,-13.397525609017467
1200,-9.97543958710156,-21.029208602752547,-17.401599322575994,-13.14917908431977
1201,-9.612572899696545,-20.56456056284959,-16.984424747733065,-12.875277517274785
1202,-9.068808920804138,-20.00250768245269,-16.55487875957369,-12.562862569833248
1203,-8.439507385387213,-19.369484495103084,-16.11554014854994,-12.188338940293276
1204,-7.845448406007816,-18.703618218877512,-15.658246821328541,-11.729971481233894
1205,-7.248418610719313,-18.027804763189945,-15.165851776971875,-11.154045652926712
1206,-6.590134303966111,-17.35057857470566,-14.620435426471563,-10.456182030395194
1207,-5.883974638887124,-16.663076581829266,-14.022295082832333,-9.727986022743956
1208,-5.15925230772552,-15.946427649127616,-13.381213456818944,-9.066832744135299
1209,-4.47331765519949,-15.185641784027487,-12.70247533267525,-8.477646726205922
1210,-3.8748857799744343,-14.371752183463226,-11.995703585602511,-7.9321488751260345
1211,-3.318056575871412,-13.503507665875318,-11.282342380929535,-7.404842174918902
1212,-2.7775360656132047,-12.63040905672631,-10.617779840770684,-6.9254074712522815
1213,-2.3754401357262904,-11.82442480855576,-10.057536020348392,-6.556461769400503
1214,-2.232719813660314,-11.159096036711425,-9.656430805596756,-6.379259927123309
1215,-2.279529150030443,-10.584302073840218,-9.375043019475955,-6.287990233161684
1216,-2.3718898014567515,-10.016778578756314,-9.134780057935483,-6.128698856076944
1217,-2.4207616503716194,-9.416649470826725,-8.909521739323111,-5.899044684313922
1218,-2.372552959497818,-8.806619315827316,-8.689668605794132,-5.637884603782258
1219,-2.2492028865196265,-8.204833646040285,-8.446543430839302,-5.31763031624254
1220,-1.9478606188558332,-7.411623100483972,-8.014394849276181,-4.943128704376432
1221,-1.6162922762579397,-6.6298583558476025,-7.577406970956303,-4.510965541595215
1222,-1.2177705390176725,-5.915775291726313,-7.16066740046389,-4.054038878796605
1223,-0.8077895120605787,-5.283460632948735,-6.789327123847631,-3.619833924411196
1224,-0.4550511401880134,-4.7299051578740725,-6.475904482081883,-3.251427954531519
1225,-0.17601911920620777,-4.1823635227406895,-6.190060901945977,-2.9292780540986763
1226,0.03383256147572711,-3.5632930672337673,-5.892018953433419,-2.621619223031826
1227,0.2106115159186839,-2.895521990155932,-5.584732404728147,-2.370869362704686
1228,0.39391162580586864,-2.225691937103992,-5.2852427167149765,-2.223181183778741
1229,0.5406847475427422,-1.6296265870725248,-4.992699220390345,-2.1540542662650743
1230,0.5981694029319305,-1.1166890400274658,-4.706484807249158,-2.1182893414054553
1231,0.6229031020871634,-0.6601360201417941,-4.430831955053756,-2.0607288015324543
1232,0.687310197236213,-0.21130386032083726,-4.168167898523291,-1.9435655655832316
1233,0.7722166827111601,0.21598785166580856,-3.9351242516098326,-1.844205590266789
1234,0.835201526893398,0.5941115591660363,-3.7409471764736617,-1.8517834541035736
1235,0.8608459474633975,0.9476198586706495,-3.53981301547744,-1.8999881493787092
1236,0.8422632371563132,1.3107107538751304,-3.28273621797838,-1.8863609458485842
1237,0.8008705716935763,1.6913369066430113,-2.98893804037735,-1.806242397939625
1238,0.7684961254541363,2.0903966563970524,-2.697349960970397,-1.6803410257648688
1239,0.7306501381560645,2.5018796328183326,-2.4212775039366865,-1.5284191345246143
1240,0.6680285688472973,2.9085437270067174,-2.164310381567111,-1.3711292803744628
1241,0.6216267865643292,3.3127605662869004,-1.9076205461408668,-1.1511493602496572
1242,0.6359001406711905,3.699548507233427,-1.6294162309366356,-0.8146192680474651
1243,0.6989703209275419,4.015362793672769,-1.3593275631862198,-0.46675853829078484
1244,0.7813442055163843,4.206666083419657,-1.1350599300096957,-0.23786770334382434
1245,0.8531271880050216,4.292378509455464,-0.9383221740096797,-0.11030913494297744
1246,0.8912918593186693,4.38961203531618,-0.740178744684145,-0.025914754390366224
1247,0.93046135463744,4.63055420172085,-0.5455146508552229,0.020514688774982213
1248,1.011149706008211,5.019470000229664,-0.3676713538997568,0.029171628947862474
1249,1.0855937317587185,5.439521245409374,-0.2217859583116567,-0.016071177817726975
1250,1.0932638910664005,5.825130701272918,-0.11932261372743927,-0.1265105627840057
1251,1.0490579206379802,6.1652539413819865,-0.038354199015411566,-0.22034226648188898
1252,0.9876296829507634,6.488067741043728,0.049767735957961384,-0.2070511094255828
1253,0.9405039893774826,6.754682353694945,0.13901087583048247,-0.11933527555691166
1254,0.9302795603284094,6.92571515706122,0.21378354374221245,-0.021897624168981347
1255,0.8900416665745193,7.036287218861558,0.27178719427572817,0.0941243358188679
1256,0.752837891438999,7.137111564692606,0.31672209738863055,0.24681161234810597
1257,0.6278540023311251,7.245022788975423,0.36327561987119455,0.4220982954554521
1258,0.6439744164060901,7.365129495970123,0.42945378802306755,0.6000992941450441
1259,0.7382530671997226,7.4918783451897975,0.5189563430309246,0.7389229254716018
1260,0.8045026111701088,7.611062304992701,0.626734670497088,0.8028426686067004
1261,0.8335168818701227,7.728734060144216,0.7474680207952451,0.8335215935251119
1262,0.8440136741331212,7.851311429695862,0.8731346685071334,0.8885894614241332
1263,0.8838806189201744,7.946303861229678,0.9905046029627489,0.9507268001310683
1264,1.0016747745236243,7.981971363771418,1.0908352798307779,0.9887824326706778
1265,1.1226677961456026,7.970308288649527,1.1819246026460135,1.0191508549833819
1266,1.1522693868082816,7.937534228368486,1.2764968422057636,1.067209608690943
1267,1.1598839003076442,7.913179124393708,1.3803051297032856,1.1571673769133313
1268,1.2375023723427683,7.914211018949411,1.4954421566848493,1.3047424379388655
1269,1.3165059061400257,7.8929287257677725,1.6143503173656188,1.4668654512088093
1270,1.3085134665441653,7.793626428029842,1.7299416556373308,1.591638915325177
1271,1.2373275227139284,7.635012390351534,1.8599396194470057,1.7094428422882164
1272,1.156090296239341,7.450751511217501,2.022939544057466,1.8633396082407736
1273,1.1256585864973778,7.306127249138808,2.206514499975008,2.018719632220386
1274,1.1927107159386503,7.211162677398082,2.3875700510301963,2.1284065226676763
1275,1.2723161431496297,7.15869902644042,2.549112466777032,2.190498507374715
1276,1.2628873508045388,7.118358617988348,2.678509071420681,2.2176076540186433
1277,1.2450441489784823,7.08257942354641,2.7783946243688415,2.2346320507994633
1278,1.3302910605694525,7.047079986016798,2.857457382591213,2.2677214167258657
1279,1.4837221778997123,6.974381110089194,2.910263074413361,2.294630199423516
1280,-12.452052196071026,-16.015879190874635,-9.200597616085508,-11.419484909722328
1281,-12.745481915291094,-16.435709723306896,-9.368403821847684,-11.730922576424923
1282,-13.066293126127578,-16.806837119710107,-9.562013088525688,-12.059387825264594
1283,-13.362043121447641,-17.09997919765152,-9.77864584355661,-12.43165661182138
1284,-13.593049043024093,-17.387392101702982,-10.01026251823249,-12.85608932635404
1285,-13.846676779146629,-17.71551570190492,-10.223969536438078,-13.311685697477559
1286,-14.213597675139008,-18.031470057270916,-10.41086831235936,-13.720466607332238
1287,-14.650659163629708,-18.23667424202512,-10.575154001650457,-14.024663040857654
1288,-15.088955683985667,-18.348551330570963,-10.757631369096512,-14.262044836252278
1289,-15.50872144917612,-18.50384049141566,-11.020979272875987,-14.53917095153525
1290,-15.907784993294957,-18.74088620865887,-11.348568459389266,-14.910457510060256
1291,-16.336947819456846,-18.96238161012782,-11.641997619658547,-15.35790288720887
1292,-16.84425454615861,-19.103053934856895,-11.84667459444819,-15.822941890857777
1293,-17.36082913716414,-19.18148603454182,-11.982507549230043,-16.264839994124635
1294,-17.820137179567084,-19.30428813102704,-12.092630008431346,-16.667905444277334
1295,-18.293506560270032,-19.636570696466784,-12.237709298710145,-17.081887236738428
1296,-18.886356881447,-20.181847023972296,-12.519262123135572,-17.58639500623096
1297,-19.619699587313917,-20.71106702617993,-12.980684326003416,-18.166053792854818
1298,-20.514427867364397,-20.897090926053014,-13.501059382063126,-18.825251666402664
1299,-21.486863756297975,-20.589196231251076,-13.921904371476087,-19.590447223327498
1300,-22.45483323802078,-20.205219312936663,-14.177203690802948,-20.457208064699536
1301,-23.154741769293352,-20.544939041306797,-14.27073494367653,-21.096730267769825
1302,-23.16003266811934,-21.933655668409425,-14.249595615235778,-20.926443925789656
1303,-22.439030110685906,-24.18547833600639,-14.263770919698477,-19.93901563610756
1304,-21.3995687299087,-27.032814294247004,-14.526057626941206,-18.76698914664982
1305,-20.3262150075524,-29.972991221830558,-15.071567393650499,-17.75953959118782
1306,-19.229996048136684,-32.35166579216713,-15.740719249101724,-16.769293992529995
1307,-18.138783995374038,-33.91708739970677,-16.386233015515018,-15.682536595968333
1308,-17.194986533813484,-34.928561275980016,-16.944064683968325,-14.587977375208247
1309,-16.475334888236123,-35.76636686583062,-17.33817578352604,-13.550623276672363
1310,-15.919491503261526,-36.73105114369742,-17.457772871538182,-12.530824992770382
1311,-15.466739423874001,-38.12731939620427,-17.3562371033261,-11.525595526072848
1312,-15.026436711865443,-40.10559838481783,-17.2569696151493,-10.527092716819288
1313,-14.558000274517608,-42.531008571368304,-17.295256239001716,-9.64835422819571
1314,-14.053351576244244,-45.19018687112484,-17.444183864299987,-8.986390898571436
1315,-13.512911805007212,-47.9621480275848,-17.61922165133254,-8.565230346876511
1316,-12.944285859332565,-50.77718169070119,-17.75777184425519,-8.289871253084382
1317,-12.34091914279117,-53.58274923915633,-17.852854076540925,-8.040528707953083
1318,-11.705228727017927,-56.29741341272002,-17.955975447532964,-7.729944476116629
1319,-11.06603325071096,-58.80977538406405,-18.12765756068677,-7.37889388813251
1320,-10.466064146114784,-61.000019818457766,-18.371615896945364,-7.0812366817647305
1321,-9.989351922917626,-62.76351942401968,-18.65551637019163,-6.882028258790685
1322,-9.685041129199924,-64.03405482603773,-18.935998968988994,-6.7279348105653565
1323,-9.445638585129096,-64.7585190626657,-19.239058581274442,-6.52754591287122
1324,-9.139630117339268,-64.87417732047486,-19.5911246340651,-6.2665527138204125
1325,-8.766727429624883,-64.3164529799115,-19.994501863947367,-6.017764321889987
1326,-8.349324055996929,-63.034752583394855,-20.400139666881103,-5.794703902453614
1327,-7.849581583914112,-60.98966574903177,-20.756142573787667,-5.489471129852784
1328,-7.229760113048075,-58.12029877552727,-21.006797751710025,-5.002945613104574
1329,-6.4510551675302805,-54.35739237575185,-21.12968173694202,-4.34436979918736
1330,-5.49463377198867,-49.69183273193156,-21.114142116358348,-3.6076964075028304
1331,-4.448179709251091,-44.17344783089517,-20.960199412363355,-2.859725538807854
1332,-3.3998548133395583,-37.83495304367022,-20.658800302924867,-2.09239246248831
1333,-2.289066738178554,-30.68410645633965,-20.192680272977526,-1.2669140575486562
1334,-1.0671554547866138,-22.779989117935873,-19.564046770028884,-0.3312103001925699
1335,0.2846617963692507,-14.24087699428831,-18.78843058191706,0.6791215242802805
1336,1.6690010483875217,-5.168632184130722,-17.851984272860282,1.7244554654888826
1337,3.059543551126269,4.375933881543256,-16.70184215575375,2.7812612085811566
1338,4.445081975431147,14.352664808498817,-15.307937917155103,3.8788146372938654
1339,5.900537956168026,24.74212328053496,-13.678985530193167,5.043665204227463
1340,7.48946538873542,35.5065772275373,-11.878128369359644,6.22772647578339
1341,9.056498177377597,46.53355766873404,-9.989057964694185,7.333055257279911
1342,10.434633177629221,57.675261788381704,-8.06350495404844,8.347861189975143
1343,11.658005896616311,68.79547223516776,-6.126453982061292,9.315108615764442
1344,12.782647388400372,79.82197618399901,-4.189527990731481,10.261394601104708
1345,13.865245162311973,90.71950156221588,-2.2908715434819937,11.12819108136426
1346,14.881229412913308,101.50390733905765,-0.4604122709414469,11.857825903884544
1347,15.746657335549742,112.1738301309316,1.314923095450692,12.4658963264978
1348,16.006581293051088,119.1858953306467,2.231806426091806,12.632890359697761
1349,16.28758003118976,126.00325358395625,3.133255663877806,12.827353631760928
1350,16.707649998284776,132.59909231230168,4.02479654528049,13.021069557793863
1351,17.26773289986216,138.95234255419768,4.902752698310679,13.173718855199745
1352,17.916769403905413,145.06325594848488,5.782380364597761,13.310944801914372
1353,18.61140619054293,150.95824330419669,6.664907720952674,13.525413415574674
1354,19.298873421845624,156.67256799721653,7.5454544034687965,13.819845990316857
1355,19.936136873278276,162.20753268459694,8.392297884696939,14.101634525062508
1356,20.500440472701253,167.51238233149672,9.175019214099756,14.269256870785892
1357,20.95425651422075,172.52734196775344,9.916101515705583,14.343054745935886
1358,21.280802796819955,177.24839001964133,10.640709599421752,14.411346101600678
1359,21.57643585847936,181.72319439740076,11.362093426801511,14.508078269531575
1360,21.936657653639163,185.98648661367432,12.056691391749565,14.582344925361086
1361,22.276351423253363,190.03732190856456,12.695362284946727,14.58548696922574
1362,22.512851668861618,193.85648902256068,13.270987627873442,14.518359950590996
1363,22.586838242719715,197.44109738762677,13.79574551999016,14.427473307956436
1364,22.5744061405224,200.80148551123307,14.288606228709732,14.380743064024252
1365,22.605802958582643,203.97830243522006,14.766197204910851,14.368975675903615
1366,22.69509804399238,207.01555836038122,15.233358703484656,14.369044325171615
1367,22.800426258283043,209.91507870553045,15.684827869695283,14.349984655027502
1368,22.837326905804748,212.6544721519989,16.149209684961694,14.326340261783054
1369,22.82354641708133,215.20990017055388,16.6964662606969,14.28161604054319
1370,22.802964782337597,217.54826895838815,17.35211216403274,14.201317005858451
1371,22.73464340930719,219.64993639393532,18.096068919558878,14.039516780133154
1372,22.573033905813613,221.49645678552517,18.88032389003993,13.761532360522931
1373,22.341411534980026,223.09243799717467,19.678504066304438,13.436910001549679
1374,22.07606936523124,224.46750704636503,20.476203793602917,13.133275812732315
1375,21.804269201176496,225.63601127810747,21.26341278910174,12.881204129090447
1376,21.544034303636224,226.58566234215758,22.040721267153405,12.634179066512816
1377,21.243860843953843,227.32317626213367,22.817489168398126,12.3343785058305
1378,20.852351215893282,227.8922744999182,23.58859193873644,11.984552154672304
1379,20.4564236068253,228.3036790197676,24.35773011254252,11.642256344086196
1380,20.15544709595109,228.55431341805007,25.092967594397507,11.33092211093659
1381,19.899513318849714,228.60083492426511,25.71073117496576,11.000767170858646
1382,19.598766223986253,228.3947305237728,26.155464991052497,10.60269922962874
1383,19.210017825487263,227.91224547466078,26.44587479767153,10.151743397353439
1384,18.720068342666988,227.16085928728586,26.64014725438323,9.726348846378986
1385,18.19516895505683,226.15943669449578,26.785067502164285,9.383304278672389
1386,17.7211731027952,224.91538632851166,26.91851070555551,9.105995955382282
1387,17.283249436533747,223.4187222473461,27.053619549983942,8.87945538211727
1388,16.833257373072215,221.69226003795694,27.18213745642923,8.667082046192618
1389,16.372299951680844,219.79998449180997,27.298618218557735,8.469561426427148
1390,15.907481011727898,217.76430695836274,27.39364999243472,8.292085729568843
1391,15.431084110538245,215.54750872721078,27.439224390454676,8.058912423559876
1392,14.936368389091308,213.1170191889117,27.411881744056537,7.713243454312268
1393,14.40378876955801,210.46868959416506,27.32219862584712,7.252247584447858
1394,13.813606464815527,207.5841809988242,27.189460909115166,6.737750830270071
1395,13.184171006302686,204.4184603359048,27.011628075984007,6.200730502433726
1396,12.538591050008547,200.95269768586118,26.781340736860308,5.59532288451916
1397,11.849762132239665,197.2062052344593,26.49607910978861,4.863604469863662
1398,11.08757004153188,193.20525878272082,26.156509168147256,4.043344539565927
1399,10.274409255039672,188.99526297683215,25.77495952434786,3.2581863100634996
1400,9.443163915853173,184.6408134616523,25.367932318767817,2.566431933465795
1401,8.614050667105321,180.12892873185166,24.942001528994428,1.9502348362329516
1402,7.796293612023157,175.35596274029788,24.49593267475729,1.3504754037591713
1403,6.939597807655158,170.28353971026914,24.030486983633526,0.80172691838458
1404,5.998623347726024,164.9778198144425,23.540590688331047,0.3238729191158517
1405,5.058756056625866,159.48899561850416,22.9930692698985,-0.0926833929541605
1406,4.224016889085393,153.7677624722552,22.375139994853267,-0.5221687816557056
1407,3.4699011588086965,147.70631171317547,21.68642681260923,-1.0301173803454775
1408,-21.558757398967334,-128.35506299315486,-22.19887973752023,-16.718160923206714
1409,-22.189309852164907,-132.23455285959264,-22.842889524820936,-17.2651881519452
1410,-22.80883272024771,-136.01303452492698,-23.47335141334167,-17.772639935278836
1411,-23.406695424603015,-139.67029574984838,-24.078707056109327,-18.2846598088825
1412,-23.980695218117425,-143.19860510827667,-24.650152388554464,-18.851089611514205
1413,-24.563151779107628,-146.56049749727688,-25.18109457345674,-19.417179727488033
1414,-25.18142580733773,-149.72443914214017,-25.657188287453963,-19.925084285392778
1415,-25.785094847705587,-152.6682750557811,-26.07539462401557,-20.357192631006377
1416,-26.31940244487946,-155.3857331289793,-26.44493838474454,-20.72068660968229
1417,-26.8060644610065,-157.88837819793306,-26.79437585567641,-21.101840705338876
1418,-27.276085805568435,-160.1930180276956,-27.153200698878358,-21.5762265756107
1419,-27.732595713277494,-162.26158295845923,-27.513821439536894,-22.054939679893327
1420,-28.16252980146795,-164.01187555382916,-27.836295708869123,-22.431840246423977
1421,-28.49065351867777,-165.3972936767899,-28.102236157368676,-22.756341301373453
1422,-28.656327752983366,-166.42574206274375,-28.332177417127276,-23.065380262359135
1423,-28.74927280579326,-167.11360392894775,-28.55556924553028,-23.40509084147744
1424,-28.871772875043316,-167.45005126940623,-28.77578554846561,-23.694390928777818
1425,-28.967482213466,-167.42132137042037,-28.98185450908859,-23.89290329010104
1426,-28.9675801442044,-167.06554747007195,-29.155592770571584,-23.97326791263523
1427,-28.923218435230844,-166.43413871644776,-29.306420366262394,-24.013183001837593
1428,-28.893384211961784,-165.57363690937547,-29.447236723136484,-24.10207602603641
1429,-28.897583384873613,-164.46561629560205,-29.575986108204308,-24.218690680837735
1430,-28.929204825571937,-163.07997116389225,-29.681825476501363,-24.307572214108443
1431,-28.876114494993512,-161.41507663016924,-29.736690060918153,-24.338444254156695
1432,-28.64837800832739,-159.50076261253756,-29.718088890386667,-24.290600470928098
1433,-28.38403378109658,-157.43267594081345,-29.63796458793592,-24.177130185800824
1434,-28.24265892517949,-155.29515251876796,-29.523252189526236,-24.03064346489151
1435,-28.17300714617669,-153.12666231852646,-29.405257881927202,-23.854368414877758
1436,-28.082584164572868,-150.88823310333873,-29.302096683242098,-23.65416416117819
1437,-27.970980095883593,-148.51412002742194,-29.215131613090968,-23.49274575390866
1438,-27.839545307538653,-145.96278142776427,-29.127371248286007,-23.415907670226716
1439,-27.680088112764746,-143.21828520504243,-29.01087044827458,-23.367273246634042
1440,-27.480946488812094,-140.29222256116125,-28.875557389854166,-23.27620739956168
1441,-27.150348380399233,-137.21224710471878,-28.771201071244725,-23.139454881896075
1442,-26.622004298353847,-133.9907499885463,-28.7091102202508,-22.971117549372266
1443,-26.016079549201883,-130.58419552938008,-28.649919287633306,-22.787037846741356
1444,-25.473311588193738,-126.92905551942866,-28.548473038360864,-22.600018049685247
1445,-24.974139285628738,-122.9734540346504,-28.376851284310554,-22.365070945692956
1446,-24.466561984890657,-118.68821405793197,-28.12111897555248,-22.04222613798205
1447,-23.96029013695532,-114.09263713496944,-27.774656948483077,-21.696001801819158
1448,-23.463870066382583,-109.22712361621078,-27.344491501915,-21.393676710627716
1449,-22.989004231019013,-104.1208871709618,-26.833791859101982,-21.099568942282794
1450,-22.53579479962247,-98.79082363671026,-26.245666023229177,-20.759583884393596
1451,-22.015347830276895,-93.22305993573066,-25.58339576069379,-20.352885383216776
1452,-21.34723256209016,-87.39499905741442,-24.821168443194303,-19.875097601471943
1453,-20.592222174954344,-81.31940763588872,-23.906529425615446,-19.377864334804716
1454,-19.833498453257867,-74.99819105755607,-22.829617714469368,-18.909226417425305
1455,-19.05867007747361,-68.42242652377999,-21.630088220279227,-18.405737623617508
1456,-18.24116358160448,-61.54792652634722,-20.351819969823357,-17.798226061439504
1457,-17.382441107590786,-54.37044129151963,-19.026196042029532,-17.127831618603285
1458,-16.48817922680217,-46.90481265192669,-17.670393071593512,-16.45408335952343
1459,-15.601426457807063,-39.20069702234977,-16.286380509262283,-15.79318803110426
1460,-14.753051630631637,-31.30589363167733,-14.867633996803747,-15.140809193575592
1461,-13.868657798368032,-23.26851394527489,-13.413440521751209,-14.447933714768029
1462,-12.868845243127666,-15.092070643488768,-11.921402024541559,-13.660620310413263
1463,-11.781702064561737,-6.7373333103419215,-10.406209851419778,-12.800812979325025
1464,-10.658990488764495,1.8005014017276624,-8.867374409583713,-11.908493466217699
1465,-9.515430785630944,10.496143749158502,-7.295775949681055,-10.955608958542143
1466,-8.358102078732639,19.309581957990073,-5.682659017187407,-9.9254824573753
1467,-7.166157093413018,28.217538128132116,-4.054997615149407,-8.903837991280769
1468,-6.012571056794967,37.041525998607476,-2.513932133150956,-8.02441520204206
1469,-5.042038042905737,45.406076049158415,-1.23150631289576,-7.375190217748406
1470,-4.418322913241168,53.08433916833866,-0.23937934848563663,-6.879886208677649
1471,-3.9603229787075356,60.13487515473034,0.5731763065464754,-6.400202902688835
1472,-3.4034400108839504,66.68946565380513,1.299381643092362,-5.769275554038524
1473,-2.762263766279265,72.85227879549966,1.9664314331797592,-5.050380799353821
1474,-2.123790223234524,78.66227468088097,2.5993895036033026,-4.377460793892547
1475,-1.4641358432529705,84.10767864626092,3.2406000548040272,-3.7411793959632695
1476,-0.6275461135699004,89.98514822119368,3.9464779996636494,-2.9691579166464686
1477,0.25625891557573055,95.530347964297,4.659901695748062,-2.243791944509414
