,TP9,AF7,AF8,TP10
0,-11.158807764140754,-15.975660159670596,-13.53389098041848,-10.467392779533492
1,-11.335596809362668,-16.346214152677117,-13.911593712817593,-10.995056857822327
2,-11.426506527673011,-16.757579135710436,-14.284910152030674,-11.526852583645848
3,-11.428479701757846,-17.202152687901496,-14.657071105009368,-12.058971556680723
4,-11.36816024627734,-17.657589563484873,-15.033596944010817,-12.584172616666903
5,-11.33133142109035,-18.11799656019565,-15.411917981651083,-13.085929694051968
6,-11.386097771935965,-18.578530852426216,-15.786469374378258,-13.541209552777906
7,-11.401590505542549,-19.02957244444279,-16.14203546603914,-13.892617250757278
8,-11.243100261509078,-19.464478967841522,-16.472007798134975,-14.106585514706858
9,-11.022310500153736,-19.88718308372824,-16.806211059490774,-14.243863862722165
10,-10.880735113395778,-20.296488530409963,-17.182360716101147,-14.389033202643127
11,-10.793552691885262,-20.66208063666606,-17.613274088393016,-14.599109122429146
12,-10.706990788299633,-20.956239685374978,-18.099919472232315,-14.895760587176145
13,-10.588546710842072,-21.1904844576047,-18.644939276525832,-15.219226218455015
14,-10.41831388085395,-21.385597752129282,-19.235161753882796,-15.495863280018536
15,-10.296704271597596,-21.546633171180485,-19.827067808342328,-15.729244940710771
16,-10.309018099947675,-21.674637762988908,-20.374606290702598,-15.949876584491571
17,-10.302008409102017,-21.76672038354134,-20.85463484812828,-16.177445009498648
18,-10.118449433912527,-21.82023552026019,-21.259457855474672,-16.42717022290206
19,-9.844555663659756,-21.84381680172002,-21.593264964992137,-16.688472138965743
20,-9.618294319069822,-21.850024259574965,-21.86981117991752,-16.939601584886553
21,-9.505324632037176,-21.850734046740964,-22.104668453747987,-17.176493611567153
22,-9.53402411230175,-21.85127096717917,-22.310686469085322,-17.400992706373877
23,-9.618998703099603,-21.84023303706578,-22.492798731056656,-17.607102295145996
24,-9.659936559783185,-21.802345490900702,-22.652238561385467,-17.791666297278894
25,-9.735335095489166,-21.73173683078489,-22.79314116067718,-17.97110434804659
26,-9.933451357656875,-21.633534855889152,-22.917925271537275,-18.15399007939152
27,-10.149035794391407,-21.524097727631705,-23.024880752377676,-18.30183523513977
28,-10.265698425510116,-21.427255078507816,-23.1085998038214,-18.37807396495851
29,-10.3111413766642,-21.375402054433383,-23.15729281771049,-18.40060505716809
30,-10.337361923924584,-21.38510136788101,-23.15824039546055,-18.39905998565641
31,-10.372650652781667,-21.428717727617602,-23.10679256167986,-18.38607821884314
32,-10.427530837665559,-21.461383227404518,-23.002431955816792,-18.36306426159464
33,-10.413479912844055,-21.444955370824296,-22.839810947508465,-18.299410310993846
34,-10.253949742713123,-21.350944797044576,-22.620109272695093,-18.16072899635567
35,-10.050248094767936,-21.179813347059355,-22.366506403272428,-17.96306188017396
36,-9.929063763880777,-20.94555433605546,-22.10205368562531,-17.726507188384208
37,-9.892261110770473,-20.637001869208735,-21.827174381800265,-17.41897821032886
38,-9.902087370183661,-20.252563584844676,-21.535510992475547,-17.013440594268985
39,-9.92478871165771,-19.847682989071263,-21.22372097971492,-16.530356185612185
40,-9.91948900090618,-19.47079084055155,-20.892358722509304,-16.007644769923548
41,-9.871509422472231,-19.109465375608902,-20.55026860699341,-15.498802063709272
42,-9.785308525606153,-18.73013174761793,-20.20521847012901,-15.039366957869907
43,-9.65137400325276,-18.28393286991453,-19.866925845610766,-14.590190447116752
44,-9.46560079193144,-17.747346830955543,-19.525464419988936,-14.085808627209996
45,-9.256594668626809,-17.19828605376965,-19.11040711872207,-13.494511524506393
46,-9.030970615904861,-16.731396475569902,-18.556532543493717,-12.798304135226068
47,-8.739831270386947,-16.359907729980854,-17.87467923478598,-11.972208212039575
48,-8.313140114717188,-16.057805431437338,-17.106677728211316,-11.021073591928175
49,-7.633058239583569,-15.800034078404861,-16.294989040778624,-10.00933245909228
50,-6.637470399969325,-15.542151080341823,-15.47199821322055,-9.008083119549712
51,-5.5076536836043655,-15.197022184773934,-14.631924923328182,-8.059078254401598
52,-4.45207658870875,-14.711352844232286,-13.746632661075509,-7.174124988551809
53,-3.4256453699033296,-14.151661806449477,-12.781920875030517,-6.302546970463801
54,-2.353179107495067,-13.610428168496014,-11.719301453523196,-5.396669709520661
55,-1.3461907109074573,-13.118084053654538,-10.587015994289631,-4.503022558949603
56,-0.5167879017139241,-12.671091327057985,-9.433567927819315,-3.688963592794374
57,0.12771763015658189,-12.229378098054106,-8.303900800352686,-2.9822922583869125
58,0.620935834669714,-11.740736742708108,-7.228888189357257,-2.3924341781369987
59,1.0881496935275932,-11.192786147651034,-6.199737812870105,-1.8810445090029493
60,1.5900835509588733,-10.668383295437927,-5.257784270945215,-1.449690751973098
61,1.9442700285025196,-10.259753915188215,-4.471127089347237,-1.2059395796275307
62,1.9445171277471254,-10.07551916997338,-3.9411699436929846,-1.2649804652525147
63,1.8169580938714944,-10.039948698138874,-3.67579752686094,-1.5287465875312676
64,1.849778127719904,-9.994823964400315,-3.6219869794708677,-1.8405125094448211
65,1.9318412311212223,-9.864457065508448,-3.720676917647668,-2.159634167177919
66,1.8838914232678396,-9.620233327250745,-3.904101913667354,-2.479634295711853
67,1.7535958803977898,-9.260357072597388,-4.1050562398990085,-2.7806065515368963
68,1.5978775254071407,-8.319504490627496,-4.566491816658522,-3.110829486062297
69,1.4703246127066456,-7.365548086529381,-4.965808634392357,-3.4104495907996206
70,1.394270527160679,-6.425500096223486,-5.31131057995449,-3.678241391465647
71,1.2552196550342416,-5.5141884490352595,-5.627594204473079,-3.9548236198500355
72,0.9334045663046916,-4.645726790666414,-5.938351246273431,-4.28416323738575
73,0.5509360881027549,-3.846838362753342,-6.240544841058142,-4.659879734805513
74,0.27104570052348714,-3.1410238946333333,-6.523203275893458,-5.058104967557847
75,0.03742393433232749,-2.55228582381887,-6.789625751365132,-5.470415919663387
76,-0.254151313998795,-2.081027865435842,-7.047737360129094,-5.889723845328747
77,-0.6080403809722583,-1.6466542117599892,-7.307437842559116,-6.310318584215014
78,-1.002097479069949,-1.157991027624234,-7.574800379997251,-6.728015461804633
79,-1.3703597699231358,-0.6138347296401145,-7.841374003382816,-7.124474359366045
80,-1.6420421073720053,-0.048128609350352264,-8.089204708526335,-7.4793015168975066
81,-1.8951696655814714,0.5321193282172157,-8.292191059527138,-7.7966905945384175
82,-2.227658280483813,1.1192462683937099,-8.433800608073872,-8.086157296111786
83,-2.5348603981052977,1.690550074279332,-8.527773646549797,-8.328092551974924
84,-2.695384759305588,2.2329614244976312,-8.60593939896936,-8.511613579955341
85,-2.790647562966995,2.758247897554134,-8.71564469183752,-8.6751201875784
86,-2.9491605429081655,3.2853612576415925,-8.892226927694207,-8.868400043616333
87,-3.2340591169897572,3.823731767642993,-9.111463844751803,-9.137548622558072
88,-3.6655645116354214,4.375158680266285,-9.326857453607339,-9.49893351895942
89,-4.139981148775886,4.935038242824372,-9.516428023546844,-9.870724074280243
90,-4.528455903054722,5.492273120533078,-9.673213802176027,-10.153059357391887
91,-4.879121483624313,6.025796557772486,-9.808795288203456,-10.341166090440547
92,-5.279002841256678,6.521232701518697,-9.945951437801797,-10.47261225229953
93,-5.678418764431316,6.996171723601186,-10.094003627397402,-10.58206042345952
94,-5.997976527643915,7.474844119959024,-10.256202988454072,-10.706579177841267
95,-6.2064229478849295,7.963286096272069,-10.437515079544903,-10.853775196386326
96,-6.291694956066093,8.454423805363236,-10.639597802743362,-11.014877970180654
97,-6.281125598636843,8.913590039269176,-10.868291123850877,-11.205484581561452
98,-6.223829981934462,9.307478515263758,-11.122794889817799,-11.441237947667457
99,-6.141651025298014,9.660315147675961,-11.37296541979958,-11.704604176490653
100,-6.041631663122381,10.011826658025532,-11.583769727459963,-11.97445189518858
101,-5.9295009922603485,10.36070546137069,-11.74665798344047,-12.259156654289542
102,-5.804063802851137,10.69501686743416,-11.866627099975824,-12.569641809712639
103,-5.663416041158792,11.015318762410418,-11.948695688600342,-12.895242502841247
104,-5.506437447028028,11.320046746952666,-12.003513140262163,-13.219303077793661
105,-5.330442916610727,11.612930668951162,-12.049576833534811,-13.518954845001472
106,-5.1324610718274375,11.89441724571296,-12.10031971434152,-13.775792602010668
107,-4.914251475105083,12.12894656973995,-12.153373542480509,-14.014826922947114
108,-4.684374980244831,12.282408907263854,-12.198276633715187,-14.266365354761772
109,-4.4378452133948425,12.376297167336148,-12.221050935916052,-14.49687812334587
110,-4.1828961320652995,12.448120121915457,-12.21435664405823,-14.666696344343952
111,-4.006313494636983,12.51252411342176,-12.192112551964238,-14.806203049417768
112,-3.9832269665051596,12.574331357765724,-12.179782639604921,-14.959632760870957
113,-4.061091221732369,12.619496665248464,-12.205936177041007,-15.13049166493764
114,-4.144359999041172,12.630951214023073,-12.290828334898212,-15.309514390791033
115,-4.1519925277589245,12.631884809187238,-12.426244172611069,-15.48273659656327
116,-4.03531640646191,12.650103588320066,-12.58885876920709,-15.63223192843699
117,-3.889381013451946,12.672326563556142,-12.75998867038078,-15.764768085907617
118,-3.831925009926453,12.673465970068166,-12.924714717266815,-15.88972582813905
119,-3.773435438513962,12.632116209141932,-13.072984100985261,-15.975048129035084
120,-3.592145618116837,12.538301930655106,-13.20334301156777,-15.984679736000771
121,-3.3616919140477193,12.428127444987132,-13.326286455996366,-15.92863444654989
122,-3.191277961672025,12.348333681169494,-13.453407856302853,-15.829098956262225
123,-3.096608849562855,12.29983747251731,-13.58112747984389,-15.685690060687145
124,-3.0627321210476057,12.266973097003518,-13.702730501753972,-15.502069775532174
125,-3.006777592441245,12.24866612546987,-13.819179039710564,-15.292961308866017
126,-2.8504044811033395,12.244384328155482,-13.934947184536524,-15.082900949497262
127,-2.718799058925625,12.247935785106476,-14.065822329380836,-14.937930045515134
128,-8.276076705143211,-9.767555910414176,-20.68696169957486,-13.263031430984844
129,-8.73825954794281,-10.096135830397355,-21.322024066145975,-13.548979660671892
130,-9.096387279232973,-10.443518938216254,-21.926968767498504,-13.807126842729827
131,-9.344140916162129,-10.849969417724806,-22.492972142910524,-14.037579058320027
132,-9.510615979700988,-11.345181930924177,-23.027564355112858,-14.233695697035406
133,-9.715427383562746,-11.920805460435945,-23.555350604703808,-14.451817980257225
134,-10.064831093984122,-12.528107929400985,-24.108458612743952,-14.72780977051814
135,-10.458492340157004,-13.11493740077924,-24.703796104319753,-15.040301286309388
136,-10.77666294012038,-13.666647782095161,-25.346298332552617,-15.323785625108052
137,-11.110891203652063,-14.204226160681543,-26.040499376743494,-15.553254677171957
138,-11.565015659209974,-14.741571766085672,-26.780174706444907,-15.772197259658293
139,-12.085893106713794,-15.273391642834474,-27.544150978008883,-16.037798818742857
140,-12.59308809224489,-15.799513100296652,-28.306955056293216,-16.34825591268671
141,-13.022897967717471,-16.33103325424481,-29.041378547289813,-16.648266416450973
142,-13.341646417222496,-16.870187004288397,-29.72951020619109,-16.923451343763176
143,-13.659059335956954,-17.40431680227982,-30.36392211592971,-17.21708715763086
144,-14.091848515237665,-17.916843881976874,-30.949240249364287,-17.545232605870012
145,-14.55582838283108,-18.384398766248335,-31.50204040396762,-17.864850389579214
146,-14.945902866862754,-18.78039373048824,-32.05587355134906,-18.144020679170133
147,-15.325817418770011,-19.115951982776828,-32.65472018108033,-18.39944875261149
148,-15.773163994425385,-19.438550605669526,-33.31576857489227,-18.703564911125348
149,-16.278892225098158,-19.775943079043063,-34.009584645528804,-19.084252421743603
150,-16.81169474775629,-20.117143295598098,-34.69049122987345,-19.547218727616226
151,-17.288879031599407,-20.44065014448428,-35.32367725585478,-20.043370451966606
152,-17.646289943076653,-20.728660129506963,-35.89535850615819,-20.51218348580631
153,-18.00356209447996,-20.98726408891948,-36.40816351097105,-20.946910980685455
154,-18.48201899782337,-21.243480862426285,-36.87632688413839,-21.361186438736752
155,-18.968698830567227,-21.523971878396235,-37.31757223324333,-21.761979010496766
156,-19.326436178827528,-21.8112821460716,-37.73987393046115,-22.152261834127064
157,-19.586938204375613,-22.051735824707347,-38.140748976683845,-22.51844084188519
158,-19.813258509734425,-22.226741908034178,-38.51439580353492,-22.835698347656262
159,-20.042439846957993,-22.364937665363836,-38.850458285037426,-23.07793731191634
160,-20.292467223909384,-22.496557423193806,-39.134151094945345,-23.229106706192756
161,-20.46712836552446,-22.643133372815065,-39.34095381841229,-23.293364634660495
162,-20.4718558647495,-22.804631250865903,-39.44339749943045,-23.288671216900834
163,-20.40631757758714,-22.96590952634205,-39.437013872544725,-23.25119029174988
164,-20.38595155612818,-23.090348293178703,-39.33565092171497,-23.20644708480957
165,-20.343389761092574,-23.12675793835923,-39.15366996441642,-23.12385691746106
166,-20.195918408696336,-23.05007233482408,-38.90640107918091,-22.974203331507503
167,-19.967899335773115,-22.88786005155773,-38.600942113033014,-22.73459357140694
168,-19.70826146284756,-22.686419223611278,-38.231962309928726,-22.42400478756536
169,-19.498330687007577,-22.485420416301896,-37.79819900596182,-22.0875160715688
170,-19.39633536201153,-22.30157990416852,-37.30352801068389,-21.73028921790357
171,-19.285048849675523,-22.142303634807064,-36.75030507321997,-21.337411110941574
172,-19.03920306941607,-21.99826385910119,-36.15667873582189,-20.892938933398337
173,-18.754330136696026,-21.855521917215192,-35.55480298097361,-20.459023520778125
174,-18.545640217747355,-21.696239005976597,-34.95228566693945,-20.077304846281198
175,-18.35364190357967,-21.50222225588206,-34.32817634546569,-19.730443079163756
176,-18.099214737173348,-21.262202273795527,-33.668008629697624,-19.34423375196421
177,-17.768537061218186,-20.99041094535988,-32.97352374331571,-18.854460180009625
178,-17.382297444857258,-20.71292522264607,-32.24674296374788,-18.27434724973978
179,-17.048553237070998,-20.442760719541877,-31.48594810245942,-17.665119923855517
180,-16.869835429977968,-20.14475773914286,-30.69176843379441,-17.101098082604466
181,-16.803601900179782,-19.747232926602454,-29.86626441168056,-16.565382226240207
182,-16.759195025139867,-19.24624892313634,-29.00746347953324,-16.02798111822
183,-16.68951000177654,-18.715276291692955,-28.11757530284449,-15.469301282328956
184,-16.560279923077122,-18.18383663023525,-27.206527965420896,-14.906734793223048
185,-16.35651392803352,-17.612466941849647,-26.264319181187098,-14.343301520176176
186,-16.085043032891353,-16.986167104137692,-25.259563936014416,-13.753385908986665
187,-15.742378462514228,-16.336967002546164,-24.186138827937715,-13.120346176934962
188,-15.433561603092507,-15.629461102311543,-23.174076451927224,-12.545351476538162
189,-15.263474686298826,-14.750931250561516,-22.467722543992405,-12.243260161734245
190,-15.353589189331217,-13.751308086425823,-22.17367611000618,-12.269325109477533
191,-15.509696457000372,-12.903588752904273,-22.17463578967402,-12.438613326230609
192,-15.4523877362929,-12.420985756397796,-22.27795117734715,-12.473440451326768
193,-15.164030391786538,-12.234357286184059,-22.35278898766555,-12.222526782690675
194,-14.733105517260988,-12.041367127206836,-22.37576278018569,-11.73293186385968
195,-14.196784310565684,-11.572480372687926,-22.39876700305705,-11.196579072010895
196,-13.790169339410284,-11.003666949596374,-21.777790000611418,-10.843870923177352
197,-13.272678579755809,-10.387312031797748,-21.109225409329305,-10.470724241797688
198,-12.617117730511245,-9.718801689823861,-20.39926299965991,-10.057765959060491
199,-11.924966111873378,-9.019302670431692,-19.64957394974217,-9.630178188023999
200,-11.313376864231879,-8.33742782325175,-18.864390579382675,-9.199056381900037
201,-10.727844529488053,-7.702290583968822,-18.050979468612187,-8.761776708223648
202,-10.066014269231042,-7.120090047412373,-17.21318671491246,-8.273882048628833
203,-9.313895638897968,-6.602594388329279,-16.353369920138007,-7.705930416969878
204,-8.486277226850419,-6.1625707720139795,-15.472088815531354,-7.0778308679189825
205,-7.605582287424639,-5.798736216883564,-14.568484357519775,-6.40407404597835
206,-6.706761738249287,-5.4985530166103675,-13.642829048776667,-5.706754494313246
207,-5.800684346478496,-5.243810485159582,-12.698913513447065,-4.9863438831634035
208,-4.882763317874796,-5.019070959738859,-11.743915339190497,-4.232548970262941
209,-3.9540575613237614,-4.815969171975843,-10.784154026930892,-3.451757699607271
210,-3.014031142594759,-4.633757817234956,-9.826218631886528,-2.652959422020913
211,-2.060141097487535,-4.458932548020218,-8.871734202573444,-1.826086658272542
212,-1.0906971055188919,-4.253256572837743,-7.913860723273379,-0.9659310440178384
213,-0.1051113412529367,-3.9862620110320988,-6.942414926868506,-0.09803036213247947
214,0.8962368085191261,-3.663497137169143,-5.950143234200765,0.7568526182888242
215,1.9132906798684008,-3.3123721643922384,-4.9334900704142495,1.5543122007112005
216,2.9327802075140097,-2.9517978542645418,-3.8932635873949017,2.2987655356951775
217,3.9320745267438593,-2.5793400081509175,-2.840044109773521,3.0248011155735166
218,4.873516414464479,-2.1904377050713713,-1.7966220815496263,3.769897066485444
219,5.650489447174797,-1.7986961618450765,-0.7845781705491417,4.502182914076246
220,6.180579436249345,-1.4376628751781477,0.18886854462479585,5.168417806213826
221,6.562016974064226,-1.1353214953080366,1.1252597051079798,5.748133426953096
222,6.930223814006032,-0.9031891447423737,2.015786839862502,6.236018136802825
223,7.288904329610766,-0.7343746218631066,2.834305236990857,6.6482657456881205
224,7.596939874077581,-0.605901323356934,3.563679581293883,7.0077677932712215
225,7.793236157727171,-0.48259109740187,4.216530179384975,7.293995744438692
226,7.833745678566251,-0.3403451096571195,4.82097982852743,7.47930164901473
227,7.852671423578797,-0.18285038251546692,5.387825530218816,7.592060883449903
228,8.005209627937965,-0.03658131232393496,5.900302084550214,7.658609017229994
229,8.202842672481989,0.08180283531530826,6.344263514650756,7.699363577579356
230,8.307014279630039,0.1760425014154638,6.722414577951055,7.703373092736189
231,8.351569255577072,0.2559080092685555,7.0418781237973604,7.675901175629058
232,8.408600001546231,0.32755035786698805,7.321739272890658,7.667942542076589
233,8.517082353724474,0.39634492250320497,7.594645422546161,7.727887449123869
234,8.69835521202211,0.4759721865090408,7.885826565600697,7.850819022996534
235,8.85421264952007,0.5780294476692247,8.201712732085582,7.998555550258257
236,8.877930234736938,0.7083576830948235,8.53431439423085,8.119178232410997
237,8.877211560672748,0.8537521613424185,8.869611987344493,8.21866813301308
238,8.995052492545977,0.9906073632677923,9.196864799465436,8.326597646706768
239,9.1778149352154,1.1060434760043774,9.512017991139215,8.454905693544084
240,9.327104319277069,1.1920966959886785,9.81458113217843,8.612828293399668
241,9.421447143864443,1.2359028972861754,10.095435577010713,8.79666925979499
242,9.465592384354746,1.246436402426692,10.334661852386743,8.995599252072498
243,9.531769677460401,1.2578533584134426,10.522826437923548,9.235878286982516
244,9.697873814111137,1.2886578410928622,10.668479285499592,9.522847047758571
245,9.88056270280721,1.31703574647116,10.784574925342978,9.814734508181823
246,9.965034532631476,1.3054771140266412,10.875464635115748,10.0285291509373
247,10.009504038385835,1.2221121435247209,10.934148767914257,10.125905918559113
248,10.093874252558416,1.0580794023083635,10.953461569306452,10.132183616477759
249,10.15006709897348,0.8355103084874574,10.926037353630896,10.084719773420318
250,10.08987121411354,0.5957008806461037,10.835535461899852,9.98444089166357
251,9.889301662419086,0.38427563362810857,10.667777323446828,9.826679468770363
252,9.560297206773361,0.24291665703379112,10.424472062150214,9.599109084283914
253,9.216840324511145,0.1782205393895752,10.126811222340825,9.356289757267188
254,8.9787953940068,0.1527818765892953,9.808268431769442,9.140245154394792
255,8.761211834017267,0.11801621559263432,9.491599575797455,8.937633061837
256,7.0193756062412875,33.04025646525383,84.68964986327317,5.859092998764364
257,7.946379245139238,38.98933100742377,90.49131396777847,6.856063404811579
258,8.95405742923622,44.9777538561149,96.23659098271379,7.879368874713526
259,10.032912898580504,51.11608754278908,101.8740225879082,8.913045478962179
260,11.14942757901718,57.46860805277971,107.37736074603208,9.935610637411283
261,12.194655844653932,63.9370091695904,112.7522559416072,10.884958146542663
262,13.077227869661705,70.33273129962099,118.01726935673625,11.704053026241791
263,13.902923975626045,76.46255150409786,123.16166440446665,12.382974530388715
264,14.788548960447295,82.1363330569981,128.18421047887375,12.93718361667312
265,15.628945411681535,87.17316236895122,133.07672601033858,13.397747682822379
266,16.29998036709237,91.48832441973751,137.85808831416927,13.801704884481623
267,16.842683706841278,95.17905108568954,142.54925421562615,14.166266686695177
268,17.32355185505278,98.41053680658545,147.116606461191,14.497716315822563
269,17.77116697821755,101.29975888169787,151.48963946758823,14.810048095857915
270,18.1946284911297,103.92444028270823,155.64015333912582,15.108288291361587
271,18.5026232889162,106.30996084044206,159.57763491640645,15.368583302939122
272,18.61117805542269,108.43777893786543,163.31462293873966,15.562906956438978
273,18.633293674727557,110.28320260560324,166.83438934155902,15.696666589105021
274,18.695547640572197,111.8340387952553,170.11618356431637,15.775501187551235
275,18.726277973939474,113.10571681275627,173.1946651614833,15.759035011564409
276,18.639316033347804,114.16016832296262,176.1865930597759,15.63766022879242
277,18.47050799307104,115.05824906356435,179.18975809612525,15.414351186142092
278,18.28476809218367,115.90278547319153,182.1645275485256,15.177460335952084
279,18.188744417281256,116.81444816348628,184.95432730278276,14.9903495262013
280,18.249138229304464,117.8429270333512,187.37787693452492,14.897743663982713
281,18.30442804988731,118.98658436468311,189.26926392236783,14.870229380140643
282,18.176790794774334,120.20524005387063,190.50872915126257,14.849994749847626
283,17.932556606564066,121.46111735136652,191.0269398923146,14.814496437058171
284,17.686947089777235,122.71519674832646,190.8162741152408,14.747571138492482
285,17.444495282546182,123.97114922987343,189.93063006708505,14.627279732473248
286,17.19094023198612,125.21281955861183,188.44413054206242,14.434523187985711
287,16.887939029012344,126.39667158644505,186.41081824172716,14.128882921512023
288,16.49763582766667,127.47635855941402,183.85782540308242,13.686153542769608
289,16.11356748020342,128.33055759322266,180.77663527329972,13.155460189568709
290,15.815534546632247,128.75504298508218,177.14215602766618,12.597863554219526
291,15.454047083125415,128.6072132908684,172.9352055839355,12.023773147220655
292,14.872575615833316,127.87602892996907,168.15612203270507,11.426242088414487
293,14.139668142094958,126.60387780019455,162.84721774278742,10.796986266721666
294,13.364791379774607,124.89415637789409,157.0653619786526,10.12252273038634
295,12.571581600565063,122.86580460770806,150.8460662012425,9.406448400288708
296,11.759131400116981,120.59214230671144,144.21658364866641,8.65269709937521
297,10.857852167494856,118.0907720493144,137.20272097069608,7.825699386184934
298,9.800494611367483,115.3140518496929,129.8195502725452,6.890883151730813
299,8.702032281911045,112.22926009518379,122.12227177684763,5.8798102597317605
300,7.675996540865274,108.85996466288115,114.13979416244965,4.810832626982435
301,6.58434648358792,105.23568709201096,105.89113309895711,3.6665098722654514
302,5.2827733199604285,101.40345727769267,97.4013813375403,2.4011706519414036
303,3.862575429928756,97.39349153085873,88.75561384740693,1.038498363803158
304,2.4535681800965574,93.23324382911511,80.01053846264102,-0.3262344497583299
305,1.1003469857765902,88.95891614621921,71.15931249180947,-1.636770429328154
306,-0.18850997442810635,84.61297421672425,62.123047029243786,-2.921291079554584
307,-1.5056287682565923,80.25689997250235,52.80824975123251,-4.200417661743306
308,-2.946648426856666,75.93547177072521,43.15852997397735,-5.51387780663594
309,-4.402803845893205,71.63632395637406,33.14728609511988,-6.858182793465275
310,-5.753504713237093,67.31148506431575,22.73266487329417,-8.219064921067943
311,-7.118101881831323,62.89746591632566,11.856636849717006,-9.648765880163571
312,-8.616461226297327,58.32799029515164,0.5054819370349817,-11.155032424329454
313,-10.14799041191634,53.551059058200806,-11.26481615327215,-12.687801900948466
314,-11.58218126099809,48.54522843845501,-23.419125031411678,-14.120032713810875
315,-12.85706170039587,43.33728394260683,-35.97769065392216,-15.362001829494943
316,-13.930822640279732,37.96490626689627,-48.95269661370423,-16.43007746473742
317,-15.131353695161328,32.37288145164779,-62.26177822306114,-17.439575458931966
318,-16.714658860009493,26.45059461311451,-75.7336708884064,-18.58825364817088
319,-18.46728019359354,20.21686412909207,-89.11505478685392,-19.92216476244814
320,-20.08112790696387,13.763902043976364,-102.2395341832356,-21.37410810565542
321,-21.645828757633662,7.177676939368866,-115.08471406630193,-22.87580716228801
322,-23.32114539592333,0.3476467922258438,-127.72540720915387,-24.44346741639455
323,-25.072076695202995,-6.977615925347822,-140.2479646587931,-26.085983251487246
324,-27.12134782753468,-15.57673832267839,-153.72904097206293,-27.903496927452707
325,-29.101690099264985,-24.160329196667295,-166.94490291519355,-29.72749867858908
326,-30.9443754533029,-32.55768504654984,-179.90941011501462,-31.562170004298
327,-32.788574667969925,-40.931540374398764,-192.61161292857076,-33.415645653912996
328,-34.78205357407725,-49.5377791666712,-205.0482164317842,-35.27763328651605
329,-36.805551259278865,-58.467421833446075,-217.15930874736415,-37.103579957382784
330,-38.662642790486885,-67.76036463607531,-228.87801984053723,-38.829770778062965
331,-40.268216612150674,-77.46892315595805,-240.0961796755728,-40.38436893459515
332,-41.59202569030278,-87.5669895600133,-250.78599763234132,-41.711867746176985
333,-42.66246938129576,-97.7617431192697,-261.02755704273153,-42.7917471079123
334,-43.57205798732279,-107.56901518367198,-270.9939075099841,-43.649980869918345
335,-44.40687751143924,-116.68147354363214,-280.75985153717437,-44.38188647265707
336,-45.23818562054358,-125.06929272480207,-290.1597585050801,-45.089387404219075
337,-46.18550971764238,-132.87088223018836,-298.8725441929786,-45.81679294402532
338,-47.30262154861638,-140.27411133878329,-306.6610699456421,-46.555335128554745
339,-48.372845223470854,-147.41208129367556,-313.52764016298266,-47.20402404496968
340,-49.14464586508344,-154.36621579996716,-319.6089643970337,-47.65553107032432
341,-49.65553961070096,-161.12435296293467,-325.0980106858553,-47.95773751045668
342,-50.03195779717884,-167.54016590181786,-330.10314438535585,-48.182177688544186
343,-50.29638932587081,-173.29190805721433,-334.6261186911009,-48.36498211051206
344,-50.4542398006401,-177.99024073467822,-338.63238455764485,-48.468195845799265
345,-50.45596991191124,-181.31309994997997,-342.0470557165154,-48.46026609306165
346,-50.25932868640173,-183.07343871961575,-344.764173569664,-48.37400215827695
347,-50.04437414235809,-183.40283020726926,-346.74478871273067,-48.261058960317456
348,-50.005278713881914,-182.66445601644165,-348.04962933915635,-48.176420280809985
349,-50.045430174638234,-181.2089242883402,-348.7772048132126,-48.086232052759804
350,-49.98856296271827,-179.34520306196893,-349.0297309320013,-47.92399739045658
351,-49.790897728814954,-177.26699806961335,-348.81020844289895,-47.65495969511619
352,-49.45076389739278,-175.02500192439499,-348.0740400579486,-47.26515839315272
353,-49.01256801749769,-172.51376569696723,-346.75652396455115,-46.78482508938637
354,-48.54014552626435,-169.6166002103748,-344.83536696853014,-46.256684349191815
355,-47.95874933053456,-166.29780942278464,-342.29848486018705,-45.66251447825803
356,-47.181461422924464,-162.6475635522406,-339.1841419580959,-44.96824453981689
357,-46.33547933378474,-158.79472150953262,-335.6029597246812,-44.18563776973769
358,-45.56585375611947,-154.7986533938363,-331.68231495825654,-43.3332197141196
359,-44.80812847797417,-150.6782418655318,-327.4960232456614,-42.40672121643293
360,-43.9451735158298,-146.41374184252686,-323.074310297196,-41.40027512308188
361,-42.90751953621519,-142.0418803846448,-318.41954421792633,-40.30407651657208
362,-41.67151763078233,-137.60356522607492,-313.4961270828714,-39.11591354361178
363,-40.3821048184391,-133.13345538197615,-308.230522508469,-37.88168601812411
364,-39.21159878896319,-128.6437600849518,-302.5513735317083,-36.65417203280583
365,-38.09777016946403,-124.14182281071511,-296.42692074470244,-35.42338474513953
366,-36.91513113583345,-119.68544574309564,-289.86754961396554,-34.16516135829755
367,-35.693318234697045,-115.33205261299383,-282.929941144271,-32.90643585442872
368,-34.48433583009277,-111.1277185035735,-275.6930242784604,-31.674718655746585
369,-33.26351267352984,-107.03600914970713,-268.2314304380549,-30.45243812542746
370,-32.00061292512647,-102.99489879301242,-260.5992082451327,-29.21139965426989
371,-30.657023425026875,-98.99647529979602,-252.79214401998362,-27.92486206789425
372,-29.210922361003462,-95.05079351166987,-244.79520699032034,-26.582920745631007
373,-27.765660998003636,-91.16723049385652,-236.65519017814322,-25.235746406617412
374,-26.440929664459787,-87.35645622739816,-228.43674943178428,-23.952662747013793
375,-25.191134381381275,-83.59966246756932,-220.18468691895805,-22.764137546788767
376,-23.9383773094664,-79.89258521814027,-211.92192202398738,-21.68054321278193
377,-22.73318794995399,-76.28752068331436,-203.621515804179,-20.700478276367352
378,-21.643584775846552,-72.88216885483477,-195.23566222732512,-19.808934842328295
379,-20.682003120301978,-69.84135694750165,-186.73985166997804,-19.003686141484263
380,-19.834891227879574,-67.30316738604866,-178.1301136562476,-18.27476303008187
381,-19.00245976104637,-65.24607916819743,-169.43423064020294,-17.56512842700875
382,-18.08570389280037,-63.539468218484735,-160.6966002260506,-16.812714516125176
383,-17.18319294371908,-62.01922505945201,-151.9348869165392,-15.99613089197597
384,-18.107754502584083,-18.22021936820878,-59.66977685470719,-16.845473277965965
385,-18.34209573922463,-18.469411479852525,-60.63077002707074,-16.939782583233114
386,-18.544106244886898,-18.67483933122933,-61.53099697498367,-17.046723746075948
387,-18.725659035241538,-18.841098819896263,-62.37741508699303,-17.135890282780657
388,-18.90890534915627,-18.97136440642172,-63.17096770946806,-17.258199602849455
389,-19.172867204939813,-19.082860997083372,-63.90766252383741,-17.496437369898512
390,-19.573054712758132,-19.191086070585413,-64.57340413030002,-17.908528585856278
391,-19.969707165183788,-19.26516371042464,-65.14674749051225,-18.381456486035084
392,-20.226271646137068,-19.29261493242873,-65.63096765259344,-18.805313268872325
393,-20.463280980825726,-19.367986435097883,-66.06892657892213,-19.160347933897093
394,-20.825894153523436,-19.579965647120684,-66.50202672980281,-19.519996270063377
395,-21.266929461057174,-19.909203605713703,-66.92499137610966,-19.939772947395888
396,-21.70032314623105,-20.28359867731418,-67.29931248108328,-20.402691514461242
397,-22.07022817599365,-20.597313839360616,-67.59644261529999,-20.852428750015395
398,-22.339151216038875,-20.76012671892352,-67.81142623047833,-21.29581213599757
399,-22.58735950267768,-20.773955813796867,-67.94926016727845,-21.757097194990987
400,-22.894986008077403,-20.698151314446633,-68.01542008681764,-22.260922422443116
401,-23.142898085624708,-20.61755445785876,-68.01229378691885,-22.739737773643647
402,-23.203562092128916,-20.606030125070983,-67.93501990741989,-23.116937189642528
403,-23.14612037054772,-20.672957796102196,-67.76745091353295,-23.39022743705304
404,-23.071475502622302,-20.78292743779758,-67.4886047312858,-23.585072532567352
405,-22.999534362012845,-20.871098004796227,-67.1064155268184,-23.736059933122306
406,-22.924809299030677,-20.87676391612459,-66.65939603736099,-23.872067352751962
407,-22.780579946698197,-20.799368027060822,-66.16782067531003,-23.971816388278327
408,-22.50334262010674,-20.658164553952258,-65.61847657593333,-23.99446747310084
409,-22.186259333556563,-20.453054047515906,-64.98051305631878,-23.922485006552602
410,-21.926924505474712,-20.17593718018317,-64.21639920457397,-23.74830912251428
411,-21.627967320196,-19.79645869225401,-63.29597482409109,-23.459197387575845
412,-21.181338369666964,-19.298267167300796,-62.21259162608745,-23.060496708155412
413,-20.638546297810493,-18.726876842770462,-60.994601808699834,-22.602518983862765
414,-20.076712275871323,-18.15535144814549,-59.68970241285037,-22.130553429043555
415,-19.539030079474735,-17.657471717065146,-58.32631563157182,-21.637719195932224
416,-19.04435679908101,-17.285326230009943,-56.89990105168435,-21.10099227652687
417,-18.4872387107842,-17.040064270545333,-55.37836789161082,-20.49256023123097
418,-17.777120545090703,-16.882356182632655,-53.723366367698056,-19.805914308243437
419,-17.06961868009672,-16.735350648982877,-51.93020686474635,-19.116712342929517
420,-16.533397319735876,-16.528192616264185,-50.030361654579245,-18.507733157132495
421,-16.09117566824574,-16.259159707720737,-48.05772752852582,-17.974820287287553
422,-15.624125584518971,-15.950244535913477,-46.02629659391933,-17.485516445894365
423,-15.123965833009729,-15.60055436327105,-43.945160749081076,-17.03082559535498
424,-14.606500933048904,-15.209441755746466,-41.82947418687081,-16.595181565166698
425,-14.127519401279303,-14.771912413547042,-39.670705470608965,-16.15044428790475
426,-13.736806852655246,-14.295114991230239,-37.43582609795704,-15.673910071407285
427,-13.330656019374413,-13.837516731451458,-35.106381983030495,-15.146610036362318
428,-12.803947582287341,-13.45833036833724,-32.686739628664256,-14.566110414663246
429,-12.261250837912636,-13.16830288860171,-30.180144709367607,-13.962465552232945
430,-11.820482601287218,-12.946293598079048,-27.58112739067869,-13.375941644636464
431,-11.418309472475006,-12.736023979972702,-24.8874717029353,-12.841905551759359
432,-10.966999989783924,-12.471626896226287,-22.106596376095954,-12.37424983026034
433,-10.448336407289874,-12.133102311467864,-19.24991947332478,-11.941336598916878
434,-9.866767202522874,-11.710758816717464,-16.31901760994676,-11.494946943133156
435,-9.304447058726277,-11.157842685784443,-13.305637884013331,-10.998176933203702
436,-8.827923849668018,-10.448536319324916,-10.191810757587248,-10.433575377003033
437,-8.300988868596033,-9.611684110397796,-6.959115298363407,-9.818515754176756
438,-7.582145640666808,-8.71149164623044,-3.60644116006193,-9.182022241669411
439,-6.761405354843551,-7.865777274898023,-0.16537571535149614,-8.548197879678895
440,-5.963079694764675,-7.1687016189400214,3.28828418442417,-7.920549022493372
441,-5.182058485284134,-6.586469065362571,6.646149940314907,-7.240268884366547
442,-4.387204523448455,-6.0356975980344565,9.841409771857993,-6.450769182520162
443,-3.5349320466602636,-5.464324867369822,12.906607748717686,-5.582820015978663
444,-2.734102417164895,-4.936425564638226,15.710387895549232,-4.758076363931032
445,-2.189226580823074,-4.546207192216748,17.864739090295696,-4.13717923538675
446,-2.1471500730006303,-4.4377958997963995,19.237718837263134,-3.752632183969655
447,-2.305258098669569,-4.527762590580661,20.070950030100995,-3.519680066509656
448,-2.2538498910867504,-4.641551689754075,20.64356575447153,-3.2765764563174598
449,-2.109244626458933,-4.737739199647584,21.148056708307056,-3.0125969494589695
450,-2.093907527322152,-4.819064489565736,21.721076210829132,-2.7705715288710824
451,-2.140778316189922,-4.87273471446406,22.456919798621488,-2.5348529510568376
452,-1.9668965366235212,-4.6934769795454825,24.193923121819296,-2.1856329038269036
453,-1.7535808024191872,-4.522546579030158,25.931933523534905,-1.8521801417370554
454,-1.4783470753905597,-4.352893493697778,27.63070548195103,-1.5365420911702594
455,-1.2471182013341384,-4.177043774837418,29.253034397469943,-1.2656167569374577
456,-1.166278179871153,-3.982501679039881,30.78207178889974,-1.058037049891195
457,-1.109317698190136,-3.756704089110239,32.22440767663266,-0.872132202686373
458,-0.9113926464767417,-3.4965559198175518,33.59269080743449,-0.658360256485019
459,-0.6154948841451554,-3.212983988412185,34.88972647719108,-0.42166269444236604
460,-0.31706304226120285,-2.9237436901625027,36.118262011961974,-0.1841760647709312
461,-0.03826197047390872,-2.6537264511750744,37.30434067188238,0.039959221314381344
462,0.21486368761988647,-2.42030305082065,38.47274005807488,0.2408937712032298
463,0.4928469390841166,-2.1980423910396887,39.62211348169079,0.44449889992984937
464,0.8481781146657297,-1.9548854923388566,40.73764554230137,0.6797280481202344
465,1.1666640414937042,-1.7139519865806652,41.80228969508342,0.9035527951722793
466,1.3177120389498398,-1.5067016101598394,42.798914494565196,1.063943075675133
467,1.3867073717015557,-1.3132848316731238,43.72233006669601,1.1929526528589613
468,1.498597980812507,-1.1064594944679182,44.581213280743626,1.3168716595692538
469,1.6248218640399554,-0.8881057638665653,45.37869078002667,1.4619008041350294
470,1.7024318980324677,-0.6714169662785433,46.10324916065622,1.5735230251322267
471,1.6915176258770468,-0.48240831287308816,46.74002161481783,1.6397992088963584
472,1.5720188373345994,-0.34380831328030514,47.28252420347627,1.6529657548456758
473,1.454501844466234,-0.24556550892957052,47.7219009440117,1.634226779213603
474,1.4616959490613766,-0.16082444241017382,48.040035274570435,1.6170651065018242
475,1.4956723975857145,-0.05481997782371675,48.231251154776196,1.6012711544402627
476,1.4206076697403003,0.09621677813554277,48.318668017986106,1.5766943966728126
477,1.3098421470509705,0.2646761377049781,48.342516847453034,1.5581988729163119
478,1.2724019692981396,0.4085482115993174,48.328524471920886,1.5590874701373194
479,1.2915585642279428,0.5184487300132046,48.29267504482021,1.5682711380770733
480,1.3211909900563352,0.6027025113439397,48.25523383403595,1.5675526496909666
481,1.3029464453763377,0.689908241875195,48.219662427202074,1.5431196432196423
482,1.1897668146035674,0.8111181428401242,48.171412606002,1.4862889778796926
483,1.0822306202610807,0.9528126818602569,48.09597617765097,1.3990790497587926
484,1.0989484462422006,1.092085581566293,47.98776548758332,1.2964408039959576
485,1.147749527522132,1.240941072648807,47.84561557762535,1.204053240671156
486,1.103132600324392,1.4190662975766115,47.66680480504498,1.1517958609087344
487,1.0215020124269072,1.6472817018817898,47.44836807878678,1.1656851765927698
488,0.9950267975471638,1.9280027531629191,47.18649608931493,1.255658461603688
489,1.0526972527371088,2.2004275549586962,46.87215553382565,1.4191015628841632
490,1.1937361901788457,2.3915130112079543,46.49215750196102,1.6335928686240895
491,1.3056925907391892,2.466463336435523,46.04376029464449,1.8132090683697173
492,1.2763400403296448,2.432863046797885,45.53822507591188,1.8879943217468376
493,1.232033812912496,2.3758842248036767,44.995484441320905,1.928676235071871
494,1.337708373004547,2.3940130734176224,44.44512783711162,2.0386434208455766
495,1.5307661407790742,2.5063050324658382,43.916737468586575,2.2313391170519106
496,1.6901096277126741,2.6867258053812524,43.40905554469327,2.4757634280683765
497,1.7735449957319398,2.8815448343376033,42.88506196740168,2.7040539498966876
498,1.7675154038066574,3.037216514516026,42.30366848553231,2.839505319912983
499,1.741284017113007,3.1785515517478875,41.647827086166565,2.881645549716427
500,1.777660712183024,3.3536010802066194,40.924712346479886,2.860870354269115
501,1.7920689215601677,3.5480670920920336,40.15046690462337,2.7658690420624343
502,1.6708985936918364,3.7299222033111246,39.33734219355098,2.5814452805293047
503,1.4774794296602898,3.887969496848224,38.492485059268674,2.3247832685051653
504,1.30810872933644,4.013277312588551,37.616583916404814,2.015003582371951
505,1.1375663845527781,4.099728715499874,36.71012998254947,1.6518070803134157
506,0.925796932685589,4.14869370054681,35.774350815315636,1.2614309987402144
507,0.681443490909819,4.159983949593991,34.81898227091629,0.8117263218505008
508,0.42615178534928744,4.132276665050427,33.84864200288776,0.3535905641496178
509,0.2472367458778772,4.079715606896446,32.86302864714287,-0.018499592597851056
510,0.22095206368281392,4.017331870634073,31.85044335702866,-0.22160716256045565
511,0.22276711122449386,3.9124450046914943,30.788910298280847,-0.3463132514199406
512,-14.957448976288761,-15.242623961192338,-2.2588516002858663,-15.025690767599443
513,-15.37432114936681,-15.527735751132841,-2.7597433627167085,-15.531846202796261
514,-15.755180665673729,-15.816371871251349,-3.3399244631787677,-16.027034099734422
515,-16.084610997146406,-16.11536017051211,-4.001511811151825,-16.49557779779054
516,-16.36708469016946,-16.415161280681197,-4.745914406231287,-16.927776869824353
517,-16.67218530460106,-16.67870775339321,-5.5422823191404085,-17.312480805186617
518,-17.05807649584819,-16.870136030072945,-6.368779976636223,-17.645500167585066
519,-17.403886519134588,-17.00120809068678,-7.263786629086154,-17.923492143805834
520,-17.588788823118083,-17.10443963114836,-8.268350138500846,-18.152300820955077
521,-17.70889396366172,-17.199071365924205,-9.374536412533764,-18.357839720017257
522,-17.89034820042807,-17.312992698473312,-10.55353195825409,-18.5680478405669
523,-18.13649609231314,-17.49699959749258,-11.764292092281472,-18.8088324451629
524,-18.41779752954582,-17.793757380233135,-12.96908822751941,-19.08911714768777
525,-18.676901942069474,-18.219011119808233,-14.166764588853427,-19.357591442133863
526,-18.87079130094455,-18.7595174242634,-15.371428956496697,-19.56402872912679
527,-19.090577034843793,-19.367013979798152,-16.59056218259711,-19.751161462633682
528,-19.43978245693748,-19.980247714306543,-17.82636490825833,-19.9668602184257
529,-19.888733384424498,-20.537586411574004,-19.061177404318354,-20.1672719323521
530,-20.367636827659354,-20.999519675854664,-20.27307067968204,-20.300111573800113
531,-20.834659563868513,-21.402994055559237,-21.469393542200415,-20.367514051278636
532,-21.252536990860964,-21.775256831770815,-22.650751878926958,-20.390287481263755
533,-21.604491990400863,-22.133508514898427,-23.80920649177035,-20.40296163514663
534,-21.89360445250796,-22.44164111564759,-24.918933709532197,-20.437283620973012
535,-22.11871335341074,-22.71520056976378,-25.972617380647943,-20.489555198938355
536,-22.280999237271295,-23.072317850109187,-27.002670793206093,-20.536145978423107
537,-22.393689076028714,-23.557078751398013,-28.039001464549212,-20.542520373756656
538,-22.46219016067412,-24.179137196075956,-29.103868114003088,-20.485234762763138
539,-22.468947535977843,-24.855103630394456,-30.17585511034184,-20.38730969425652
540,-22.388795810097157,-25.478140630184686,-31.215499455268873,-20.287301737885134
541,-22.193747454879798,-26.010819836401602,-32.19426694097664,-20.20542463214045
542,-21.86299428910802,-26.46446716574498,-33.09256288336205,-20.146406655764114
543,-21.42027986985021,-26.891622690942246,-33.90871629671557,-20.09803632836144
544,-20.895679506200455,-27.359782437194077,-34.649727659407205,-20.032391112438606
545,-20.244172299633213,-27.906633542881334,-35.31381184570589,-19.906956884054587
546,-19.43973358353878,-28.534446677680933,-35.89829660304312,-19.691521905963956
547,-18.607576652650327,-29.200192591054382,-36.40282895683961,-19.401471712432567
548,-17.874035181748237,-29.84339774222639,-36.83197524473421,-19.06992656554771
549,-17.20448488434238,-30.42883514546933,-37.20411863594694,-18.717755306056432
550,-16.535506532253997,-30.935340031959207,-37.538938871399274,-18.36224920158701
551,-15.873284892323847,-31.34839030254608,-37.84411539618973,-18.01347378787379
552,-15.235347549105775,-31.668681807690003,-38.11674048718706,-17.671883947413452
553,-14.6722090717406,-31.900734320892607,-38.343662932490716,-17.349253503573802
554,-14.2165487154669,-32.064693810100515,-38.50532436435372,-17.047036583485344
555,-13.743819805508403,-32.21600999916801,-38.58052484486822,-16.70883560177596
556,-13.136014926078298,-32.404133430217605,-38.555761752095094,-16.289030202496136
557,-12.496610579341672,-32.64535168379145,-38.434984173321816,-15.8383608346788
558,-11.952573521407112,-32.9201785854499,-38.23235386010464,-15.41681804358525
559,-11.471551760575268,-33.1482935834948,-37.96510669677595,-15.019033656497271
560,-10.986052568788187,-33.25495531660476,-37.649089679300545,-14.6167366645725
561,-10.438584950371613,-33.2440102009329,-37.29033529978293,-14.15545729329696
562,-9.78925600498714,-33.15896865002255,-36.88855915786926,-13.596851645395999
563,-9.128847220916157,-33.06795591037879,-36.44497192372621,-13.010164206165046
564,-8.550934747176873,-33.02100962622777,-35.958562251031736,-12.47735402199364
565,-7.9412996595273615,-32.97651605169389,-35.42041783247688,-11.977491864490844
566,-7.179363044057256,-32.86426559327248,-34.82422778979343,-11.464322804013774
567,-6.364379857054903,-32.647746100402216,-34.18102234473259,-10.93229883886777
568,-5.615304006920418,-32.31523414880306,-33.504448623677426,-10.374935962668129
569,-4.914394336683666,-31.905231766162498,-32.79092936000679,-9.772648808093122
570,-4.213264851616712,-31.46617912172016,-32.04483163063091,-9.1166018085561
571,-3.4382130677776814,-30.9822199764518,-31.265996722288065,-8.394057627289854
572,-2.6358402051985683,-30.466133596067802,-30.480641471840208,-7.651945465643912
573,-1.9892155543459027,-30.02286208859024,-29.6908684271212,-7.010364944171585
574,-1.7177205892912693,-29.69385524143359,-28.890421762819567,-6.589613932518915
575,-1.5257049015334843,-29.42757026925104,-28.030104213192867,-6.273286705587574
576,-1.0514412107484932,-29.115871701326927,-27.073545205224153,-5.8982870204947435
577,-0.48240924401031027,-28.682187822292104,-26.03060965816558,-5.4959206862149745
578,-0.10105714037162795,-28.12784473075809,-24.950841512069836,-5.135129139182306
579,0.15809930581246856,-27.42858610440605,-23.87309745471322,-4.78421501002455
580,0.42247467200199745,-26.521161053186624,-22.722818893144446,-4.4478430140047065
581,0.7307639786261952,-25.601733071119547,-21.5723569459813,-4.076980227860834
582,1.1181643599071123,-24.6949362629292,-20.41560368509556,-3.6729802499320967
583,1.4986488143556558,-23.81235425646417,-19.237327322300985,-3.2597251516245773
584,1.7709611782372876,-22.960638304340037,-18.027842393607845,-2.869817519691703
585,2.038427559142858,-22.135059424797333,-16.796596128380205,-2.512252545984326
586,2.434109700174407,-21.33306286340072,-15.560382393947533,-2.187642921201784
587,2.8946731576520808,-20.58918941467433,-14.332757341744076,-1.9127695473481294
588,3.3122028359744338,-19.93742131943399,-13.124073826201087,-1.6966885579613302
589,3.6546443756667832,-19.356075270545997,-11.934930336083381,-1.5240559400503333
590,3.9176507580315127,-18.802608625523455,-10.761064111538461,-1.3676011320102182
591,4.174772410060876,-18.256193846799032,-9.60593800784885,-1.1819917685818253
592,4.507432799145527,-17.697210621694058,-8.471298085569636,-0.9334663146985793
593,4.817250807119111,-17.088558414399294,-7.346803773761967,-0.6519196925248057
594,4.985178079341219,-16.402625788003704,-6.21819361993809,-0.38833361172017733
595,5.10809202171235,-15.645832053664712,-5.070741001587181,-0.16123560284592756
596,5.320129585147852,-14.840153735329526,-3.894731377546763,0.025922646158541597
597,5.613047834620791,-14.005442143484125,-2.6977556910562943,0.18106044807726537
598,5.9342246529262646,-13.163370048694132,-1.4948335124146894,0.3223971216810762
599,6.205878115645759,-12.331815263651068,-0.29373821713983495,0.44522959771687165
600,6.35549169537007,-11.523864632786513,0.9003687814958443,0.5401787438317548
601,6.4744099708273515,-10.762749689381044,2.0816190879557555,0.6528943269615785
602,6.675262596689044,-10.063286886195396,3.2466073309288737,0.8180179570622381
603,6.831354090923389,-9.399842692964915,4.3931937409508794,0.9489467388901451
604,6.788294284849637,-8.741870604663365,5.519819483632196,0.9504738103117367
605,6.629980049584191,-8.093668254763399,6.628328319940587,0.8557662513308574
606,6.489533558917282,-7.475183189422749,7.7186892340831585,0.740784578835549
607,6.395124273946437,-6.913988456135485,8.781326602681949,0.6601640105223254
608,6.338603936576901,-6.4312565193793,9.804475703306977,0.6487802989529656
609,6.22694966582818,-6.006546611191942,10.780976132098248,0.667442712690961
610,5.968668960178522,-5.598170694421441,11.707711379295352,0.6535748597748254
611,5.705884533304755,-5.182025811406793,12.589700700209162,0.6121062501898387
612,5.612235849517344,-4.734491145018467,13.432585161533016,0.5726319848973773
613,5.593669807086646,-4.207235235287856,14.23097910615436,0.5530973157871919
614,5.499825991320224,-3.5652207618869003,14.974764426241137,0.5666720767892809
615,5.337665635093105,-2.825830641294315,15.65502975682553,0.5965923034025632
616,5.159163669187975,-2.027268565287211,16.267061772560915,0.6183968288922772
617,5.029036028934014,-1.2123297979800571,16.813089396140924,0.6423360850021848
618,5.008585624868863,-0.4169334579131335,17.300804905366896,0.6901028273225864
619,5.0341715474910025,0.3887955042837529,17.752624207677506,0.7750161262182608
620,5.009370194957568,1.2166991773925633,18.184366837970636,0.9016233460779579
621,4.972062973933901,2.0556675522149184,18.560458632092285,1.0499351298793091
622,4.9830633896825125,2.8262446903010243,18.84555159596565,1.1883324172427367
623,4.990488490516181,3.514805116031022,19.02703147528222,1.300051767496509
624,4.93188090768503,4.2104208749520335,19.123958104734854,1.375264298804784
625,4.817681504706509,4.97290881089266,19.13863887034041,1.3974217903676431
626,4.674648358489948,5.75273202287888,19.03469630800906,1.359218002061864
627,4.545772555166142,6.5191182287548886,18.785115383231723,1.2840788019000566
628,4.463038775068044,7.22360035304032,18.404313363375348,1.2036718441893575
629,4.33160335337771,7.8730188451961745,17.918723265768474,1.1214634712601674
630,4.051714735125929,8.495228286049143,17.36897310311366,1.038099257570409
631,3.729416719358546,9.062598559254159,16.778898534612228,0.9914696006348387
632,3.504342929367674,9.543804972507859,16.160056699098863,1.0158701260890177
633,3.335267718473449,9.963087126510574,15.516465832406276,1.0922041500234685
634,3.138876910834989,10.352453830163517,14.845954424991683,1.1844262779992436
635,2.895190454854132,10.718526633485995,14.158818484516193,1.2777663807545154
636,2.602785810628755,11.051407346923392,13.465840169022867,1.3612942797892293
637,2.33130079089994,11.3096891176272,12.743961539978764,1.4207029360755974
638,2.150086436606521,11.44656063317984,11.975388737484694,1.4470357159323008
639,1.9449888589703515,11.459913432365726,11.204477935931338,1.4311174835717049
640,-14.190236251931248,-17.895774639075956,-2.6319524566823587,-14.203734332963117
641,-14.574739334862368,-18.334454270614923,-2.503198842618919,-14.585969620835437
642,-14.895704231036804,-18.789877376402053,-2.38176886131576,-14.917635377275241
643,-15.1305349714419,-19.285230047080276,-2.2618328536074523,-15.147109719585014
644,-15.277162392576374,-19.827796918984337,-2.140091157996685,-15.249910477710468
645,-15.416193423546712,-20.36873383067299,-2.009657137159577,-15.301287341060922
646,-15.62432486795006,-20.849479467497734,-1.8633855478285444,-15.387896310994988
647,-15.794709368594392,-21.23824331870659,-1.6884641503198146,-15.49926448947734
648,-15.822178560240683,-21.52420562566452,-1.4803931608744672,-15.598917562120826
649,-15.837337690455614,-21.733455414650145,-1.2591552863919921,-15.682557254536661
650,-15.982304565633312,-21.903512698751836,-1.0578944112328956,-15.74892248745096
651,-16.210143879620745,-22.031887645616933,-0.911270145414935,-15.80246302784547
652,-16.43178062314438,-22.11405300938679,-0.8484749098409987,-15.85535545451435
653,-16.57323212111775,-22.196847217515387,-0.8892379831436843,-15.900929513032228
654,-16.59267929920086,-22.322881808793998,-1.0316486469546073,-15.936597635165958
655,-16.610364511027125,-22.472385774517857,-1.236117742459022,-16.004250784491145
656,-16.758052746312995,-22.62070577553778,-1.4569406981425024,-16.139621680807764
657,-16.949002226740436,-22.782556714169854,-1.67633527702465,-16.31786424357595
658,-17.071766031326263,-22.98029871501559,-1.8936307700421733,-16.502964723126553
659,-17.19385426827151,-23.241393003183273,-2.1198478837952552,-16.6849834875934
660,-17.394596575194377,-23.573868090840392,-2.3735766858515017,-16.870218363179017
661,-17.654436308389375,-23.916065779098297,-2.665616071792265,-17.08697433201451
662,-17.9310890887405,-24.193016322869912,-3.001108129994469,-17.36576165013475
663,-18.141551914254926,-24.37869710476278,-3.387417164812448,-17.71807309360943
664,-18.221685459702734,-24.470043604211924,-3.8235246496842015,-18.126601070069526
665,-18.286021195693344,-24.477359643573735,-4.2916260383693725,-18.528035795776134
666,-18.452679673193725,-24.420838077745454,-4.771560895928474,-18.85490063104522
667,-18.599356948729138,-24.303412521061272,-5.248572608888203,-19.0745051709602
668,-18.590795826116207,-24.128029560181968,-5.718185768440431,-19.189061344420246
669,-18.508138450463488,-23.92259961326255,-6.201858652929476,-19.25204785260874
670,-18.459285052451964,-23.71482460314846,-6.723650153673205,-19.319036093361557
671,-18.459033752420115,-23.510779574379498,-7.274636452883592,-19.393585891424557
672,-18.487023522921458,-23.30031644852923,-7.839482536872261,-19.449231942367746
673,-18.438786371451435,-23.06815660445061,-8.429206327803293,-19.423351276524848
674,-18.220776865586124,-22.78582985949046,-9.05002556726208,-19.268635560352013
675,-17.936562517180352,-22.39074142985901,-9.674782776735714,-19.045041376194103
676,-17.713011776124628,-21.844936371861447,-10.271780037587401,-18.82919382311382
677,-17.494395703922756,-21.19749453202991,-10.826812783729586,-18.61219363325633
678,-17.203743128037544,-20.529593145805794,-11.332748668923001,-18.36575774193102
679,-16.864776452394807,-19.910454516864206,-11.788555586448663,-18.080917966493303
680,-16.516633855276456,-19.38352956454086,-12.198005968098164,-17.758524053747895
681,-16.2187175346548,-18.935750940999984,-12.559850825117184,-17.437654282680047
682,-16.01101121926122,-18.520224390157367,-12.87534156325014,-17.162434280521534
683,-15.770762070699334,-18.082007396156765,-13.153671783021402,-16.925397584235366
684,-15.384163393998364,-17.578673969414705,-13.405419514871433,-16.702486926837608
685,-14.989679948106495,-17.018754520701986,-13.649772984634073,-16.495415270093744
686,-14.740679263985442,-16.429249858752645,-13.894037652312738,-16.29612395260136
687,-14.568999358039317,-15.807476714387754,-14.098068542055097,-16.058204338917275
688,-14.362807578460739,-15.148146060242716,-14.22139673567944,-15.740048804008058
689,-14.066024509525246,-14.46957909446713,-14.273473625120175,-15.328239929114881
690,-13.651754591318463,-13.785457358861919,-14.279785398708242,-14.83429327087385
691,-13.213711395931682,-13.085990826162321,-14.262421250877138,-14.319426510650004
692,-12.848509854026307,-12.361184100254086,-14.234682550717755,-13.840394597338099
693,-12.439223482541799,-11.606242459422944,-14.1755199477108,-13.370302546747046
694,-11.858715766772947,-10.827964415675961,-14.055851437759971,-12.863765077943992
695,-11.206586337669695,-10.074881267783324,-13.872439540586846,-12.322765331332585
696,-10.601480142126967,-9.383438292909961,-13.632598432754483,-11.755066932077046
697,-10.018697707348442,-8.711998780625112,-13.347112410111787,-11.166513778138146
698,-9.40366123335466,-7.996737914620805,-13.027076965008552,-10.55892337633429
699,-8.675831330394072,-7.200018920584364,-12.66676173790355,-9.875145184690552
700,-7.8616688897962295,-6.370716857035385,-12.29064393224101,-9.113448425543268
701,-7.190817746550995,-5.599878563561915,-11.977329632094781,-8.45285252572575
702,-6.912098568148322,-5.014478931113052,-11.748475867595163,-8.075869721784214
703,-6.759878705527873,-4.6159940910027215,-11.560710427122018,-7.9072148148974435
704,-6.385317360829921,-4.324640145634503,-11.333750176470309,-7.785893347037282
705,-5.908028466229821,-4.045312273313758,-11.030707545872605,-7.647906322345498
706,-5.540763648713204,-3.6942113121899776,-10.65837151829053,-7.469399563090711
707,-5.262729237279165,-3.250633950167432,-10.279355394342788,-7.26424544690978
708,-5.047147672467894,-2.585667837831891,-10.247508023474808,-6.981592234200584
709,-4.817046967046658,-1.9355176777143157,-10.272625881438316,-6.707860899337583
710,-4.511019661411303,-1.3629088719078977,-10.343906052941335,-6.415402319087213
711,-4.218367080266303,-0.8772779226471162,-10.44764586322727,-6.1169206981435895
712,-4.035986222584866,-0.4529789306121784,-10.5719702206593,-5.827931199194845
713,-3.819989732528087,-0.07038746015375517,-10.718179601132507,-5.5178724696155745
714,-3.3981215132163487,0.2974856245508962,-10.884055106929813,-5.152825831701433
715,-2.8182812276855542,0.7033219148528682,-11.070056145847262,-4.742297061739396
716,-2.1997130136128304,1.1792294212425407,-11.228744810386246,-4.3093939527941485
717,-1.6344769165026078,1.695038364895445,-11.266725715102647,-3.8649833156203366
718,-1.1939504841248016,2.188710805803859,-11.04824916600283,-3.4196900627819895
719,-0.8264367767116831,2.580245586404837,-10.517963868396246,-2.98316043119286
720,-0.4367108953430386,2.8110009972064707,-9.758192584060364,-2.5592808121484616
721,-0.07165630623481065,2.914663390800015,-8.864815219295904,-2.1583101638273554
722,0.20623416626311833,2.9670807085488553,-7.950230841540121,-1.7826076616581283
723,0.5050452501025906,3.0149663429785507,-7.052912905213127,-1.396526081532882
724,0.9376216867879898,3.089388305768325,-6.165778505037083,-0.9621571996351558
725,1.4475707943063227,3.213457929343265,-5.302940488024886,-0.48711726577910236
726,1.9346068627206143,3.388355137956599,-4.471658330567318,0.0037013971682281765
727,2.3259326006397165,3.5807993758304617,-3.6470682426401884,0.49462943656648956
728,2.5790980398940224,3.7558840963285656,-2.810659473784137,0.9680746567351354
729,2.8070370853240743,3.933033111146611,-1.977422432119589,1.417175746232898
730,3.1388176370167797,4.138758697984942,-1.1771305774464838,1.8355947042899354
731,3.4398901028887887,4.3358574065107955,-0.4489862132410455,2.1715001987162843
732,3.539095855115261,4.475144539727574,0.17750286686215005,2.3822641763135963
733,3.5380705206242378,4.556031001019386,0.722908111328703,2.5211404025989257
734,3.589108567924983,4.590817613536418,1.2269610785912897,2.662278312899613
735,3.6900701273797063,4.570529526047788,1.7039738081432263,2.812363597881311
736,3.795410002217194,4.495136452229168,2.1605761001378236,2.954953938234656
737,3.8208715901288257,4.395086633644538,2.60806391794204,3.078192271658427
738,3.6945141110769595,4.308494617765672,3.05575782315075,3.169312405218913
739,3.546345727865263,4.270177353168174,3.5133675401526054,3.2427239109024963
740,3.5397600228314623,4.30176562267092,3.9907606616225815,3.321175519907364
741,3.60607805692745,4.385853461154927,4.499192298655733,3.3911856866903314
742,3.621210325189022,4.488196240329154,5.04090305108682,3.434097311447715
743,3.593476721723893,4.595699099804668,5.594020070964277,3.467457426178554
744,3.5580354146090274,4.69994753907439,6.130051842405755,3.5120821596662957
745,3.539714987610134,4.775971900946005,6.629348668219945,3.564556751586408
746,3.5621590228031095,4.803356550963519,7.086166354173953,3.6169557820370444
747,3.550234037720166,4.78817320061207,7.524961878257091,3.652415662599871
748,3.4289779197611794,4.745000343591646,7.978918281225519,3.6661592515454187
749,3.3236940435589886,4.6746260799015555,8.457065922844096,3.7204732741526203
750,3.385603545138137,4.58136095499715,8.955805540300467,3.882453288851812
751,3.5538206392619967,4.487463406922201,9.466032515089548,4.138313008545324
752,3.7190619671637695,4.416745326016441,9.971799303609128,4.441116160857411
753,3.8881136457561114,4.393443305367637,10.47066027448747,4.755868817824907
754,4.08712232852066,4.425108783170428,10.957011946785894,5.050711363021706
755,4.3294189950316975,4.464483379923785,11.380968347282195,5.313283954806839
756,4.620281569215569,4.453664262279592,11.696459721196918,5.5487604439070175
757,4.865314859235527,4.383569113099633,11.925504248173711,5.751175362866204
758,4.969022443058256,4.2693542595482095,12.112535899919626,5.920469715283371
759,5.018865793303985,4.130853378963715,12.278221064624292,6.095056604456866
760,5.134157936376215,3.9957896975205,12.432220601013805,6.3058712278707985
761,5.278042447667812,3.878749924699531,12.56903904539217,6.529708650058642
762,5.3748859814332866,3.7879170810098897,12.67180453589519,6.720742442778428
763,5.392203723795268,3.7547118250696356,12.732448153583007,6.817249710857083
764,5.315049492195295,3.7980214383145627,12.74451709769645,6.7771696527438925
765,5.216894213355984,3.877987644296567,12.696890975497825,6.661098743426148
766,5.180395282490774,3.9364545439223058,12.576688126492662,6.553900676591379
767,5.102598943887409,3.934192463415455,12.363219886696907,6.44984070487911
768,-12.926845050700043,-14.360518548600854,-20.264283037886752,-13.436549416401666
769,-13.422266979195335,-14.829410423017356,-20.940180592818344,-13.770213519643415
770,-13.911729664848128,-15.266156148018652,-21.614202920279926,-14.065787018600982
771,-14.391940471344796,-15.634584705663318,-22.288503830184084,-14.35601965809189
772,-14.876514257709555,-15.908136904132814,-22.98557497924846,-14.680382277514928
773,-15.450706040709214,-16.09235206003486,-23.717893867433393,-15.060739986757508
774,-16.176265060579272,-16.225341977179433,-24.47223460155624,-15.504412962091317
775,-16.894009128388316,-16.41064780072389,-25.225876756267656,-15.989501430709918
776,-17.43579826539975,-16.733849237303186,-25.961169757482725,-16.484520659462603
777,-17.87679697000529,-17.15415806750401,-26.664095729115154,-16.985471639531404
778,-18.33412251207687,-17.590631584960512,-27.317407634273366,-17.492026447030785
779,-18.801158215258166,-18.001977881137766,-27.90730399389231,-17.974955979957553
780,-19.247476457283554,-18.362555146717753,-28.444724808761382,-18.412459695475967
781,-19.62948227503648,-18.676358514517503,-28.959769610541112,-18.824423358152895
782,-19.907229728329344,-18.961376398387596,-29.4658591121769,-19.23678124136425
783,-20.15968879195177,-19.197363223595357,-29.953177682053255,-19.655022604708826
784,-20.465871579284844,-19.366100379690174,-30.421210643406486,-20.071692619674124
785,-20.714699461798673,-19.503914350401065,-30.878212973360437,-20.46339693190167
786,-20.79696105347939,-19.650613754327384,-31.330892506235184,-20.802673799976155
787,-20.815829166328815,-19.802569440644746,-31.768936681257873,-21.070831724730883
788,-20.894055893530936,-19.948244195333736,-32.166951370925844,-21.261682846129467
789,-21.032170966233988,-20.09178123737562,-32.5082959329923,-21.400469711910493
790,-21.190569177013877,-20.239437687428527,-32.76690932678305,-21.510430822849152
791,-21.26195451794587,-20.399595227860686,-32.91050777663715,-21.558970431599366
792,-21.163803613600276,-20.580331627818246,-32.94725096556362,-21.51057098705607
793,-21.049060244212818,-20.77947698297735,-32.91099199642124,-21.38762516680636
794,-21.083086765910327,-20.98844047983344,-32.84277541974064,-21.22110942419201
795,-21.157487456828168,-21.196682955038437,-32.750277748616995,-21.015596683490532
796,-21.131466652985605,-21.39158236014079,-32.63398829962031,-20.773765693610923
797,-21.0482189999474,-21.560236474690228,-32.49133316449731,-20.48595260874083
798,-20.979622417945038,-21.69082478903963,-32.334145467412164,-20.15659297886983
799,-20.965512087470163,-21.770975653262653,-32.16828576726219,-19.865659396159963
800,-21.023652116278093,-21.787402498633675,-31.998468605863327,-19.68646548232148
801,-21.04587659433621,-21.738478517370677,-31.81694361430325,-19.590659796669375
802,-20.92548794509541,-21.609134390197898,-31.610654985139917,-19.518122409361734
803,-20.767939370308856,-21.40367183258673,-31.374839053753,-19.434099804941347
804,-20.693675641592897,-21.108236651603924,-31.10575268604569,-19.31321296678182
805,-20.622630541917875,-20.760612379015384,-30.787936801178915,-19.15071138238436
806,-20.452998814277546,-20.469764747232773,-30.41776690448195,-18.959737437178447
807,-20.187491285304773,-20.261455517095722,-30.00698766515663,-18.74565405266372
808,-19.859540230730772,-20.1262194710497,-29.582569473659778,-18.515578256496166
809,-19.55617652988788,-19.993506352837336,-29.172098305799818,-18.299274459373645
810,-19.352359157675163,-19.78429348278761,-28.776311518450598,-18.115976346853973
811,-19.14699210959956,-19.49421271779166,-28.373311454411027,-17.934149356549057
812,-18.830410045856375,-19.15273304693391,-27.949130951249618,-17.716894949422368
813,-18.506197814840398,-18.78731103448332,-27.495940561477596,-17.46862304806587
814,-18.290279518643995,-18.420222756629627,-27.009543771592636,-17.203537290929876
815,-18.12790692668115,-18.043751928131385,-26.471664069850906,-16.926371455677746
816,-17.932809097186993,-17.62919149378969,-25.866253343403244,-16.63988641214636
817,-17.644780745888514,-17.150378810914656,-25.198314013413707,-16.329466125825103
818,-17.231646464070554,-16.587221678637867,-24.47735651438386,-15.980216639725255
819,-16.799129812002327,-15.918724020778642,-23.699463256149564,-15.613966790258202
820,-16.45289010000483,-15.152755698529356,-22.866118113288834,-15.246389512935677
821,-16.074026301691948,-14.36366234214965,-21.977915883830814,-14.838500548919365
822,-15.524484209837292,-13.627520309860335,-21.049929372780195,-14.33943173974497
823,-14.881032114505311,-12.96160627536532,-20.08305524912194,-13.722454120020387
824,-14.236806987320868,-12.343928639786299,-19.07127286959414,-12.97286431964319
825,-13.545038085595534,-11.713032656603657,-17.9914539980826,-12.091853894856675
826,-12.741540223696187,-11.003026829220321,-16.822108468408977,-11.096147990503633
827,-11.76946446471664,-10.202995684664078,-15.566833144610465,-9.996549800374426
828,-10.682583605495248,-9.37577834938587,-14.281034718125142,-8.867406547939371
829,-9.713295430362152,-8.626559992753121,-13.076747278623653,-7.8401227095343975
830,-9.110168917891277,-8.023235023373786,-12.026674818870573,-7.050190710355496
831,-8.617015780893519,-7.603847039904188,-11.115541967151007,-6.425711999885809
832,-7.904228071092505,-7.39153097214873,-10.271646048582145,-5.8325557070384
833,-7.148657171224274,-7.322373897447375,-9.413312227916558,-5.275348298659424
834,-6.6091717193959685,-7.274453534370559,-8.531916843545414,-4.789597549721025
835,-6.256689826930862,-7.175203878738337,-7.667945555391796,-4.361256359165383
836,-6.05521757826752,-6.897176962020879,-6.75790772278396,-3.953475821786437
837,-5.859034393225304,-6.63070350741615,-5.877359361335895,-3.591707442492375
838,-5.5577173663684984,-6.427033132483478,-5.031894682876744,-3.253342987461977
839,-5.228584642148655,-6.259546657774984,-4.220365563815116,-2.922999188464354
840,-4.981719359239383,-6.068514384520375,-3.4354248930116777,-2.582290249412684
841,-4.720033336992415,-5.819992737383993,-2.6703614216244946,-2.194082772025137
842,-4.32265860164267,-5.499396136129196,-1.9261318694792415,-1.7340765813721308
843,-3.8456038917129365,-5.132316027257467,-1.2189566194285362,-1.2328232343132932
844,-3.3843524759728276,-4.762317914945337,-0.570445074739218,-0.7372746220881836
845,-2.981435485070143,-4.393766331592386,0.003208749682865124,-0.26231569560700596
846,-2.656730597882063,-4.021333539334354,0.49650033632829976,0.1858722462925435
847,-2.346987877343351,-3.6723145359486136,0.9229697480610041,0.5946858751868952
848,-1.973435553918984,-3.369137396334352,1.306361510341489,0.9539987011266734
849,-1.6115590700034708,-3.0991308533230244,1.6708583622680369,1.2445782495441975
850,-1.3564906567329413,-2.832289747066237,2.0335473986842874,1.4557608547852001
851,-1.117414500592618,-2.528554210339279,2.3903276702674074,1.6163580134020648
852,-0.7825241180397899,-2.1539340925888553,2.728602259955558,1.7685878873682581
853,-0.3962786875960091,-1.698599933120343,3.045172656599882,1.943143491469624
854,-0.03965588503422614,-1.1822995790401445,3.342898134805193,2.1577767592652792
855,0.23132126281407603,-0.6693030309678144,3.631715337035847,2.3994198344223836
856,0.38725056808781533,-0.21027871765699924,3.924197862684879,2.642861791595076
857,0.5443552966465609,0.12952928481669285,4.223696289186371,2.891188519044287
858,0.8327959841097353,0.3645647063993988,4.528194935749126,3.1528461851379994
859,1.1386419724039238,0.5813169306860618,4.837265977160514,3.4065001618274042
860,1.3093179700348279,0.8186772614990607,5.148356342360545,3.6318120799613522
861,1.4286057940371217,1.058920340069259,5.452293893381662,3.8421980983770054
862,1.6234336457778922,1.2512046494223132,5.740687655197955,4.057525255454276
863,1.8902799835139887,1.3760005448150356,6.014412040363761,4.283318869387942
864,2.1860646198795273,1.4334922996233312,6.275304402903907,4.517029551282579
865,2.4248538977347236,1.4475940406264078,6.520836749737004,4.735102047249019
866,2.5203904049794676,1.4513997861001182,6.743600063280872,4.910762276480357
867,2.5574671042048807,1.455802125586184,6.923454527238904,5.060913761418118
868,2.6492615879342347,1.4548557611683992,7.043689714175065,5.206433610260157
869,2.6854167734029977,1.4274238047533827,7.111249470949525,5.309896996279117
870,2.537248661655072,1.3537281612909626,7.14776129470904,5.332437426574549
871,2.3037986962518637,1.2407279821754122,7.1843579437643585,5.28871827676716
872,2.1324928365190274,1.1122961055923817,7.249200992437859,5.216737981732841
873,2.084991627011694,1.0081278137985663,7.346151895637305,5.178431980411668
874,2.173635099596404,0.9605535994510364,7.462361240283488,5.224458283956662
875,2.283219182104493,0.9491895306139695,7.579011903472095,5.312511895870813
876,2.277149157426064,0.9374341656962759,7.673937263018525,5.373982772627504
877,2.2293372453409797,0.9208694646336132,7.73179376416686,5.411634330921809
878,2.2592218352255884,0.9085878922376749,7.744713156971848,5.445762861648885
879,2.3028220430166355,0.9131707428930472,7.70312854722261,5.467959745880467
880,2.267740784828838,0.9496702602642535,7.6044077887245365,5.467455592628317
881,2.1649060397143285,1.020031077017138,7.4707454361193575,5.422984537870169
882,2.0285667212514773,1.116554592054901,7.319989866055934,5.317617347437077
883,1.9279149653629362,1.2309874041172573,7.155880365712383,5.1909913270202175
884,1.9183128908585978,1.3536681169866778,6.964690452493373,5.089661767421604
885,1.8661283125783987,1.4735513096153665,6.723383186888707,4.989167726421505
886,1.6224526239554824,1.5838145734549176,6.4396830908559926,4.847183341471702
887,1.308769604692624,1.6853865801198633,6.156135299984165,4.671837341213793
888,1.0996113430769237,1.7791758804514668,5.894306666530418,4.47872042725502
889,0.9612624074772295,1.8662248999545865,5.642581787290464,4.2445143756458545
890,0.8176958104385499,1.9362787916392654,5.383691148184407,3.9516792488374866
891,0.6664718124654234,1.9474820682156342,5.1226351550421585,3.629655028746911
892,0.5230604774193248,1.8616649481519336,4.887187211931637,3.320654288947142
893,0.48335521636792367,1.66995717609297,4.698643048527246,3.0549113085645687
894,0.6334586450628066,1.398660712884261,4.553321571683274,2.8514253788903416
895,0.8321675689332697,1.1508678577107283,4.435763692947337,2.6997525772416
896,-11.840834104398857,-15.711563352213771,-14.984174323696102,-11.392259578328702
897,-12.216766306124436,-16.265837836640387,-15.426527517822318,-11.669605889724624
898,-12.559538945577351,-16.750482519628015,-15.915101439715475,-11.917565339843128
899,-12.873226048479072,-17.12697197949977,-16.418722583034743,-12.12231232897536
900,-13.146544669225191,-17.415947312683706,-16.88194507334709,-12.277244992755241
901,-13.341895806075682,-17.68097397003031,-17.273781970760123,-12.407541140946151
902,-13.41423604567624,-17.95798786007213,-17.602236045504643,-12.54094749676972
903,-13.296721750752905,-18.240537611297924,-17.902689536934464,-12.66769569015848
904,-12.967552636205824,-18.51477034188838,-18.20783328161802,-12.77446396425393
905,-12.550364120969537,-18.772904930014604,-18.51933444796924,-12.870672449229247
906,-12.191258798724627,-19.01424210886121,-18.80563642929864,-12.972669141232979
907,-11.932216659823517,-19.247799338423164,-19.04787812042802,-13.112408291746348
908,-11.771993090481844,-19.48732837360832,-19.252248080281944,-13.313271865519438
909,-11.676347936486245,-19.74011300343356,-19.431952315799727,-13.537608008992173
910,-11.602613760576347,-20.010295536881518,-19.59972554889178,-13.745722220043316
911,-11.61212547333395,-20.29947772276199,-19.767135579937733,-13.971897610319203
912,-11.754060923861767,-20.60903260143162,-19.938910218003098,-14.259206269313788
913,-11.881516455711953,-20.94415214546328,-20.112454256767894,-14.597084750183685
914,-11.853563392095012,-21.30379706875903,-20.28378466952402,-14.966871200241433
915,-11.746554022018868,-21.699978053141955,-20.455220777836804,-15.363285757024775
916,-11.677510717538382,-22.116722101359635,-20.62817587795326,-15.77952899383258
917,-11.686706391582007,-22.51402149246064,-20.800868652751777,-16.232663180544623
918,-11.7775661757234,-22.850458972134035,-20.963982847717254,-16.725195904861526
919,-11.849140698099225,-23.114012171190673,-21.090554504071765,-17.1698807603516
920,-11.80437419328056,-23.31242720076301,-21.156339206790058,-17.486918261329134
921,-11.755206279844579,-23.469139064039073,-21.157816591121765,-17.7112192519541
922,-11.830405696308702,-23.610373749196484,-21.107958371920034,-17.908513960750323
923,-11.949551679409751,-23.747465117623207,-21.041607335700927,-18.11517218991274
924,-12.007346818275453,-23.876724505132053,-20.989966088448494,-18.347687943121382
925,-12.020613447442141,-23.97737768990583,-20.964745313186047,-18.56897551585204
926,-12.026439669529383,-24.029915239059516,-20.955257657640455,-18.727123227299
927,-12.061289146068018,-24.01722678340417,-20.945989965918812,-18.825675419137337
928,-12.145601015004486,-23.94860803299521,-20.930995970448137,-18.875346735260138
929,-12.184469393041953,-23.837375800419384,-20.913819511169567,-18.848706908230895
930,-12.078797517896124,-23.69908994527572,-20.881564281199527,-18.71831796414257
931,-11.893069926623031,-23.537097952197076,-20.798923134057222,-18.46981387657315
932,-11.709822915042155,-23.34205142978744,-20.64640372586264,-18.10941362271299
933,-11.472909030141963,-23.102166924238627,-20.492429096072744,-17.69245437159589
934,-11.12418898666956,-22.795711875720627,-20.591455082150457,-17.28562297682391
935,-10.698953680216208,-22.40457025846396,-21.224800802586405,-16.917308617814975
936,-10.254785157286927,-21.920447732849137,-22.3812332525431,-16.594638824207465
937,-9.877953913813451,-21.378809995821964,-23.791585508145126,-16.32889246569186
938,-9.626752226517484,-20.863163782648765,-25.164466018714133,-16.111566090541857
939,-9.392203259364742,-20.430535879957993,-26.316641864711613,-15.88021731204272
940,-9.053775123103014,-20.06199211751888,-27.177907979933927,-15.584280169009912
941,-8.685067272410343,-19.679367645914112,-27.718735327619136,-15.25854261025953
942,-8.38200822599172,-19.194508524607993,-27.921494893344292,-14.953440883153617
943,-8.104375326159383,-18.54510781151298,-27.801921919419662,-14.679628980430705
944,-7.794418583563538,-17.754980308637098,-27.41178402969223,-14.423717331775165
945,-7.426574330666834,-16.945237660807855,-26.807833182127155,-14.12969609585095
946,-6.997180107318854,-16.24716997349022,-26.047184027714973,-13.742916761490854
947,-6.5991384351102305,-15.67606913964591,-25.164014498907775,-13.281030342353889
948,-6.321200413859458,-15.132541258992106,-24.173697587056115,-12.787599628708755
949,-6.083110489790161,-14.519652292637222,-23.081173039435726,-12.281379801746517
950,-5.784211473631254,-13.809008990618402,-21.885113146219503,-11.779608705919427
951,-5.47192508368114,-13.042772903270752,-20.566190953996475,-11.308268051286964
952,-5.204674832266965,-12.293487030530072,-19.11877189211213,-10.87872831082111
953,-4.950033052167694,-11.589121029088739,-17.555777302667547,-10.484267624973809
954,-4.666211429092276,-10.886745742343509,-15.888862285687889,-10.10727619015885
955,-4.301460242091611,-10.120652649184219,-14.136571377108488,-9.701501196307312
956,-3.927427148772853,-9.326431095998702,-12.38148869753341,-9.302319846143076
957,-3.7623165240775207,-8.66151727996933,-10.765341033900784,-9.0297652597532
958,-4.038358200444759,-8.22741695726039,-9.364505672220435,-9.031156751175413
959,-4.452042724214133,-8.005537380491225,-8.142954280477397,-9.224025738201487
960,-4.614886622731834,-7.912086832686428,-7.0217630429226645,-9.452772271872528
961,-4.668488365855486,-7.866976467518573,-5.92065077831787,-9.696852391271163
962,-4.85723243181587,-7.804321739545877,-4.803004191505904,-9.958153921060845
963,-5.139292608336224,-7.688423282590167,-3.6613781937435848,-10.177668478774528
964,-5.297857547792131,-7.29699926269396,-2.184654318401163,-9.943993388201378
965,-5.397439830332505,-6.889549037474893,-0.739869589500477,-9.635454101265674
966,-5.357654254498574,-6.487008208109698,0.6686452626553804,-9.250599067873068
967,-5.269228314814323,-6.101095790229831,2.0320483842260515,-8.871157711116492
968,-5.254188169349625,-5.726601781151506,3.354431243486624,-8.579738999912474
969,-5.225970349910762,-5.334405400632957,4.657707196880547,-8.341139164912706
970,-5.06844423469342,-4.894391366236535,5.958211628717319,-8.082600283568066
971,-4.854343818960481,-4.402540581591859,7.25913213239048,-7.778313084936576
972,-4.68606058234849,-3.875650678628401,8.564131600265524,-7.4195893081788125
973,-4.563168356310711,-3.3506442351663557,9.885534957035627,-7.018297858075135
974,-4.456008500825137,-2.8694143693669214,11.238307352773186,-6.5990905623051805
975,-4.295264782821002,-2.4488714090031354,12.611477160018916,-6.149277537066768
976,-4.016538401882827,-2.0879592208083144,13.960661336965002,-5.6487785278869085
977,-3.720880631551737,-1.786687261183012,15.243873348258601,-5.130512231392954
978,-3.5287208349170855,-1.5312045474174254,16.459519582569712,-4.629224142115367
979,-3.337988751223247,-1.277363933295441,17.64217914441336,-4.111079379077661
980,-3.0182514529444213,-0.982984803487032,18.823263951097193,-3.5390895369907103
981,-2.6264296065488106,-0.6342879818498948,20.00200195703051,-2.943186191562201
982,-2.2727574651938385,-0.25018588583214146,21.144533135538207,-2.376696752338561
983,-2.0543715519361143,0.13185186623619466,22.209933420470087,-1.8880243190011812
984,-2.0384393680196915,0.4563500855549447,23.178749885977147,-1.5164183721867903
985,-2.118735236137995,0.6880716757240203,24.055841418664862,-1.2578804902373069
986,-2.149101517685543,0.8427531288647073,24.849046620795786,-1.086025217933606
987,-2.200020069942142,0.9670424705194844,25.559256314782605,-0.9989688323291946
988,-2.377196575327028,1.094115809972203,26.190226553322226,-0.993252786381195
989,-2.577924540219572,1.250158997745082,26.760328157682913,-1.0280985555795341
990,-2.6782144283055165,1.4422787998192268,27.29298306368113,-1.0624354220175896
991,-2.7080369313252426,1.6642482139516446,27.7961415889677,-1.0903565551341332
992,-2.73582629534185,1.9001969287982106,28.258126319466797,-1.1153546568876456
993,-2.830559524621005,2.13822964917107,28.666216210466562,-1.1404919847656905
994,-3.0411973897635103,2.360532146767736,29.031303427121067,-1.1606406744356916
995,-3.253522698968188,2.5458082827075494,29.38596240302169,-1.125580372955309
996,-3.3373818286455044,2.6636378776091836,29.7446357393548,-0.988171099454545
997,-3.4013105179775907,2.712855012160521,30.09780609163716,-0.7718911899280985
998,-3.5980793240121836,2.706509896285084,30.420857581536524,-0.5298806649614196
999,-3.902641861707372,2.6699135301389783,30.69421946213975,-0.31169372271935236
1000,-4.235272217734021,2.625559006644182,30.90746476762142,-0.15389300080206247
1001,-4.520907586606834,2.592653680898465,31.072195548140556,-0.041310505963158495
1002,-4.69576854191482,2.571245147393486,31.20973303800239,0.06620921549555958
1003,-4.821304017960183,2.5423140481754714,31.333825975322068,0.1809350383007291
1004,-4.985091527856338,2.5093748477888056,31.450954015917894,0.30784424649152115
1005,-5.1233068680947484,2.5001108331951998,31.552438520343166,0.4734785277577558
1006,-5.139528864331408,2.545184844560088,31.632825412611556,0.6951548288287612
1007,-5.037744384364418,2.6318280097064,31.685214841560573,0.9462097988439637
1008,-4.851947521272309,2.729215213916323,31.721442203454917,1.1919479850152084
1009,-4.605109872146376,2.817202630013403,31.773468651952005,1.431907327616607
1010,-4.32567498407139,2.881407282284964,31.842697159317296,1.674081076414641
1011,-4.029846031175843,2.9124766185449973,31.882361408484755,1.9131402397017876
1012,-3.719673024139128,2.9166996574166806,31.845807334603393,2.141369278326363
1013,-3.39419398355533,2.922375965488891,31.72020052616558,2.3432726188821107
1014,-3.0499873848190306,2.9590927232836646,31.518435074249354,2.505165962934763
1015,-2.686135548769836,3.042662171782508,31.26220683625031,2.6414834680104002
1016,-2.302558622841768,3.1594959378465517,30.98135434841025,2.7705684848473227
1017,-1.898866790080756,3.279737686687837,30.71543281322639,2.884363286452145
1018,-1.4761957382324642,3.3505914507228027,30.479864180580165,2.965550823510437
1019,-1.03082118074009,3.321864437720647,30.251758601325736,2.994988283515543
1020,-0.5750827347026264,3.1999840158824244,29.977150540594504,2.958560424361492
1021,-0.15202508726649697,3.040428423720032,29.61915281632468,2.8749456363363732
1022,0.180165633229692,2.8790465034649926,29.17736928708198,2.7694882644158834
1023,0.33061416143281863,2.711909678664588,28.681848321760086,2.63143671373124
1024,-13.53708035107935,-17.077736257247913,-8.688603813997329,-14.46012984577871
1025,-14.205373555776067,-17.47047069411672,-9.034708878215033,-14.929878797476507
1026,-14.833475901289527,-17.953636787450478,-9.377463991768577,-15.39775634099676
1027,-15.383029346255384,-18.469778426559923,-9.736266147607244,-15.882632055223468
1028,-15.857143253863425,-18.95771417319512,-10.135664126835595,-16.40833846228975
1029,-16.368170826113886,-19.414212903345632,-10.59325454963229,-17.007035270143394
1030,-17.007701695861222,-19.855898341238618,-11.108414403269373,-17.68611373956761
1031,-17.59733663959882,-20.27843717797773,-11.635139975090414,-18.367270032869694
1032,-17.943076442174537,-20.679286724239734,-12.122274544745126,-18.958739788928703
1033,-18.130375000856137,-21.06279713010932,-12.560857164448182,-19.438300553142877
1034,-18.294331887696192,-21.43408326162203,-12.960465604635992,-19.80808570426792
1035,-18.446480558749105,-21.809583061624558,-13.334450837714751,-20.06694452765898
1036,-18.569859844600245,-22.20004750934915,-13.69761635521669,-20.224920055361608
1037,-18.599588561582877,-22.58782816819585,-14.047774211355081,-20.27824453496559
1038,-18.4792165483031,-22.945876295672804,-14.37553436924576,-20.233128664548335
1039,-18.325542286599923,-23.25858120557146,-14.684488118144083,-20.167472206514233
1040,-18.2674123593632,-23.51819089191477,-14.978336918161423,-20.151260656575275
1041,-18.224233824002038,-23.715234680386008,-15.244028883400162,-20.142539391655433
1042,-18.10102047618898,-23.8568391197387,-15.474820898287241,-20.08610080433083
1043,-17.980881479759667,-23.994867966005963,-15.694002656240958,-20.013081489152324
1044,-17.95879676642628,-24.175479680998293,-15.929213022174396,-19.96601873087763
1045,-18.036777330077648,-24.3834547255376,-16.190067626664913,-19.950608397799225
1046,-18.18469512225557,-24.58374316853828,-16.477208849130434,-19.95938272910158
1047,-18.301937262195263,-24.753199171959523,-16.782757307276455,-19.95853841435815
1048,-18.300661069026642,-24.87648220154366,-17.093624837873048,-19.909384003408313
1049,-18.2945589399294,-24.96403436429138,-17.406613462329,-19.820847451354922
1050,-18.403141672725187,-25.03361545741291,-17.7190178776478,-19.70924833008599
1051,-18.491554502614306,-25.074557576150386,-18.009926279090028,-19.54104062540488
1052,-18.41581978299424,-25.072435433442973,-18.263660480071263,-19.29148170639314
1053,-18.251736386733267,-25.038345664324968,-18.49698618245652,-19.000777541698227
1054,-18.115206617321594,-24.983001735922752,-18.729747202337975,-18.718462299198304
1055,-18.076475854887104,-24.891727979252533,-18.959778442341996,-18.46678847320799
1056,-18.166094209372453,-24.749165698974984,-19.177057013184005,-18.24854759969796
1057,-18.251907408665655,-24.56410984100213,-19.366220525970295,-18.02824976089983
1058,-18.19920041047522,-24.34704075276407,-19.516915619965925,-17.76550328463785
1059,-18.13108291262916,-24.08794640777064,-19.64454960088379,-17.46873347870999
1060,-18.193822622089694,-23.77919548268853,-19.773724619609787,-17.160027447498866
1061,-18.302166410463716,-23.434110602252453,-19.918644382136776,-16.840961699170762
1062,-18.343754799993818,-23.071181776484725,-20.088460163173316,-16.515414579803597
1063,-18.31709169284434,-22.70446033379517,-20.288403326018912,-16.188319421721648
1064,-18.247108535765136,-22.342803965805828,-20.515079690211035,-15.869362768781782
1065,-18.216706825409165,-21.985881831983388,-20.757179636948113,-15.605431308387507
1066,-18.284739435450398,-21.625570105022287,-20.997831797384254,-15.426129161097412
1067,-18.297171073314654,-21.244820926743134,-21.215969856925497,-15.275068704546902
1068,-18.089374433313214,-20.83017057247654,-21.39067791977324,-15.073412304273136
1069,-17.737889190115638,-20.389797364855077,-21.508140733041678,-14.781893745242408
1070,-17.36075614970911,-19.93533414282136,-21.561422313504885,-14.380747484886438
1071,-16.94307360104561,-19.460214269403124,-21.541537095267664,-13.862231495206018
1072,-16.455325358173045,-18.94961035238754,-21.450073762246046,-13.243548965608168
1073,-15.890607685654198,-18.395623421800178,-21.321857458594295,-12.563557567865715
1074,-15.252708429609658,-17.78448734911451,-21.18863302748106,-11.86276829821908
1075,-14.637187944987982,-17.077034565684116,-21.03765953960701,-11.177634370142414
1076,-14.131072865692719,-16.25108802494408,-20.845771609464013,-10.52427059938504
1077,-13.63937612879556,-15.338534122352481,-20.606030634804842,-9.863101390551117
1078,-13.054503821068163,-14.392520503401192,-20.319105959875916,-9.152766637535851
1079,-12.458989649891,-13.478657365633126,-20.00277803716532,-8.419927160921661
1080,-11.94200915294778,-12.63750885686459,-19.67492936501335,-7.7014657361064565
1081,-11.441132127824847,-11.815129131174633,-19.32136786256341,-6.993065858983536
1082,-10.866670283750212,-10.938889015491684,-18.921928795066336,-6.275972646835409
1083,-10.148593455213087,-10.006544912167461,-18.479314715832064,-5.519908904841513
1084,-9.337471739785851,-9.102444395783333,-17.976037097338796,-4.732382373037613
1085,-8.593102641829535,-8.285890770494676,-17.39648527577535,-3.9651751583639183
1086,-8.110272001471637,-7.641182077050558,-16.721120223924547,-3.2936137710407802
1087,-7.635476055379496,-7.092022647105281,-15.983371379848423,-2.6957376108570563
1088,-6.857435155936652,-6.5199577301603275,-15.243156304190451,-2.124157181134054
1089,-5.954999703889151,-5.9654717145503495,-14.545339489170123,-1.5952833724872901
1090,-5.200477578538532,-5.495673790787847,-13.918261854382527,-1.1421179454982624
1091,-4.587981119782808,-5.0731269801465375,-13.366843451593914,-0.7949870005601121
1092,-4.375387673760985,-4.608788931799146,-12.958837795402479,-0.7540518935029175
1093,-4.181375674610403,-4.139584301072271,-12.626046916900254,-0.7960382498249681
1094,-3.950297037341148,-3.6622995291631604,-12.372649622473048,-0.864556843265412
1095,-3.7657663902363883,-3.1890552298621864,-12.167407465411351,-0.9492638625931629
1096,-3.7180770664811322,-2.7408225184542188,-11.966229590938267,-1.0404715322766536
1097,-3.6726998730786984,-2.329994126768323,-11.738977009786636,-1.065040407193652
1098,-3.4702045388050515,-1.9665466026808798,-11.468820568495605,-0.961397140199575
1099,-3.157391928786428,-1.6721118857147057,-11.154636359250642,-0.7587473131194192
1100,-2.845690885401099,-1.4579467812305664,-10.811911816263047,-0.5247415073279706
1101,-2.622321562879572,-1.3007658583068904,-10.472720393947817,-0.3270818516297397
1102,-2.548883280530678,-1.1628506065008561,-10.167502130182369,-0.2208531824684972
1103,-2.547789272777935,-1.008861683420233,-9.898002868486161,-0.20309737073147108
1104,-2.501234343243988,-0.8133638499021285,-9.652446445024317,-0.23634596631332833
1105,-2.4576112007771003,-0.5791471436898407,-9.42705341083866,-0.30151294706864545
1106,-2.4915571134937466,-0.32649648993318664,-9.215717345038621,-0.3790266749660097
1107,-2.5104456090107137,-0.06989572161715894,-9.005380393347938,-0.42105995126476253
1108,-2.4084646757000607,0.1779911730956565,-8.780761675241031,-0.393922402239952
1109,-2.2189081209139996,0.39590103896576323,-8.521758459548991,-0.3191063929552674
1110,-2.007181833935594,0.575605494693231,-8.211180431906458,-0.2355444088714636
1111,-1.8146692582815744,0.7479610288897013,-7.845612645402873,-0.1760954478617211
1112,-1.6633711865358485,0.9545270153814316,-7.43205135707591,-0.1541059680442732
1113,-1.4669690644981388,1.2162420051743132,-6.985270810059317,-0.11598450286795198
1114,-1.1303665772032572,1.539034138487036,-6.524384367715996,0.0017230495971425897
1115,-0.7483633858096359,1.9106934706929417,-6.063980468559925,0.18686910152611222
1116,-0.4481165526084578,2.305977065184848,-5.61608900727417,0.3967345865195863
1117,-0.1769525750988392,2.7114725915732216,-5.195738701910338,0.5983181002812051
1118,0.1507269251024995,3.1148721473392613,-4.8137843500311135,0.7653731995337961
1119,0.5231658299082921,3.4752071656148558,-4.4700625717928455,0.9058246900705413
1120,0.9042954997127175,3.7611209207863348,-4.157399232605234,1.0457242074118631
1121,1.2238019501437218,4.001364748256985,-3.8664998114251965,1.184142774846314
1122,1.4191077865554091,4.237773484935401,-3.587279791441136,1.317270594532545
1123,1.5974173380583332,4.483085662541418,-3.306423079891996,1.4780087917500744
1124,1.8807440123620067,4.7297811327268455,-3.0166761540157956,1.6929898416702107
1125,2.143546362610203,4.929824626727673,-2.7329840606974045,1.9332705738967477
1126,2.2261480577458657,5.035495763357704,-2.472092683146308,2.1559725389650377
1127,2.187590999707567,5.074745499954825,-2.2289928059940176,2.3384793701049484
1128,2.1410536135933302,5.103688349411531,-1.9892271672308022,2.47077429074908
1129,2.1449597970262526,5.145483066010497,-1.731138620043902,2.5777316119074425
1130,2.226188660489485,5.214178110011301,-1.4393890079638025,2.6862024403630183
1131,2.2777933165461337,5.325948694482157,-1.1374498862969038,2.7531992406059946
1132,2.1767718122554185,5.483795718755456,-0.8585796953380923,2.7236593979933024
1133,2.0263388605808217,5.6841798707389755,-0.6045274558816206,2.612635191763751
1134,1.9739686282344555,5.913807364672582,-0.36585242657634814,2.451262193031924
1135,1.9711902670649095,6.1249338106974225,-0.13965579092549746,2.2357656429445596
1136,1.9261003131476955,6.270067782168449,0.07586607224845376,1.9612163060396468
1137,1.8343751758518265,6.361997421064725,0.2793809241681846,1.6243146574439944
1138,1.7083074530787328,6.4237363487471235,0.4645263705967879,1.2329769648905813
1139,1.582478658570917,6.424134302290566,0.6173323388160614,0.8617334380668373
1140,1.4994941590769826,6.325718488072854,0.7280318110673462,0.5858214881970147
1141,1.3946352078513866,6.120331319753609,0.8101122950996356,0.371778298096942
1142,1.2035707676671827,5.824884453990881,0.8828192811608158,0.1574460461439829
1143,1.0653079685053257,5.500821618214712,0.9523698381663149,-0.04280885254814715
1144,1.1335910807995795,5.219954053002376,1.0182448905985892,-0.20003167736072697
1145,1.3359029052333875,5.019412173810243,1.0692349905030034,-0.33174056936485863
1146,1.5455734579719154,4.903077815145415,1.0979455137344014,-0.4503183743029372
1147,1.7198778399275958,4.8263057737808435,1.1244508778106204,-0.532159396053328
1148,1.8540842446746262,4.731551617609733,1.1779194934003199,-0.5445704758324278
1149,2.0620393990184693,4.613957841882025,1.2846892883751653,-0.44090592640440446
1150,2.4546609440013922,4.489565998329902,1.455157923428771,-0.19462425603847788
1151,2.8669624670618665,4.35450061791219,1.6512758193619927,0.1305614979116082
1152,-15.872103665943753,-16.655662038408856,-19.004836121362167,-17.646249879097898
1153,-16.24399673236661,-17.1793255641866,-19.605512388124524,-17.872921044466107
1154,-16.58427909173385,-17.62742786103383,-20.201970049011436,-18.13071856147522
1155,-16.869578160281428,-18.038728395777458,-20.80121687242584,-18.413583270231687
1156,-17.09324929798769,-18.444044449737053,-21.426512818177564,-18.74995035576754
1157,-17.334330148095354,-18.809590760407364,-22.07441586973981,-19.13489665626797
1158,-17.660787163784676,-19.098679649100806,-22.709310820580217,-19.515869029069886
1159,-17.94340203183999,-19.32866252272677,-23.309279733922164,-19.838461718102327
1160,-18.049583877413347,-19.540214229389573,-23.88969478803875,-20.055553715278712
1161,-18.073946533027364,-19.80140203967553,-24.458206715870954,-20.180545110664134
1162,-18.140056802233854,-20.16487310258741,-25.027907658966164,-20.253111909848716
1163,-18.23440195730204,-20.585150974325416,-25.594613373907304,-20.29660731160737
1164,-18.315453932960946,-20.99726441406112,-26.147249413633944,-20.33003188921564
1165,-18.334841788108893,-21.409698606720102,-26.691881702822336,-20.36905618515128
1166,-18.25776653434959,-21.839058559894024,-27.228805530567442,-20.41588455097771
1167,-18.187923672778787,-22.27104478812149,-27.728410753869767,-20.470367386724355
1168,-18.228382715427585,-22.680816943899973,-28.160532021631226,-20.52508959968592
1169,-18.265015668087603,-23.009789275259216,-28.51447368766345,-20.536593115516084
1170,-18.174642930672814,-23.21468817026248,-28.795133517098236,-20.48865899498594
1171,-18.050744950989454,-23.342250133233946,-29.0335670073355,-20.40998086806973
1172,-18.006405527164873,-23.461871371745403,-29.263118031872917,-20.368606252431317
1173,-18.03077240902746,-23.600289177619135,-29.483587539034012,-20.397748635266865
1174,-18.075566925519173,-23.761106750789285,-29.685237546667828,-20.463398726608457
1175,-18.038977788487955,-23.926178177465328,-29.871039594915022,-20.50360168311799
1176,-17.837443034281034,-24.060938305991137,-30.04417047656305,-20.497858494770195
1177,-17.585052074176264,-24.135440323925106,-30.21019635129499,-20.472026345457515
1178,-17.412984298679067,-24.13386300947724,-30.369731362276863,-20.445004579872553
1179,-17.224448371793375,-24.060376306580977,-30.49802767963251,-20.378109779478642
1180,-16.909754504711984,-23.93688227359667,-30.570272652022652,-20.201442763458534
1181,-16.551911005689973,-23.800762269812413,-30.589198998349808,-19.910695259071048
1182,-16.25539504445722,-23.68729066388675,-30.567393840444307,-19.58085042819119
1183,-16.048532026764878,-23.60443739132014,-30.516548385724438,-19.300961772320452
1184,-15.923064905081876,-23.545716449399496,-30.444298452697744,-19.128148874969618
1185,-15.772401005859084,-23.51266620163866,-30.34195055467543,-19.026880466185638
1186,-15.49093620301184,-23.495365237958236,-30.192655916072717,-18.89007623072702
1187,-15.16263598208891,-23.45171923031548,-29.987601312474155,-18.649411488661272
1188,-14.88942814439286,-23.3419994802299,-29.72215137804337,-18.300797730748467
1189,-14.583827292631216,-23.15602974319965,-29.380911113379323,-17.858878392904415
1190,-14.152566457100319,-22.900500247175437,-28.967535151342275,-17.332883399096037
1191,-13.640417188187284,-22.601109180066096,-28.510530382089993,-16.77120596419664
1192,-13.122565356110204,-22.279680361099615,-28.05120602362535,-16.212944570316168
1193,-12.694233703453106,-21.917884147046113,-27.589856220504473,-15.66740163320103
1194,-12.412757855918528,-21.488367550984105,-27.082689066713254,-15.129052262888534
1195,-12.13119191539771,-20.981761673044854,-26.509501681429683,-14.589061587105968
1196,-11.69276103913876,-20.40150701671065,-25.89596587964106,-14.033416101291456
1197,-11.190130879401451,-19.779711808757607,-25.264404628814958,-13.451739586791176
1198,-10.754114751639955,-19.14904590306328,-24.64721431929671,-12.839553280844676
1199,-10.35578751692849,-18.4954963136425,-24.070098034400402,-12.188178883094608
1200,-9.944119917098158,-17.80004802184949,-23.53823921266631,-11.512251292420677
1201,-9.502143691773837,-17.08009582711896,-23.024566703039554,-10.827644607025388
1202,-9.020849565393547,-16.360918322056182,-22.4900975489499,-10.176599987449707
1203,-8.580958446704916,-15.664202510828511,-21.906695648304797,-9.615885720081955
1204,-8.245259381945544,-15.001312073024634,-21.256406384938046,-9.132063889633995
1205,-7.862442568938128,-14.348523522965527,-20.533080885727376,-8.649472723982411
1206,-7.278939689463994,-13.671824077344858,-19.740042874984287,-8.081625782970521
1207,-6.584006120755771,-12.959303074867757,-18.885191889224966,-7.413765572967913
1208,-5.903148036706946,-12.204710260958477,-17.972605974082523,-6.665381222263658
1209,-5.232728440670617,-11.396701599124182,-16.99118877910988,-5.872888760041724
1210,-4.538618557805294,-10.52487937028953,-15.925557662486918,-5.068928840258075
1211,-3.7545302776013236,-9.580813640340597,-14.770987398688915,-4.224218555001803
1212,-2.938809868797482,-8.622996205792996,-13.56677091434875,-3.3721590843730853
1213,-2.299824133357867,-7.69940864322392,-12.395601677441531,-2.657904485827364
1214,-2.0856113917659522,-6.898026820668011,-11.307690579269423,-2.181620997820103
1215,-2.046244448904122,-6.2583257512611326,-10.312822547213043,-1.91113349048686
1216,-1.8377102033400758,-5.763197169439944,-9.421871546260443,-1.752758898205381
1217,-1.5730210426675857,-5.355279263101475,-8.610966741431875,-1.6492298966751975
1218,-1.4447161956434373,-4.970634925045547,-7.848103889705863,-1.6129271691538771
1219,-1.3881980753706558,-4.567928715420338,-7.085128544486627,-1.6534919762875093
1220,-1.2774231704489454,-4.064449526374551,-6.050532459915244,-1.5159069806976726
1221,-1.1001109316573978,-3.5498901619202967,-4.997533105744428,-1.310529267691568
1222,-0.8120333778892668,-3.058198959230338,-3.943718268289429,-1.0546383254899288
1223,-0.5140423231823008,-2.57724292612275,-2.898635434946797,-0.7932317421970221
1224,-0.32597239573224335,-2.089926722707933,-1.8678592607354803,-0.5671313592770033
1225,-0.17423264807489489,-1.632017603740504,-0.8541330387656757,-0.36536401503543653
1226,0.047665120486613935,-1.2404771538381547,0.14494188406200764,-0.1591410649512282
1227,0.2842320433674292,-0.9021626038943173,1.1309654757612484,0.054967742339208626
1228,0.45187831505537757,-0.5862513385148438,2.1063664659713655,0.2720250605650419
1229,0.5395737739886804,-0.2599746996968334,3.0828385440564148,0.48802734877172244
1230,0.5608228996744669,0.10099733821276358,4.0682046177808,0.6940110113628786
1231,0.5941273992743704,0.4798348015812869,5.047412330672515,0.8839763406107738
1232,0.7185895517668953,0.8453337461441571,6.00484076078187,1.0554942503853706
1233,0.8373792817942923,1.1830285030982546,6.908094287676311,1.1975082838237245
1234,0.8327056326643536,1.4927201767107718,7.746173133225447,1.3043071922780012
1235,0.809129485772045,1.809457450286837,8.530105294893273,1.404225210649972
1236,0.9036824219624915,2.1679580916704904,9.247780978225753,1.5254694218446967
1237,1.0741450048059988,2.5383408580922446,9.88291322548373,1.648824270947969
1238,1.2333295038192902,2.871169824699003,10.418209641143294,1.7424960783986612
1239,1.3279550830578442,3.15381279620912,10.867185242830763,1.797445137831014
1240,1.326927960803549,3.391012300582122,11.254510576302785,1.8150388807260804
1241,1.315275801152737,3.5869479164906157,11.578011921328475,1.808962103800015
1242,1.3979634428504624,3.7598539575716368,11.842227303801094,1.7975614717991457
1243,1.5005178916308615,3.9584003882411736,12.070397767343698,1.7783679616551265
1244,1.5162236953868562,4.219388718718042,12.296843647832272,1.741604315026918
1245,1.5068028017061472,4.522051040403984,12.519190259581146,1.693369062399416
1246,1.5572577629828195,4.820543971549172,12.693033697448847,1.6304798442126023
1247,1.6449382181681065,5.060333391236478,12.79443081596277,1.5710356883737095
1248,1.722337684642712,5.206384354500709,12.84979626111641,1.5108245657994313
1249,1.723770859848259,5.309052815490505,12.886379991964715,1.4154578388760704
1250,1.6018808712427184,5.43995943744592,12.941674741942384,1.291125978069399
1251,1.4770771848614341,5.604778551440204,13.036112313379537,1.1990982227755862
1252,1.486245990469071,5.7792600241945316,13.170618185896885,1.1722196973111263
1253,1.533040784827254,5.927475297545999,13.328607054852469,1.1751019664385152
1254,1.476284806968132,6.015668730089528,13.484753886688894,1.1592264607186735
1255,1.3444585787793237,6.060416872986898,13.621793805729327,1.1054005986567403
1256,1.2092849431353225,6.098048882575741,13.730825543137119,1.0439153713120337
1257,1.1252645565594428,6.143431585413006,13.807968922556816,0.9932378770127569
1258,1.130591029768834,6.197879000189657,13.85838785124141,0.9740087867181648
1259,1.125317040669228,6.236380043828523,13.897654720088012,0.9786712984583168
1260,0.9961905032269259,6.227405498497682,13.942616015693758,0.9908807110558743
1261,0.8563809784233045,6.181373485918641,14.002913170160694,1.0261521173640056
1262,0.8567622179576152,6.1172595646173615,14.077815148389808,1.106096260898069
1263,0.9438998932105687,6.020742628140808,14.15397187411082,1.2306676942828003
1264,1.018242062977934,5.87609606593106,14.209240331001583,1.3901971547971437
1265,1.0644673547722834,5.676125835703927,14.21535196715596,1.5684701666022856
1266,1.087220782086424,5.433310985641333,14.15035629686967,1.740654250984801
1267,1.138898412162908,5.228168304939639,14.015483378524252,1.8895525722316642
1268,1.2732130478251718,5.1422084084819675,13.825483164038987,1.9996232261222906
1269,1.3864318062365724,5.1625389784450535,13.596197266205705,2.025073188964722
1270,1.3608610069900107,5.2332078554597805,13.342516886039459,1.94801772500437
1271,1.2942396312053652,5.30802375789667,13.075337689922323,1.7918478668171787
1272,1.3223512652936278,5.345591630210482,12.800001238096206,1.6337831751637777
1273,1.415497186199647,5.319993584469742,12.507576090955045,1.5192526541115592
1274,1.505968281223053,5.2285000866479105,12.19823747977163,1.4367932071343814
1275,1.5670399000318243,5.103386508437668,11.881524580694077,1.387239315233169
1276,1.5858034315110392,4.97449609477606,11.586121760867089,1.4084822690269851
1277,1.6407779854836688,4.806754448061416,11.316239726453102,1.5079252441264872
1278,1.8121421582452415,4.555976689856113,11.041209550478595,1.6414038848798953
1279,1.9786079559571057,4.229724960761634,10.739504823045374,1.7543083082510584
1280,-13.22299675907556,-12.955770207991527,-12.424239645397737,-13.763397084209547
1281,-13.506583424729605,-13.149376605130563,-12.824349935695977,-14.115195969054168
1282,-13.704771729923616,-13.333146460388084,-13.224759683579945,-14.497188539647233
1283,-13.831290749146282,-13.526257168376947,-13.631688733879813,-14.856515241675192
1284,-13.918677163603157,-13.73990084493102,-14.047730108564863,-15.174068729849317
1285,-14.04946378962392,-13.967002521342724,-14.475657425010503,-15.457085520649695
1286,-14.284195409231529,-14.186982548009693,-14.911335489748852,-15.722841562585844
1287,-14.493605358195353,-14.374655064521313,-15.331730922725137,-15.944088688787767
1288,-14.548045776820608,-14.5283899749824,-15.714247192092527,-16.089076864133556
1289,-14.55427677347673,-14.669837877733675,-16.0586967129872,-16.15259227342563
1290,-14.649718957912675,-14.796053186455895,-16.373057530764605,-16.147676447593312
1291,-14.826457573155063,-14.872803221480368,-16.661339271526387,-16.113541060805773
1292,-15.038148655668115,-14.897367461103158,-16.929028993556834,-16.09855308485472
1293,-15.215689185352769,-14.912832941845943,-17.181735840935904,-16.128802511692943
1294,-15.301108804782999,-14.958749534564115,-17.42462697502226,-16.216946905837492
1295,-15.384371566091732,-15.04008173483107,-17.666457528493872,-16.378115506101807
1296,-15.564152146979271,-15.13744509907097,-17.913553094837088,-16.608512683737057
1297,-15.744801600815496,-15.235368705312663,-18.164266197523727,-16.867565993122497
1298,-15.819733844918625,-15.331464916215143,-18.41123156011339,-17.108933681441563
1299,-15.856195370415866,-15.439907383415674,-18.64269462446161,-17.302528293309784
1300,-15.943619909371739,-15.578994272378726,-18.851230375518263,-17.437959147538137
1301,-16.094570348427496,-15.748190887483885,-19.012670170597392,-17.54197116416289
1302,-16.298878052399736,-15.933145837447332,-19.124621453765123,-17.651373529044783
1303,-16.49202942199968,-16.11665049975394,-19.21002182965864,-17.767511014652925
1304,-16.61145062517564,-16.280191935234093,-19.278288492762936,-17.88296344229595
1305,-16.745843582442347,-16.404696123646,-19.32289997118344,-18.02193259986754
1306,-16.97943313644203,-16.498561932625787,-19.33559310892173,-18.18671858861478
1307,-17.174728431774305,-16.596562354524476,-19.332277456632593,-18.362281622172453
1308,-17.195445186940823,-16.716044393893863,-19.33374215948618,-18.49988552325538
1309,-17.12113711840264,-16.847971970208135,-19.347892321991715,-18.58155312018026
1310,-17.072162911074635,-16.97595465530798,-19.37653216692154,-18.641065489646632
1311,-17.119640899110177,-17.08228407837924,-19.420498312191814,-18.703613693841046
1312,-17.284828878001555,-17.153894643425723,-19.47080329491242,-18.783651877050747
1313,-17.415167731514284,-17.178863775717417,-19.50206975136685,-18.838337526433385
1314,-17.35173978607264,-17.15750334514203,-19.48973789776979,-18.80887461941707
1315,-17.192338137705796,-17.09871965817979,-19.424312871626245,-18.665541409510855
1316,-17.0709678166072,-17.007689043603403,-19.311570274189513,-18.40601442127551
1317,-16.921847537040176,-16.88795419414636,-19.172457375951485,-18.06779422160009
1318,-16.664262260618337,-16.74720052472127,-19.034069212796776,-17.704266755802216
1319,-16.3220225019635,-16.602846118893055,-18.926365112968462,-17.349850152834165
1320,-15.942150073586594,-16.471290454529104,-18.858170739085985,-17.021400774182077
1321,-15.618381525722459,-16.349163207288733,-18.810156649977316,-16.718172213229565
1322,-15.42300167620117,-16.20963106181647,-18.74237830677122,-16.429620393398622
1323,-15.236341026337865,-16.016371964924794,-18.626165644177732,-16.139816355558025
1324,-14.928261729924571,-15.749092844824695,-18.4667199806918,-15.843840778012437
1325,-14.601430789635266,-15.419382766470523,-18.289332909050437,-15.584414670524557
1326,-14.373361497246458,-15.05874843461869,-18.10282751259801,-15.397557126919171
1327,-14.171673408951852,-14.697093390877907,-17.897785798409416,-15.243497144720052
1328,-13.897699247171905,-14.346564112905613,-17.665973364090235,-15.079608381701506
1329,-13.503459756183593,-13.998828699327957,-17.420360819330092,-14.858749553991846
1330,-12.978997306953358,-13.64008371190778,-17.19073788011559,-14.596212769847146
1331,-12.45868124650947,-13.272065554903897,-17.00768768472056,-14.318817233921925
1332,-12.071350910840957,-12.918134875528551,-16.875120633582338,-14.056787993423354
1333,-11.694684431175014,-12.60078779524854,-16.784102292893806,-13.785925694461714
1334,-11.180681371701546,-12.318547024189325,-16.71140898572303,-13.468029796772726
1335,-10.608578539615516,-12.026142307665454,-16.645917370771325,-13.099990566620923
1336,-10.083666214916171,-11.64585719327534,-16.56704224767568,-12.685262041688686
1337,-9.583391048533093,-11.135837199442683,-16.43516950915292,-12.217799293737038
1338,-9.06491996465106,-10.524125023828942,-16.210418117084295,-11.696806827028404
1339,-8.480959545070592,-9.870015904131956,-15.890929426466021,-11.117461358643
1340,-7.8904816408160645,-9.257430643022422,-15.547423742930873,-10.527075686407242
1341,-7.442902819456402,-8.802637179900863,-15.29390706812898,-10.068376058229502
1342,-7.323552437843524,-8.570165789287072,-15.17820452530706,-9.803862711848243
1343,-7.267075387068234,-8.495920531789299,-15.174371103816235,-9.676481941797697
1344,-6.962973031725321,-8.404314586097701,-15.242546239231448,-9.600075109038286
1345,-6.644066190469698,-8.132520773452818,-15.360243894522082,-9.545377540181999
1346,-6.609445053957402,-7.717809544774121,-15.508147196734756,-9.549888316275082
1347,-6.757151691985786,-7.375185990205774,-15.674175469066105,-9.691267106995863
1348,-6.6400516048059055,-7.4024644861099915,-15.603108950041694,-9.425645788939732
1349,-6.469825794795093,-7.479345158184444,-15.517846925132073,-9.117390827550162
1350,-6.177584907107309,-7.600765069737867,-15.404538516269854,-8.761706386584844
1351,-5.84820473938212,-7.754117589322935,-15.256991476508333,-8.372430110048839
1352,-5.599878459560174,-7.908869220259705,-15.07741480341839,-7.977428708186435
1353,-5.361919325602385,-8.017665300461214,-14.868621144345525,-7.55169504228182
1354,-5.035799126780603,-8.068566524972296,-14.64528627928869,-7.07010425286261
1355,-4.700497871043251,-8.109060097580741,-14.437219129033888,-6.578869281200201
1356,-4.451407504368587,-8.200737090900782,-14.27511984989954,-6.139418183602938
1357,-4.269389608150797,-8.345977564242203,-14.15931506225745,-5.785866610806965
1358,-4.097770453164314,-8.479538351683102,-14.054477057446162,-5.525269939014505
1359,-3.816079911361518,-8.544622924507445,-13.91836985512014,-5.2991939300832405
1360,-3.3314349758213457,-8.54008012865044,-13.737343634256161,-5.032469845239778
1361,-2.8124669245952116,-8.499112536292605,-13.52386317797139,-4.723232459950732
1362,-2.4704884070136446,-8.435671417354195,-13.306130662842168,-4.383656191570622
1363,-2.2340587404552847,-8.329995864990263,-13.090439428322028,-4.034312329677901
1364,-1.962173854214045,-8.185186446438184,-12.872464667716107,-3.6700525637375696
1365,-1.6618034917829902,-8.052971078109405,-12.648126771333594,-3.2910906963558006
1366,-1.373876799687493,-7.983411869431638,-12.41211827077261,-2.9365638422147162
1367,-1.1485343921220748,-7.964296057280256,-12.164235297911171,-2.662238187912917
1368,-1.0358107518493336,-7.932522525903175,-11.91111890070644,-2.4657124369890546
1369,-0.9544535560137273,-7.857909823753547,-11.664970900964457,-2.31133490247722
1370,-0.8027340702655505,-7.7648759347422756,-11.43931902581872,-2.149244633582139
1371,-0.6742299541241988,-7.668772862311465,-11.244084877383273,-1.9995415766409654
1372,-0.6833156536353462,-7.5540913793647935,-11.082484046950448,-1.8883390209524313
1373,-0.7310459974689718,-7.40839314204817,-10.947200996040934,-1.820343921481384
1374,-0.6866624352554881,-7.235892396225328,-10.825734580661635,-1.7549827451975548
1375,-0.5632158765439181,-7.060638177826143,-10.705725559775033,-1.6966459330980914
1376,-0.414194696942672,-6.909037606516336,-10.577593854528814,-1.6552868855312748
1377,-0.3076601637879013,-6.787124217407772,-10.4445888638383,-1.6648960545394498
1378,-0.29790047201092973,-6.677328985422049,-10.309438355309197,-1.750394084594355
1379,-0.27603296245045345,-6.561272176876637,-10.170924638995185,-1.849319331655725
1380,-0.11272941214000992,-6.4328808031680405,-10.019895270091748,-1.8953999820741778
1381,0.09671638636306551,-6.301484803706574,-9.861122262664841,-1.8577027178403664
1382,0.2156954208225303,-6.186982076852988,-9.71795420005157,-1.78040309517258
1383,0.27766402007936386,-6.1068218656353475,-9.600485508437611,-1.6822334910899628
1384,0.3565207682389494,-6.05134385406494,-9.494292462518263,-1.5869897404815254
1385,0.495995434116944,-5.985497516736566,-9.380686427465776,-1.5018192136637925
1386,0.7208811418635679,-5.885438876498836,-9.235968773267643,-1.4197329152454872
1387,0.9334460761548162,-5.754248095500894,-9.048356062922366,-1.3483737929101458
1388,1.0233481397860142,-5.602331942601838,-8.817292791717216,-1.2898975320645678
1389,1.093799082177,-5.431183778303587,-8.551044602190034,-1.2130591588351904
1390,1.2818056804366598,-5.227061718184298,-8.264077955719609,-1.0814766112480219
1391,1.5124745566045392,-4.983130486010819,-7.965646879576795,-0.8791583172229236
1392,1.6749984480490712,-4.707814835376598,-7.663393713054175,-0.6051932603950846
1393,1.7854775637657112,-4.416731901167731,-7.377870614212698,-0.28114941554458317
1394,1.8924774350782025,-4.132290193550233,-7.120104855591552,0.05915991432342388
1395,2.068091801765571,-3.876423730359083,-6.88303163691186,0.40539542121612226
1396,2.36872180674771,-3.653638773422446,-6.6428197484191225,0.7395728596050603
1397,2.676582130511239,-3.4517112880959204,-6.389526995562007,1.0359457754215047
1398,2.8460643757636994,-3.260836125461647,-6.134824887653659,1.256125920924358
1399,2.95009343501403,-3.084022411834122,-5.888467930652321,1.4068907381514038
1400,3.1043594682690436,-2.9258475230096677,-5.64414514566927,1.5516299868309873
1401,3.2552658453749594,-2.789575964979665,-5.400027025682641,1.7469150525891353
1402,3.324288589311053,-2.6649871167548733,-5.148287444531399,1.989273188922863
1403,3.3131427083548575,-2.532340683904407,-4.880641111657436,2.2292814619537302
1404,3.2453681251149544,-2.377151992496677,-4.5914497437773045,2.445315062880537
1405,3.2037738325290053,-2.202523128282844,-4.274133435509109,2.6408485604253533
1406,3.261693744691889,-2.0270887169088665,-3.928784240057225,2.8312111415575067
1407,3.2978230261258012,-1.877870706133867,-3.576383926602505,2.9861862930194034
1408,38.96985137443962,312.30161302138674,220.29287034363063,41.22141296960057
1409,40.613813469459785,321.88360755349515,228.42203454345344,43.0296769003553
1410,42.135212921451085,329.9920135917519,235.7118571911155,44.77139719778204
1411,43.56277005419198,336.66313109406366,242.2266248334789,46.438072185385415
1412,44.90328676495977,341.93652685784326,248.00247231124706,48.00193364934024
1413,46.04899295953322,345.8526616036804,253.05594289622087,49.4276097415662
1414,46.90307607670446,348.451918000632,257.3585832380497,50.68736619580603
1415,47.59357251206704,349.77460787028065,260.7811830846534,51.805135113774654
1416,48.26090483391142,349.8595980130856,263.20213712183545,52.80580896642842
1417,48.81057867635707,348.74607121584813,264.61799544575155,53.64797722503894
1418,49.12290215669929,346.47165014338646,265.09739299848815,54.281562615457545
1419,49.226986327444735,343.07390874585457,264.7514079994716,54.69665638592925
1420,49.17694401109734,338.589904818962,263.70303535576124,54.900902088490135
1421,49.020744270148185,333.0546399114194,262.0286027952542,54.9206400816114
1422,48.788477860974474,326.498288661803,259.7477251831834,54.789363597858056
1423,48.371852161948695,318.87913877215374,256.83425594734405,54.50916935861066
1424,47.67215727003576,310.03041388245623,253.21937924587024,54.07710583908168
1425,46.821331364081985,299.7866186979391,248.79166339899564,53.5320343227349
1426,45.97141316212698,288.1133084260869,243.47269736471625,52.902587490764105
1427,45.078526191934195,275.1145030394405,237.27961180269185,52.14629522011623
1428,44.058829190243024,260.97411985883775,230.29175673237805,51.21613091932735
1429,42.88857023981679,245.87777733540898,222.65802772734736,50.12310959376711
1430,41.557392053655036,230.0104825551482,214.4996885335533,48.89442128190157
1431,40.10902229443294,213.5111357800309,205.76188348647642,47.55232961780404
1432,38.59844701589768,196.3380722193682,196.35441720260238,46.11894543222521
1433,36.962836804699556,178.31739667532403,186.2955422881589,44.58499668425863
1434,35.15213520093535,159.39726686076457,175.64806778647574,42.94173947708004
1435,33.312345360457165,139.767447290442,164.51053282594594,41.24681005834701
1436,31.580341123258183,119.73336722658681,152.97993939574715,39.54591578208242
1437,29.886217919686153,99.53790056574873,141.06301370432922,37.78472751017066
1438,28.109024926748596,79.258198324299,128.74175878104373,35.89431784406058
1439,26.159317089930468,58.86140129607219,116.03173163479327,33.852386755720076
1440,23.988578821435187,38.35625340602407,102.96758353941283,31.665923090125798
1441,21.707299905875125,17.829988581944214,89.64139760222028,29.40212074422422
1442,19.442841696652742,-2.616213780929077,76.12618027146124,27.126663926045527
1443,17.11533208148162,-22.919257356771322,62.35941247787993,24.799134765530727
1444,14.621736747341421,-43.071030554094726,48.25130505974183,22.359092650969682
1445,12.030793725724784,-63.09968642949134,33.79172170932594,19.822643089463153
1446,9.425679671363488,-83.05208108507539,19.008511185504315,17.215714437051712
1447,6.800584073830169,-102.99026300139768,3.958782882970632,14.530079689248877
1448,4.134134004864626,-122.92824065301309,-11.274495205309393,11.757734364262353
1449,1.3704707780786962,-142.82004585759637,-26.624748937024354,8.891097629350924
1450,-1.527512002670771,-162.60510631633733,-42.02794488827921,5.9338540196050085
1451,-4.423880040948978,-182.23036061008,-57.39190960517065,2.9339682942309264
1452,-7.191922789891745,-201.6417852489943,-72.64078151686408,-0.05702507608601032
1453,-9.964479474069934,-220.81175682107295,-87.76039103202496,-3.0279759446229066
1454,-12.895575452398326,-239.7005383280098,-102.75908366721538,-5.989148599140639
1455,-15.922649175585933,-258.2463035586839,-117.6282861658111,-8.966393953489701
1456,-18.943851287988643,-276.4205209780682,-132.36296628737085,-11.99231984448753
1457,-21.92287992616233,-294.25533033884903,-146.9781420794919,-15.071937249008833
1458,-24.84369930638232,-311.8229982331507,-161.48303154002622,-18.204587166774726
1459,-27.775609605684274,-329.1433755219063,-175.85963937081706,-21.428236168807466
1460,-30.78450547053217,-346.16786791586054,-190.08651151557862,-24.762502498569013
1461,-33.750737700466836,-362.81952813155317,-204.1603333751922,-28.14884469021489
1462,-36.55302671120213,-379.0425877916171,-218.0844643791062,-31.515522363803267
1463,-39.28812411525394,-394.8310845985185,-231.8614259190371,-34.82407614211099
1464,-42.081703804680224,-410.2522015078645,-245.49743444726906,-38.06534199006343
1465,-44.92914227779808,-425.3777774644196,-258.99666703106533,-41.28763177050899
1466,-47.7997390004087,-440.20696179940006,-272.35625333339027,-44.548962824943054
1467,-50.65674643117,-454.69004035623294,-285.5774204674402,-47.83800193351083
1468,-53.54250590040616,-468.92306590226207,-298.7299085384299,-51.14536254173315
1469,-56.548719621776954,-483.1723441833292,-311.8561487974872,-54.533052521761036
1470,-59.765310409111024,-497.5450477619062,-324.93155852813857,-57.934826502536446
1471,-62.78811117561848,-511.947278310789,-337.73872883548086,-61.106328227430495
1472,-65.18557303753616,-526.2984215994585,-349.97430132163396,-63.79282618640738
1473,-67.14785118924121,-540.4205411806422,-361.3713686474172,-66.0531780123967
1474,-69.01403516520232,-553.9774015773137,-372.07249287551525,-68.03527095606574
1475,-70.83436279513839,-566.8742741404471,-382.4827992301471,-69.93204599031867
1476,-72.58937127670951,-576.8683736554549,-391.4127930679435,-71.98550863640762
1477,-74.16590584020818,-586.8804900781311,-399.9788829997687,-74.01800351975459
