,TP9,AF7,AF8,TP10
0,-8.856273024078192,-10.853134156313798,-13.689625946555314,-9.57639347533201
1,-9.070423849444117,-11.08868672246593,-14.119202357238986,-9.837652605670952
2,-9.376056299040835,-11.28474269771581,-14.550508895013827,-10.146901549538304
3,-9.677575516584492,-11.448882369702826,-14.970578071571538,-10.461126979682549
4,-9.876896094415226,-11.6007369022822,-15.370377974432294,-10.728518346323682
5,-10.001278975492395,-11.794810356606394,-15.760042734638217,-10.97743038269623
6,-10.115266515781697,-12.068373402392584,-16.152019364468078,-11.247938239547763
7,-10.299246045229316,-12.360282855672608,-16.54724410506041,-11.48238249249695
8,-10.611804222208885,-12.598512903046952,-16.94113289562016,-11.63245245661057
9,-10.96804916425463,-12.799861139282443,-17.3288216829255,-11.78041047464622
10,-11.26271987849886,-12.998846098581687,-17.700892014544642,-12.011640025957332
11,-11.559738138287097,-13.194049480446242,-18.038651126617673,-12.30201214508304
12,-11.92856885705554,-13.380747155057847,-18.32978094959121,-12.602149944519297
13,-12.261722035215852,-13.546953263066229,-18.58029081879996,-12.869189948794627
14,-12.454213388512818,-13.684709179475309,-18.804296684581153,-13.072766924214898
15,-12.548610984752788,-13.833511081475983,-19.02748258176233,-13.285411884403212
16,-12.624234893867499,-14.030962586052244,-19.264804121980017,-13.570959877558904
17,-12.759845529033983,-14.25074753095663,-19.479298436033627,-13.796576815811685
18,-13.007879566015738,-14.455673353412692,-19.632127553822137,-13.833950077685047
19,-13.285946160226672,-14.638972707613481,-19.739886032983602,-13.7832669017786
20,-13.498668184452178,-14.803978949483685,-19.832300056206506,-13.781680418467849
21,-13.70455112166466,-14.972536763898548,-19.92336951678892,-13.853559208080592
22,-13.987092055049278,-15.159086925456135,-20.016769464889073,-13.983820932058741
23,-14.33919150214897,-15.320886179000443,-20.088257238747516,-14.110144747757852
24,-14.730005027101486,-15.406156523756103,-20.108735566093394,-14.161251592996638
25,-15.130519581791908,-15.408561976410969,-20.082556577470285,-14.170761082306804
26,-15.504957965586247,-15.338817033916168,-20.022992158616304,-14.186580463294034
27,-15.833446688413911,-15.20507734902976,-19.926927853444017,-14.148239989932405
28,-16.110989021239305,-15.02748112372649,-19.791993904679643,-13.996487744944448
29,-16.339135271124235,-14.832696461287105,-19.626953113113895,-13.767257184160885
30,-16.523474024188403,-14.646943468571243,-19.440783168422346,-13.514385544712189
31,-16.665240498516912,-14.51151867814908,-19.237362660800404,-13.278472962979505
32,-16.76462880270732,-14.446102643272711,-19.02140224395395,-13.081943353861128
33,-16.822899249714663,-14.393692007097387,-18.798535650505503,-12.86679632129087
34,-16.839499211862147,-14.285392684377026,-18.575102681404296,-12.574170438956472
35,-16.820706002909695,-14.117894830053139,-18.366060013791785,-12.265461915656829
36,-16.760766619230886,-13.904723847435331,-18.179871940029862,-12.015874757723136
37,-16.618302576286,-13.628131551651093,-17.997218205633907,-11.805208442688166
38,-16.35241180259456,-13.283082629869915,-17.794361693166604,-11.60009872133219
39,-15.946059003684862,-12.905113276506283,-17.567524007848156,-11.395140523234002
40,-15.413668960309122,-12.533135312837908,-17.320401150129516,-11.191654692069292
41,-14.828534784980167,-12.196993579781433,-17.05546909908868,-11.049011708270307
42,-14.266761743006201,-11.906586133789961,-16.778006604666565,-11.006678351306025
43,-13.747700717707238,-11.612322122754517,-16.494898390461,-10.933687074946972
44,-13.261437453197438,-11.263800095772568,-16.20874190712727,-10.703921231812808
45,-12.761346134072937,-10.888015824390706,-15.91573234659918,-10.406790977867152
46,-12.209357911451466,-10.527202930205457,-15.607420125693316,-10.165354519202802
47,-11.682279687356685,-10.182168222561936,-15.269219075742384,-9.978275249693397
48,-11.254129646456487,-9.842471622065462,-14.889676488511437,-9.815489248032097
49,-10.838784515827356,-9.490314961558905,-14.472141460436214,-9.639958852767066
50,-10.339567159622598,-9.105250991307754,-14.024136217675556,-9.418712103743294
51,-9.784876487682729,-8.701838344656917,-13.549787790955977,-9.216604353173235
52,-9.233755074610839,-8.297662423389411,-13.049233197071917,-9.09897322907729
53,-8.744786474530096,-7.8528014743007475,-12.509478743353927,-8.984956244200513
54,-8.358412645895072,-7.33972499809176,-11.919352131339913,-8.784361314728041
55,-7.990468012010923,-6.823415293547823,-11.289656811473675,-8.533356531451608
56,-7.5471992596453354,-6.375163150139785,-10.635555711962342,-8.288476799760648
57,-7.12073707674437,-6.002984333120174,-9.963628429761297,-8.068008416569867
58,-6.799746826620008,-5.6822673422169885,-9.273574400566535,-7.871525850336418
59,-6.445680227116066,-5.349418955056145,-8.548999358988297,-7.6275387846725895
60,-5.9034816544457005,-4.979489094080706,-7.824448098554033,-7.288901060995542
61,-5.2707920113069795,-4.631401910001192,-7.163375681136129,-7.017776484667026
62,-4.671603870625053,-4.394382126129387,-6.649796931150328,-6.9675036456510036
63,-4.199582189332936,-4.211558939381866,-6.248308874872507,-6.9884540937968955
64,-3.8976528661075993,-3.995298432466399,-5.875690491257374,-6.875359957474254
65,-3.6264478692682722,-3.770511317563089,-5.503951150706363,-6.658636380495424
66,-3.2306516854525364,-3.5806978613120073,-5.123655750695343,-6.429468720757604
67,-2.781523423875152,-3.424052183590722,-4.725303334745462,-6.239266346907968
68,-2.336258520003394,-3.230457371893513,-4.3037070073426325,-5.938108238830485
69,-1.939588367411479,-3.0488963039094954,-3.872270718022278,-5.644247271853863
70,-1.5419871476105997,-2.8476418100757317,-3.430596166309269,-5.2461346394941595
71,-1.1044555262314013,-2.6344791104376917,-3.002937667911163,-4.852655960361099
72,-0.6042739850076309,-2.4251775479525324,-2.610991899433739,-4.60229001968102
73,-0.11324374685621677,-2.207443293812147,-2.2367946346508485,-4.410696661781626
74,0.28272694815790683,-1.9688480921753067,-1.8573103188105744,-4.15363344474063
75,0.6406557398114092,-1.7184529698702422,-1.4817481459532231,-3.8397061462240543
76,1.0438408399855197,-1.468648585106461,-1.1294498228917178,-3.5096467150561677
77,1.4367839932670359,-1.2367146747074256,-0.821342291265969,-3.213670284968656
78,1.7489868330951996,-1.0347252229944826,-0.572320942017092,-2.9923057881107087
79,2.021787231763047,-0.8217532668389088,-0.35652578682619057,-2.7453855917303565
80,2.3124887738259785,-0.5595289870964085,-0.1404046529743282,-2.3570458221300163
81,2.6487383780386944,-0.31286392259475054,0.05865531915025855,-1.9162512225620565
82,3.032558413589107,-0.15877532190936086,0.21506087886049488,-1.5513313740750232
83,3.3447825606776416,-0.06728903727123667,0.34758308256452963,-1.2245104798601338
84,3.468936824594614,0.022203595867915926,0.4833352378919066,-0.8672146633694119
85,3.5308794000423376,0.12424404548344928,0.6287015180171556,-0.4898515472248596
86,3.699395528635814,0.24189733574542763,0.7826536113469973,-0.12268642842520217
87,3.912783486623606,0.38329854265517294,0.9337497016089543,0.1783516993501285
88,4.060769913308709,0.5392170035395886,1.0662174137277982,0.3604936003919078
89,4.157303027568626,0.6819135398933954,1.18377650496327,0.4674487286210558
90,4.2395887176086395,0.7812732037492428,1.2939044890486733,0.5699685264826975
91,4.350065557705813,0.7988864653788725,1.3809393744953478,0.6622527709800015
92,4.521233854040333,0.7196050726122754,1.4291409319015995,0.7221108683117836
93,4.649903073573124,0.6085661101308788,1.4478470311231015,0.7628357919898185
94,4.622217519290882,0.5458939898938365,1.454454923436991,0.8005217415666881
95,4.5293898523159415,0.5491225926644396,1.4632357567905023,0.8631772931900649
96,4.505969913753271,0.6012311621089181,1.48614618726899,0.9735138940577621
97,4.53204060859426,0.6561548470582483,1.5202424309059377,1.0720421636089945
98,4.555350185311296,0.6664703270959044,1.55876160284135,1.1000463962023905
99,4.580922717503302,0.6515272161657799,1.6165629580147052,1.13887660420737
100,4.621884004214922,0.6549507775263353,1.7085101307901522,1.2887095179855315
101,4.729509567218526,0.68405958050394,1.8206493642548263,1.5251098153553735
102,4.945650713015461,0.7351651238944926,1.9317553729779269,1.7820865013285516
103,5.171931248961535,0.8040190240707499,2.0326430830636313,2.0075736694469106
104,5.2911972497375235,0.8810359349850939,2.1185131660069887,2.159825861687551
105,5.3382044929431185,0.9734332776526293,2.193584726680101,2.2640318827766475
106,5.388409212163951,1.0871552842057464,2.2637983528079086,2.3709924905232915
107,5.460961736947299,1.1893804132596213,2.312522905329182,2.4593718814511516
108,5.557555311815951,1.2448647325533186,2.3232674922296153,2.500027208150584
109,5.623224548469701,1.258176066449164,2.3126749663703623,2.5508587783881556
110,5.602274980465545,1.2501360602664857,2.303833539672425,2.6696095483283946
111,5.593002655680992,1.2427744351324792,2.3032487564463775,2.8250674994098395
112,5.705663886878199,1.2552044845682238,2.3062872130724545,2.9643325174246304
113,5.854983967733716,1.2822239988922932,2.2880858953679954,3.0404227727177826
114,5.912758205042841,1.308112063232741,2.223127511037029,3.028107968975233
115,5.861887519125866,1.3311164862521636,2.1167491292787,3.0281459889725104
116,5.7253241162943675,1.3533852666872994,1.990283168100078,3.146479527635283
117,5.554942100490055,1.3719136455374243,1.869656429121044,3.2728359539255982
118,5.4129144638886,1.3829762282230926,1.7771964984872464,3.263147771134271
119,5.266053129152483,1.3853831827909124,1.7072039866360107,3.17523707097875
120,5.058888805054675,1.3741525857828252,1.6424100281821554,3.11622036736632
121,4.860666018039814,1.3323277773576276,1.5841576337672023,3.1097495059489644
122,4.7436166709942205,1.2479874166465514,1.537071657571846,3.1546041689335094
123,4.620484772034943,1.123578780055351,1.4900963641846618,3.21409437712936
124,4.385433043227518,0.9755526045810204,1.4343779475919405,3.2350453988179404
125,4.051170936219305,0.8614379872072253,1.3803520179479687,3.242297262410218
126,3.6744551589848853,0.8298042883741141,1.3427676468301772,3.278064650272109
127,3.339870272098685,0.8297315257264214,1.3262347989672054,3.285494024289086
128,-11.66752604625548,-10.984499273546428,-15.514107773230274,-10.85025191078834
129,-11.910194347330753,-11.137423272731782,-15.679778989801283,-10.963983741430269
130,-12.201971007694997,-11.36919861859634,-15.809135406084614,-11.037470461875142
131,-12.486181063126278,-11.6623668338582,-15.920664504101959,-11.09459686858766
132,-12.685002120956067,-11.971453813965036,-16.039850927718003,-11.162088975480605
133,-12.837872256260548,-12.27249274271582,-16.1729931868735,-11.293060030796427
134,-12.995648531248644,-12.56065237378456,-16.29686921722768,-11.515850694803028
135,-13.15292649939025,-12.835287823893843,-16.384256196144296,-11.716835587183464
136,-13.296123201379459,-13.1004164570314,-16.431194190650423,-11.80699275082007
137,-13.394619949176086,-13.368254586229346,-16.459182523766792,-11.808297432625288
138,-13.42770647893055,-13.628899444316515,-16.495145886328896,-11.826091129201405
139,-13.464999496874082,-13.869334745327336,-16.557171189354264,-11.893640021353889
140,-13.57551655407253,-14.05540666859089,-16.642056492288575,-11.939069422536138
141,-13.70549759915931,-14.149576273231224,-16.7339590859536,-11.899209813592975
142,-13.788539844564715,-14.184690236206086,-16.829810835768477,-11.830725862327002
143,-13.847125828254681,-14.254771396944685,-16.94307086331947,-11.797884196836968
144,-13.915750209612877,-14.39604338005562,-17.075569776432303,-11.87060677199946
145,-14.019178249108357,-14.597114527550199,-17.21236079360955,-11.985247140799155
146,-14.16369095853536,-14.810194853330325,-17.3415331113229,-12.054716851757485
147,-14.244016049894693,-14.99571499900775,-17.45937845245421,-12.125183012477004
148,-14.169576580278445,-15.124808011401326,-17.565415361175347,-12.221434084619872
149,-14.067931889345259,-15.187223291968735,-17.65546328224981,-12.3540078071817
150,-14.076490116725369,-15.192354737750128,-17.726667766275426,-12.443824111729437
151,-14.104504018784997,-15.170868772377847,-17.777895348167213,-12.411549503790075
152,-14.035349102125368,-15.1473146584684,-17.811058268491873,-12.299741810341159
153,-13.888931545224624,-15.105533928615172,-17.8374465097419,-12.181099805241715
154,-13.714909589280781,-15.019238251099974,-17.86873609851606,-12.138544321975022
155,-13.580219004455698,-14.879536644347636,-17.901733490666146,-12.13232414994262
156,-13.536635953900479,-14.691229677665419,-17.93330524934291,-12.098073510040878
157,-13.48139494327515,-14.48329895746194,-17.961035878743658,-12.072285024854681
158,-13.309364832743546,-14.290882597830027,-17.985770709282676,-12.096497199202412
159,-13.139528587390698,-14.123882217107859,-17.99472371790218,-12.141917986670872
160,-13.102450328264425,-13.981413545273506,-17.9578740269613,-12.169538074571195
161,-13.114455881387059,-13.870045383590579,-17.858372616026575,-12.147080817240374
162,-13.065888809075469,-13.784890569957398,-17.711652798253816,-12.055382787804463
163,-12.961448645160589,-13.699960742471198,-17.549119905143034,-11.933822324949302
164,-12.829765211788066,-13.585619659284017,-17.39161149131178,-11.825223139568816
165,-12.718144539702772,-13.40981620656374,-17.244239214185814,-11.704710866349885
166,-12.663971009570151,-13.160812419528527,-17.101307020804644,-11.532191837399546
167,-12.582613254073987,-12.88294975174803,-16.945129152020364,-11.289400833480125
168,-12.384944847158001,-12.6308011734473,-16.75372249421274,-10.971501732424889
169,-12.144296598537771,-12.42062590128159,-16.521275118359274,-10.61330314732973
170,-11.952221636880846,-12.246163101124946,-16.2591481045571,-10.253583872663468
171,-11.767954964454873,-12.085180421349483,-15.97288845027765,-9.868416210428526
172,-11.540221846306968,-11.905022882852476,-15.656559511816836,-9.430429961045025
173,-11.295992458880331,-11.68166303948723,-15.3118845651084,-8.982007663276132
174,-11.066083205409154,-11.40409544617291,-14.951705800965279,-8.571981990233944
175,-10.87375720645095,-11.067527717855912,-14.577999018064293,-8.193659454513325
176,-10.721312448628385,-10.680812282136937,-14.172030343145302,-7.838837680397134
177,-10.505895167360366,-10.28671403989531,-13.71402079363675,-7.531347326584054
178,-10.138422932884493,-9.916443721169959,-13.214357105902751,-7.292895451472768
179,-9.704585120248947,-9.53265175352064,-12.707368809212834,-7.1478150417574655
180,-9.313277982248955,-9.08589937798653,-12.211544841527344,-7.087316642030272
181,-8.965284067405733,-8.568193468496982,-11.72999087893902,-6.997689873928441
182,-8.622308218067054,-7.990938966002033,-11.266644757546599,-6.755102344984228
183,-8.197195991281585,-7.380279770998768,-10.814116591716557,-6.34347417432367
184,-7.618924057133195,-6.769300420796918,-10.398045307079206,-5.785701908817104
185,-6.992003023041908,-6.166146409052903,-10.086922727647519,-5.084775651502122
186,-6.440382654706699,-5.564748275268474,-9.865042149548549,-4.278348479428278
187,-5.894876369002585,-4.9818605358004255,-9.621950917081918,-3.439907318833969
188,-5.260827056129363,-4.445365972607496,-9.345332067091395,-2.7188518167492486
189,-4.738656098613813,-4.04605000164258,-9.157364671389937,-2.2817839115468925
190,-4.488222406799271,-3.7557363077969907,-9.10453280414001,-2.3174846471062747
191,-4.621661433526161,-3.4110711941957486,-9.041801151703815,-2.8189894559906974
192,-5.097954939237892,-3.014352661059525,-8.76667964135307,-3.564466819685263
193,-5.407405176384303,-2.774389868303789,-8.335208410680718,-4.148863309987504
194,-5.109203887505769,-2.7798803803864143,-8.061404737726942,-4.243062145675318
195,-4.49664237966986,-2.888654566035434,-8.116929123675755,-3.8283791151890902
196,-4.6666258452552,-2.779138011554758,-7.605382597713905,-4.089722114144526
197,-4.860341954628263,-2.6329198885927796,-7.115905025201885,-4.317842659257133
198,-4.965809226801471,-2.426109709053901,-6.638383547690215,-4.460495991937101
199,-4.9869578321188355,-2.2055804028808947,-6.181716649821336,-4.536356627594661
200,-4.962404081129025,-2.0165898800471895,-5.769043043702255,-4.583794470474369
201,-4.930167600384711,-1.877604412983584,-5.395960687981284,-4.587851599382267
202,-4.9289926609313195,-1.7528311898610387,-5.025295200847523,-4.535924639550435
203,-4.932765512394388,-1.625023610245358,-4.633521512013752,-4.476777851877943
204,-4.898014366554165,-1.521150771421765,-4.224021464787402,-4.466634597193003
205,-4.862654706405839,-1.4467676246079608,-3.808432507201732,-4.533200370163084
206,-4.873145245862452,-1.3559029364515232,-3.3936382280478647,-4.685278110424897
207,-4.892426166558968,-1.222298993210857,-2.9789044669401266,-4.869988832513715
208,-4.872017291841615,-1.0308383489014397,-2.571983749609706,-5.026968286530539
209,-4.809894335987893,-0.8237887495857809,-2.1931615836828655,-5.23110839417389
210,-4.720915606769181,-0.6621627919848495,-1.8540180191979974,-5.53298633272691
211,-4.656116774965949,-0.5807501292008826,-1.5403231195285194,-5.870882857141199
212,-4.661105454276618,-0.5819105618032643,-1.2195944792594964,-6.097732065466205
213,-4.663360856531212,-0.6051040938986423,-0.8705448970706562,-6.173094454876717
214,-4.578259642820851,-0.5750675576756832,-0.5019272745108978,-6.211900899605212
215,-4.472317924402418,-0.4733803611263015,-0.14001048345876724,-6.3272744219952335
216,-4.439294141549682,-0.31487579541664246,0.19770407650841265,-6.501232983265235
217,-4.4715154220462185,-0.1393568992957308,0.5096024906430761,-6.612043654978837
218,-4.532890885147285,0.008725991111884893,0.7939304340429549,-6.623253118829627
219,-4.570190253770636,0.14401121113196347,1.0422757408666388,-6.611189903072727
220,-4.541831019224198,0.2811980520225954,1.2450209608738925,-6.6988995647037255
221,-4.553955958039991,0.4250757510326074,1.3995405565560086,-6.859737720834741
222,-4.726883256460272,0.5364750005839296,1.5089831366753803,-7.0534374473690065
223,-4.952487308823435,0.5804938641207025,1.5843782290404254,-7.2380857893755985
224,-5.0865893830027185,0.5823193304458472,1.6389623936213393,-7.441625094354727
225,-5.206252062776799,0.5783632236694898,1.6950098241776952,-7.7228703477916625
226,-5.420746104006713,0.6113123005809523,1.7640553816806377,-8.04200717611047
227,-5.6918519400911,0.6808869747647286,1.8496851679449542,-8.326614947130443
228,-5.946737388563688,0.7618550279781356,1.956044654953132,-8.492952630010864
229,-6.107313214592941,0.816181832360366,2.080019600342597,-8.576924869015029
230,-6.115663614349411,0.8286508559686312,2.218218022517305,-8.648396235653124
231,-6.089545753796021,0.7981075112789922,2.3861695617627303,-8.693870619371962
232,-6.170729409823186,0.7729556045260126,2.6069562774344996,-8.682762714521163
233,-6.2486403872097345,0.8144504120030136,2.876420261700609,-8.61118418879161
234,-6.175262521397808,0.9180122860492647,3.16039015914046,-8.485384416282958
235,-6.041733733646482,1.0323883846526747,3.425448515936547,-8.357027370170817
236,-5.983162285635165,1.0907865041850622,3.6587674269767527,-8.280895075750026
237,-6.006259410727785,1.1019443750336324,3.8732864028597263,-8.217933190873614
238,-6.079123775153897,1.1059044851256834,4.097287741383181,-8.108143671679377
239,-6.132105597862665,1.1221905741484197,4.345237185782024,-7.983198273228947
240,-6.090450706750594,1.1652355400655736,4.61111976496043,-7.860482054391657
241,-6.0211706847046536,1.2313229329182385,4.891918418574573,-7.751111822846305
242,-6.012503998193122,1.3003324048115465,5.205020513783764,-7.5758167565571926
243,-5.967819102459737,1.3843742910709946,5.573528547979144,-7.334752484914001
244,-5.770214203848126,1.465882063747728,5.988544656148566,-7.046687551345742
245,-5.466856457392449,1.5008787569962507,6.393923948510716,-6.771672576864945
246,-5.150361991354132,1.403744653978693,6.727216072684082,-6.5745655277442925
247,-4.889738354026277,1.1761744519345925,6.971763091083668,-6.434329803988181
248,-4.730019977304314,0.9318385763330046,7.147082413930735,-6.302908732355362
249,-4.598817472071038,0.7567604728724471,7.27044247835506,-6.1925173632020405
250,-4.397903833311378,0.650275843809351,7.34839130914315,-6.119397155721132
251,-4.177942151416056,0.60765837141373,7.3955676904371055,-6.064057968331725
252,-4.021917605006546,0.5918224471857018,7.437138789930906,-6.00011776602963
253,-3.899339349537622,0.5818906932410988,7.481864802338471,-5.867863525649686
254,-3.761213320742181,0.5738898066211844,7.50776897880204,-5.624676733620829
255,-3.6110019342449835,0.567633263714985,7.48463628189394,-5.376072863296177
256,1.9766836007570574,43.72863835791051,-26.120809069608924,12.140780478589258
257,2.234182169565833,44.7860213506638,-26.528236366543734,12.10295962364479
258,2.3860107438338476,45.84465899470281,-26.90963354069218,12.1274056209898
259,2.5521087885492193,46.87659325483565,-27.264947784979363,12.19453233108153
260,2.8517046975233726,47.83914852958214,-27.597327980558017,12.259041201582386
261,3.186834000661211,48.673945605661046,-27.917776111511927,12.300703516745294
262,3.4366432332706567,49.34522903870113,-28.237102946300247,12.304344090059285
263,3.661472324538757,49.89768615297958,-28.55224834628107,12.317592226477274
264,3.9435456616445674,50.39342028618346,-28.85078973436251,12.384791652644726
265,4.280372138463843,50.844463492202706,-29.120815389119706,12.421817331038707
266,4.646974692207072,51.244344282011895,-29.344303047340304,12.343662730882007
267,4.977618014525688,51.576905015979264,-29.485117582945094,12.21056295471381
268,5.210424497532864,51.823108720325024,-29.51749030920245,12.098993381442497
269,5.404877878012444,51.99971869153572,-29.455401098009958,12.005694579528846
270,5.631033957322507,52.121759994591244,-29.327298141476142,11.903951153232923
271,5.818193547186105,52.15049400881889,-29.158240970389933,11.725756439575397
272,5.8932499065047175,52.039715359564056,-28.96464153057626,11.423757653731371
273,5.910522744735599,51.77989336730312,-28.737069442012196,11.105324996177586
274,5.938570114563581,51.375081228932316,-28.460205656501554,10.886373728668472
275,6.003269706521945,50.82581152472981,-28.13526297009451,10.718377118820767
276,6.097989683597547,50.144864311822005,-27.77536201348255,10.513471831246896
277,6.118735246795543,49.370375715222,-27.408934308156482,10.243359063128123
278,5.972295175376402,48.53780320919062,-27.062657413891948,9.89100510644806
279,5.73345411544087,47.64765960518049,-26.737291093677385,9.46099768046239
280,5.5153093466570535,46.693044748304885,-26.416027529474434,8.97257582413929
281,5.342544623325458,45.686642321621775,-26.078036761648423,8.388545930784717
282,5.213586899570588,44.63679209075805,-25.694200728801505,7.684472464011049
283,5.115314513371808,43.542340597438745,-25.247631687147834,6.969746128671902
284,5.016850916356899,42.39007922442218,-24.72747702974907,6.341929647740512
285,4.927426249374736,41.12298608377927,-24.162817097945478,5.711504903415908
286,4.84969652673711,39.69595944292684,-23.615869085568423,4.967148244132792
287,4.680249572406983,38.15377659293478,-23.113777206743492,4.129643241604777
288,4.3375727316972075,36.555712209010586,-22.64061208228384,3.2425626633292137
289,3.916678963594271,34.9027677652669,-22.18010244922064,2.3316550538274106
290,3.5367808652714716,33.18128845610075,-21.7313565054761,1.4117901658972514
291,3.200743377120324,31.375383976248607,-21.263060624510356,0.38597200484027305
292,2.8796499709954135,29.479621268472073,-20.745315914707167,-0.81916246292101
293,2.5402426318463984,27.541542485478388,-20.147838131773575,-2.0217059531215886
294,2.150723340102845,25.61077164362517,-19.45329663799524,-3.037734754755353
295,1.768659974290267,23.692056868264167,-18.677341650861983,-3.9681072122479337
296,1.4517886248493024,21.75957864908221,-17.842699410748978,-4.960079947447664
297,1.0954926825641091,19.735778592111302,-17.004165206047062,-6.019063704586844
298,0.6024283457170281,17.55278231603802,-16.178922075703785,-7.10941511961939
299,0.09029687169068462,15.251613682704033,-15.338118439669728,-8.153315312509733
300,-0.3152795917178838,12.893980525487091,-14.461416281857733,-9.076656204225785
301,-0.6672447429064237,10.465807427381094,-13.543843081639169,-9.94572871423767
302,-1.0552902740396375,7.938053446282991,-12.586832139142237,-10.856210969572956
303,-1.5488096906228732,5.304845033860469,-11.572967084521295,-11.779151945636603
304,-2.180928388155119,2.5661363830037596,-10.490105519326951,-12.67922366780519
305,-2.818522458360075,-0.2648215757655229,-9.354263462295506,-13.62705147633545
306,-3.3230388112620677,-3.164598147642336,-8.185977564527025,-14.685943405823588
307,-3.7952985730179907,-6.112101999646247,-6.9924289957315215,-15.838157176549096
308,-4.36217058652577,-9.093686853325133,-5.776681920815131,-17.036229374343296
309,-4.95479540742656,-12.108760569013956,-4.534394634500465,-18.1995983710749
310,-5.4842761331711305,-15.164304705828313,-3.2629964246905105,-19.263535924962497
311,-5.949885999529086,-18.269839852486136,-1.9837639319550517,-20.281165337261445
312,-6.37922806344298,-21.429551710334316,-0.7156150953130571,-21.32755660766785
313,-6.867174123880091,-24.628790338396904,0.5551989590419193,-22.376074635630996
314,-7.490811126171263,-27.84649952669319,1.852919022806639,-23.389804619047506
315,-8.14867121420785,-31.072511524235566,3.1940961400174626,-24.399218588972495
316,-8.717036443797461,-34.25956314387896,4.585789365651224,-25.479503750951494
317,-9.236046414696956,-37.36366154243183,5.982462044565506,-26.446863575423727
318,-9.803476512142925,-40.32564903485779,7.254132229467343,-27.223885746013778
319,-10.592767634109348,-43.117606053889304,8.285249902381368,-27.881628719486105
320,-11.755104364270657,-45.75783440326614,9.068548910815716,-28.59647324110029
321,-13.222111982030075,-48.330439170802265,9.700133496795175,-29.709487198421243
322,-14.801646320317113,-50.91612728350518,10.355160766149384,-31.403906934528557
323,-16.266694591948923,-53.528885939343574,11.109592715030642,-33.22526452449306
324,-17.754689827210402,-56.829853527054794,11.9134286249774,-34.593102564296146
325,-18.93821550255665,-59.99894309317298,12.473014079436822,-35.283705615166845
326,-19.940173374595553,-62.93958222970174,12.690964608162892,-35.33652466115558
327,-20.837885916811437,-65.59710116863184,12.695764818223726,-35.26057406980045
328,-21.68851139475599,-67.93287733905632,12.727453599278554,-35.50125818278202
329,-22.528387921750024,-69.89183191530758,12.873418308929631,-36.12419134340845
330,-23.36024098108554,-71.45253631327938,13.016494791325938,-36.71779128843005
331,-24.179050456675547,-72.65559292201941,13.044537368905427,-36.83035145016031
332,-24.979107590003686,-73.57958361588007,12.954439506707873,-36.475226122613876
333,-25.754649065401317,-74.36101388794093,12.823018611792959,-36.08128671811026
334,-26.502698088055936,-75.10922876147754,12.712993149673816,-35.79580253081709
335,-27.23117516828568,-75.76363048368214,12.604106801850463,-35.54558812708903
336,-27.934927261433213,-76.2069455726375,12.451968782148203,-35.10206260147402
337,-28.558916504952816,-76.41427687959384,12.253596250849272,-34.49331591299438
338,-29.029957781293785,-76.40139129221096,12.050955676342697,-33.834171591886886
339,-29.30624083978498,-76.18127536626595,11.872971064742881,-33.15303616584435
340,-29.368797111909487,-75.79327167191298,11.710633043788512,-32.4811983351576
341,-29.18257409345002,-75.32081757415855,11.52783124720791,-31.908957819392025
342,-28.752680189202458,-74.8311698365602,11.275723945851453,-31.483424654506404
343,-28.230304277304278,-74.29784033893947,10.946170354099063,-31.10232583921889
344,-27.777552325509692,-73.66477633783238,10.571974900936775,-30.642264184632644
345,-27.376779190547957,-72.92954998880278,10.244162776528002,-30.090082415170706
346,-26.959240283524895,-72.10911342279643,10.09890829073082,-29.48591167835177
347,-26.543191967604773,-71.21021562575234,10.133640975089506,-28.93811624618851
348,-26.166841793158344,-70.25086080614011,10.180803250214556,-28.54243684240304
349,-25.872286640121526,-69.27160049192334,10.12449787246084,-28.1656520498291
350,-25.69301202953565,-68.31178579232184,9.97419242772874,-27.638861800450417
351,-25.581749785108617,-67.38011617003149,9.790555443836901,-27.0635098779641
352,-25.463708453612416,-66.47661192990324,9.63050247193675,-26.5903321238494
353,-25.318523833458553,-65.62430555668311,9.497939240939527,-26.178153290812904
354,-25.14676523083273,-64.84072749834651,9.377805424798082,-25.744790592687202
355,-24.93801514954985,-64.10714200564605,9.268135220927258,-25.236334890703898
356,-24.690052034634864,-63.38483693808236,9.20285677652874,-24.62309040117702
357,-24.417546947884993,-62.63450928425363,9.191986420312901,-24.036090420764253
358,-24.124112189513777,-61.808580598532025,9.203080912472844,-23.615667873580417
359,-23.791857257012612,-60.84423923276456,9.205341274152248,-23.234502081017254
360,-23.394120566675358,-59.69724849708519,9.185447273223739,-22.713046745950063
361,-22.859606128020836,-58.36359476902806,9.117903053974329,-22.073766271662087
362,-22.150436956751395,-56.88022792537596,8.962606446922354,-21.39766264379981
363,-21.415823025645214,-55.34999764886034,8.725924730970682,-20.754855357557286
364,-20.827683726936986,-53.877292295600064,8.466416470003026,-20.20022290820145
365,-20.364903040392267,-52.47455341758066,8.224490742805468,-19.621061198167283
366,-19.936969824327775,-51.11126664862512,7.99584935757442,-18.88307493665099
367,-19.479668226094667,-49.76060322373829,7.776882279266174,-18.123194513380774
368,-18.944409197556176,-48.39711767807457,7.553841150965145,-17.514681610833772
369,-18.387159709133766,-47.03955229138714,7.341160702439827,-16.948318250364522
370,-17.889840154096742,-45.71287824824145,7.158988928110406,-16.266473412202426
371,-17.378277121759112,-44.36658459934316,6.997209814046825,-15.490610368930227
372,-16.758819775310016,-42.94047711335232,6.836070527941035,-14.687581599439993
373,-16.112123514251753,-41.445870382599765,6.658795253765576,-13.925398079139724
374,-15.539756814461889,-39.92132122296841,6.454344564276814,-13.258381300422151
375,-15.012546646398807,-38.39190911874441,6.237231244367845,-12.587108508013744
376,-14.468792350852128,-36.88615910825999,6.029590521550764,-11.788287293056694
377,-13.849063210472131,-35.4419844731171,5.831786679724805,-10.938475811429361
378,-13.116466413844783,-34.0792107464016,5.637994336884504,-10.159899353537426
379,-12.384886716217448,-32.78411267060207,5.449420903891244,-9.445760636829288
380,-11.787741452964381,-31.5231586615375,5.2708313211495685,-8.758951810740934
381,-11.244297811077693,-30.238925037615584,5.116188929908037,-8.08236932293323
382,-10.633348594412269,-28.88831177481336,5.001389756855876,-7.401071079247769
383,-10.009526242432718,-27.508609123614978,4.929537800832939,-6.7656738261669
384,-15.618629004711357,-15.915004573700443,-11.633600075573256,-12.825795377006083
385,-16.087050947918595,-16.40310616019639,-11.971409335299464,-13.253554759610644
386,-16.5362126301789,-16.854480936479014,-12.272278904497501,-13.528461302531873
387,-16.895494162703926,-17.279534181311977,-12.550502568426817,-13.700912536288804
388,-17.11142307330797,-17.674564956439973,-12.820372856536308,-13.856804266286971
389,-17.315705763062436,-18.028697980410573,-13.075233468570856,-14.00139063883355
390,-17.644733611477808,-18.311276004300915,-13.30584153767546,-14.134643410269215
391,-18.021949459104313,-18.52231251057877,-13.506175134910515,-14.249286058464333
392,-18.33964562654214,-18.72179604594538,-13.68028037877377,-14.338486089260746
393,-18.612068312328038,-18.981234584108904,-13.863076485860594,-14.474658057446112
394,-18.87635628369926,-19.301220001477613,-14.089810368083754,-14.721041688504902
395,-19.174473530172744,-19.610043933220346,-14.359341665125338,-14.993682902497477
396,-19.53621898301484,-19.834998804057122,-14.654243883481458,-15.199588126298181
397,-19.8684261307182,-19.98103826909366,-14.958930103008404,-15.39600751175518
398,-20.078144756008715,-20.110308603246366,-15.255077586227086,-15.650359297122803
399,-20.263020716328274,-20.26280045616003,-15.524077137460262,-15.923388251049866
400,-20.529027393235364,-20.431599627403667,-15.75947403702011,-16.163190472055966
401,-20.79354783724082,-20.60406340805441,-15.969154129151885,-16.328030678536123
402,-20.954326245409945,-20.752198797367587,-16.171761591403424,-16.405099369686386
403,-21.014013817049776,-20.86874054136473,-16.404954544549526,-16.517470114571317
404,-21.004068457533226,-20.95557982357799,-16.691932146483396,-16.774506174083704
405,-20.991658889427796,-21.00408347550177,-17.000777633647683,-17.06541425741906
406,-21.031076469949657,-21.00910289411527,-17.2836247613342,-17.241999606893184
407,-21.034993528555116,-20.980543137823634,-17.51042741187752,-17.299403805478278
408,-20.905946338032056,-20.927782315161743,-17.669384332666677,-17.269619451478185
409,-20.707244614144386,-20.8477183207063,-17.7827978456202,-17.168411515918653
410,-20.526267193932163,-20.73607254738733,-17.886152139051827,-17.026553133513747
411,-20.3472935724959,-20.590723502453095,-17.99472432869176,-16.848346811431853
412,-20.14276150801596,-20.41397340837468,-18.11166362229584,-16.642197114908353
413,-19.922033637118954,-20.22999802509099,-18.23994373623987,-16.50547174794174
414,-19.69304921400281,-20.058381298657576,-18.371396634315968,-16.514770868666876
415,-19.478050529091405,-19.875723290255063,-18.47276266541673,-16.598929343873024
416,-19.28752766426016,-19.66919311314526,-18.518885237381067,-16.65823073619489
417,-19.05019305342597,-19.40814692782143,-18.528409681215358,-16.65492678534819
418,-18.701608192867962,-19.11349709949395,-18.53003007361574,-16.579956506530007
419,-18.285395295427893,-18.85642580738798,-18.53784008332213,-16.494501589456302
420,-17.867116773071174,-18.64696485553908,-18.551751909609997,-16.45228062061164
421,-17.48199648731641,-18.417379918860036,-18.53928243455978,-16.343398701651417
422,-17.139091213007884,-18.083425207921316,-18.466479260363418,-16.056567453934733
423,-16.75266368469457,-17.64240109366955,-18.339310753944442,-15.67062850499173
424,-16.24209408211917,-17.121063010665612,-18.179388698055742,-15.297942133183241
425,-15.705166282161574,-16.538774076144517,-18.006047756801294,-14.957944147201832
426,-15.24720187001301,-15.918283253391927,-17.834318628698682,-14.647190537962858
427,-14.781312052335636,-15.26472555193516,-17.659430687538872,-14.338488370877164
428,-14.202285532868553,-14.577154802388161,-17.467752514766715,-13.999172694408472
429,-13.528631518299633,-13.882674492510555,-17.254045504537512,-13.688124477789486
430,-12.808193121067683,-13.20244424514866,-17.01562536888008,-13.455601918358305
431,-12.09917452641387,-12.511349477335681,-16.74968526370377,-13.19120834904854
432,-11.448930512206179,-11.777284152169306,-16.455661072023908,-12.781902308672304
433,-10.785457372009377,-10.998344147671151,-16.134075654879567,-12.27975738135974
434,-10.03060486805783,-10.178713685879194,-15.785799601931847,-11.765121880980223
435,-9.277803839850655,-9.313372885214696,-15.41023905806026,-11.243957012638951
436,-8.623047565430328,-8.400063126658408,-15.008919275937153,-10.705905319232544
437,-7.98003755535054,-7.438537098156183,-14.589483325497822,-10.115946699538936
438,-7.247166710335978,-6.430846430293055,-14.15833022715507,-9.44187314292383
439,-6.433281143325316,-5.3943793613102144,-13.719910886912517,-8.753434257236746
440,-5.575466224618537,-4.345760400387725,-13.271659123561033,-8.122443554246432
441,-4.744577079400759,-3.2728357728253985,-12.786647275209578,-7.468258842128038
442,-3.990659000329413,-2.1668871377678642,-12.243967320145812,-6.710768066473298
443,-3.189737985731338,-1.058277795468227,-11.667081265416158,-5.944943918449017
444,-2.292750998782094,-0.04171359428325001,-11.124739881422629,-5.359125562274222
445,-1.4829250153046634,0.7435125827983604,-10.651590652598966,-4.969762404165798
446,-0.9900043758286924,1.2468317057297882,-10.284561543420175,-4.800043393306522
447,-0.6546898189947425,1.549683597988316,-9.975663567704622,-4.709845134871273
448,-0.2440266713257476,1.7516347484471642,-9.648885961127581,-4.53095387968147
449,0.18980800676317588,1.8906972253201526,-9.302419295306573,-4.381193911134845
450,0.5311950870543263,1.9866795839301796,-8.959153024501363,-4.412423599676003
451,0.7280444214283064,2.0565307423560526,-8.607253541423724,-4.493908390681403
452,0.7620318886365076,2.219957571099613,-8.19768736935245,-4.272060625518455
453,0.738157973300446,2.397041631369794,-7.796149013125638,-3.968692108491601
454,0.813921225218182,2.5615881150182225,-7.423454716261274,-3.638622827930754
455,0.9543812268827496,2.7010314688611983,-7.0739170588402,-3.352832307757674
456,1.0790957148525009,2.8473139703958195,-6.733192215493424,-3.167811658665051
457,1.2216425612075998,3.02180008687298,-6.383957292799917,-3.002261066123735
458,1.4317089009875712,3.242463522160892,-6.015027438413784,-2.7504354047086874
459,1.7365913250275158,3.470869602619615,-5.648055827067132,-2.484532025970435
460,2.149112636744303,3.67551329642421,-5.31280903416854,-2.3060202161805523
461,2.5809224412708467,3.85290876966635,-5.013456272275344,-2.1512150678707016
462,2.93569323295772,4.048058797783598,-4.74337267480758,-1.935023815928754
463,3.2991164442706844,4.295359180619897,-4.490228612057091,-1.686347878530121
464,3.7786214876448248,4.567516374018508,-4.242236676222749,-1.458690270650391
465,4.282327239414722,4.794902045166739,-4.016807437621564,-1.2954288788689514
466,4.6819222283828195,4.970769411567499,-3.83615050143641,-1.2262391768163754
467,4.967768659345824,5.174771788859398,-3.680681585650318,-1.176649380389712
468,5.164565959504806,5.463870841324984,-3.5243452966373514,-1.0583109144339797
469,5.330910966809749,5.83604522621648,-3.3853937697922003,-0.9484522920208973
470,5.521971442221569,6.247159915054587,-3.28567687901525,-0.9443930016672801
471,5.6186796438662245,6.64594496427002,-3.2023468867055236,-0.9652956809863352
472,5.4925481455828615,6.980391784907146,-3.105099162079588,-0.8997630025061807
473,5.298014503607617,7.235217294118892,-2.991167201648628,-0.749186979420913
474,5.230641956193981,7.407284458891647,-2.8629249222174207,-0.5478837762139095
475,5.217526915635568,7.513229377032672,-2.721665184593458,-0.3415038916401255
476,5.128529661358155,7.556513832210968,-2.5660995020688793,-0.17433802566687834
477,4.966687687815657,7.571937973811337,-2.364618142301562,0.007804990411544505
478,4.768292099542065,7.636152042628742,-2.089465287214624,0.26981229469994805
479,4.5982762024582255,7.763005928455753,-1.7744514663821118,0.5363554604453923
480,4.5225172693646,7.882527560268577,-1.4695969159400373,0.707211269021629
481,4.463397515548756,7.9436954040989916,-1.187298093969458,0.7829454493470737
482,4.321802590241506,7.947323397137002,-0.9283842005453795,0.7981222515434838
483,4.1827869439342145,7.906984893858017,-0.6949780649528321,0.7975041857741559
484,4.161659647608137,7.816454464091889,-0.4868016742323253,0.8238039486134247
485,4.2268718225072375,7.677861692205573,-0.3211010724800349,0.8357782719242539
486,4.312013427127109,7.494463868762848,-0.21291217949718508,0.7781418709567284
487,4.388773423031201,7.303545362181275,-0.1402242513228611,0.7019489694296445
488,4.438030463215457,7.1477980199083575,-0.07041919267455923,0.6756535928191376
489,4.50094602443086,7.043182840328341,0.012581277617689339,0.694963404601656
490,4.617775713688897,6.98305937339378,0.11531774631093819,0.7303569956879292
491,4.689096491517561,6.934093414087116,0.2308460542334847,0.7289549502888697
492,4.594178138142752,6.851736331344009,0.34582575635672574,0.6442188612154869
493,4.353289894991646,6.707070547480833,0.46104755655623836,0.5392200517330338
494,4.03264382382584,6.489403023319284,0.5822294744647808,0.5008674272933542
495,3.647032534531113,6.206813791371174,0.704328096800491,0.47695760471684345
496,3.219857750613487,5.884224666027226,0.8233176271608663,0.40097581745398736
497,2.806495095615434,5.558451738379303,0.9486340167064268,0.3731346786975678
498,2.459615213309966,5.262911580486675,1.090146501400881,0.49957212562331793
499,2.2523336168079644,5.008316023311305,1.2467872940535685,0.7181604657159243
500,2.224340347827335,4.791103867666386,1.4120112911626657,0.9253818224829031
501,2.2623852021927005,4.60345028965646,1.5737446697166244,1.0518278560063756
502,2.2282026610725283,4.435226935351782,1.7192777115288618,1.0637336626588065
503,2.1357808246248595,4.284954649903416,1.850077614480923,1.077992072867087
504,2.0427765870754575,4.153911969797217,1.9708575116678162,1.2259865638348408
505,1.9592331003303758,4.0273817115267825,2.0682338537773655,1.3997418779862474
506,1.8805163796982158,3.8874067074266527,2.1282340277186953,1.4400414320693642
507,1.7307602785369385,3.743374246396597,2.1612649235762733,1.3781469015202594
508,1.4400015242132707,3.591049240770767,2.1799162668942227,1.2910281047575558
509,1.128843647068318,3.417699249442306,2.176384395136724,1.182199622898956
510,0.9449502067868797,3.1870315412692545,2.138838794414473,1.0502388142634096
511,0.8292377522438354,2.890271988290922,2.0571633036099124,0.8857627975489987
512,-14.272661098163397,-13.475919551136261,-14.016602319204765,-10.075984187807517
513,-14.170408286881564,-13.768081770969392,-14.421396237194685,-10.336558566017649
514,-14.142913269757525,-13.986698847188675,-14.799435271582862,-10.587530208992852
515,-14.210645687250604,-14.171655862184664,-15.170862292247458,-10.867235301325724
516,-14.355586926995473,-14.382265753596977,-15.563111449848632,-11.214698760254416
517,-14.560857765132972,-14.647934684468336,-15.973797830813778,-11.5843691631376
518,-14.780736840787077,-14.977792048842442,-16.393581215767348,-11.925448269822251
519,-14.929499108861881,-15.342769970311751,-16.813285556506738,-12.240461147661655
520,-14.94741717713272,-15.694321476985884,-17.21972867762487,-12.54349454729482
521,-14.858979198244118,-15.999511768841518,-17.60941785955531,-12.86374404933337
522,-14.724195197629184,-16.239133431561406,-17.978656179960378,-13.219233272288024
523,-14.610857071037808,-16.40600724359182,-18.29962350277284,-13.531330597233737
524,-14.570129113281604,-16.514506905745595,-18.553547851338614,-13.728610282842194
525,-14.562918995625944,-16.59864844957286,-18.76647450906625,-13.895811419100568
526,-14.535145551049995,-16.699177584390302,-18.973666730225382,-14.12612782400246
527,-14.543962394897491,-16.86145685546711,-19.195300688710436,-14.372557851421579
528,-14.640254178157939,-17.108868144984836,-19.435862192295872,-14.564080056161831
529,-14.733537929243782,-17.408462427212783,-19.66284942116074,-14.672712906799228
530,-14.728557976474704,-17.70816557951956,-19.83795849774602,-14.696974541953429
531,-14.639178771286234,-17.976966233825998,-19.96820624966863,-14.717598243757832
532,-14.510991882122598,-18.195835079348694,-20.070547633737053,-14.819021630000458
533,-14.398977813825178,-18.358335988913236,-20.127701252146927,-14.952301287669954
534,-14.346790715871206,-18.472452510604395,-20.129165846687794,-15.049818413898453
535,-14.293289325825926,-18.54606921797309,-20.106073196658066,-15.15836708013337
536,-14.165570392163367,-18.59125577494845,-20.09092762439498,-15.325242837770361
537,-14.036861872168362,-18.639392698945677,-20.0954420800858,-15.513517901850665
538,-13.976962251280844,-18.7117954726926,-20.112474866716695,-15.671683974433002
539,-13.872318147839296,-18.785686503769952,-20.09517387687545,-15.739454268230086
540,-13.611361153420267,-18.82890608207034,-19.99697873010942,-15.681928229984486
541,-13.247875069664863,-18.829453628071175,-19.82920675666047,-15.600503202420652
542,-12.871186096178894,-18.78389693194165,-19.621799721324635,-15.597415014454153
543,-12.556860242775446,-18.70573411968472,-19.380591209970977,-15.583779713001888
544,-12.347659806429816,-18.6060446585428,-19.112711515835162,-15.455062268218398
545,-12.114656390838299,-18.45397121129206,-18.8418430787764,-15.269611572428678
546,-11.731229840995693,-18.219605564895218,-18.58487336452728,-15.111523113751304
547,-11.351288464950194,-17.924049681154514,-18.344250983040588,-14.99873298024563
548,-11.141995701801735,-17.608085798575125,-18.112857262470786,-14.927751988754839
549,-10.983718617171876,-17.294155022597593,-17.860910927853375,-14.862073544483446
550,-10.725821595948268,-17.007538494945678,-17.566438616914237,-14.753027391532571
551,-10.389625746108626,-16.810827502775357,-17.261724147731346,-14.599514164219377
552,-10.031573020471024,-16.73302309160588,-16.985007791057388,-14.416170718744322
553,-9.718781150179304,-16.694884030119464,-16.72908175194081,-14.187730832742362
554,-9.501464929615013,-16.595693442750797,-16.473000772313547,-13.910234714449318
555,-9.263038509761609,-16.377407587525532,-16.200274244303635,-13.625386513770543
556,-8.88561747832844,-16.02560490731784,-15.894459544750935,-13.374658007700022
557,-8.491598829836622,-15.617904246351534,-15.556958569279209,-13.174245794586096
558,-8.220340933057562,-15.243827882883044,-15.192666707218159,-13.016510873554749
559,-8.007192812887734,-14.883822446284153,-14.777789997217617,-12.840347834796344
560,-7.749679284894356,-14.491427696118476,-14.294718654152575,-12.586470586473947
561,-7.406675570894768,-14.076773830423722,-13.77154917314544,-12.281920046539751
562,-6.96365628186504,-13.652308344559097,-13.242444238547813,-11.967506807963396
563,-6.48259496226592,-13.206982129665832,-12.716656266061621,-11.624163184755233
564,-6.037708687230613,-12.72887944621517,-12.191013111401588,-11.228999534980648
565,-5.59415250555415,-12.200060860316778,-11.643654175717133,-10.768048445336905
566,-5.0954919440076,-11.605519477511312,-11.050956348602496,-10.241959961973054
567,-4.562905474075752,-10.958813965363756,-10.424024919118292,-9.747597108359782
568,-4.016423368880073,-10.277419998425863,-9.777105505340428,-9.359671182219564
569,-3.4245208870158925,-9.551857316703229,-9.090016731020851,-8.935408404453105
570,-2.7548363445433095,-8.771216933872333,-8.341064144696503,-8.326736755319688
571,-1.9693370657069103,-7.9444205000173165,-7.529339595113468,-7.6299882668201295
572,-1.1297590101686448,-7.123268291177718,-6.715893344379255,-6.990460476210169
573,-0.4142693026590978,-6.346055951137054,-5.969480893679909,-6.394458970490353
574,-0.01729927693064573,-5.6653364420730075,-5.3752983304839255,-5.810019684035515
575,0.22418101450253933,-5.065150984975422,-4.895517979349036,-5.189804019479903
576,0.547551735443107,-4.498375516799123,-4.441561458055805,-4.4957448828260285
577,0.8948271756084836,-3.9495683215005384,-3.9784332071334285,-3.8225724028515486
578,1.151668799096288,-3.41930101002802,-3.5009684282115785,-3.277088187586709
579,1.3458000198791915,-2.9073640502688867,-3.023005250785898,-2.8174697860236955
580,1.4646429071886882,-2.414996556756792,-2.6694257414190337,-2.4115297627703653
581,1.5844776454909395,-1.9570955226536708,-2.3243851427621025,-2.0479659891063346
582,1.7381336127818219,-1.5369520647298727,-1.9781355114642782,-1.7574869939224989
583,1.9001739357867642,-1.1303591700785711,-1.6405394736464993,-1.5279031065965332
584,2.0349634777446157,-0.7102491453051344,-1.3269772429736466,-1.3313505394791874
585,2.172328437648853,-0.25490587546355076,-1.039956723770713,-1.1168622278481513
586,2.3428563635244917,0.2351873688473529,-0.7760982509598892,-0.8491405561794247
587,2.5147222626607793,0.6898050724038458,-0.5298473502157017,-0.6095932826290712
588,2.639053511788769,1.0343129339897452,-0.29452703650863205,-0.494768392459493
589,2.6595313175783466,1.2774359297834674,-0.06679738212423803,-0.45609320056308533
590,2.542463252816436,1.4660897088536833,0.15254188012987524,-0.4118371302264174
591,2.3670851927748764,1.6491804861240547,0.354664156892754,-0.37679818446091334
592,2.233164581688645,1.8651453483005884,0.5315038075188684,-0.37907614131389533
593,2.1139897885543206,2.101545873074451,0.6907914646748737,-0.41499528621111376
594,1.9477784923549746,2.315883131547815,0.8428446979987895,-0.47018486789156627
595,1.7458028044852347,2.4685550109982715,0.9892796014714386,-0.46278293806552
596,1.5243850754876778,2.533969883643732,1.12702018992896,-0.3226234108269784
597,1.2662720630103874,2.5209075309675604,1.2360373500487207,-0.15564357174874088
598,0.9564393832720739,2.4645296861488544,1.3017684609962568,-0.09547423219200198
599,0.5518124773210107,2.4136128870133944,1.3603104971638567,-0.10145186507855784
600,0.033459080525427856,2.4102042805978763,1.4547135311786257,-0.08565938962698139
601,-0.45248965914424105,2.4604568234868895,1.5792732296068963,-0.03268832686877629
602,-0.7545311494926347,2.5472526067057504,1.7117590785868146,0.05679215007882568
603,-0.9532056195620914,2.6423250152842286,1.8334847796702969,0.16401524360729838
604,-1.1879835433081731,2.7186124143030512,1.9315432338869802,0.25980693249440984
605,-1.4717435633652436,2.7834396336663043,2.031549880958155,0.3849257630781877
606,-1.7789226565602092,2.855103755934375,2.1647878069496187,0.585423835167301
607,-2.060169663076921,2.9179834754447,2.3084387952104453,0.7853897570895307
608,-2.2645215003684114,2.9536422021813977,2.426877941296766,0.9009008312624867
609,-2.4697810545212535,2.9814514324592447,2.522119248641123,0.9955220558299857
610,-2.766510610996595,3.0254434310415004,2.605724942086416,1.157300496937985
611,-3.069213196321102,3.0792675561451643,2.677414945113904,1.3734872035354173
612,-3.253735622845162,3.131464644183083,2.7400923677812257,1.6020242991761218
613,-3.3054164606596905,3.1853111004945682,2.799312598436748,1.796511113242064
614,-3.2493143098130166,3.2471291092880814,2.8607939341375013,1.9210808559400074
615,-3.1163673511027166,3.3277218389392935,2.9470916017633444,2.0369510089035354
616,-2.950004700769458,3.434486376403191,3.0735900106158014,2.2239376778514903
617,-2.769722719344299,3.5492040091783976,3.2056125845182413,2.4483345025483905
618,-2.576066856958891,3.6479727054959183,3.2999623702536325,2.6502843114133823
619,-2.3702199306898715,3.7292305431275197,3.35546980249872,2.8353843847078304
620,-2.1486128892936196,3.799328223337258,3.3856320215595597,3.02114734842903
621,-1.911884295777484,3.8613118362300787,3.4040644936446984,3.2277930462533013
622,-1.6654528315076487,3.919840667395262,3.4204283706608996,3.4635048652253517
623,-1.3910536269031821,3.9717577425305106,3.40800161466061,3.6459589828944696
624,-1.082517271972109,4.013985530201046,3.3357295692504385,3.68583928103481
625,-0.8168319688735602,4.0697599997106515,3.2222561352785353,3.620120192354359
626,-0.6708488567281,4.1581021687988295,3.099582585976792,3.521693109766726
627,-0.618599918365079,4.2512572910798045,2.975614792921998,3.3981803628372167
628,-0.6008114565190187,4.311089345716312,2.850995285465078,3.2436020867624125
629,-0.5631080928906393,4.318410333209336,2.7165055793291724,3.059181211519552
630,-0.475665776526357,4.268431204471189,2.561861179362473,2.845733878213658
631,-0.43274321829168744,4.200672188152274,2.4132226108668977,2.643036336691502
632,-0.537464810415797,4.155582824390111,2.29987126731944,2.4944034454836355
633,-0.7148815073220001,4.086139712667599,2.1962628901818824,2.368868008404364
634,-0.8378073649848496,3.9350257906260633,2.069569202159266,2.2237095101150413
635,-0.8717461552331934,3.7338881281682785,1.939383346801377,2.099615940655506
636,-0.8192254765136668,3.5417555898830413,1.8367003873439023,2.0449260284423123
637,-0.6833105833705735,3.395485148670772,1.7652010083613205,2.023664399669822
638,-0.5001595778477779,3.3156915140400307,1.7211278098102107,1.9870727068885872
639,-0.35655226824036723,3.284078177307449,1.6997644571529367,1.9357005133150011
640,-11.743885844871059,-10.469853666025221,-13.786780314443233,-8.872745956251745
641,-12.076556372756707,-10.822410323182106,-14.265008025187312,-9.13456700490178
642,-12.316861576735434,-11.157572538955574,-14.75657253446423,-9.288806265851251
643,-12.474925826583068,-11.495431719008785,-15.237339559289962,-9.430640085273163
644,-12.588631181685942,-11.856972610945913,-15.68608960697846,-9.666263316913309
645,-12.718241672899943,-12.255149806238174,-16.095495035484806,-9.95162282016372
646,-12.915270497528688,-12.689067355056975,-16.469561651639808,-10.212329955156076
647,-13.104287664886689,-13.126349117263432,-16.824323230656447,-10.442274625862627
648,-13.201782109131459,-13.533109438929324,-17.174647818852684,-10.650335103157705
649,-13.29038121062343,-13.912395956312707,-17.521688449817884,-10.86994441220771
650,-13.460792321269821,-14.278961567390974,-17.854293726120947,-11.126888318325854
651,-13.64826418606155,-14.635005920007194,-18.142878701020845,-11.349442178017208
652,-13.775445445918937,-14.979488128571504,-18.361897922967565,-11.46098351987816
653,-13.848181303194167,-15.31605442267542,-18.52126095210389,-11.499228495503699
654,-13.895797703940099,-15.6409532272639,-18.643765259223954,-11.524702889230618
655,-13.995391176939087,-15.925890783287091,-18.74141588492549,-11.533889079311422
656,-14.201506643595135,-16.159862358860824,-18.825807224853097,-11.52579701619069
657,-14.395977231362435,-16.347610168600564,-18.90925847512936,-11.533982347837883
658,-14.453581210923906,-16.53824115281909,-19.00036622909381,-11.591904520428734
659,-14.435661119737043,-16.75443821364235,-19.110466425797796,-11.751492565179301
660,-14.443093639572002,-17.005259497214553,-19.24408726954478,-12.032878912847735
661,-14.508284178886063,-17.268420461908487,-19.38227626123864,-12.323952923926585
662,-14.637788189655426,-17.505713176939736,-19.501642035700698,-12.50582662038354
663,-14.778978574074836,-17.691177116192126,-19.60012515256722,-12.607286149888782
664,-14.871537091132911,-17.806239683599717,-19.677916747341065,-12.689788925839126
665,-14.961328412649554,-17.836996397268297,-19.71386188711491,-12.742173095736314
666,-15.104023830323925,-17.78582685913101,-19.692489240159436,-12.753649434751177
667,-15.24936573619595,-17.667271116548985,-19.629753690518815,-12.738905927901119
668,-15.335850817195057,-17.51244923643628,-19.547217143412283,-12.717192265583089
669,-15.371227066772096,-17.386422414998005,-19.454274260620508,-12.750975422969766
670,-15.374336019479141,-17.343408940662687,-19.354243369205612,-12.883596991533022
671,-15.345495765241907,-17.377349603112314,-19.23481477519071,-13.02761794484767
672,-15.289750357821463,-17.453228190383534,-19.084856770012927,-13.086578220317431
673,-15.201904665976027,-17.53248578128244,-18.926422417396147,-13.102273076116246
674,-15.07932734312034,-17.5751455368313,-18.781567062622134,-13.135433610510821
675,-14.97911570084024,-17.56178867677962,-18.636126665674638,-13.160429772970522
676,-14.93894384692776,-17.484146679654756,-18.46753651823814,-13.145069002717596
677,-14.86405400192732,-17.321758498488247,-18.26290372720054,-13.078956177856186
678,-14.65590465578235,-17.074625343447934,-18.016075895661,-12.966380211309446
679,-14.339074243762628,-16.74425157895925,-17.738009943415797,-12.8826795453718
680,-13.971612083472712,-16.375717050257993,-17.443565176476,-12.89345088423863
681,-13.60978366082039,-16.013253525203044,-17.131848942220945,-12.922727908756142
682,-13.29233436949246,-15.68682493045106,-16.795211970902166,-12.878512388229774
683,-12.931180220004574,-15.37022836798579,-16.42651291859595,-12.79939969339121
684,-12.441365754323034,-15.019239997720977,-16.01988598964252,-12.73499124370532
685,-11.958715914008724,-14.610425313264408,-15.572583950560327,-12.647842948479244
686,-11.620721137734023,-14.139673239513806,-15.08864686104312,-12.49396617249146
687,-11.31071892689935,-13.631912469966354,-14.586300966950985,-12.249124384107816
688,-10.891189485416461,-13.125060128261445,-14.079607099814865,-11.9146439111393
689,-10.399884159212602,-12.647197750280492,-13.559097512588885,-11.576802035319385
690,-9.910219197327445,-12.212216723517981,-13.007399412641648,-11.321352142006324
691,-9.492826187391508,-11.807251461014252,-12.407505356010397,-11.124956696669683
692,-9.187827607332496,-11.410053178198414,-11.753102365515081,-10.929394004298011
693,-8.860609109358613,-11.016833733149836,-11.069039478866493,-10.699047874025446
694,-8.370708259698512,-10.625285103951219,-10.389076372795355,-10.410333218761075
695,-7.815983869047147,-10.220964427820403,-9.728394477668164,-10.082515016412305
696,-7.32954220596604,-9.789205445576355,-9.092344171046387,-9.750901247334221
697,-6.868968423218331,-9.310619951553061,-8.481605376249433,-9.400526650504764
698,-6.376820434516252,-8.77345590584483,-7.88589116461349,-9.017235269041894
699,-5.88828512050178,-8.2084340366115,-7.288254064478831,-8.6609763508865
700,-5.514765655323629,-7.655166114142064,-6.71729592891663,-8.389956625642105
701,-5.349913087127075,-7.164768463275489,-6.188326940582313,-8.117438234446155
702,-5.4884118070381165,-6.7595372119070305,-5.748800572573569,-7.774856369753724
703,-5.712252101650531,-6.457484051335972,-5.3949987911544754,-7.396299717236031
704,-5.7664578132331314,-6.288158268267316,-5.098298224301751,-7.068041875615886
705,-5.792696438929769,-6.231278616202153,-4.872931714239502,-6.937687440109714
706,-5.988447310067374,-6.211490145949514,-4.727590404409175,-7.09851403015032
707,-6.261667778165024,-6.155143939687336,-4.61382799682885,-7.390346784111241
708,-6.042920683515093,-5.876170429496284,-4.277514719334296,-7.316035854190926
709,-5.743178741459772,-5.549731174895063,-3.930895143083892,-7.181487999132114
710,-5.328421039968446,-5.204184624567395,-3.577602750702074,-7.036912808098306
711,-4.93426802091706,-4.881913101434388,-3.226028843556478,-6.833919653749576
712,-4.707343642164508,-4.614709285111571,-2.8864820051469113,-6.523104374398846
713,-4.5233565026545985,-4.386872252876547,-2.561406060849845,-6.123939607155796
714,-4.2079221909529325,-4.1605999224039305,-2.2510413260203954,-5.680116629079721
715,-3.826546353685927,-3.9156875740499406,-1.97098181414426,-5.266785675435253
716,-3.4922716584602567,-3.641866342052844,-1.732995436661725,-4.953297474937609
717,-3.186266059018949,-3.318708944409658,-1.5106026251356595,-4.708507656086385
718,-2.868336680775754,-2.945766658204285,-1.2728271137663039,-4.470565834614134
719,-2.5112058430149413,-2.5908883922882326,-1.0316966134992747,-4.2593605771168495
720,-2.094912949633963,-2.311639851696239,-0.806021776390382,-4.101080840592471
721,-1.7024623323286328,-2.1176581313576053,-0.5858699147804806,-3.948995600603298
722,-1.42404705522664,-1.9479212766388996,-0.3543576541034013,-3.748238438548758
723,-1.16924867340177,-1.7527470489785266,-0.08935591585142708,-3.469197932454051
724,-0.8208640938853807,-1.4925911953957254,0.22053094796013972,-3.108035639462932
725,-0.44078138787952403,-1.201906061301299,0.533199054491281,-2.7387079872273
726,-0.12595790704766802,-0.9294526649810524,0.7948945456660581,-2.444966415023218
727,0.127061311807917,-0.6910403883857278,0.9986061416452817,-2.2022482229951486
728,0.3460628330536674,-0.45979004630949843,1.1581211027279674,-1.9558065082456175
729,0.5699044560516316,-0.22175439844151018,1.2840388400714988,-1.713979098002938
730,0.832303962197007,0.007285167995429373,1.3911585454186475,-1.4966655738929575
731,1.061838657838654,0.22966248558816715,1.494344138425229,-1.3168600420328809
732,1.1734779264660231,0.4791359806928622,1.598952971683914,-1.1864800557947635
733,1.2249391432131707,0.7515380608459992,1.6988640144829492,-1.053574448552461
734,1.3020473407282056,0.9901951539110198,1.781987715144825,-0.8688817136412814
735,1.3855590780639633,1.1624286408171107,1.8289160837864142,-0.7372864629797407
736,1.4344616560076142,1.2808315360918718,1.8281056811553662,-0.7674464633035489
737,1.4371085080095578,1.358723642298729,1.8045119773111296,-0.8529041098601363
738,1.3938067716251163,1.3862363162215388,1.7914336902856542,-0.8464768974624565
739,1.361879196382191,1.3797235182341532,1.7907024698420138,-0.7460734137413224
740,1.4023954545332038,1.3550756123188596,1.7945533278022754,-0.599465406295719
741,1.466273268285487,1.3285466277939222,1.803654399240462,-0.4689981464908516
742,1.4846160600174194,1.3159198422596066,1.8188911846170368,-0.4157874385515683
743,1.4864237672393956,1.3352664349037324,1.8510711444292915,-0.3864784233796664
744,1.5197589209641797,1.3941015614286527,1.908013437374022,-0.2989743520964747
745,1.5996424401732463,1.460079403421545,1.9624832247582153,-0.20846249606758027
746,1.7251933992858322,1.505457305857151,1.9826124242285506,-0.18540265045687943
747,1.8197700526316598,1.5205749057667695,1.973778240344029,-0.15889532509758175
748,1.8123875463140404,1.530463947462275,1.9531273897145727,-0.04126704109493379
749,1.814656172377172,1.5455812396300797,1.9250432467437562,0.15814050304412014
750,1.9614173106360555,1.5382128496051455,1.892667043061361,0.39911946588512515
751,2.184707981892572,1.5020906800703824,1.855552698303598,0.6233916495020834
752,2.371705965656455,1.433054654531797,1.8105566608197974,0.7768381099111727
753,2.5211640955826273,1.344442555063491,1.774072854215115,0.9186091577161639
754,2.6588572709635248,1.2579808632943872,1.7590830646296787,1.1260632976559317
755,2.8269049050270603,1.183528335939734,1.7302035937397837,1.309739514309373
756,3.0629253865122688,1.122235085222911,1.6499959398000497,1.366533920848937
757,3.267484551316542,1.0681083396183788,1.5404985329200176,1.3904581255018034
758,3.330041552544689,1.0094607399751374,1.4419981571251184,1.5029385901830106
759,3.3574112557717095,0.938284832440546,1.369559865611282,1.6821990652953245
760,3.4875274379879464,0.8500364027176619,1.3297152210215528,1.864697988521149
761,3.6496976433210384,0.7376049959618681,1.3289943444676589,1.9842965347746402
762,3.7321334430393245,0.6017050945696798,1.362541172649233,1.9930001032731552
763,3.7322450219567855,0.46226717545988766,1.4101559557229737,1.9762751015119526
764,3.678289596836998,0.3437072155020382,1.4509459620119902,2.0473064183294816
765,3.6286362386661852,0.26569012579039997,1.475449293915302,2.1750706861186138
766,3.6424924855657634,0.23568281752142942,1.4850582205081477,2.2890587786502183
767,3.650739979675114,0.22751598529747064,1.4947063692797204,2.3803868664867998
768,-7.763188048759238,-10.122181238594047,-13.620937709485606,-7.458716896895778
769,-7.70279856214523,-10.200289374842479,-14.019543979679923,-7.671598009553334
770,-7.5703968696737896,-10.273300253555552,-14.390247747178746,-7.806885943154957
771,-7.417069753440658,-10.364647601399112,-14.748070702765425,-7.936730426539425
772,-7.306408079032382,-10.49032291071086,-15.090227631348244,-8.131437036216612
773,-7.287974158411274,-10.63256980714437,-15.386650714805073,-8.29719028648975
774,-7.382572192572104,-10.755529884052061,-15.614512128585236,-8.342148156987806
775,-7.460095306159694,-10.794710051528185,-15.786184946364463,-8.359292015579774
776,-7.399962323701782,-10.700010481819193,-15.94037124576535,-8.463673626602798
777,-7.338691738712535,-10.505659542808699,-16.114448038884518,-8.661270909860233
778,-7.430267921601743,-10.267979535102508,-16.32231665470849,-8.924609466532331
779,-7.583555748087852,-9.99138545848595,-16.558509887795857,-9.204165600919056
780,-7.6770605861479755,-9.67886331975598,-16.81592552365937,-9.44537717002979
781,-7.718589871658249,-9.368237243749926,-17.082910511782035,-9.677879842478383
782,-7.7484622977192235,-9.100728649129698,-17.346735563464698,-9.939471123054599
783,-7.844971772318331,-8.913241442274247,-17.58801501023375,-10.150014358441195
784,-8.078824454841449,-8.830834327836703,-17.79147963227792,-10.244184148981168
785,-8.360600102838028,-8.845295335278172,-17.952797236154105,-10.309442235769776
786,-8.588593299316853,-8.93637814576488,-18.07818642518751,-10.453455652640091
787,-8.873180086398477,-9.09155853996244,-18.18835774851895,-10.711481552278949
788,-9.320386782393784,-9.306356340023571,-18.304761894679856,-11.074966804464347
789,-9.797516686015719,-9.597713280992084,-18.431862329739353,-11.453100430138907
790,-10.154972465063388,-9.979461295093381,-18.564534260631017,-11.748369283443125
791,-10.400079592583245,-10.431256775007592,-18.696196622114467,-11.99048075303566
792,-10.589293807280074,-10.920501441660878,-18.815464484847514,-12.233515715035443
793,-10.814250699581594,-11.414561945129448,-18.90659144651917,-12.4392027816563
794,-11.15186025579297,-11.892226700921945,-18.956018549812807,-12.563832973494966
795,-11.519740415656365,-12.370405776248857,-18.956561827700472,-12.619144235058227
796,-11.812262991555643,-12.875894039451241,-18.907993332839578,-12.62721502041121
797,-12.080295856524549,-13.410309408056554,-18.81658392437419,-12.609200393892829
798,-12.39350361918748,-13.965346713876569,-18.69600889546879,-12.585101989982032
799,-12.72346058696939,-14.530411108935334,-18.550783422886205,-12.546941736478697
800,-13.025600472783555,-15.088791907119958,-18.38920742507976,-12.47852819655938
801,-13.265681718126803,-15.632325088735167,-18.221604713299634,-12.394004962702711
802,-13.415560353006411,-16.15170546139106,-18.03670303105387,-12.30378591173272
803,-13.50796668770302,-16.608821532413177,-17.811345249103628,-12.173118290669622
804,-13.578240313458638,-16.980420796648218,-17.527413669134233,-11.973085682844637
805,-13.56644675473947,-17.306139707567436,-17.200639693240408,-11.719288218436331
806,-13.41557369794866,-17.638629879686498,-16.854376385211264,-11.441529745942153
807,-13.175634074499573,-18.009266800806866,-16.523615741936915,-11.194531180399428
808,-12.919294543450158,-18.426087118152413,-16.216962268525144,-11.013842034197362
809,-12.68028997188285,-18.84123135054613,-15.915825552295654,-10.81128326151313
810,-12.479604768333417,-19.200462069896986,-15.598467106079095,-10.505742733803771
811,-12.312197008036446,-19.52100158853634,-15.265136209272386,-10.196308715813338
812,-12.163049137892383,-19.835753550316266,-14.931516424115546,-10.000499795896237
813,-12.062084843551698,-20.1273572214305,-14.605013842166041,-9.90033814119812
814,-12.0333469308212,-20.38236476012558,-14.272648574663954,-9.844005716269102
815,-12.02325457236972,-20.63587569034526,-13.9173127823758,-9.790668402307956
816,-11.977585678166978,-20.920918698403828,-13.520760950837909,-9.703850624391464
817,-11.916731980304535,-21.238685352662728,-13.085882179370605,-9.62420525336525
818,-11.87498893407571,-21.57023000421908,-12.625269558434569,-9.593546200363726
819,-11.868318955336282,-21.868415271566864,-12.142791655182393,-9.516169427999685
820,-11.902425431424053,-22.089332993197658,-11.649577727609596,-9.303669888184265
821,-11.924195775305979,-22.231185645341416,-11.154055201679618,-9.036515145103246
822,-11.886895875777997,-22.31927109482134,-10.672046355263392,-8.818870422523396
823,-11.877785896484111,-22.397945055086087,-10.210111870261875,-8.6683464389974
824,-11.97224139626834,-22.5092978953698,-9.750209378491244,-8.570977289406384
825,-12.058003444073542,-22.655778930052122,-9.262548100812149,-8.461539510241852
826,-12.001178962126671,-22.814076746822707,-8.743382236558272,-8.27770065434975
827,-11.792702999812224,-22.966672250838545,-8.221225715293095,-8.092662613899606
828,-11.493789359910592,-23.116541470844545,-7.744066019803066,-7.980209867310665
829,-11.17153413420819,-23.207613883656585,-7.365870554036416,-7.879994182600623
830,-10.913640756143407,-23.22207002250009,-7.098183662035104,-7.713657189561235
831,-10.648011424778183,-23.178574419337714,-6.917220000772644,-7.525969046478875
832,-10.287054721838313,-23.106615251609135,-6.806586322453927,-7.3821057280528155
833,-9.983346621092819,-23.05925485831754,-6.7360155516283235,-7.305851727890222
834,-9.899346807388161,-23.08115602915064,-6.6442524486216525,-7.30030634540556
835,-9.96726283925742,-23.15317041880491,-6.467947035731976,-7.32415201195849
836,-9.758790228718558,-22.904681510076077,-6.106327589213442,-7.13638969609611
837,-9.51740143628657,-22.680346275830143,-5.757100618347472,-6.954160790984582
838,-9.181919273181006,-22.46371637944944,-5.421036384042611,-6.796846798132174
839,-8.838444562122445,-22.21522340967239,-5.092417244127393,-6.599102964279585
840,-8.601181398187542,-21.898167263440516,-4.767208827460366,-6.293125204600337
841,-8.404095949598162,-21.502902699030134,-4.460761204559749,-5.910571811972384
842,-8.147306384583239,-21.04171723882313,-4.180600884432477,-5.515128725453803
843,-7.880385510028217,-20.549410552846734,-3.9325860023281245,-5.1573950302229585
844,-7.6760207529113424,-20.06982691159715,-3.696243650890491,-4.874289143730977
845,-7.5175569148128645,-19.630742020725314,-3.4269816382486185,-4.622000232297865
846,-7.37645045816818,-19.245808421274848,-3.109729540232205,-4.343079843890136
847,-7.236865852917625,-18.921004912547975,-2.7763188548778386,-4.114237431421986
848,-7.089379910101057,-18.646329627047784,-2.4694005889905473,-4.02080959352924
849,-7.010472990853374,-18.395779892566182,-2.2020870751897155,-3.9788638819462725
850,-7.070946347330892,-18.13633415527002,-1.960155873856759,-3.8755405774466896
851,-7.143872055078577,-17.825087239568717,-1.7341072551348562,-3.711244068907364
852,-7.083895804748653,-17.43345878106222,-1.5314148057546544,-3.5233503620587228
853,-6.979213547292836,-16.9877372867601,-1.3581107080435255,-3.3604801442487204
854,-6.9652288968164555,-16.53490574504321,-1.2033821625629975,-3.26893315884056
855,-7.039407512870364,-16.089030581197907,-1.0479945275607823,-3.19999560055657
856,-7.154907474148451,-15.655630344610225,-0.885944898916927,-3.0851042963376716
857,-7.231986276139749,-15.265920906639078,-0.7276160540861806,-2.973999056227771
858,-7.194437118788188,-14.937245232174169,-0.5903705523393077,-2.9306900558205506
859,-7.119955595931072,-14.633838819939145,-0.4821455246055165,-2.9109231232076245
860,-7.112662228416745,-14.304059555784512,-0.3990351197728114,-2.8464608971925847
861,-7.099177329117518,-13.910614836304186,-0.31325971508855877,-2.704821736739273
862,-6.9678379445323575,-13.434124104093959,-0.19223993428034758,-2.471130017465803
863,-6.716952475381226,-12.892644580547604,-0.029873357847216647,-2.184258411044753
864,-6.378073195301511,-12.32068837070765,0.17007404415120284,-1.8951776060064416
865,-5.975814615137516,-11.73725590372408,0.3863157857939076,-1.5673943860810078
866,-5.543154676899159,-11.148302191830542,0.6025155108378027,-1.154396124408582
867,-5.09622800258742,-10.5383606526751,0.8090224499343394,-0.7080873962934594
868,-4.635451187663485,-9.884802385611197,0.9844770888518019,-0.29993015496890296
869,-4.162253398987168,-9.194593273643957,1.0997241519414795,0.05180364209735386
870,-3.675711138303472,-8.482294547829026,1.157795281781661,0.34521743692985746
871,-3.1723786185402476,-7.732007212034982,1.1952666484416385,0.5992395670664962
872,-2.6495307438882385,-6.929642266229301,1.228219625098227,0.836034642024966
873,-2.1091801248155773,-6.100856200327852,1.235771613170351,1.0023302644229142
874,-1.5533734316642964,-5.277371435285888,1.1913844780639748,1.047303433933961
875,-0.9746051118598249,-4.469265589275703,1.0990850790979445,1.046738444059578
876,-0.3745057593476883,-3.676110447400676,0.9892999650882472,1.098261846975607
877,0.22973549860345088,-2.8751897383046225,0.897182358943588,1.2162062259302644
878,0.8069926382701205,-2.044355852922752,0.8424524227006644,1.3776479302878686
879,1.2751192131790567,-1.2200036490964106,0.8261107856177337,1.5123455981801759
880,1.5769560524561834,-0.446017698041234,0.8379472362807705,1.553059614414222
881,1.7975346482534582,0.30690445122046683,0.8969743176016858,1.5727536284102426
882,2.0557378394191113,1.0798487495155364,1.01314265686924,1.6723678504511867
883,2.401800789406642,1.8545767851243071,1.1709546827790767,1.8013091556551246
884,2.83225472968072,2.600137388599641,1.3290460912563407,1.8807727246506845
885,3.2231504147305756,3.308423589484742,1.4658519645662849,1.9458521933396842
886,3.439264949594605,3.978840401943117,1.5919507431654116,2.0462900086126368
887,3.5594483574502473,4.626166060062134,1.715789508380661,2.172023451375731
888,3.7119304663465162,5.271762202786111,1.8288319610711616,2.299676766118375
889,3.8381260360214826,5.910004691580624,1.9227587352722237,2.383698346222738
890,3.8533395838924784,6.531678632497059,2.0031046606063936,2.382267022290048
891,3.7976751350873745,7.160526503056468,2.084204143426552,2.360587363528392
892,3.7328507342890256,7.816358025614358,2.163597045177542,2.393839498146694
893,3.7163278407465885,8.485463851908932,2.208721384555794,2.391497010453492
894,3.783700732352774,9.131768693980055,2.1894524243510682,2.2491852322826724
895,3.811504447780908,9.681866077969493,2.109345606308294,2.04641026310268
896,-12.615519702385564,-14.808779592102088,-14.63758902937639,-11.663694772280657
897,-13.026877980670097,-15.169451756511911,-15.279740137202626,-12.090810241794507
898,-13.403039159517187,-15.453304719341428,-15.935319138539766,-12.470920939144314
899,-13.741309639953347,-15.666211752722207,-16.585449813776833,-12.880298484671002
900,-14.032449441084484,-15.827783895339744,-17.202854988370174,-13.370679853321217
901,-14.269378681712288,-15.946552691706687,-17.75682357029727,-13.823832808035961
902,-14.441396879972434,-16.028538639825893,-18.227969719203074,-14.109134735128341
903,-14.523915415288666,-16.08596868607812,-18.63877785865015,-14.281221398321703
904,-14.504184495738212,-16.119641417015806,-19.020149769390496,-14.429784578158761
905,-14.399389455697257,-16.10051089192968,-19.37217094153024,-14.55664294932747
906,-14.245770090785783,-16.00417675883512,-19.689303644572217,-14.651444464100882
907,-14.1049470134376,-15.838583442476232,-19.971589514876776,-14.690183900949457
908,-14.022930285764621,-15.633036693504966,-20.22482347037601,-14.65689966737127
909,-13.974434588501492,-15.44595888014261,-20.48476081120076,-14.654884459796573
910,-13.909779474762116,-15.329681352491948,-20.782058505516193,-14.779165887343133
911,-13.805447795722163,-15.27118809219643,-21.088426738881996,-14.916120029613442
912,-13.653847998471623,-15.23984130475672,-21.36477700630061,-14.944817191973998
913,-13.448983463193986,-15.248661010645842,-21.61604041662794,-14.96997058659926
914,-13.203881767821118,-15.306975236939412,-21.84910841476667,-15.109198941098352
915,-12.995278420346866,-15.379699239600317,-22.04198749742842,-15.311978134533854
916,-12.87482593685528,-15.429846157433598,-22.173667527860484,-15.493466811432619
917,-12.740737913441754,-15.441650162777533,-22.228019575857367,-15.584430839850642
918,-12.486201794271194,-15.41158751258475,-22.20575349352714,-15.544575467070096
919,-12.15153673820116,-15.366071220323088,-22.162574331480688,-15.470147428511362
920,-11.813297935906451,-15.331122088900512,-22.153448041410066,-15.473756327525331
921,-11.539253387565747,-15.272910650146446,-22.16468659585885,-15.503911337337362
922,-11.370459955671116,-15.157220483637802,-22.16301325719861,-15.488108137805902
923,-11.186174344227839,-15.024771942463742,-22.134961531639576,-15.477951760745244
924,-10.8748673723656,-14.919765355804435,-22.075097335018064,-15.532959300793397
925,-10.610349700894952,-14.827385976090497,-21.996963042596462,-15.645686797161598
926,-10.57394061684048,-14.719790002826787,-21.92005765782118,-15.79094042930552
927,-10.643184796327779,-14.572655655803368,-21.840174649002446,-15.923681740393896
928,-10.653937597217046,-14.374415919319514,-21.74660346742456,-16.000073678477463
929,-10.606947334758914,-14.167372913652446,-21.643351948322767,-16.0419846138295
930,-10.539093192979841,-13.9998032044113,-21.53188089898427,-16.083285716432652
931,-10.511792197308052,-13.861185711047494,-21.396117772784397,-16.085949044008554
932,-10.572741818087861,-13.723810434047744,-21.220929905523473,-16.01413802959873
933,-10.59962536900008,-13.581533034468999,-21.00671675334386,-15.921431499486188
934,-10.46508066397018,-13.424288394049906,-20.758133258391787,-15.85534810128739
935,-10.264400526603106,-13.230492804921495,-20.479005965636624,-15.773600872073443
936,-10.120078816246322,-12.982396106708729,-20.170937013521456,-15.61868030393094
937,-9.996324594229467,-12.657940568817416,-19.823968944878175,-15.350536119539854
938,-9.832235551840062,-12.250913903077572,-19.42681677629016,-14.960103782958452
939,-9.612773694159522,-11.812034740551397,-18.984731316955557,-14.53936585813528
940,-9.337138906576863,-11.392218503647403,-18.506410294910257,-14.18489359126167
941,-9.058155925149896,-10.97476557251128,-17.983713053948954,-13.86150384306044
942,-8.831166566141748,-10.52701406982578,-17.413615865122477,-13.506434032617026
943,-8.620413301035127,-10.043771356287854,-16.824870500697692,-13.13262724446593
944,-8.373514804438768,-9.525382540753705,-16.245079062815716,-12.75739355516169
945,-8.10000684427642,-8.982096173718102,-15.669619900839507,-12.37202698026247
946,-7.819567254009475,-8.425235918226043,-15.084146646436627,-11.965668463203833
947,-7.532632234765234,-7.830644639435857,-14.476390880863214,-11.49089764280748
948,-7.239831980506758,-7.179223520673599,-13.838504915023632,-10.919806388338847
949,-6.928446632556129,-6.509730258669748,-13.184959707472725,-10.348999295403123
950,-6.58570068459511,-5.865709016801256,-12.533392753245096,-9.875189873379458
951,-6.246974864941309,-5.250915550868148,-11.875271726042275,-9.458535486637558
952,-5.938346135202205,-4.651769928649232,-11.199094899599176,-9.031605413596447
953,-5.592909969249582,-4.036868203341664,-10.510853876804145,-8.5623821158714
954,-5.146381425931769,-3.3772383492509723,-9.817776935098157,-8.045889020606072
955,-4.6334406575868385,-2.688362713624277,-9.125734252332197,-7.582661896503821
956,-4.167713924740488,-2.0406727969640714,-8.485274097758376,-7.255586623423153
957,-3.812838705426338,-1.4605184038431487,-7.9140448889587,-6.981567446465351
958,-3.63931916127092,-0.9934491229812524,-7.449119216844748,-6.644403948571632
959,-3.5270637056434277,-0.6401757964909692,-7.075737117379265,-6.31101643026617
960,-3.325372541421154,-0.3745727632306689,-6.7450095635762155,-6.0584502332677435
961,-3.139667278221803,-0.2021187009690523,-6.425873714247859,-5.816097817152067
962,-3.1052989793992287,-0.12416035994236943,-6.100236615839862,-5.5102729203105305
963,-3.1210992912698776,-0.08320702641500197,-5.750817544210139,-5.146959990777755
964,-2.897496853406966,0.020546122612584344,-5.421621033018572,-4.787858134169461
965,-2.6606598846948795,0.11624795576146282,-5.0920602067613245,-4.47005223325742
966,-2.486588411242769,0.16455164069199668,-4.795674138785651,-4.270623579361855
967,-2.4491142407254163,0.15611104982447388,-4.541085678907677,-4.118802658928604
968,-2.5933682117633485,0.09785705352147447,-4.323146585430268,-3.9172832398240587
969,-2.836171276629526,0.017560855162870672,-4.133148771508739,-3.6966845990878894
970,-3.0556474528776087,-0.04807324884049427,-3.95536557786856,-3.5135651864482527
971,-3.2470891251705436,-0.0905620982985055,-3.7762226423490555,-3.3694409014925517
972,-3.4344528693190357,-0.11104156348208269,-3.58542948035446,-3.2506248243868865
973,-3.5535186596138684,-0.08756539966623829,-3.358612157037921,-3.1000807224900884
974,-3.5471676887544605,-0.0011193388961711894,-3.0819217017343865,-2.8621764243914445
975,-3.456731801548936,0.13243168977739442,-2.800029678799501,-2.6151408226792285
976,-3.3421874482257454,0.28852960129500105,-2.5638883334652554,-2.4493065217166543
977,-3.229730942248627,0.46680604204667453,-2.3551454943722194,-2.278791792610194
978,-3.128220141656528,0.6653117683588351,-2.1382157910808455,-1.9921746146050732
979,-2.9828067311341306,0.8547245108573313,-1.919311706082155,-1.6110321619589751
980,-2.744012828356944,1.0040007468949839,-1.7117468940623761,-1.204062260332947
981,-2.514706818242462,1.0952215350758139,-1.5171438347369264,-0.8586358069609252
982,-2.4171431967855304,1.1301187117929024,-1.3353680634119205,-0.6534296625743875
983,-2.4195253485094015,1.1497013190727152,-1.1453665865794684,-0.5345462396723597
984,-2.444792825844184,1.2073566669379951,-0.9272132096319027,-0.4102181979976774
985,-2.4486679935238387,1.333799302511676,-0.7145095350790137,-0.3343963965885667
986,-2.408340229227931,1.5343191861605263,-0.5451889840053951,-0.370201249773428
987,-2.399461137141127,1.7831749442263338,-0.39266074972845727,-0.41049725260087605
988,-2.5115257034515226,2.0305849459991876,-0.21557586497722125,-0.33269635107798107
989,-2.6728409708139456,2.2205998070847373,-0.00790351485727462,-0.14344419142851922
990,-2.7821366657501017,2.3077181017423403,0.22213165844523658,0.09917763904551224
991,-2.8825637791231995,2.263754053581767,0.4555238179580308,0.3040539285554689
992,-3.0465662849868473,2.091731109388332,0.6645207178586011,0.3836851369623524
993,-3.2759094602459298,1.8586558665068997,0.8401859574739683,0.38258878400258745
994,-3.554971857403615,1.640411491980446,0.9779908300384603,0.38374491701251057
995,-3.844620886083908,1.4370221248872117,1.043865721667384,0.3383480813096971
996,-4.0965650246559875,1.2253567428111285,1.0125075855137144,0.1875518455750302
997,-4.359138634784182,1.017543515120103,0.9105652925332112,0.011737866639028212
998,-4.681452736840522,0.829444643994332,0.7820641471869875,-0.09293762824900248
999,-4.9132598697852945,0.6836466335298834,0.6674880842244969,-0.11875143625228439
1000,-4.90330142864598,0.5923916268312334,0.5903847416761983,-0.09238278663806693
1001,-4.78074865214125,0.49235224804714467,0.5140805921993149,-0.08163243523917313
1002,-4.731453658904467,0.318519705538726,0.387071998924887,-0.15143723580538804
1003,-4.7586205749515385,0.1075142571696295,0.21248796626721675,-0.2350299373422433
1004,-4.81116089089237,-0.06875803948954658,0.01502891196933253,-0.24167915909285373
1005,-4.831508764754534,-0.16309999351454232,-0.1892978082914626,-0.22781308756138918
1006,-4.768169136754363,-0.14867223176806085,-0.3851307398458999,-0.27588147882335756
1007,-4.723463334784004,-0.04787515222072118,-0.5686687622573223,-0.3625908592115609
1008,-4.814096783563384,0.09035846517811214,-0.7439016821531989,-0.4404889359131277
1009,-4.924986243808356,0.24028815889944277,-0.90741779092562,-0.48173250836998
1010,-4.893572579514391,0.38939974049795756,-1.0533184059624559,-0.46433750459564566
1011,-4.727399734124582,0.5269107495382749,-1.1775943281876569,-0.4269460911907185
1012,-4.4848983326915395,0.6551984283250545,-1.276499312223602,-0.4151432756648704
1013,-4.187088697647754,0.7923282818221081,-1.3465429342273154,-0.35285931385629893
1014,-3.858077589636131,0.9562699025266159,-1.3857488874263162,-0.15835615256603647
1015,-3.5155244071756915,1.155415116230932,-1.399952902701855,0.08991334320414043
1016,-3.1595090601027027,1.384520374781584,-1.3935904574642572,0.28664703353030074
1017,-2.7865937646930155,1.6105102627371242,-1.351695629466432,0.4271859343056975
1018,-2.393901668225886,1.796923921156441,-1.2613985360298503,0.5440227595440227
1019,-1.9850501362080923,1.9412794056345797,-1.1358730632088676,0.7152008668466252
1020,-1.5713736072788664,2.056302217818649,-1.0002329594456811,1.005498861102221
1021,-1.1636970825459447,2.145476815722317,-0.8879042015905345,1.3050506714898726
1022,-0.7783818189477323,2.2106008960664276,-0.8256000046914957,1.4706554178482807
1023,-0.44927301056655977,2.2609018519746806,-0.7985424200327086,1.5366493899069391
1024,-9.639712654520144,-9.934132675233581,-14.451146077182829,-9.61049820036576
1025,-9.994175232838229,-10.25463878065024,-14.773914922470897,-9.69514631646915
1026,-10.210205045550882,-10.558483868067816,-15.050114414640786,-9.805920588353011
1027,-10.403070761423113,-10.814354799805413,-15.28686085149463,-9.96464785948818
1028,-10.708690536216718,-11.004501586768415,-15.506094378239126,-10.183532330577247
1029,-11.028783077324848,-11.12196519339889,-15.706444208978198,-10.435861984219796
1030,-11.24521629071617,-11.182996949218477,-15.882619150159746,-10.685394860813512
1031,-11.381906191245898,-11.258426363590862,-16.056023757372866,-10.965489516218708
1032,-11.495276457165481,-11.410921258452351,-16.240684209867013,-11.305719654425461
1033,-11.658712970567528,-11.61865649789713,-16.40550180136402,-11.64114991843702
1034,-11.930177209484546,-11.83712925624217,-16.520436292902577,-11.90499581239709
1035,-12.228769929072945,-12.050772071887359,-16.593103807287143,-12.099256901298691
1036,-12.459552959804576,-12.25386974963887,-16.646292122140494,-12.250797237721988
1037,-12.68522446597484,-12.466967581669659,-16.721592750890157,-12.422570794512316
1038,-12.981822580771876,-12.706348565569325,-16.849127852757608,-12.656511773455085
1039,-13.312166795861726,-12.924218030486724,-16.98785941227542,-12.857666607733309
1040,-13.616153768642778,-13.068546987405126,-17.089811380730882,-12.920787726918167
1041,-13.8381694294234,-13.144163966143838,-17.173587311057116,-12.882673399303261
1042,-13.942857561878139,-13.178955130160094,-17.273984242957116,-12.81451426777917
1043,-14.0005464076089,-13.208704714367459,-17.408289475466447,-12.733755843263827
1044,-14.09229217529358,-13.269538902624346,-17.583524895622645,-12.655898727000862
1045,-14.170946218555597,-13.365619013470774,-17.779576647075032,-12.595648958759929
1046,-14.173792429804113,-13.485439838008533,-17.966938258742093,-12.563100117248254
1047,-14.13754799058907,-13.637013084396244,-18.136922716753105,-12.613374707597584
1048,-14.106880133517452,-13.816310740977427,-18.28986292995284,-12.782816394753812
1049,-14.076452312441507,-13.970485778385326,-18.424646375384736,-12.988397896102905
1050,-14.034842671446851,-14.049783302179819,-18.5438439183562,-13.137676165126914
1051,-13.953141617080709,-14.054311412746529,-18.654022063085254,-13.252165420386152
1052,-13.815555984073805,-14.006660700937845,-18.75753260275336,-13.372456526731208
1053,-13.709088597088513,-13.938974843136082,-18.84628607397531,-13.482981561989602
1054,-13.711799268087182,-13.88593603888034,-18.909382757592393,-13.562849042908457
1055,-13.743537277319232,-13.850984995328039,-18.937912834424125,-13.589815114373744
1056,-13.704893893522653,-13.827748960287995,-18.927292760258755,-13.55194148674763
1057,-13.60948851769029,-13.850073890983898,-18.88543522171044,-13.508518702359357
1058,-13.493116975928393,-13.93402019778353,-18.820729464612395,-13.517826015099265
1059,-13.379537643456418,-14.004704304941752,-18.725248405835654,-13.531444312488574
1060,-13.281637043624196,-13.98383757980335,-18.58687367313498,-13.490338241721082
1061,-13.120376005181798,-13.87572478352192,-18.40371195598564,-13.427510683599309
1062,-12.828007742475613,-13.714264583975403,-18.175503019824227,-13.383451380047767
1063,-12.517548727886359,-13.528819047385996,-17.893665974487348,-13.346021880689003
1064,-12.31137851487503,-13.354193309742415,-17.55690438866366,-13.292580991312882
1065,-12.149216717557746,-13.206169395558327,-17.185529306207957,-13.185061550485765
1066,-11.944307388198052,-13.090674324275634,-16.803609635180592,-12.99463305638682
1067,-11.702797388594103,-13.043311692298042,-16.425873172124167,-12.781153071863933
1068,-11.446199780959704,-13.075820066571472,-16.056171369351127,-12.602118729691128
1069,-11.21700536887666,-13.116052108065146,-15.680442337480777,-12.38114440860723
1070,-11.042022481230092,-13.077782250432502,-15.27831654015859,-12.038085144915357
1071,-10.801961545237223,-12.913696174133293,-14.836943826866765,-11.624403771822735
1072,-10.383243762713935,-12.611360131812358,-14.352218278837688,-11.214388151048317
1073,-9.897464300129752,-12.224726601100054,-13.835248011037109,-10.828608874801095
1074,-9.475092215883986,-11.824433495323984,-13.304250776662705,-10.47240684364372
1075,-9.04598476257494,-11.407080345591924,-12.765609082035917,-10.119961626036691
1076,-8.523125434074563,-10.960274793373225,-12.2262280903457,-9.743378196453516
1077,-7.93192229981704,-10.546358856277175,-11.712644692192258,-9.390286770774683
1078,-7.325981866005939,-10.214476702692522,-11.242168909518188,-9.106957170352029
1079,-6.802026294119059,-9.924553172998488,-10.795326190132556,-8.84293705224434
1080,-6.432963007938858,-9.616141860136524,-10.33857167382193,-8.534177453958018
1081,-6.100081657080593,-9.244379747725896,-9.839224073180697,-8.17298863639174
1082,-5.66779548440586,-8.783722114290436,-9.268150182117745,-7.766878831369731
1083,-5.21949340240551,-8.277033535286577,-8.619541467144067,-7.329840731644849
1084,-4.909664125207138,-7.772197993752556,-7.934286082634358,-6.871631371701301
1085,-4.668514155247179,-7.295491987305324,-7.274515918016791,-6.39072464248872
1086,-4.444736021623875,-6.851429854226794,-6.685170996655051,-5.883448454265764
1087,-4.188011512940519,-6.50433765962667,-6.211185077405321,-5.461619639870098
1088,-3.85996241520528,-6.296244333187127,-5.855719274417952,-5.225466453335479
1089,-3.609902957431742,-6.166880583752549,-5.5848228553661565,-5.072015904481143
1090,-3.581842466797415,-6.030531335501522,-5.353734367461191,-4.860924375028227
1091,-3.5935720624424023,-5.8505337276957246,-5.132881640408473,-4.59049670781343
1092,-3.4711092547273066,-5.568410890678561,-4.892909279404156,-4.419041352536526
1093,-3.248137715219472,-5.257823488866802,-4.646187483467709,-4.259529416457703
1094,-3.0765343521242796,-4.9518037845143645,-4.393348316901523,-4.150347779959783
1095,-2.985569481124123,-4.651512284389576,-4.10482667788095,-4.0180489828600106
1096,-2.9604367647251935,-4.348471475803093,-3.7556051104382076,-3.773496466375826
1097,-2.918712376810793,-4.065378544842887,-3.3792164081975176,-3.4656853798983556
1098,-2.7707490026057218,-3.8237521684270788,-3.0286216677794546,-3.1813131113303807
1099,-2.6113399475572487,-3.62683046313525,-2.7419080881414315,-2.9392112261454466
1100,-2.565755085019717,-3.460674525493802,-2.5379641718989383,-2.739243308671223
1101,-2.5491287860579157,-3.2586464393766352,-2.3889720715445826,-2.5766864641132194
1102,-2.436317676012672,-2.9597382069928853,-2.247225459548978,-2.4319731342915145
1103,-2.250325205781119,-2.6061392611968888,-2.093047438649998,-2.309633513615493
1104,-2.0466542411698896,-2.271083553734278,-1.9205072521200877,-2.2126209226119924
1105,-1.8317774627651382,-1.970372344733403,-1.7221042849738621,-2.0748604344139063
1106,-1.613546802173043,-1.7028802376786958,-1.5013598212041601,-1.83890722393642
1107,-1.3888884813120923,-1.4690409482266764,-1.2737487738872835,-1.5537307609992115
1108,-1.1555241459687706,-1.2617046332130215,-1.0579602552672027,-1.2993659240277082
1109,-0.9894723988298098,-1.10062604593611,-0.8769470379391033,-1.1284963857226773
1110,-0.9611222395062349,-1.0006978900320918,-0.7438893335059906,-1.0619103479874064
1111,-1.0026028742663773,-0.9003730266330956,-0.6402729874365496,-1.0296875813292208
1112,-1.014614472036833,-0.7319427943650904,-0.5358089577046348,-0.9401309308697124
1113,-0.9864642545567143,-0.5180999134354982,-0.4133866407005878,-0.805622076896859
1114,-0.9382100966052799,-0.30742130527444,-0.2655243446206832,-0.6749810597506538
1115,-0.895945658158291,-0.10463933709161054,-0.093406137849726,-0.5392095150581462
1116,-0.8887321603760121,0.09188059056983061,0.09214830525993362,-0.39109351284769245
1117,-0.8883861622335203,0.27087954111915613,0.27426012868513844,-0.2853550059645168
1118,-0.8548106450608367,0.42406850546096747,0.4398909236952425,-0.2666845468322226
1119,-0.8254980708748876,0.5375617692834506,0.5882632303605854,-0.3120981918754486
1120,-0.8472983485016476,0.6049252545429077,0.7287209282859276,-0.3707654644426457
1121,-0.893967239085663,0.6537461156416222,0.8834919253034208,-0.3641259132014856
1122,-0.927744259707949,0.721630957506268,1.072429718703342,-0.23431249156146872
1123,-0.9388293696262681,0.8316262040783909,1.2865005427136893,-0.061269581093569295
1124,-0.9309246121503921,0.9909304160050911,1.5047652394814799,0.042982475110547966
1125,-0.9659632816096836,1.1801767087654638,1.720827453858116,0.10334960517249459
1126,-1.0966934293691581,1.3662818535630747,1.9295731806616323,0.17241211034091788
1127,-1.2244672538577464,1.5273903600780392,2.1127206926585713,0.20813193652803488
1128,-1.2284919571447277,1.6524860904309824,2.2572013625189107,0.16384376708312345
1129,-1.147360778747021,1.7347283404418579,2.369045614625349,0.03687331478542438
1130,-1.0608392072702253,1.782739156947578,2.4641986678406362,-0.14612532985456422
1131,-0.9721314194494922,1.836514749098772,2.5680805145996963,-0.2744181729119728
1132,-0.8722179345999987,1.9376341026690507,2.703006874988731,-0.2347369362655784
1133,-0.7514619800852858,2.0901638947333905,2.860108063528782,-0.0690138974902389
1134,-0.6004174555718287,2.277812342298924,3.0196883107062806,0.13432309171928156
1135,-0.4905538922699155,2.48672008706321,3.1864420334105317,0.4017660095071136
1136,-0.49508653352236087,2.695445051254497,3.3641770917969653,0.7609884046990149
1137,-0.5227851342227507,2.869872331576203,3.529510797196847,1.1268250597026466
1138,-0.46687792700938624,2.983145853535408,3.6568166735519005,1.4017805846012892
1139,-0.4239858121339871,3.0276822842256723,3.7283643964142428,1.526833068210151
1140,-0.5153536088095224,3.0160315629853613,3.742894321733672,1.4861224982926655
1141,-0.6950973118893699,2.9896411333893878,3.7486634857420382,1.3997476970015512
1142,-0.8725967623302647,2.9945833563925817,3.7996703121244324,1.4018092270284321
1143,-0.9675726631246443,3.0470742260938923,3.8936135036473103,1.4255293200571195
1144,-0.9272731738415249,3.1413474889487323,4.013685446237182,1.3570014680174463
1145,-0.8716923365662561,3.2608601495841425,4.106403065787401,1.226261511262437
1146,-0.946913980560908,3.3763943516416197,4.159381150530258,1.099307048701009
1147,-1.0499265956290453,3.4533609423979272,4.174500429193587,1.003597654350365
1148,-1.0362709114195185,3.466192878160098,4.170562140752337,0.9604645408847298
1149,-0.9916549379743883,3.397306479612316,4.1446023558124585,0.9518885448122926
1150,-1.039354787409416,3.2522475540803786,4.089052250285124,0.9456251942697542
1151,-1.1692270421387245,3.0978289705596223,4.024277670698041,0.9791425184726323
1152,-13.332098090821438,-11.086945759063388,-14.741103733716804,-10.155945365516878
1153,-13.459022871226272,-11.375241654081137,-15.359265114802964,-10.317134011816322
1154,-13.355041251995731,-11.648842758494707,-16.03105922771098,-10.48631814636187
1155,-13.200758272015227,-11.908223158173975,-16.753221738199944,-10.718282102928068
1156,-13.12234170838571,-12.14891293472672,-17.472901258401077,-10.941919262063166
1157,-13.091874181237772,-12.373410004741705,-18.146086458660918,-11.10042333968667
1158,-12.933358787421191,-12.578504275447141,-18.78531036444079,-11.144146107479932
1159,-12.619653428740625,-12.786744629993398,-19.44388842932238,-11.11911967925062
1160,-12.375548860407338,-13.016258122514209,-20.112854861516485,-11.127563194628266
1161,-12.344577519874356,-13.306443862391317,-20.590151396311953,-11.280647097818306
1162,-12.561350982416148,-13.721517238385644,-20.59388562714601,-11.578060726715048
1163,-12.763814851951476,-14.26492455948779,-20.149476864602846,-12.07278224213416
1164,-12.595030759584636,-14.86130646110404,-19.71914288383705,-12.577830839926797
1165,-11.638163403815817,-15.424443538069596,-19.812598783690355,-12.548404464210746
1166,-9.853664195981883,-15.914818404875449,-20.46690966759834,-11.761556463911736
1167,-7.950530992384868,-16.318660366791022,-21.119127729003758,-10.58990695122839
1168,-6.88966774925669,-16.63781338231714,-21.093885976685947,-9.923231727426224
1169,-7.133748238225197,-16.849021370674734,-20.318230955606104,-10.482831448838422
1170,-8.445901336577078,-16.911580267823574,-19.265857014277042,-12.183599675879357
1171,-10.30499802816937,-16.827221660646703,-18.33222266662967,-14.394454800721117
1172,-12.181171725598677,-16.612013676813415,-17.64834803506118,-16.49574055398354
1173,-13.439189286188325,-16.363162422409786,-17.244769863702395,-17.957515248335408
1174,-13.841198464073756,-16.27868867194676,-17.133528134706186,-18.609175913381055
1175,-13.600749873575529,-16.521114419727553,-17.264020473969477,-18.533989568004827
1176,-13.317220202983796,-17.121840140505707,-17.490218849423744,-18.11906848159597
1177,-13.48337781279795,-17.939791193219648,-17.60693996616867,-17.877803882224878
1178,-14.172541397776948,-18.718071629319567,-17.459421576327678,-18.041956905613336
1179,-15.214151154777579,-19.284081182245213,-17.061834861777406,-18.58650789892044
1180,-16.432460861944744,-19.727949626817075,-16.552388840501788,-19.487886969172667
1181,-17.64061154889425,-20.27895237398094,-16.093581245011986,-20.5570087213476
1182,-18.651220724519938,-20.908684747549366,-15.802599534740102,-21.60283856585685
1183,-19.47672579733937,-21.322549028918786,-15.74151109575471,-22.51109311372585
1184,-20.3198725772654,-21.475333674631433,-15.903981672416096,-23.20876695857277
1185,-21.250290985447723,-21.651492081914697,-16.215013919333597,-23.61990291598414
1186,-22.082127683133365,-22.017079837403944,-16.558786937802466,-23.71499976981027
1187,-22.70861023651672,-22.531870406367652,-16.82055842905653,-23.52822122830501
1188,-23.037199254331888,-23.11018097488515,-16.940373483523853,-23.12778063516889
1189,-23.157034391777408,-23.584489674597577,-16.9585772471125,-22.616816778075965
1190,-23.21023993392256,-23.73529310800139,-16.962033574649464,-22.07719359180875
1191,-23.235855044008854,-23.49352185408872,-16.984965170311,-21.495921945758504
1192,-23.20512697491705,-22.954217715988925,-16.99165580546299,-20.82704748443406
1193,-22.986960922523924,-22.20471006984118,-16.948939333250497,-20.04800246953487
1194,-22.45844396758917,-21.268023291485065,-16.90100351813817,-19.155669436023633
1195,-21.678373284272034,-20.161399347635168,-16.94783571920445,-18.19465763222609
1196,-20.76944694512192,-18.924540799934952,-17.12272179731332,-17.222137228483692
1197,-19.802778250823625,-17.570383725504843,-17.37168666514582,-16.227511095428618
1198,-18.818642903158366,-16.111669203583503,-17.625415549084085,-15.18140155106736
1199,-17.813844392152678,-14.542336191457766,-17.848686303352846,-14.138452452742767
1200,-16.736696363512106,-12.85449518580192,-18.01926243129639,-13.085662412641552
1201,-15.506418640319326,-11.054117495817112,-18.129913856010557,-11.935793539681375
1202,-14.065937077253935,-9.153465294406441,-18.17854692980517,-10.526227360602723
1203,-12.415371487675833,-7.176310583131485,-18.189356534677835,-8.83558730517968
1204,-10.621324586596234,-5.12753709918284,-18.210066607832587,-7.038888164380375
1205,-8.853967196598553,-2.965159620914579,-18.245733931426233,-5.327005867993128
1206,-7.273193643897015,-0.631125662542063,-18.240076008732782,-3.763080947360696
1207,-5.890964296945526,1.9475100362417526,-18.132042806502575,-2.353178744445874
1208,-4.65144619844456,4.788524314966858,-17.89899591576725,-1.0422827149542448
1209,-3.4971264141504705,7.806215218923074,-17.53274206127433,0.12764985171968124
1210,-2.367486861475258,10.862141723216174,-17.055930213312262,1.1667835607391819
1211,-1.2465025272876722,13.849049415207633,-16.507274960421615,2.1510928385112567
1212,-0.17482902627507957,16.731935735647433,-15.96560450859029,3.244381073815217
1213,0.861777143327981,19.52692428861608,-15.541416626249534,4.496801898508551
1214,1.851574802954272,22.27449103797433,-15.288594447884725,5.797979821293066
1215,2.784029382348906,24.959768310779012,-15.183260726129037,6.966106258111222
1216,3.6648432921074043,27.589329321660582,-15.163263889662527,7.845812894383564
1217,4.486059605825118,30.157032343607387,-15.162398602684462,8.592837178415868
1218,5.243481269217236,32.6745943495032,-15.11178914268578,9.40296393625883
1219,5.996439157461713,35.180352226888104,-14.981355886939472,10.323951624736132
1220,6.890595772127239,37.24160351073827,-14.498392148559425,11.256352833352127
1221,7.759592672152662,39.2303818788963,-14.023206362409258,12.07243592821311
1222,8.523819703039278,41.163674459212544,-13.578338273187743,12.757166835313518
1223,9.211713402777749,43.056558148330645,-13.15461470861271,13.338794619909102
1224,9.881445585534424,44.95329330728937,-12.732129280782868,13.893670530334136
1225,10.579594539222937,46.84227695857718,-12.28006623186331,14.399355215485578
1226,11.332754574919067,48.69727934853133,-11.787243852965213,14.816172123470267
1227,12.045613755283867,50.491596421901995,-11.261012125548655,15.226063386883425
1228,12.613496658308492,52.200434445270155,-10.709950303216175,15.686074961369526
1229,13.148960382866177,53.82237391460407,-10.154910658442775,16.236122506141278
1230,13.798766099993335,55.36712990543564,-9.63387099976929,16.778404692407534
1231,14.476342068399155,56.82891434550231,-9.15670464514105,17.2685847614323
1232,15.108981949556942,58.202481800423804,-8.719081312182796,17.672545635115828
1233,15.629504866569752,59.49635390392387,-8.302095739473614,18.044765928177572
1234,16.13421574619833,60.71188290342996,-7.887213802517667,18.462500201762012
1235,16.754026244547433,61.90003767127681,-7.450642371008399,18.88542178071265
1236,17.4486604184405,63.07152930732771,-6.994807891951285,19.249435498382464
1237,18.11522824739784,64.17741920930443,-6.552284537856625,19.593390460992605
1238,18.619664020848635,65.1859381146052,-6.1458110449695225,19.968438876541576
1239,19.025509670112978,66.07338442419096,-5.778714529775212,20.36077270337656
1240,19.45058240509491,66.83151304074889,-5.459882888053651,20.740485987729368
1241,19.85438542411146,67.45209616679983,-5.205140806230726,21.068761237794945
1242,20.172035980549943,67.94213754199,-4.997063767100078,21.316818310953316
1243,20.433679128355745,68.33769385623117,-4.79234059467422,21.534929212465833
1244,20.683197586451833,68.68264281880013,-4.55177014451334,21.78897626432085
1245,20.965046219896166,69.01403902702012,-4.283218082939891,22.062086877161054
1246,21.30416247525993,69.35094745167652,-4.018409753302236,22.310134949886123
1247,21.602094068453873,69.6658169552282,-3.771312843479492,22.52409310179415
1248,21.74405998791779,69.91337663765842,-3.5232214477087735,22.694879383655145
1249,21.77567331694325,70.08323468853524,-3.2503782666804626,22.79445627778409
1250,21.78410361496042,70.16226733749582,-2.952411032365032,22.803513851255687
1251,21.755302721804853,70.14171805539647,-2.6530915598818,22.713002780915172
1252,21.662687796740332,69.99118774084025,-2.3781557325894407,22.53445036220854
1253,21.52545797618227,69.69767056282248,-2.1273639559501043,22.3399244604295
1254,21.370618582110488,69.29595992617546,-1.876088431357735,22.204582139178214
1255,21.254977536547987,68.7998505463063,-1.606731402614022,22.123043353598955
1256,21.222698576662793,68.24128178093396,-1.3275567924327412,22.061431683603466
1257,21.20620935860047,67.62812124239848,-1.0611442359909813,22.00379516428202
1258,21.119990106740257,66.98720888152359,-0.8109970130138013,21.935354890636212
1259,20.976905827368437,66.36837790546585,-0.5557115349578521,21.885598194665278
1260,20.831171461335302,65.76905302936595,-0.2907913344580797,21.87729759333459
1261,20.747472520166138,65.15525223773741,-0.04247702742195064,21.782738870596653
1262,20.781003171034875,64.47199301266451,0.15588314641522372,21.500020673516932
1263,20.908377914412565,63.68337163836097,0.3102182928038732,21.062691640958363
1264,21.071185573139058,62.77042996468345,0.4358891460122487,20.613725923862823
1265,21.24706591102232,61.726488528750856,0.5526171556385662,20.215681942872504
1266,21.427475667462744,60.56473668438061,0.665325138833978,19.80108716572747
1267,21.59783506481642,59.318094881078274,0.7799892813457596,19.298594725342426
1268,21.75459635069019,58.02161161083982,0.9013098537592621,18.77014153965319
1269,21.915227966885098,56.705319952535085,1.0624487159043763,18.29290457587682
1270,22.084573183538865,55.3792675804802,1.2907755441864013,17.9462325549406
1271,22.23475868100422,53.998647894588466,1.5843006467387852,17.592389849233122
1272,22.320973323665143,52.50940948353828,1.9226161859687814,17.085387016316883
1273,22.235427820665553,50.9173682024054,2.3152223322077683,16.421653211268122
1274,21.89470224369009,49.247766786084334,2.8093322932465794,15.726111071332229
1275,21.45528148988416,47.5003044494761,3.4165938560728986,15.059302441550065
1276,21.04384673133044,45.6693401655973,4.095430321315513,14.355005566846932
1277,20.64164338786673,43.755947669670824,4.80559344389074,13.550644139939086
1278,20.06496151185295,41.755329183597965,5.560892509678182,12.581092407261638
1279,19.26068184941152,39.69001329424625,6.421673928567763,11.475314696063023
1280,-10.223470364756524,-19.506665381965757,-12.442511940568743,-12.488028904631014
1281,-10.627371337347617,-20.25672522521255,-12.854728473816284,-12.905159622120019
1282,-10.97561062761944,-21.00624991582442,-13.295657643535712,-13.476892942729076
1283,-11.326372474643058,-21.80052132499805,-13.743707680689354,-14.11377147794523
1284,-11.735510105442922,-22.67197862948262,-14.167549390994914,-14.69676104695849
1285,-12.143348313662557,-23.60053206463935,-14.547960000909516,-15.13690650399814
1286,-12.484346906478592,-24.547269888783006,-14.878832223706036,-15.391655787205442
1287,-12.800770056732187,-25.505656900914804,-15.17933607852583,-15.549232279621359
1288,-13.150986139405061,-26.46474611212382,-15.47559151965239,-15.727947917710788
1289,-13.55699855904327,-27.36529033127629,-15.770010083881886,-15.912811370574442
1290,-14.015928891257689,-28.159553612583405,-16.057818829483722,-16.071921941066567
1291,-14.452475371276135,-28.86446107319456,-16.348575346334066,-16.297563437426163
1292,-14.79012258765435,-29.516676129233026,-16.645045381348524,-16.660005980667503
1293,-15.072762404801061,-30.147461347025256,-16.924430040322637,-17.082903176251975
1294,-15.364571666504217,-30.775747459359383,-17.163731069714185,-17.46624663955737
1295,-15.626958581218389,-31.373227083245826,-17.358537219501503,-17.747890210628963
1296,-15.824070670371814,-31.905187783001914,-17.51563373327293,-17.90615194714778
1297,-16.014156402472427,-32.38608773566845,-17.654909572975303,-18.05681332398272
1298,-16.25684197899188,-32.84117098234953,-17.7966805352646,-18.313864397231335
1299,-16.57059355036153,-33.27901590897756,-17.938488628236595,-18.560405830284964
1300,-16.942185867139234,-33.69904024416985,-18.06842217826383,-18.661612569679548
1301,-17.25992574718464,-34.0754109132439,-18.186087180236225,-18.712004862572662
1302,-17.42668564343216,-34.37969149698818,-18.27790304940877,-18.826386515089652
1303,-17.551724401183098,-34.62218991718135,-18.342947461015573,-18.967679606305968
1304,-17.761971627904774,-34.81917352608178,-18.363580305651176,-19.076952918097152
1305,-17.973272278882387,-34.95475434492106,-18.305851367968444,-19.11766349434484
1306,-18.08835428219237,-35.01264631978054,-18.189536630182783,-19.0768447422204
1307,-18.161575626376823,-35.002672392384746,-18.089849575981614,-19.05950915274582
1308,-18.267923202167378,-34.93935318419424,-18.028317113033506,-19.16972742268777
1309,-18.474574324032346,-34.83002328326786,-17.97665383269116,-19.332160255838208
1310,-18.807419392917723,-34.68332223080834,-17.89381401745196,-19.444439575264585
1311,-19.0877507018591,-34.50278401866477,-17.80523633037704,-19.53343181453889
1312,-19.14691251585975,-34.29297570365907,-17.746799948510564,-19.643758607614465
1313,-19.136679035351893,-34.0837486341498,-17.718541761203323,-19.76816391974928
1314,-19.24505432191387,-33.89392756515571,-17.705897875040716,-19.890323341183556
1315,-19.40233833435054,-33.68546777639751,-17.679134028440075,-19.97369846545894
1316,-19.497907678651302,-33.41321229313618,-17.606247511419536,-19.981377528721143
1317,-19.521564168627197,-33.06869791916099,-17.47920561092144,-19.936868767298193
1318,-19.48706466641704,-32.66393980829038,-17.305402702594336,-19.869856534479272
1319,-19.458291527482785,-32.23324561405837,-17.099903608817332,-19.745503429831913
1320,-19.500109782876475,-31.816732597468775,-16.879487494380008,-19.530809277993374
1321,-19.56012030233588,-31.419035493180456,-16.65052492375155,-19.24801154961005
1322,-19.564680756394328,-31.030310157800898,-16.411433245153265,-18.93645267596833
1323,-19.530045037370705,-30.671563396222297,-16.155646724383956,-18.64479885058281
1324,-19.488582307330837,-30.342497943421186,-15.875733853522267,-18.406632906175332
1325,-19.437258726773077,-29.956687153453416,-15.570885289670988,-18.186214576385986
1326,-19.372435013773284,-29.430847004792657,-15.242534868631758,-17.927511904277214
1327,-19.29149498405385,-28.768173860420802,-14.89159684869264,-17.621650961224486
1328,-19.188141678009103,-28.0090490469726,-14.515939810543491,-17.26660077841884
1329,-19.07889080820187,-27.206905140578822,-14.105331999414624,-16.82810549687497
1330,-18.97476568903544,-26.410769645846045,-13.656534119433529,-16.287859841256704
1331,-18.824940381964282,-25.615989885202932,-13.146418297747507,-15.668261800060792
1332,-18.584875226409775,-24.795627315246815,-12.585865627684909,-15.006250654493389
1333,-18.303978702650216,-23.94544042540797,-12.003028857729182,-14.371758000443064
1334,-18.03867580631454,-23.061613061536992,-11.423839567684153,-13.808256059631468
1335,-17.766650190994177,-22.124871631553358,-10.823700870902778,-13.217367524043254
1336,-17.45129004865591,-21.116953929570446,-10.171240371903114,-12.498988356054697
1337,-17.07830633935726,-20.036171465166092,-9.479509025836535,-11.723004569520937
1338,-16.642026065102637,-18.880734964267646,-8.761537797233643,-10.983857942004024
1339,-16.177338487284505,-17.62045218759412,-8.035535964839827,-10.280989302488175
1340,-15.71588940565426,-16.244786474484524,-7.33261954538344,-9.575155031785897
1341,-15.206572975560142,-14.780362700404297,-6.707077469201354,-8.83474590157593
1342,-14.605718196160229,-13.27650788361908,-6.193649963849037,-8.028000274604873
1343,-13.958911440484329,-11.796545710437034,-5.789022685496878,-7.271185970460929
1344,-13.336110493598053,-10.392143793359503,-5.44900513325634,-6.6788962669059915
1345,-12.818248899293259,-9.020626067473,-5.10482499351452,-6.143818779651813
1346,-12.459022494437516,-7.62543472292533,-4.723646643674019,-5.533821351130527
1347,-12.207224325166731,-6.247679074010849,-4.341684261931447,-4.891287353068011
1348,-11.79576868927333,-4.813736558631769,-3.9827410645836157,-4.4161205611839796
1349,-11.28709724832908,-3.4692043673690303,-3.6505764446743534,-3.999461031425795
1350,-10.61294055052176,-2.20182028216949,-3.342076720593858,-3.651736519128144
1351,-9.919365304322001,-0.973193799995558,-3.0215734796850104,-3.300192039058564
1352,-9.387379391893942,0.2501553711768706,-2.675227875059029,-2.865009127421747
1353,-8.949272950789867,1.418598184789502,-2.3115568543883507,-2.411287648091596
1354,-8.470164990503552,2.470522795205662,-1.9537038914623086,-2.0284053977652574
1355,-7.950179527431694,3.438106998714429,-1.609997745138997,-1.6550141983491486
1356,-7.425367977547109,4.374988333242994,-1.283776833192428,-1.21418219784101
1357,-6.909185779372446,5.280929391287551,-0.9809238260831676,-0.7560769001355803
1358,-6.428294488298271,6.140944171507228,-0.7050228060130624,-0.35715574598747846
1359,-6.0267319045308065,6.941181957611707,-0.4565275598634911,-0.06371379355553
1360,-5.722895904022183,7.6657239857440675,-0.23656489553225032,0.10518942490988499
1361,-5.46541816793417,8.32489176978159,-0.05065401552072997,0.23481045502065293
1362,-5.188022228390005,8.939514825727182,0.0983115839370222,0.4278384420756021
1363,-4.862719753922816,9.497428590170404,0.21592568585747957,0.6372439345592249
1364,-4.491912834515365,9.990048142429188,0.3147986643344789,0.7818136924940053
1365,-4.139347947580744,10.467083279202278,0.417960857548076,0.9034020219783436
1366,-3.871871114869446,10.9800856905477,0.5466464356796391,1.0591868547349679
1367,-3.6423544580337572,11.522634246696049,0.7024713459733752,1.2211179641727805
1368,-3.376482423105053,12.062415455903164,0.876622799781492,1.3500166785176888
1369,-3.0928144878674284,12.555669840892632,1.0581436025164623,1.4241272702168277
1370,-2.828149485574622,12.961618989955399,1.235512239786566,1.4356074459465238
1371,-2.5779459794760853,13.289417104651129,1.40808716360997,1.4631997385044198
1372,-2.3335268668207467,13.564049815701734,1.5767616126623911,1.5852212176840825
1373,-2.0608306850482716,13.775315979817783,1.7257618340302057,1.7054415894602304
1374,-1.7345386385344996,13.908461107542058,1.8375701493606067,1.705260603601701
1375,-1.4589688391739337,13.956862967480443,1.9091827091976816,1.6541352081263407
1376,-1.3389568337174496,13.929200886255918,1.944677317795802,1.6624023326102904
1377,-1.261439402618831,13.892674613072373,1.9526279097570534,1.734644016199438
1378,-1.077812225307618,13.918252268773982,1.9442170970558579,1.8482283326302633
1379,-0.8376728052223612,13.995262636999522,1.9221833087700777,1.9757879875229534
1380,-0.6338894330002766,14.080801936163812,1.8866944360360691,2.0867321928286997
1381,-0.46518826049239376,14.161926615471769,1.8505540795801267,2.226823916560458
1382,-0.3091660716079506,14.228621765148372,1.8241297623646586,2.4478167734514438
1383,-0.1182626395800484,14.246610100967832,1.7933884579220738,2.677122752654273
1384,0.1547531527837331,14.195753528134935,1.7402967879975082,2.8239725901972244
1385,0.4316422930018191,14.113890469890144,1.6662621958903032,2.906406402346436
1386,0.6185847533789224,14.047401502503707,1.5788927637204297,2.9743693337876427
1387,0.802635111288529,13.993261056703474,1.4845060378530621,3.0539611396602466
1388,1.091864209012305,13.928871199483448,1.389664040679139,3.1646346113339523
1389,1.4103154773634146,13.836361879076813,1.2884575297070708,3.285769204790111
1390,1.648161044964859,13.698481928120898,1.1768651932978123,3.3857376117617948
1391,1.8016740729387757,13.512848018196705,1.0796921102478958,3.4983167663481587
1392,1.9001896530702276,13.288787106854144,1.025153526744734,3.6579167324258592
1393,1.9895018846393044,13.026877141953054,1.0157889381456267,3.821772928628328
1394,2.118943008331464,12.731207503091268,1.039505863711683,3.9256972616414503
1395,2.2577987275406675,12.432770349971495,1.0769502117628382,3.9137635177831225
1396,2.355874812940965,12.157309760357409,1.1044981055432783,3.756718473468976
1397,2.450124924355719,11.887634775043134,1.1029474631861553,3.5258936252600765
1398,2.5886013563004924,11.590581874863169,1.0655588670517813,3.3237920852605694
1399,2.750002420711634,11.24213322772586,1.003112516096919,3.148963209709565
1400,2.897586448887181,10.83117284018988,0.9367299565993995,2.9811251042799696
1401,3.00122261023017,10.36945271069091,0.8942361857308876,2.9090976680104608
1402,3.0423126911835596,9.888921670768589,0.8937752429422733,3.0070396404741877
1403,3.075263203273707,9.44130287684053,0.919713621530221,3.207804515621407
1404,3.1617802867428053,9.072841197879953,0.9425979469449141,3.398459931882728
1405,3.248256700060443,8.779555054203037,0.9408471747281034,3.4785694432283276
1406,3.264893806517161,8.534918445221697,0.9035893072998307,3.381652626663532
1407,3.247339978468068,8.34189612000247,0.8459580035017055,3.173910357076065
1408,-12.352150686752642,-14.995596178040396,-14.252559057711021,-12.339628102447062
1409,-12.746916259722854,-15.426024072951567,-14.665849713279984,-12.679715404401133
1410,-13.129546351795746,-15.854817978108482,-15.06218537510326,-13.049503080099202
1411,-13.526063672779426,-16.307738217569163,-15.409919117206472,-13.385576477596477
1412,-13.96095731763789,-16.793554375948904,-15.698141570185294,-13.629937373484422
1413,-14.360615835204106,-17.279772899762325,-15.948501255628534,-13.856817467753988
1414,-14.657229111847881,-17.72510297438284,-16.20465509244194,-14.147180412060719
1415,-14.958231151010676,-18.111426745731045,-16.4872140743653,-14.506438117910795
1416,-15.369661092371205,-18.443567748728096,-16.77022970313831,-14.903084902359154
1417,-15.799763531157721,-18.76465538422088,-17.00742388152472,-15.231274394716909
1418,-16.13221727942063,-19.11872406820516,-17.196752729430173,-15.404462481739092
1419,-16.364003878984157,-19.504677029625636,-17.38212931205753,-15.518155172095016
1420,-16.525038301103297,-19.897329367451853,-17.6095952409421,-15.694517069094664
1421,-16.674871732611123,-20.25868549703608,-17.872600900041874,-15.90988154290973
1422,-16.86936580555013,-20.556658805857136,-18.13358019391587,-16.11064282637764
1423,-17.045351930730135,-20.794960400799138,-18.36931981322068,-16.282585846711417
1424,-17.13440520428482,-20.994890694269724,-18.59154901890124,-16.4197654500867
1425,-17.218937526663677,-21.1864458914269,-18.814450156191807,-16.57222100446725
1426,-17.388148196133816,-21.38716992681661,-19.052898508224345,-16.785127849400467
1427,-17.61306937587069,-21.558213644981905,-19.274613065248335,-16.969011547943495
1428,-17.834447414904155,-21.65613259327716,-19.453245828415678,-17.034871216937034
1429,-17.98460529021949,-21.693315073751283,-19.584611661847,-17.06279753558039
1430,-18.01979426781767,-21.69853091011536,-19.70070975733886,-17.148282229578463
1431,-18.02827610946028,-21.693526417401333,-19.82502598810925,-17.26323742403086
1432,-18.111143930340116,-21.691249071861478,-19.94716973713818,-17.36021362578661
1433,-18.217712196125873,-21.66970457610501,-20.03811905558449,-17.409441925719285
1434,-18.273205031198014,-21.599813355270047,-20.090194390598857,-17.39705416978504
1435,-18.30173654453096,-21.48633341194201,-20.110404884500486,-17.42358220434385
1436,-18.333013122357393,-21.344214008719486,-20.11220613172731,-17.570324049147946
1437,-18.354397284556917,-21.176284791194448,-20.070950538058565,-17.677287403923142
1438,-18.34615723337456,-20.98718432204471,-19.974662016584954,-17.576215577775454
1439,-18.25403906076962,-20.78917565125658,-19.83882473753871,-17.359447843512786
1440,-18.039682804039423,-20.588673842576114,-19.70476523285221,-17.1601111991793
1441,-17.78976888365615,-20.383561176794867,-19.59214022286625,-16.96523630628989
1442,-17.59240997088413,-20.163863475742385,-19.476255360129468,-16.743773852022944
1443,-17.382367678242442,-19.900103329943217,-19.312350842753958,-16.48514689430265
1444,-17.078243121652918,-19.570911820071597,-19.090093682179518,-16.18675404591559
1445,-16.700418608138435,-19.199279421848292,-18.820439838858768,-15.944893599440768
1446,-16.2921523919286,-18.8183641033416,-18.528845780242847,-15.836787884781085
1447,-15.907085058513967,-18.43795625294757,-18.22055526423082,-15.73255324212114
1448,-15.580937134148986,-18.05573145774334,-17.892469999150382,-15.485684345330258
1449,-15.224146496499754,-17.66293412303197,-17.54266018544341,-15.135214968697747
1450,-14.745302167142333,-17.243526139006548,-17.16722595693156,-14.76008022473043
1451,-14.22746812450822,-16.773412859217057,-16.76214756333631,-14.380262928331918
1452,-13.774603457207172,-16.241066136613615,-16.32933630150539,-14.00304544009022
1453,-13.34818368414168,-15.672117807806123,-15.88008243256622,-13.593314415079218
1454,-12.8943452273147,-15.097675503159337,-15.427042095869552,-13.111457443937022
1455,-12.439442349184855,-14.530033004467647,-14.980209696863431,-12.614547772143974
1456,-12.006863257535414,-13.965997762488366,-14.540710869453461,-12.163143002016207
1457,-11.599693960072079,-13.364667332410013,-14.088269283663394,-11.698105137312266
1458,-11.201015461927494,-12.69118135030993,-13.600211286476718,-11.155448593281026
1459,-10.692458367267704,-11.985934810208558,-13.074646353150845,-10.576202244349732
1460,-9.982021862007148,-11.296292583995937,-12.51734781832714,-10.013726420710604
1461,-9.19610530867313,-10.610979037964194,-11.933251755521399,-9.478530206095012
1462,-8.48271722702072,-9.903464727039376,-11.330220350208256,-8.964118872639835
1463,-7.806995374931071,-9.139665744857675,-10.708268036439112,-8.41516704710766
1464,-7.093763905285091,-8.30380776259103,-10.071220017100961,-7.783973489390724
1465,-6.309172519782897,-7.463915165362404,-9.451429683985008,-7.13975585489602
1466,-5.441810558683102,-6.69261443260045,-8.873190257302372,-6.560525114146594
1467,-4.572663598011421,-5.976753299559089,-8.315666887525316,-5.998683933033822
1468,-3.802723207530669,-5.308718306078039,-7.768347910241559,-5.38715438549132
1469,-3.0454796577158434,-4.706035631382863,-7.261201566435305,-4.836212297407237
1470,-2.2294771280567454,-4.204822320020447,-6.8163634918722975,-4.43179066291696
1471,-1.5211155194180621,-3.8129633870226067,-6.4397348168995885,-4.157546431379275
1472,-1.1023844689041638,-3.515545760199432,-6.114325289731364,-3.9472128735573806
