,TP9,AF7,AF8,TP10
0,-13.536207468700844,-9.18181838600739,-11.948652496405012,-12.517879187300434
1,-14.136360040129835,-10.284823874210085,-11.585612027376314,-12.688350470592445
2,-14.74470069036196,-11.418283199026988,-11.234065568249443,-12.876467664106066
3,-15.290310426105869,-12.580518851580406,-10.9113178996778,-13.066787314856995
4,-15.721449902395866,-13.767201544102672,-10.613068699159491,-13.241752452582546
5,-16.159575565957006,-14.983078865237243,-10.320990073440003,-13.429417826430786
6,-16.730754503934993,-16.229825855503215,-10.022908659848545,-13.654779235617719
7,-17.34006907964472,-17.500594856386257,-9.717720788440642,-13.888406112851019
8,-17.865200825070353,-18.77971708322555,-9.394463887206369,-14.092287529366242
9,-18.337798484458474,-20.04390353368925,-9.02924610758655,-14.251842193950935
10,-18.811332190722325,-21.265735128879605,-8.616958540507818,-14.363269330891153
11,-19.302037944479668,-22.407594314381452,-8.169944073285981,-14.450585348681864
12,-19.809475781542833,-23.450086779271544,-7.708394622530821,-14.540873626739547
13,-20.237762003282153,-24.42680310083174,-7.242152247755429,-14.598143297302972
14,-20.50011996430059,-25.38494263645172,-6.776156362026725,-14.609800056234057
15,-20.709938921062538,-26.350184070027936,-6.314320221161423,-14.586868938246349
16,-20.988545934854564,-27.328356637823557,-5.8564295091131555,-14.589283725872287
17,-21.23391076142896,-28.295106921785848,-5.397919187589358,-14.613312516787587
18,-21.329105855362187,-29.215158812564912,-4.935141714761198,-14.55819910130503
19,-21.320238350588085,-30.067820994264107,-4.470866343601809,-14.34864506514332
20,-21.287551809610697,-30.84881641879574,-4.01137703445001,-14.022331282461789
21,-21.30446049518943,-31.574547330121742,-3.5604880121338414,-13.680527581692184
22,-21.417368861714955,-32.26588507811572,-3.1245790209283144,-13.380976099383181
23,-21.523119303678822,-32.938178712675715,-2.7183942115832584,-13.123123296200204
24,-21.509282737910674,-33.5868366244331,-2.3520569206650146,-12.874822331352899
25,-21.461594486630005,-34.15578704902403,-2.0214414574427657,-12.644890312283446
26,-21.48781630093943,-34.59514094665486,-1.7101152348262403,-12.448278417430677
27,-21.539002141198452,-34.92435238339847,-1.3902006717122208,-12.294750496020145
28,-21.54855654778727,-35.1926572047663,-1.0318157300989792,-12.185377585116854
29,-21.514685411901883,-35.45678302703732,-0.6249108831665884,-12.07762901132009
30,-21.449739515760424,-35.76014269973619,-0.17273541964305117,-11.92790090130335
31,-21.41921813862673,-36.085428477645266,0.3029521111655702,-11.750902508865291
32,-21.472859736812385,-36.391002131439215,0.7603843686505389,-11.572035991182194
33,-21.487714562705513,-36.66144924609777,1.1657984833669455,-11.38320963071398
34,-21.343787591409605,-36.88567096822577,1.5320245801021184,-11.170739536930892
35,-21.148402449136654,-37.04063224124524,1.9078808389465427,-10.927327897091422
36,-21.033797000336275,-37.1142287126805,2.3378464099614593,-10.649721937379157
37,-20.971581967812536,-37.11760602071597,2.811291807209589,-10.349205682910371
38,-20.903502979174004,-37.07065887904952,3.286728537518554,-10.044662954393967
39,-20.789802104025583,-36.99147775549659,3.7354908323631246,-9.749667428352685
40,-20.607087006959702,-36.89512462896069,4.159206740654043,-9.472231227579806
41,-20.45862522941517,-36.79079156360246,4.577051385475584,-9.219839074076361
42,-20.434584960261272,-36.678068289557274,4.994016697771737,-8.98810452597169
43,-20.387741666327514,-36.54276798043758,5.401278678137969,-8.742575424358169
44,-20.159157978952607,-36.366999509088096,5.7838444675257215,-8.451772356523941
45,-19.81655644269216,-36.144543912352646,6.147115401520434,-8.12300199615124
46,-19.471229544303675,-35.87119965660666,6.495927926747914,-7.77544483441876
47,-19.15709490522002,-35.531893591458335,6.834845189701058,-7.423547511320653
48,-18.87743027044962,-35.11685539374873,7.153362965035199,-7.074059388945819
49,-18.553582730995572,-34.63671041965635,7.4402394149188265,-6.703338412180467
50,-18.099334902954958,-34.110986388245074,7.686654942753663,-6.286265906819293
51,-17.579763582270896,-33.554227740931225,7.905214235659355,-5.838279828450239
52,-17.080300385254738,-32.98151061593905,8.112636581863008,-5.38335709062108
53,-16.527644541331117,-32.41795198917049,8.3084395769506,-4.922579034417022
54,-15.852892166227385,-31.87311745944567,8.492399686238732,-4.4525070006507566
55,-15.165623941232086,-31.31928448317188,8.660561080839054,-3.9751888852415154
56,-14.573880776910137,-30.715010169460935,8.820973029294414,-3.488409922513832
57,-14.038053303701298,-30.01719354444166,8.992644471463688,-2.987241756410923
58,-13.489190128956933,-29.203165735534192,9.185146636396862,-2.4680065350493674
59,-12.86228017655861,-28.30281145176968,9.399504610604467,-1.917709562991557
60,-12.19028403528276,-27.372626511130072,9.586958215627297,-1.3780347423785402
61,-11.73370026060621,-26.451904818518212,9.634748074686275,-0.9842767242583963
62,-11.75136057055789,-25.56719663200083,9.485957105660109,-0.8114196571737677
63,-12.08550708488467,-24.724992818469964,9.181059459382755,-0.8246981868956313
64,-12.446337280497355,-23.91096576938123,8.77829371369799,-0.9229295411160041
65,-12.73794937262656,-23.07674241574253,8.306363932908907,-1.0548519559851917
66,-12.932904195607442,-22.180417176121964,7.75788644447878,-1.176559354502022
67,-13.040974755437386,-21.240108975508488,7.147048131505622,-1.3108717096252622
68,-12.527839080765046,-19.963741262427504,6.5887196643245325,-1.5109189011973394
69,-11.953737495376574,-18.725821534529693,6.060618364385839,-1.7054515522303804
70,-11.248226636565004,-17.53173484573928,5.563748426324047,-1.8898993526229422
71,-10.549992028437444,-16.36326904394393,5.088125237888425,-2.0836293264968164
72,-10.0152718549225,-15.18994404793858,4.6186039477529235,-2.2994656581895985
73,-9.567407089082016,-13.993913739690878,4.13588902271354,-2.5104245542871295
74,-9.072296200249667,-12.762933159870466,3.628196106205917,-2.6776713377252377
75,-8.495451898973602,-11.478236203149484,3.1125834700110193,-2.767305532462846
76,-7.8404442374484065,-10.132391771982304,2.6084038282104696,-2.7626580875930316
77,-7.182505539604363,-8.746952158428506,2.125910588490886,-2.705761306817631
78,-6.610826896659724,-7.354319431789527,1.652391737812118,-2.6572177110809463
79,-6.051593593229399,-5.981123155674655,1.1608724926513618,-2.6198558472090583
80,-5.406765293648206,-4.645706026403307,0.6332564437088251,-2.588445740238955
81,-4.772784497635389,-3.347056850948169,0.06005839548483053,-2.61809027161924
82,-4.272773845611623,-2.071543337675678,-0.5564216328897621,-2.7608233608465627
83,-3.8727570229326314,-0.8126406877400708,-1.2034257955513583,-3.008449945263328
84,-3.4976290820339226,0.43933771620078665,-1.871921611550277,-3.3237988580922004
85,-3.1071251885404423,1.7121568618098912,-2.5609761784569125,-3.649730689702947
86,-2.672899103284882,3.0288260559436915,-3.2865965422319774,-3.93238915619507
87,-2.2299795231715716,4.390275484562951,-4.052605659555125,-4.171337118842598
88,-1.8322164121181432,5.778385190573631,-4.855559978798606,-4.393229904658331
89,-1.434317399850249,7.146066220657849,-5.6772773635980975,-4.6167583291111285
90,-0.9832655041934395,8.44413663701612,-6.491616025299529,-4.85641411432476
91,-0.5505027531628222,9.661971699213202,-7.279621453344348,-5.108666134521286
92,-0.2215381061313541,10.80589617490284,-8.02616749841921,-5.35973833800007
93,0.009443252390475776,11.880282870375666,-8.715202771975521,-5.616460357510843
94,0.18141191707328674,12.883336701664174,-9.336194731761294,-5.885394881666227
95,0.3652893511901511,13.785737085123701,-9.885413463195686,-6.136009914666675
96,0.6243914299472364,14.552483028704057,-10.363214398854588,-6.336619741775191
97,0.8781902049234136,15.173760596394567,-10.78013114504729,-6.500715581601198
98,1.0276088258654346,15.65817344382955,-11.142594448739754,-6.64911452465765
99,1.1690646879270976,16.033079202551193,-11.427223415561617,-6.773887984597906
100,1.4256966848091728,16.331727151128902,-11.606232607293457,-6.857032163660504
101,1.7442029750915107,16.567972619898356,-11.680612446608919,-6.87145169030355
102,2.029163274380625,16.741554573836993,-11.664072869449228,-6.796695833678819
103,2.245043348957409,16.847959250253325,-11.570026555194278,-6.6588972704402805
104,2.375050879211508,16.876836455058836,-11.415308829299962,-6.502018243496695
105,2.4670404232453267,16.81238683483928,-11.213249795711256,-6.339760436418202
106,2.5816650753694734,16.645476960689205,-10.978900225866001,-6.18063172119393
107,2.632081619855918,16.38778555094017,-10.721929440749905,-6.060733825000162
108,2.5260696885212006,16.061947906317393,-10.456174909430327,-6.00825028887952
109,2.392884865575949,15.686527196761675,-10.207621050664482,-6.007338966449006
110,2.3898413981470337,15.279527414325756,-9.97580423613788,-6.027058758134957
111,2.4856808997180573,14.864731941594709,-9.73572742437778,-6.046684663253285
112,2.5950145477378457,14.460115902978913,-9.456543177733826,-6.050622212966406
113,2.65032690838661,14.06086040016629,-9.14415076803069,-6.0375836965395155
114,2.6072449987041213,13.657236520470796,-8.81419150959333,-6.014082404469631
115,2.5800684643351985,13.260296569455784,-8.48621018668013,-5.9688521892474045
116,2.703030784251742,12.882746620704586,-8.168576635796025,-5.892830188949625
117,2.8619830265582236,12.519849428409053,-7.8730817098011245,-5.810962996613212
118,2.900333681274539,12.16061787906104,-7.624304603094325,-5.751257448854203
119,2.8879139993902334,11.789722606653283,-7.430866707927791,-5.712043443163984
120,2.9370410447565574,11.3954220219303,-7.273732828034284,-5.679547956612779
121,3.0451943770852576,10.990126263692888,-7.125101208296618,-5.634054243541456
122,3.180893095707734,10.595198491565492,-6.955533287243677,-5.556126272403977
123,3.2722844376507965,10.216624358880797,-6.74403121168058,-5.457502999291219
124,3.2559597924171704,9.857936831047876,-6.489755938201975,-5.354580598614305
125,3.2467756634233433,9.532509217292668,-6.207428582722587,-5.217129194734156
126,3.385173406202579,9.251981498724184,-5.907971069396563,-5.0131798852365295
127,3.594579132049801,9.019904300894085,-5.592300396794824,-4.764981775771647
128,-14.930352031482691,-15.869521296566024,-5.381373527791254,-15.733301561705561
129,-15.526038708855415,-16.128364104668524,-5.722532593327414,-16.219470623067714
130,-16.08931156617418,-16.351273738479957,-6.0524096216800976,-16.673395928780014
131,-16.597092489150427,-16.55107077211941,-6.35487836732367,-17.077989168138075
132,-17.04740464447192,-16.744880414333274,-6.620813147352495,-17.425618367624235
133,-17.536137714964678,-16.9574417615389,-6.8461170160321565,-17.754297289827612
134,-18.14452603196768,-17.203539107068305,-7.03425068623108,-18.1040895960259
135,-18.735495838885285,-17.463203267094514,-7.19875572690275,-18.4676943951795
136,-19.16360197147565,-17.708525855538443,-7.353439028166493,-18.83161574201902
137,-19.520563915165386,-17.93177622033819,-7.507071146032908,-19.207056279616413
138,-19.934291403283467,-18.133874492357233,-7.663586623346168,-19.607609563998714
139,-20.399466844352517,-18.320378098329414,-7.810550377652809,-20.057135364715677
140,-20.888884301935356,-18.501252843995605,-7.943120825955277,-20.564307478988507
141,-21.381554099293187,-18.67829486264168,-8.097650116189177,-21.062210251792035
142,-21.856784655195064,-18.851706077795797,-8.312224866359243,-21.492450674085948
143,-22.389037921806338,-19.03569678882635,-8.591672017350934,-21.850796747956984
144,-23.035425240543628,-19.2327512193707,-8.919017162384936,-22.178946291748073
145,-23.646604065351628,-19.435418415420674,-9.252751380258438,-22.489342185101723
146,-24.07284014448805,-19.61567512195458,-9.548575009938443,-22.75122002680423
147,-24.389917265838452,-19.7434117633294,-9.7918733068635,-22.955993463990538
148,-24.71276912960983,-19.814454555784884,-9.985137370005337,-23.140433853274256
149,-25.060162142898946,-19.84739456928514,-10.139663224328022,-23.321119663242424
150,-25.416912318412344,-19.845039776459096,-10.269307471480367,-23.511564613173103
151,-25.697718695426005,-19.8019316908012,-10.371255241177813,-23.696073930581893
152,-25.823492291141246,-19.711258611901414,-10.441687318444291,-23.844535230089374
153,-25.886923524901004,-19.590961328931506,-10.494689942743875,-23.935140185761217
154,-26.000803302403842,-19.46267407568488,-10.549224040487287,-23.957588263148256
155,-26.110824499408604,-19.331090303419618,-10.622830005968748,-23.916698087452676
156,-26.14770491928847,-19.19706751724858,-10.726309495292702,-23.83523703606711
157,-26.15106556420855,-19.06263542553154,-10.851904187836853,-23.753248259848792
158,-26.174339883017424,-18.928750212374172,-10.982065423384622,-23.707298494367485
159,-26.262112147978932,-18.808221918303968,-11.101521251598857,-23.71789636146374
160,-26.435167839527466,-18.710245536082724,-11.196876109354903,-23.783990720346388
161,-26.590209613578523,-18.60637693197926,-11.2556429651086,-23.85644336412227
162,-26.623469924814252,-18.47914508755687,-11.272926867794133,-23.89624146240043
163,-26.621903713279604,-18.331668510875538,-11.261588015611965,-23.89842382119422
164,-26.685649690107308,-18.19441100972247,-11.237261867587913,-23.892480282914743
165,-26.73093739668663,-18.06525054835246,-11.194991206739084,-23.869269008545647
166,-26.659782403544266,-17.899466140327224,-11.131706663258411,-23.77097251629399
167,-26.4906811952043,-17.668474987279087,-11.072067623059125,-23.57418898731385
168,-26.268237577819367,-17.381678388192164,-11.040489060388628,-23.316591086671135
169,-26.051825526206393,-17.048230337645546,-11.039873487125597,-23.024893571003833
170,-25.885598068807568,-16.687117469353762,-11.06117836753834,-22.727538305667277
171,-25.68213700056083,-16.3033100088265,-11.080803187147781,-22.396322068551818
172,-25.35021409866725,-15.895708137214369,-11.074890082512884,-22.012896870421603
173,-24.97786981286292,-15.468655478016402,-11.04388469715898,-21.579713138934466
174,-24.66630540447074,-15.027327441037883,-10.994875344269984,-21.14349827460284
175,-24.368294975626416,-14.578883739339656,-10.925787731603192,-20.759612164019675
176,-24.01473326528345,-14.130007884277457,-10.83266527802998,-20.40800158986617
177,-23.585534499616674,-13.677913288310293,-10.70439404733613,-20.001212443985604
178,-23.092737204916777,-13.217232929153566,-10.537155079505373,-19.50720956804113
179,-22.62248569397316,-12.752856668270974,-10.356494518702485,-18.970493371148553
180,-22.268858938646364,-12.282801769845133,-10.193812198337069,-18.417931895911956
181,-22.045475308300002,-11.801497857409196,-10.067095016770367,-17.84086289351466
182,-21.916830834193888,-11.290942954735549,-9.979560713839284,-17.224893668081187
183,-21.81414555839935,-10.746390781436416,-9.907932966691867,-16.587692516635293
184,-21.659700025276585,-10.181751482436198,-9.821559484260257,-15.956067947926213
185,-21.41863115194072,-9.596662196232598,-9.70624722123746,-15.372432851799704
186,-21.083364565266,-8.970271995752963,-9.555485931436015,-14.844543217958643
187,-20.64536119843019,-8.325380500534528,-9.37165510833225,-14.338299520416655
188,-20.109054208157907,-7.770264806829626,-9.179967942133304,-13.825233836037595
189,-19.491042478980717,-7.406099058319168,-9.004330078099496,-13.346246819380488
190,-18.802438282394093,-7.224955520866611,-8.83404450456671,-12.914728627262889
191,-18.017936301889545,-7.1604691635275755,-8.667936334632175,-12.425996662133139
192,-17.109880063893364,-7.159426542288724,-8.490691267563825,-11.861723324629661
193,-16.085406332187997,-7.172944756822411,-8.29479610284185,-11.254973271924781
194,-14.991057000149992,-7.168923436827373,-8.088329324273117,-10.688400086246498
195,-13.909423086919997,-7.174781811587847,-7.90087241008948,-10.190120207873473
196,-13.015864210351207,-6.822385563209977,-8.137555713967796,-10.108749631465866
197,-12.114370527284052,-6.530138568728934,-8.384762779778734,-9.973313112015934
198,-11.13469988383087,-6.30563352551866,-8.619293883542815,-9.775897725252731
199,-10.181036475167486,-6.120198593202124,-8.809277158076991,-9.531683192658654
200,-9.380589192783752,-5.9329496888677795,-8.955335015216654,-9.267632287132457
201,-8.628815801915245,-5.732376716308588,-9.090793735628514,-9.003282095537129
202,-7.77911965849533,-5.521434727642777,-9.221910349901234,-8.749473993494536
203,-6.85109949426184,-5.300993303731942,-9.326311364295684,-8.497929476165938
204,-5.916950374913275,-5.077703416508408,-9.368149251354447,-8.235934405547985
205,-5.062996696351987,-4.862877608638837,-9.337194874838408,-7.9759532900833925
206,-4.362928190038243,-4.666273600698346,-9.238175062001794,-7.736308458367288
207,-3.7297456225272407,-4.494920569612732,-9.086118732126803,-7.515208403704903
208,-3.0397406067303714,-4.350437550277127,-8.901877204676294,-7.305760306349557
209,-2.3606818150111364,-4.227412405500306,-8.695592356268445,-7.109905069722239
210,-1.7899561290295218,-4.116810411206464,-8.469681740982175,-6.928251671117236
211,-1.2444016561186513,-4.00453171047824,-8.227826723907109,-6.752832453428309
212,-0.6195668817484016,-3.8826777213239367,-7.970315929024238,-6.5759110869206
213,0.059528895426937074,-3.7675327527489135,-7.690927330961207,-6.393913855466614
214,0.7413363407942823,-3.680670502712684,-7.38856108595661,-6.203897219789743
215,1.3884553979071703,-3.629841302372958,-7.071164098091255,-6.016757641527024
216,1.9766485131650933,-3.6117331361156095,-6.758731511350472,-5.84062443311612
217,2.6045411293431475,-3.5999432551365644,-6.4985036948482,-5.629776868273907
218,3.3696256597258976,-3.565558435584945,-6.33113902066783,-5.353378829647294
219,4.124321865860007,-3.5201104542968347,-6.248954622333627,-5.046176241694623
220,4.690392641693562,-3.4745227704313204,-6.216705915820066,-4.780739448456446
221,5.140143316752255,-3.4356156307085244,-6.18485147945229,-4.577606899077584
222,5.6059663017509465,-3.3828544439399706,-6.110000156354344,-4.389644459747251
223,6.119980633575479,-3.2853670454692385,-5.994738928933589,-4.188204963561867
224,6.674486922121213,-3.1527782374061424,-5.865857324200333,-4.001695740013361
225,7.171138706411129,-3.025746901176005,-5.745857077825298,-3.8349084976888026
226,7.503552242679469,-2.952745289998501,-5.652212855014154,-3.698740234665805
227,7.761638484271445,-2.936263489108814,-5.581557754769379,-3.5775659052352298
228,8.081603859705911,-2.9557058712324085,-5.5211204810826775,-3.447627576171496
229,8.427211284400384,-2.959380116415634,-5.475469326497287,-3.3131296451106063
230,8.72746775328381,-2.9127662965165975,-5.45335472496987,-3.1875005445722935
231,9.0150070065127,-2.812737870082466,-5.450723158100158,-3.0810243376935196
232,9.327705674794709,-2.678240511150893,-5.461149521626989,-2.9994370076898247
233,9.660465678103245,-2.5279428585483483,-5.487284348780348,-2.922074734443793
234,9.995710258119834,-2.3754489132475625,-5.527678877902629,-2.824240844423235
235,10.251846505009073,-2.215196858868395,-5.561803635225885,-2.719521447366053
236,10.362175552471744,-2.037423847864747,-5.567075273789981,-2.629351488055905
237,10.446707588119645,-1.8172980800201897,-5.53540310212132,-2.543947362070204
238,10.650004060670762,-1.5577405130431403,-5.4696873701466115,-2.44996870262884
239,10.91841506428911,-1.2854632559502734,-5.385002113694342,-2.350254543464094
240,11.146644254752651,-1.0347482194383077,-5.302103878066649,-2.252952853977015
241,11.306862423499016,-0.810866796300644,-5.233169442656426,-2.181905586291825
242,11.398233525647143,-0.6050332523728738,-5.182471813038947,-2.1546530120283904
243,11.489881053790818,-0.4078033234349935,-5.152755828796889,-2.136973733572425
244,11.656990957531356,-0.21023836067038493,-5.137457193342633,-2.0838978461396827
245,11.800468136688565,-0.015812098056505408,-5.109991968346158,-1.993390416742359
246,11.798093785521583,0.16411969492453965,-5.0426680991562645,-1.8809996000915303
247,11.739083599858619,0.32235273266468906,-4.928873845452662,-1.7601719099012265
248,11.74752768866936,0.4529463421829302,-4.775519440766228,-1.648885218522791
249,11.786689439518447,0.5481961623251052,-4.596172118724106,-1.557429425097237
250,11.787040819994127,0.6069003047254435,-4.410095432128612,-1.4909687788697013
251,11.720193272173072,0.6381286883524493,-4.234884018245529,-1.4714067487431044
252,11.57626745376661,0.657573463199162,-4.083449118525761,-1.5137143035243348
253,11.450785152140206,0.6920977246920514,-3.965140753847403,-1.5851598478333182
254,11.440035457518912,0.7622694515628001,-3.882244754372419,-1.6445729865967027
255,11.418491848554387,0.8539865615780705,-3.8259610116499587,-1.6951439563395896
256,-18.086704700602333,-0.41727756847441333,-26.356139756978667,-28.792360935934514
257,-18.305699217064515,-0.8340367106349462,-26.772430644831974,-29.1206776747608
258,-18.43470158993726,-1.3084182926969734,-27.174704895921504,-29.39977336419224
259,-18.487857066557854,-1.7749679117714017,-27.538061091762746,-29.637704547169022
260,-18.50937373103457,-2.203019793992822,-27.863332401263765,-29.851409501958056
261,-18.551794036741835,-2.613990427683465,-28.15874070965442,-30.071585688897112
262,-18.65387867594128,-3.0473148716973104,-28.437856179787467,-30.317258482691127
263,-18.721133087670886,-3.5135894842869106,-28.69571193296329,-30.539934440657866
264,-18.661013712466744,-4.012561276265794,-28.921818569546236,-30.690315293609657
265,-18.5853198567941,-4.5657453537520345,-29.115864867993025,-30.805228243079092
266,-18.618207625679265,-5.210123126922268,-29.28072524235592,-30.93234303008503
267,-18.697784421691942,-5.961995089177414,-29.416724581726033,-31.05757349238075
268,-18.732502328155945,-6.793364641617927,-29.529550332145867,-31.15444928251451
269,-18.70536533043042,-7.659842797613028,-29.619099462712686,-31.213707603053688
270,-18.621129536532024,-8.50981408782018,-29.689048689665693,-31.22560980897888
271,-18.537665162433207,-9.320545800238438,-29.728397290549328,-31.186795999006545
272,-18.51263812806566,-10.080234223450423,-29.709618799633642,-31.0985035030376
273,-18.468837633034884,-10.798914236485265,-29.628557159874795,-30.942189712501285
274,-18.32434384617353,-11.469641811295084,-29.51073307087559,-30.70638487787676
275,-18.171920263905037,-12.075659273234299,-29.37602634888706,-30.430402330327745
276,-18.10590481228536,-12.598531536532931,-29.227450613443363,-30.149609594692656
277,-18.050478190199925,-13.051716416297987,-29.048848741451582,-29.83869855569946
278,-17.90971336665288,-13.440487614612545,-28.823853533763586,-29.461791312375976
279,-17.662766660974636,-13.75795805248258,-28.55151309183833,-29.000999208505473
280,-17.32239178300905,-13.972133386901417,-28.250550074610643,-28.458662918225794
281,-16.983439537756592,-14.059274904118945,-27.931158363959433,-27.895509543801207
282,-16.733413288727945,-14.031908138304816,-27.58655458875861,-27.37261901851246
283,-16.477816776050986,-13.921541937279207,-27.20765767900991,-26.869180476403535
284,-16.108681129211355,-13.753802433085001,-26.783972596911855,-26.348186805279074
285,-15.707881343444464,-13.547909438691192,-26.325318755276008,-25.81168020977711
286,-15.374508197358177,-13.311430058606932,-25.84119145765078,-25.272512079194765
287,-15.086562690234812,-13.056882179270284,-25.336698462590267,-24.76347401902005
288,-14.795402542998632,-12.780605106856074,-24.803857518666966,-24.304172833940864
289,-14.436009388954599,-12.457278291349223,-24.24293190901165,-23.83661237890752
290,-13.96257944602571,-12.052623661515028,-23.66749767402948,-23.28866158703436
291,-13.479620524468162,-11.566446926397637,-23.075444639058166,-22.645107206402987
292,-13.095819733986627,-11.030436945967853,-22.43840233639586,-21.91187943179713
293,-12.71403180101533,-10.463626390408185,-21.730262330752716,-21.09415743256123
294,-12.222160987657478,-9.860701327920252,-20.94977574374862,-20.209941489717774
295,-11.685773775849482,-9.223224287036995,-20.113626385025267,-19.277853175157748
296,-11.194077149891076,-8.564987431109767,-19.2375891158352,-18.316739189894847
297,-10.763121378868584,-7.898892154906589,-18.336417478625012,-17.36838856733534
298,-10.383208651205113,-7.241116478809505,-17.418593045516936,-16.457659708785936
299,-9.980802513747237,-6.6053852276036435,-16.500041755928283,-15.53876876147646
300,-9.483922603277717,-5.9976577968757825,-15.581090825171412,-14.555850014393334
301,-8.964463369574156,-5.405308210275771,-14.636612776934163,-13.504993931119053
302,-8.503819595138191,-4.8148313193727414,-13.634484567918374,-12.398916104791462
303,-8.02118547348038,-4.235173805512143,-12.573928471581509,-11.24940625765384
304,-7.427302776635452,-3.6771326097322987,-11.491277729521775,-10.071675387557525
305,-6.764624879813244,-3.138466361212431,-10.423457270226717,-8.857192826951286
306,-6.096154029857162,-2.611180839541389,-9.379975446803526,-7.599002871669995
307,-5.449314732753448,-2.0743004629553914,-8.345737331001919,-6.3457452334775555
308,-4.835060496805391,-1.5202682769900173,-7.288002084206299,-5.139735371930298
309,-4.190306895620137,-0.9628320132000252,-6.181065950487363,-3.9374397655006663
310,-3.4566963075548984,-0.44046891136484184,-5.006216153345775,-2.68660540944037
311,-2.726735073418946,0.006798436606866409,-3.7610331906691807,-1.4049960713671341
312,-2.096394060447738,0.374100571087537,-2.448019984574883,-0.11776482099873917
313,-1.4932745254860331,0.6779788504996482,-1.069573104287552,1.1840098895695996
314,-0.8275229942031671,0.9541428431720403,0.3701458504882903,2.5162107511171805
315,-0.10712083823683005,1.2355497574317427,1.8499478235782192,3.912153708414985
316,0.4793304088052016,1.5610692998412286,3.2320618821336087,5.286970338255024
317,0.73040124380381,1.9639265578179552,4.285690734175182,6.346577630614621
318,0.4151009889309555,2.470325247821554,4.939124591535454,6.906492627988424
319,-0.17960124154395907,3.084419110559041,5.319259716514066,7.023787183882104
320,-0.6492214335532391,3.7913699921731796,5.587678826333139,6.906988895579436
321,-1.0889064408960598,4.558692296571326,5.835656219438548,6.673993911093594
322,-1.6992669124092386,5.3577414836382395,6.072026794361592,6.398135076989313
323,-2.402388332397301,6.161288211932621,6.260618004036188,6.124443935784964
324,-2.8447654652333947,6.653328869324377,6.653630720985683,6.0933452448317595
325,-3.258578016635707,7.161932784125391,6.96033835982867,6.065864431252086
326,-3.6061645631149704,7.679057121693472,7.183052374589132,6.065050558787007
327,-3.9395206039055224,8.196629410205588,7.364922459081182,6.09273964257318
328,-4.326048533767027,8.704997048739077,7.548826905749816,6.149902981058081
329,-4.691816669385338,9.190370439553778,7.737871502812269,6.269976163497472
330,-4.949818708920283,9.639130823794856,7.9065456497011235,6.475820731816441
331,-5.182383930694711,10.040803151049662,8.033800592348582,6.716472577829712
332,-5.491387817278864,10.397629617632273,8.124674208629857,6.926814816187618
333,-5.844171212288863,10.704269062817284,8.208261099232557,7.095080681609206
334,-6.171589432895493,10.974279201703702,8.314021500213446,7.23283591168089
335,-6.408955889388742,11.243427057686121,8.455280177082235,7.360828723245468
336,-6.515621885218778,11.522143945475731,8.631612488105024,7.5019215438892495
337,-6.5926754816136235,11.785062189941684,8.841405638176473,7.648859752132847
338,-6.766489636916571,12.016094218016255,9.072542175768602,7.78294307308649
339,-6.984323708233494,12.208626205794094,9.313506929328664,7.899048864322135
340,-7.152362132910347,12.365059168971555,9.543138690560413,8.000049765260956
341,-7.305784557403688,12.48596458876601,9.73577294705808,8.107540051843833
342,-7.496868494317972,12.572111709192123,9.879550637700103,8.242542289264682
343,-7.711929203621622,12.621953207265367,9.975684553273146,8.385841118413305
344,-7.92384515756261,12.632991139202325,10.024217589302497,8.506509336114643
345,-8.0766679207855,12.604963028569465,10.040488168414782,8.60250391957683
346,-8.121436862484915,12.540681472601158,10.044174819625864,8.681426654153812
347,-8.136876615808854,12.447199257632688,10.054678094546816,8.735556614161267
348,-8.211813764382562,12.332147439647372,10.087277999467942,8.765386976105397
349,-8.25703757670266,12.202100013823818,10.149829707745349,8.805608362354869
350,-8.150831622799112,12.057757449313128,10.239762701427807,8.88761025730962
351,-7.909211753370988,11.884126990567536,10.339774808026837,9.012766381683829
352,-7.588900298821546,11.663967518257563,10.428951221431861,9.160857876278989
353,-7.212718631485171,11.393759838612436,10.49628167115899,9.259736109075297
354,-6.802215097083965,11.077476755476676,10.538436540926906,9.248757418212648
355,-6.371856995203536,10.728631865065529,10.56043538718543,9.198770652807637
356,-5.919273449197436,10.360281923106964,10.56973695682687,9.207438282974666
357,-5.442745068558185,9.95743781345522,10.565780106273248,9.260655937682309
358,-4.945798739056566,9.507073191300666,10.5458073064423,9.310107013516767
359,-4.419351999234061,9.01545541154916,10.505379987403138,9.335620412209742
360,-3.876233564182834,8.508929675700571,10.450472467387272,9.325100380833794
361,-3.4082551560972845,8.001618305236196,10.392072821052032,9.297555959593236
362,-3.1058119060998135,7.486835728277823,10.354356580920392,9.284146063688244
363,-2.9827117036364914,6.965295607109366,10.344506943737255,9.277924329511256
364,-2.9979151918075324,6.455400951097542,10.336975588166808,9.259560791886386
365,-3.013055882284979,5.96818640641946,10.305454944959147,9.22855639015283
366,-2.898108770812466,5.4913342597079025,10.23251487339672,9.187877992516425
367,-2.7402641723242724,5.006694800141339,10.127494299611683,9.135422771154929
368,-2.676436774154559,4.490185343422933,10.019405976835454,9.07141786787918
369,-2.6620668642726977,3.922613921189626,9.936740701575651,9.002352140408457
370,-2.6112168262619435,3.300722035687385,9.871347927977478,8.932470782522495
371,-2.5094778350624707,2.6328027060423325,9.777459313776303,8.852924090095312
372,-2.3612917669627898,1.941476700733449,9.62120054924672,8.753422834141212
373,-2.231107316027867,1.2349910547663905,9.40412187941075,8.634304818686665
374,-2.184563619807186,0.49922878002698784,9.15326611450864,8.5004073476738
375,-2.1233727884123446,-0.2670377169410399,8.90775177630976,8.363159333894467
376,-1.9305061340913636,-1.0264017966715862,8.697791250318367,8.230938269908023
377,-1.6860627573144775,-1.7319191431271443,8.522961011928771,8.086938761094776
378,-1.5090754321193065,-2.3912186723914424,8.357096504914905,7.912629413997515
379,-1.3966505547348915,-3.06454215494907,8.176161787629018,7.7132991561773725
380,-1.311718243160481,-3.7852346177287375,7.9798292261371575,7.505055269868549
381,-1.2010554924123142,-4.535582074697587,7.775838218606783,7.321838290845847
382,-1.0171971750160287,-5.274865719006882,7.57912149725775,7.190521563550053
383,-0.850004987672278,-5.986728127248631,7.38693185464638,7.068570219180228
384,-15.373809035218507,-7.457921130938387,-14.704575635100758,-14.548012564962711
385,-15.790864691510906,-7.700234546669561,-14.960759504263265,-14.84979760099211
386,-16.098015297032806,-7.928757577842396,-15.161936083899267,-15.091857279109409
387,-16.348604456089618,-8.144328770594324,-15.329870229067978,-15.269232323289978
388,-16.620021908308512,-8.3370100949473,-15.485097603161623,-15.388386295379789
389,-16.929473757622443,-8.48214970154421,-15.642345393509984,-15.466924948189988
390,-17.271584880202344,-8.552632796306346,-15.799047202284584,-15.52531816343527
391,-17.561484243689424,-8.551591014477179,-15.942202291511489,-15.561852590044765
392,-17.718448050826584,-8.504705446232581,-16.06553575875113,-15.570074531007924
393,-17.828210942062345,-8.421742194566638,-16.16782710282,-15.572739234924668
394,-17.990073859719732,-8.284783076643322,-16.24666109776323,-15.579842953610957
395,-18.12840243609745,-8.08255490698136,-16.28767347797072,-15.589655212906443
396,-18.15589267906308,-7.840410950883985,-16.280621046095973,-15.583663401335038
397,-18.119587152429588,-7.602445684653921,-16.244257767102226,-15.564841061263026
398,-18.082500100636633,-7.391724559543601,-16.22275349595207,-15.588770692250277
399,-18.066198714955203,-7.208400354702983,-16.247923653893434,-15.720291997759945
400,-18.07307030017082,-7.0446709005688515,-16.31469506012255,-15.943977985622457
401,-18.02565620154453,-6.905290135648042,-16.396220045339014,-16.17618982105181
402,-17.85579360363422,-6.80121936809537,-16.479957633607576,-16.364783726433995
403,-17.66838079086134,-6.7276860383601775,-16.57474428029324,-16.504691184888
404,-17.576779899822235,-6.659352783464159,-16.67024772421225,-16.60448832678059
405,-17.505638599325966,-6.577313340412019,-16.730895092592718,-16.64912254580907
406,-17.363432441439407,-6.487610960948174,-16.744935614757566,-16.617224425952447
407,-17.181890494596686,-6.41543298610471,-16.741496079053526,-16.50405840751917
408,-17.015859468901205,-6.388728878091776,-16.75375378354111,-16.35893934654179
409,-16.934263657209943,-6.4279331195440585,-16.788284972990063,-16.269045802251206
410,-16.973418261520422,-6.525256771423526,-16.826040657476522,-16.25546682392522
411,-16.98465443254069,-6.6477958387063,-16.85480606262687,-16.285990188389906
412,-16.81799381073768,-6.7646273009392885,-16.86081570238068,-16.301043955155123
413,-16.5710301776135,-6.855185084042551,-16.844677469139096,-16.289303458436066
414,-16.374548709103134,-6.90294558268642,-16.8060466112629,-16.23956654868071
415,-16.19122966838823,-6.906282923472944,-16.735883494202838,-16.139147350571136
416,-15.95506920372749,-6.892004080565564,-16.616284758224086,-15.95294858500196
417,-15.626639080684996,-6.89133349622027,-16.443945532240445,-15.667229815573856
418,-15.18612598742667,-6.926397714368823,-16.235457322278904,-15.287859228358567
419,-14.73338350253479,-6.988273210997836,-16.005631434759184,-14.881361767434516
420,-14.36627456926312,-7.055093079899908,-15.769595867604297,-14.507488865459694
421,-13.977249964588676,-7.124342142394328,-15.527986739096365,-14.185372914051799
422,-13.443421550890355,-7.21553119658733,-15.282479139177456,-13.87751877290419
423,-12.845277090886768,-7.337189124831146,-15.040404037343235,-13.550709281237335
424,-12.27919658033034,-7.470478678997545,-14.81911134990126,-13.18701806324142
425,-11.706107778152305,-7.585943484065348,-14.652056392326948,-12.747359218385434
426,-11.068084033123279,-7.675111763851816,-14.551526213962616,-12.189742619882432
427,-10.327482070638977,-7.759530887684294,-14.44323795656557,-11.52618562321764
428,-9.485085399674999,-7.868272365675384,-14.196548507454743,-10.832780581777879
429,-8.66284895624012,-7.9980241733112845,-13.806844123388405,-10.203426441017907
430,-8.007332618841055,-8.104984418232583,-13.409432110722875,-9.711331530897308
431,-7.547025469451503,-8.153411595449551,-13.035500265872173,-9.416754826336218
432,-7.244363376937599,-8.159659874250384,-12.562605832954628,-9.337755036438326
433,-7.09782449681775,-8.173345371869441,-11.919874219312408,-9.417668173646035
434,-7.00811820364494,-8.245844766232604,-11.215144323749344,-9.475622423828929
435,-6.670631582083319,-8.460685664515985,-10.682924549016997,-9.153547951293893
436,-5.835377280874094,-8.914808759564188,-10.468561460870303,-8.147685549168926
437,-4.378219529487287,-9.616247787441335,-10.453002292278294,-6.509885546764785
438,-2.465690538963851,-10.457875750962923,-10.293846008643499,-4.621399056427526
439,-0.9616931985252046,-11.144596295403227,-9.709412222401093,-3.204352525853607
440,-0.6563380987955929,-11.290134795657126,-8.689919196606954,-2.9221877242782046
441,-1.4032863037220114,-10.859256785878458,-7.405740439597206,-3.7657584967085516
442,-2.6397979316973377,-10.202631873934102,-6.04381801159611,-5.126294755200238
443,-3.768915821453505,-9.654481983096643,-4.727740175662106,-6.3359968316409745
444,-4.37087003182615,-9.452072675350244,-3.522606217270509,-7.069311350528595
445,-4.41118937876558,-9.78815086795875,-2.478084760720442,-7.30202774621909
446,-4.213334190640357,-10.485535217175743,-1.6210252291430711,-7.093766918301227
447,-3.9747309905858343,-11.03130745376865,-0.9087761361680036,-6.699384615724736
448,-3.8650881279644738,-11.190714368836554,-0.19676849600230234,-6.581128221205042
449,-4.218487566765684,-11.137148798220762,0.6617725785530489,-7.053350298105661
450,-5.208613488674062,-11.099106882087149,1.658010145542851,-8.060304287989862
451,-6.526132522799692,-11.243824287642175,2.6302855903859355,-9.297226682916488
452,-6.63979029093182,-11.787732898355271,2.1403866202869875,-9.274968262190226
453,-6.723277710516307,-12.348243454356707,1.6132776243460276,-9.271009010164232
454,-6.805108966083148,-12.913679976417615,1.0518070808104927,-9.264173928661961
455,-6.94118247162682,-13.472813495486271,0.469782318498576,-9.267126936964786
456,-7.176879299913429,-14.000405304181122,-0.1065711919452198,-9.27754801687178
457,-7.3990169020142105,-14.463996285996442,-0.666902124763647,-9.270211351938045
458,-7.472038146313302,-14.875580565208768,-1.2271052711227417,-9.19058946278632
459,-7.4685565097203845,-15.293825855670264,-1.8104036903552854,-9.016255273759814
460,-7.500378256471297,-15.749077992650268,-2.413180264582738,-8.77063902018094
461,-7.50955361793469,-16.223987138797074,-3.005886660410787,-8.479369313237472
462,-7.415017483855865,-16.702883048916835,-3.5444008612883406,-8.143475464708846
463,-7.230548649614039,-17.192247345363945,-4.009013038852298,-7.751523706083835
464,-6.995352911465634,-17.691061499398295,-4.388714538810409,-7.319104566091562
465,-6.789363760827988,-18.167956481770346,-4.683761236951055,-6.889143465552672
466,-6.682726029216274,-18.571837464240847,-4.899689436640552,-6.456794236986464
467,-6.573734304407339,-18.875401361070974,-5.0525066709429005,-5.955054794447701
468,-6.340571483888188,-19.0900101127514,-5.184365874028962,-5.3745742819595215
469,-6.0827671143595365,-19.243710799712456,-5.353278789420551,-4.8005370178141495
470,-5.939851216531145,-19.360080950945406,-5.581085585515863,-4.346482304834374
471,-5.8908105716868535,-19.459138231652627,-5.844640169153166,-4.043511317359629
472,-5.872917033661185,-19.54761280385538,-6.099087943319049,-3.874883809147439
473,-5.83502514538661,-19.62612430593529,-6.32665407246666,-3.789133772947949
474,-5.737754437224902,-19.68686320862844,-6.524273343992453,-3.7165307410385116
475,-5.673768599896094,-19.708430769653194,-6.6961756432120545,-3.6353114797915262
476,-5.744372649389165,-19.670497266510854,-6.852832773712835,-3.5333718086817485
477,-5.824914879525255,-19.574128288633897,-6.999112205416611,-3.398687469205723
478,-5.758645169886313,-19.43071122221661,-7.1356669698315605,-3.208204360034954
479,-5.595586634872652,-19.246022736785036,-7.257083769779568,-2.9779786783583524
480,-5.445788627220569,-19.030235987607863,-7.367784657227311,-2.7818088333599285
481,-5.370142559911133,-18.80303992843171,-7.477293970292699,-2.6853740224344773
482,-5.409033797752718,-18.58558567229871,-7.61360094615163,-2.6902100284873134
483,-5.515763174976712,-18.401532253254064,-7.800386763079949,-2.7499988523011467
484,-5.612686590542544,-18.25518404500287,-8.029213386265058,-2.8236728168697054
485,-5.749612544321343,-18.151629942761215,-8.272222202000941,-2.8800082038742305
486,-5.985309565355138,-18.06225152881812,-8.491819438463098,-2.9064929501533947
487,-6.201326202505988,-17.928026255012277,-8.66525305675788,-2.900351895279232
488,-6.269103608797732,-17.731522253825112,-8.787871320163337,-2.86483195459242
489,-6.232949509399846,-17.50936244968817,-8.885040943027883,-2.790610832619638
490,-6.185102395565544,-17.316020434440933,-8.990720187590693,-2.668416649984499
491,-6.192420655892406,-17.166160424366605,-9.10810157647966,-2.5127281019593712
492,-6.291548464756279,-17.048115325055974,-9.23270374032992,-2.341218023898268
493,-6.368973567158012,-16.948782356726987,-9.357052977268136,-2.1518611819169005
494,-6.289133433705441,-16.862076990170987,-9.481402255081722,-1.9367157227443115
495,-6.147191368996932,-16.76825564170522,-9.600189423416236,-1.6914200941190174
496,-6.079432834160139,-16.62226570544806,-9.68854646999814,-1.4143870649014967
497,-6.0048501063358,-16.387556124796482,-9.72754372259436,-1.1134650181108856
498,-5.812745372662482,-16.059837314762397,-9.702943718890168,-0.8015835176353132
499,-5.536122509767833,-15.647615517205534,-9.618394910689704,-0.48631892249256836
500,-5.243141512950087,-15.174421112900202,-9.487378596687394,-0.17186127005362484
501,-5.014373800820032,-14.661102126731244,-9.340781961115495,0.1331624836814993
502,-4.909808011384204,-14.121519830482276,-9.198451617994102,0.4243944817624201
503,-4.812760092953867,-13.558626958259568,-9.06949030605967,0.7203663027412237
504,-4.579593855135659,-12.967611372751856,-8.955035809452085,1.0367303261652188
505,-4.293858137053,-12.345364740547433,-8.867594748979444,1.3496179962013084
506,-4.08319656005499,-11.69227239881899,-8.81579845490794,1.6251473365808216
507,-3.9045970078655143,-11.006975945464578,-8.783402888897562,1.8506570106435207
508,-3.6805378418452745,-10.299661611234626,-8.752173707572478,2.024377523283011
509,-3.3854494244326054,-9.598279494786224,-8.706794083699801,2.1570776709675648
510,-3.0146021606738644,-8.938045998917108,-8.648107392741656,2.2651351428466056
511,-2.649756890691878,-8.326725316844083,-8.588572027805737,2.344054466589266
512,-0.4310053414354029,-11.326839630315773,-29.47898555500508,-0.12462789017549852
513,-1.0303634956032588,-11.969970225866934,-29.935741939494644,-0.6625419909351913
514,-1.6055986535478353,-12.589259428331122,-30.35826676738759,-1.229846575061289
515,-2.156784359610767,-13.164783228892992,-30.72771574937103,-1.7994988988049252
516,-2.6560757782728173,-13.698610683276147,-31.038421095650634,-2.3539194589628427
517,-2.9822752438721443,-14.231519553982752,-31.29292987165999,-2.9035066316833262
518,-3.048679095262201,-14.798649169150107,-31.48398047968566,-3.464890701831308
519,-2.9320172888863403,-15.37195429012643,-31.59201577137142,-4.027068766210426
520,-2.768634472368212,-15.905384307685393,-31.613864133237062,-4.57791551965115
521,-2.7133204326102103,-16.367691289861927,-31.567817461825424,-5.134564629180305
522,-2.863798175638582,-16.75068352447403,-31.48226626214511,-5.714712653189567
523,-3.089982381814429,-17.100365052022525,-31.38565780820927,-6.312232219981818
524,-3.2316490564392866,-17.47540382144628,-31.281058627397066,-6.918750374819875
525,-3.3402709013638785,-17.899115181029856,-31.14757528333419,-7.533487108224678
526,-3.517157697473788,-18.36823122839927,-30.971900307136124,-8.159528753444109
527,-3.8062228269378875,-18.84877163953557,-30.75976330312518,-8.818133644342232
528,-4.223435713951442,-19.300009255439708,-30.52340179130774,-9.5247971525653
529,-4.680698384941362,-19.710429997074005,-30.276580237342525,-10.24734184425456
530,-5.083593852279889,-20.0887871315931,-30.01788272428948,-10.94798347011816
531,-5.513444555247961,-20.45699533898169,-29.732801945676282,-11.642928731743968
532,-6.07183124225343,-20.839415897102526,-29.400745067134395,-12.354130764860916
533,-6.68724474056144,-21.244570636667408,-29.00871633912973,-13.043428948728161
534,-7.278442925211443,-21.662666501923198,-28.55139121518877,-13.698189473436518
535,-7.91275254405675,-22.067893586787267,-28.034656096557043,-14.332104045524279
536,-8.650358113796075,-22.425122740176686,-27.46938622590274,-15.005520586362529
537,-9.435779257286422,-22.69385487123886,-26.860443435613444,-15.738518247614484
538,-10.183476456891752,-22.849968195621994,-26.211536383634414,-16.46485018097807
539,-10.78832976618918,-22.908703618375803,-25.530359890378783,-17.112123441842993
540,-11.184983512060692,-22.901502298290414,-24.823946507577553,-17.61854068403211
541,-11.477056934082148,-22.86091952280727,-24.095322885082183,-18.013328782347354
542,-11.802753945213045,-22.807419841840403,-23.34600703618408,-18.364049781709646
543,-12.169317306892589,-22.717619513209154,-22.579417580512867,-18.722751480380108
544,-12.550856540599577,-22.564316714770392,-21.795783173917417,-19.1205425305322
545,-12.963570683447882,-22.365016461612537,-20.985358691695108,-19.534188200530956
546,-13.412658543533837,-22.14905540706744,-20.13834993697975,-19.919756927495346
547,-13.893148082004553,-21.937660097970603,-19.248247805812596,-20.270270163951487
548,-14.395792019627445,-21.739350585703615,-18.31485157765939,-20.58911498272023
549,-14.859044320125417,-21.527064303445222,-17.33703913975635,-20.862395240444734
550,-15.23840953052339,-21.263891415654083,-16.31238362764436,-21.08932534283464
551,-15.616835736106628,-20.935649345975094,-15.245239411349617,-21.29806882277033
552,-16.080197484437495,-20.541696052957988,-14.151393311755502,-21.52220389563261
553,-16.58150663542975,-20.090534497676707,-13.051294432702754,-21.797212328298308
554,-17.04823485481004,-19.596520884167393,-11.954103354264628,-22.139063354020152
555,-17.457088862099177,-19.073025670036586,-10.856108831805034,-22.50003636268029
556,-17.806693929644318,-18.525489919420924,-9.745639493718208,-22.823410262435303
557,-18.150596716072172,-17.937568695151157,-8.60956415064156,-23.117397308585495
558,-18.545798010671884,-17.29233362063001,-7.440896337223585,-23.393530830019504
559,-18.945294560413085,-16.60245756492994,-6.239490427534068,-23.666862902562386
560,-19.290537915902295,-15.883233146618684,-5.01144843459854,-23.923646303238677
561,-19.636344797783945,-15.129628848108997,-3.756047863567585,-24.17218263559495
562,-20.03755350548346,-14.332889537357401,-2.456511562783299,-24.454628318634242
563,-20.433132318855467,-13.479912215759887,-1.0963155240910079,-24.7758867671591
564,-20.763179115605453,-12.57029888079957,0.31943317065685234,-25.080073480965073
565,-21.049941171234387,-11.650929646762034,1.7582904205332077,-25.35570966060766
566,-21.34021053162186,-10.776403188995213,3.189450718790122,-25.595804719485503
567,-21.722653561090702,-9.961714092658248,4.606559892794417,-25.814586661740236
568,-22.25351252813287,-9.210848560659148,6.027786823711982,-26.032708510644895
569,-22.798374117899474,-8.532888030909794,7.467085427488327,-26.243240926978306
570,-23.214877208738162,-7.929841414073659,8.92375794723558,-26.433974693504453
571,-23.576343342679664,-7.413390234462265,10.393556795017762,-26.603590327063827
572,-24.012555879411206,-7.003427116133336,11.790943178502847,-26.759761391851292
573,-24.434754160278437,-6.731473585214584,12.931888920285061,-26.87899566488968
574,-24.746859754830908,-6.602037797158886,13.712893308327844,-26.86181771750329
575,-24.840268221058096,-6.5231723519215,14.12879579834115,-26.627385932018527
576,-24.63752183940937,-6.368135650235465,14.186611965753887,-26.174627317951018
577,-24.214149890310615,-6.0840531059754195,13.970266851025954,-25.536391106854506
578,-23.696604636183874,-5.664857619887292,13.627772541572455,-24.791561999621162
579,-23.10766673225618,-5.154720790842027,13.274260080704023,-23.986338034125566
580,-22.309712996742377,-4.468226948270139,13.190099591185652,-23.043519712999124
581,-21.583075114523705,-3.826784337202104,13.154157670027907,-22.214525126009367
582,-21.02187338447986,-3.2379569181363763,13.145196909559752,-21.48221939992913
583,-20.562071721227703,-2.6799068876138987,13.128770854332844,-20.803920690872797
584,-20.09022016877902,-2.1162217277010464,13.079662862456841,-20.135774160023875
585,-19.520197588061112,-1.551427072501559,12.981456750162552,-19.448316176969882
586,-18.81208102708698,-1.0115703285553281,12.834470996597673,-18.734965252420498
587,-18.087251162729917,-0.5199078607113331,12.657342198249362,-18.029411625940764
588,-17.497431554762702,-0.09219402648423897,12.473337670349226,-17.374248908015982
589,-16.990072202717872,0.2872748906201907,12.289854155731591,-16.77735663143801
590,-16.463261108091064,0.6482708527379677,12.106293801982098,-16.226463649428517
591,-15.952598120186776,1.006707188110966,11.924496572334274,-15.698866032591685
592,-15.51669035363605,1.368923729930517,11.74378818972424,-15.168228193555437
593,-15.172244304320458,1.7285019270578512,11.560871161405798,-14.631147823468364
594,-14.919944897813865,2.0718471950938895,11.369758323520559,-14.093482811236644
595,-14.679520937264638,2.3974237286848457,11.169139683003811,-13.543085173796898
596,-14.366135493566425,2.7077758110295673,10.954151296609293,-12.968869683436777
597,-14.060885501681883,2.992804185295523,10.714894399904201,-12.381367863766034
598,-13.869845691033035,3.2459572392644307,10.451641151518636,-11.79499943552574
599,-13.7209859556948,3.4834072735621167,10.179544970235165,-11.216107921230325
600,-13.513340802091186,3.723392827043047,9.909119774789094,-10.647129246273808
601,-13.267242813386874,3.968241975346386,9.633396242746173,-10.07755220867611
602,-13.031755019621025,4.207726534076398,9.347071507112767,-9.497698899146501
603,-12.855163443564438,4.415574734088917,9.056561003871156,-8.92921169132573
604,-12.770267541894627,4.563890528280363,8.781769512855393,-8.397120788232995
605,-12.679189155145094,4.641456738999209,8.52841217159572,-7.892892528746105
606,-12.47034034125882,4.655894950063081,8.281352756016812,-7.398543027227694
607,-12.225968795468862,4.639606922521054,8.026958651279832,-6.90351636071901
608,-12.065322518140249,4.630713108017773,7.761286509959549,-6.401975807309732
609,-11.9520820268279,4.652340933269166,7.484518244616183,-5.912566654626885
610,-11.816632225543136,4.709943899496492,7.197410980475406,-5.454734211839043
611,-11.643853174741931,4.770609494747672,6.911132717275223,-4.998759474288343
612,-11.433916204284639,4.795957032640862,6.65395143046138,-4.507092009105427
613,-11.24633925896751,4.808341233326218,6.447647030997644,-3.9923048457102674
614,-11.141020002729126,4.840568276779209,6.28661032752196,-3.4762795402678277
615,-11.029771302517638,4.862506436156772,6.14818721880811,-2.953079626486203
616,-10.804303861153665,4.83618854081189,6.011836323681677,-2.412175987873339
617,-10.52137235151105,4.77031535726062,5.867511540240319,-1.838164192435601
618,-10.276617716277944,4.686584390428607,5.71154565633646,-1.2278577668796447
619,-10.070773246044414,4.604744049707687,5.545566198139657,-0.6347024415039382
620,-9.88516684699147,4.537972982251694,5.3675152445315515,-0.1242492165018485
621,-9.71921045637936,4.464350713586544,5.16831278535929,0.2841965843688187
622,-9.564116637632987,4.349537317223161,4.948027104217537,0.5956095644524979
623,-9.438957940474861,4.18440094223282,4.719119592130969,0.8260514250314139
624,-9.350509908881412,3.970148135163722,4.490382289576154,0.9994900058390414
625,-9.194286562549694,3.70521187192471,4.253838340102267,1.1253500255847861
626,-8.859150548571348,3.3948928316564486,3.9990960294447713,1.2063227179651066
627,-8.368418338463457,3.050753556700932,3.7218560191876877,1.2536910381681339
628,-7.7932778654477675,2.6904079755683847,3.43242252523179,1.2823812420726863
629,-7.165123446294623,2.340407546206439,3.1551106095882533,1.3076850660563748
630,-6.506103991879952,2.0269427771354005,2.917075889159976,1.3464591198493971
631,-5.8340845701545305,1.7732613937906336,2.738502780524398,1.4192335213037977
632,-5.148166106108102,1.5859763289968694,2.621651470120139,1.537633631136039
633,-4.439921703405976,1.4322277579382499,2.551223544742702,1.6894868511386536
634,-3.7116204638991808,1.2699975839438082,2.5067259957001227,1.8514668309162738
635,-2.9641499272086915,1.0771223658727966,2.4700549608531395,1.9985422445980692
636,-2.228840528410666,0.8516934315377266,2.434154345336834,2.1115012425538855
637,-1.6436551662905412,0.6339033127468517,2.3997304711353853,2.1984060781502883
638,-1.331588265133789,0.46486874961717206,2.3570533681602575,2.2757628213480245
639,-1.25616710575022,0.3236643076492428,2.281497639629245,2.332988526051069
640,-12.39871997761918,-9.542044170130362,-7.5696045305099,-10.485176311197247
641,-12.935703540126875,-9.872017066415829,-7.8783185828239715,-10.86280324367102
642,-13.389215456276174,-10.241839892446533,-8.200236928552902,-11.20983551946029
643,-13.855203670224013,-10.623168815240687,-8.53649743797351,-11.544635936518478
644,-14.44973862686556,-10.987916913809046,-8.898268596408737,-11.906261725755249
645,-15.111266806673417,-11.312699597538689,-9.294665858266418,-12.313363062777913
646,-15.748690066330287,-11.591149490052457,-9.731883347683555,-12.768651243392279
647,-16.340149067145564,-11.843771544218765,-10.21263302149604,-13.238943421431166
648,-16.880427752630176,-12.102839499303922,-10.729922122540374,-13.681149527259516
649,-17.412359824843136,-12.399480746736767,-11.252560469548806,-14.090579463252174
650,-17.97819780341917,-12.754814868629419,-11.757131480168352,-14.471161058408716
651,-18.48730146136468,-13.16330327685269,-12.24463425769957,-14.798124605634934
652,-18.85244785103929,-13.605826049264193,-12.73200766353604,-15.053561430716194
653,-19.18105335493941,-14.07205188570928,-13.221263951191611,-15.259336099117577
654,-19.585232100167563,-14.54624058775877,-13.686125698301915,-15.441095702217947
655,-19.984641782406058,-14.993184512906112,-14.09741319433551,-15.597878295228204
656,-20.27396438871265,-15.378409317272668,-14.453172865717573,-15.721925519736875
657,-20.443761115898088,-15.686448956375019,-14.773195536667526,-15.810053311385749
658,-20.51087294970115,-15.914427704172336,-15.070920581640886,-15.85899854643397
659,-20.537650828041077,-16.061497798327153,-15.344989911130178,-15.872003824138599
660,-20.580165637663008,-16.141017422479997,-15.588079314029063,-15.857017396933383
661,-20.540712787221377,-16.19731209659903,-15.801177867908322,-15.813922721808103
662,-20.326879463840992,-16.271270576804973,-15.991533830823924,-15.749480912329224
663,-20.06374683963832,-16.36329227723226,-16.17771531611021,-15.69517729242249
664,-19.88973083441247,-16.457419574174633,-16.379316560446018,-15.678436300704904
665,-19.774020354321117,-16.54284169028917,-16.603083279402306,-15.707896144150334
666,-19.642631915521164,-16.607525437661963,-16.847937870013045,-15.77207323846253
667,-19.413582680520832,-16.64239049092907,-17.10709763158736,-15.808616232953598
668,-19.033085157325086,-16.645507091646103,-17.372018645814258,-15.766019616770375
669,-18.630141634861147,-16.615416412892625,-17.64182017621681,-15.694068984043865
670,-18.34260046620073,-16.55836196450447,-17.91680075617074,-15.659212753799839
671,-18.06022596634811,-16.501110550702048,-18.190935541282915,-15.652451304569631
672,-17.655318349548196,-16.468510088905074,-18.45639159541096,-15.6493782936643
673,-17.217711432663815,-16.45779576694713,-18.706202497003176,-15.651220948431009
674,-16.866928455222155,-16.45454033804238,-18.93758434609578,-15.657034657712995
675,-16.629788431685537,-16.450729896917974,-19.1390425425022,-15.66674404673628
676,-16.502962220277247,-16.43422917112376,-19.314084968136594,-15.679052271078229
677,-16.418233908215015,-16.380488974934906,-19.47338027375457,-15.661912893842294
678,-16.3029236205416,-16.272346915542553,-19.626289426674653,-15.588460293577304
679,-16.22944925655601,-16.116849400319516,-19.763101103409173,-15.49000444395409
680,-16.274159692028604,-15.935855195501368,-19.870022944106374,-15.399241364295213
681,-16.328663296717053,-15.75448123010139,-19.94298409022524,-15.295709272980217
682,-16.27656680117217,-15.601897402779167,-19.981839810476785,-15.147424771064946
683,-16.16508888554886,-15.511179002706989,-19.993532695784793,-14.928919456327362
684,-16.064509324986314,-15.496793269381023,-19.98241199259912,-14.632384027729648
685,-15.980003921903496,-15.543694229102668,-19.94780482215694,-14.306363224567438
686,-15.899045600735695,-15.610406559520506,-19.88390474058075,-14.008148834980943
687,-15.754572055771002,-15.616684846222398,-19.79467177877304,-13.743699645908295
688,-15.490184378990214,-15.495310987438028,-19.702679461091016,-13.498520523286755
689,-15.207415710520069,-15.254340914811017,-19.626789778446707,-13.261435878055138
690,-15.008919402361704,-14.934682445695058,-19.557093986822892,-13.015686544613608
691,-14.798917760691634,-14.571164372986843,-19.463640599385474,-12.746683879241223
692,-14.461245841329928,-14.191810558579977,-19.3195483275911,-12.446663573502779
693,-14.02324563418416,-13.801497395830891,-19.1080569123918,-12.105718270837915
694,-13.538228513860512,-13.385593929990478,-18.82490613910962,-11.72185066216188
695,-13.035050832816339,-12.921803717523982,-18.47380514973131,-11.323225534550552
696,-12.533905810735616,-12.388024331304031,-18.069304254855513,-10.936264708497156
697,-11.96627092975565,-11.776825449752144,-17.620027913888514,-10.53766084089857
698,-11.277161190298349,-11.090347618172514,-17.14444645043092,-10.102245866327287
699,-10.606688492831168,-10.327510381757273,-16.66146680881626,-9.659681504769651
700,-10.131707444044695,-9.514659813751559,-16.219031766131895,-9.289565708806279
701,-9.771168648386066,-8.706661228804215,-15.878149574938277,-9.005529806792914
702,-9.440725298864033,-7.962632782614893,-15.647123235355798,-8.833498474275919
703,-9.149044985726274,-7.28529729582479,-15.495187932485075,-8.731988812235487
704,-8.927050594672618,-6.645308918084707,-15.386745699815338,-8.63556031888252
705,-8.876485299936034,-6.00992717481358,-15.277749983264753,-8.553853745264755
706,-9.067110670503611,-5.353042954478742,-15.108872899924517,-8.508367952830149
707,-9.310918101765601,-4.676168690046839,-14.848438728366325,-8.439791719615767
708,-9.0775614382639,-3.7884326331191147,-14.419873043981188,-8.196871141309494
709,-8.75184796133047,-2.9291191402137704,-13.95144718181469,-7.922151352455963
710,-8.454784407454214,-2.1109288436124016,-13.451985408606392,-7.674961228208663
711,-8.207833230944631,-1.3424020224165794,-12.928963455537549,-7.469419301708996
712,-7.997599973803514,-0.6241338062479002,-12.396791668872856,-7.298985405310385
713,-7.748723942018604,0.04958554375601555,-11.86805783950825,-7.12698664187736
714,-7.379960418192951,0.6907425441780765,-11.353798079033735,-6.915160571506487
715,-6.977927072281528,1.325462040561806,-10.854794075807881,-6.6949980600536305
716,-6.663434884749499,1.9732942526829567,-10.365982929335416,-6.5146961944613375
717,-6.376453014835612,2.6174480069611037,-9.884166532399977,-6.372385565775559
718,-6.030868706167164,3.2296340969964907,-9.40514480059196,-6.246427158928258
719,-5.691299962172552,3.794269824941928,-8.919459504383806,-6.10549580119075
720,-5.441289538749491,4.305574191312697,-8.420312742682993,-5.920765862535943
721,-5.286146684084458,4.7841656956045195,-7.9113415161562886,-5.706991957848778
722,-5.199468242362857,5.2548815482757645,-7.401826283971774,-5.493964380570248
723,-5.091444832524157,5.697125648901412,-6.900580993968269,-5.287365144536033
724,-4.868893529925096,6.0844957410127245,-6.41379230403985,-5.0797522650453475
725,-4.596796205046744,6.44186349046157,-5.949009500036039,-4.851993620885232
726,-4.368014013304366,6.804683144798457,-5.501729384999335,-4.581096631322173
727,-4.088261548751667,7.176445204063823,-5.05167661518094,-4.258815290913946
728,-3.647317368899479,7.5540396918425365,-4.571588658571189,-3.8911043329688226
729,-3.1198952508582094,7.940806596889123,-4.063044296023454,-3.496020858256211
730,-2.617449596533493,8.338877032758386,-3.559014954230163,-3.0945462319869246
731,-2.1788683247860017,8.762027745048753,-3.0723840582195394,-2.703772515302377
732,-1.8076866017519402,9.219169266474472,-2.582065784386687,-2.327119312702518
733,-1.4109598773065037,9.678988080544382,-2.0669068900727936,-1.9315538783555746
734,-0.8896540273810368,10.102597322347075,-1.520767285919164,-1.483033367793199
735,-0.34263278897339167,10.487705963172647,-0.9435170747128345,-0.9926791562899087
736,0.09386557967239803,10.844807658274922,-0.3491854073796513,-0.4914241712691596
737,0.47327250477555927,11.173122027213914,0.2422474546429175,-0.017539506905048102
738,0.8860391287298808,11.475437186388787,0.8124440941477233,0.39963487611844006
739,1.3184065212453615,11.762711877957651,1.3487516275951854,0.7906654690185723
740,1.733703484886198,12.046522210686252,1.8491694233586309,1.1995822745557594
741,2.075279651244188,12.342791376977669,2.3350584400656524,1.60576732270949
742,2.2930620424275583,12.659059492389243,2.826182726125849,1.9730320176686722
743,2.4850488288205432,12.977033469727031,3.3236063819635486,2.311100900970205
744,2.761162399353578,13.268147797364733,3.809367544205474,2.6349272492505387
745,2.9976810116549277,13.50357686981885,4.264803577591204,2.925849079612669
746,3.043626283205536,13.66682964689967,4.687561654747302,3.166986785107081
747,2.9832339738442264,13.782071204541916,5.079782923387514,3.368615861286211
748,2.9531089540684,13.885895843184308,5.447354135715643,3.548348701873204
749,2.9832579555425145,13.985888013269506,5.781473456817509,3.7299329558532044
750,3.0654443485936422,14.077292139620983,6.070871648824952,3.9253159171926675
751,3.1307886990877494,14.154720026131585,6.29762368490262,4.094563155802522
752,3.0955203328625047,14.207278617125809,6.455782124542945,4.18434068376669
753,3.017743567137014,14.234248072600282,6.555439509142734,4.181846542086629
754,2.9814797718503945,14.232922426774056,6.60137565018118,4.096920337769113
755,2.901587095047121,14.16677294406245,6.593265239001947,3.941301441126744
756,2.6816350431242006,14.00357277632062,6.533031107463877,3.742972649194684
757,2.3919046324907645,13.762510426024566,6.444551737666579,3.5552347268648776
758,2.1397172033212764,13.48497167975164,6.3551773587415274,3.4253953123263674
759,1.984865459732023,13.208372494849673,6.278337829431845,3.3712973927242245
760,1.953366873200221,12.963076832606784,6.2163243897762985,3.384560248448755
761,1.9508568061796412,12.75666938820197,6.1542817436592845,3.4160118363436762
762,1.8697381156915005,12.575627242133326,6.074293683759395,3.417094629111477
763,1.8023715444800061,12.397352596253286,5.978945365836029,3.404202401273972
764,1.8793858547163849,12.195120666695951,5.882120495150939,3.4192721918974143
765,2.059797631102594,11.942573137234547,5.797717355858823,3.4891250773022566
766,2.2615765288199468,11.627548318583562,5.738520931885596,3.6272232623200287
767,2.462865967928456,11.265514318868734,5.715233089872672,3.8094182344383714
768,-8.868258737173964,-16.896395598104185,-11.004832735125337,-11.253923421011143
769,-9.18379574937499,-17.594405966023334,-11.365227407117128,-11.647407840349398
770,-9.399572985875212,-18.310158410291642,-11.758756868321013,-12.013270609354205
771,-9.599945602011124,-19.035837769078437,-12.18160708982605,-12.35427920796032
772,-9.88308670106085,-19.753109964455323,-12.62015436497376,-12.678299167179906
773,-10.161451272756993,-20.441745213673418,-13.045903619446532,-12.96472057479662
774,-10.338944376831538,-21.0897794679347,-13.44532470069837,-13.201554090315053
775,-10.482529032160748,-21.71199222522171,-13.810838189534872,-13.411959507072089
776,-10.676336684450133,-22.328567995796863,-14.14494633488681,-13.62712730905402
777,-10.932285839043674,-22.944729787771962,-14.451528736824983,-13.893501284848522
778,-11.235089415916073,-23.5527963080378,-14.738899895156589,-14.230402526301278
779,-11.5017873884774,-24.124815966541895,-15.025790270760098,-14.545427200154494
780,-11.654720657048731,-24.633439669409555,-15.327184575148575,-14.742777912248451
781,-11.781160826054872,-25.076229986477948,-15.640444080585736,-14.8555099627606
782,-11.97549852705926,-25.466886928370254,-15.957095768895323,-14.946814757194767
783,-12.131880066418486,-25.834193544788913,-16.266679045445947,-15.023337457375366
784,-12.142227546958647,-26.202621764795555,-16.565359360107582,-15.083545987349831
785,-12.07629157223764,-26.565293888864005,-16.858358489120217,-15.126112567782416
786,-12.037747651644871,-26.901118715823404,-17.152141833754737,-15.143296031622029
787,-12.102854976851534,-27.188218787489664,-17.435294334089928,-15.158172627591473
788,-12.30932819046239,-27.412218827791126,-17.6674988031844,-15.18702073880497
789,-12.538348569378625,-27.584823702401927,-17.81070697644804,-15.171135232650288
790,-12.670768683518814,-27.727302170875035,-17.874673472812905,-15.057575683218685
791,-12.808169449729446,-27.8498177516649,-17.90177248373818,-14.891196053860176
792,-13.087497420256241,-27.955484105964835,-17.947341459513318,-14.735781200298096
793,-13.50949749616516,-28.041001066975106,-18.0302322149862,-14.605766416507777
794,-14.028721355407264,-28.097767726159834,-18.150249268274173,-14.503770231983866
795,-14.582736947818434,-28.11487281110251,-18.3061976567513,-14.430898126064525
796,-15.098636822401257,-28.086428987513926,-18.486868769488346,-14.385067848191879
797,-15.552017452944613,-28.023871051119716,-18.671649695562408,-14.383215349307584
798,-15.946691213517564,-27.942883826174192,-18.842058034713745,-14.443402488907244
799,-16.27685415611359,-27.841362719762262,-18.986213834766914,-14.559218117332522
800,-16.54276632223053,-27.7172596777103,-19.09955123068943,-14.715250386677345
801,-16.76309028573781,-27.592217772742544,-19.1915152994713,-14.898077261534592
802,-16.945346671510737,-27.48175635202256,-19.269521000137964,-15.089270876484258
803,-17.064135091038498,-27.367342218288027,-19.33365960665673,-15.27264522278119
804,-17.091275244802418,-27.220522013702553,-19.373788260763458,-15.430064790606389
805,-17.00252296213085,-27.01887377183396,-19.390173203028287,-15.517622238771125
806,-16.795582590753607,-26.747240467578575,-19.396974422473598,-15.504068569754663
807,-16.55881720932527,-26.410916010586767,-19.396642558653504,-15.426192677409926
808,-16.374375287036838,-26.024001948673178,-19.37538779906074,-15.328664405529786
809,-16.155784096691484,-25.58648499877855,-19.326281980218738,-15.195805771816511
810,-15.81308242821348,-25.097661386317053,-19.254710813897947,-15.000225183662025
811,-15.460505847612092,-24.57736495392566,-19.153848769247222,-14.74640799278578
812,-15.212788163888263,-24.04005063932826,-18.995758844254663,-14.437969874751456
813,-14.999269008101034,-23.46093534807931,-18.759888196111902,-14.059962441377962
814,-14.714228246914999,-22.814605431180347,-18.450611066490755,-13.600720645384685
815,-14.28490678056376,-22.119133406638255,-18.098983699368247,-13.055421345654857
816,-13.677692219842895,-21.39489388452483,-17.73919376138115,-12.429613503501686
817,-13.019262402538336,-20.63159864706814,-17.386845455644817,-11.760700597416474
818,-12.438691268188562,-19.81204512936091,-17.030210125425956,-11.08407635979221
819,-11.822522449397303,-18.913740546248675,-16.65924974117428,-10.386443679067444
820,-11.035562433427907,-17.92677211716584,-16.260156334491246,-9.646868731548883
821,-10.149363300170556,-16.890819383414147,-15.825796623776318,-8.874503482381366
822,-9.270396119945316,-15.851697209509878,-15.355257194045368,-8.083712979032033
823,-8.434134616482645,-14.815630936129862,-14.848221695712164,-7.29330290837821
824,-7.650909482938435,-13.76732742956343,-14.306629134439703,-6.514202480807511
825,-6.859560923908897,-12.678423509850456,-13.736207982092138,-5.703989595551303
826,-5.993331576122828,-11.518611085310273,-13.141571363982068,-4.824399893109264
827,-5.118577840194003,-10.273866282676108,-12.522232105463605,-3.92372547963359
828,-4.327478082210498,-8.978939464923329,-11.915923733804975,-3.1131625123870665
829,-3.5709156053838154,-7.681532287493901,-11.401273095586335,-2.452806591181347
830,-2.813914229620013,-6.4501152857251425,-11.014335395208594,-2.0108214242226614
831,-2.183826533487985,-5.276162318758734,-10.749305804125846,-1.7845833176278811
832,-1.810037705963821,-4.128367198943868,-10.575437760577557,-1.7198747508180172
833,-1.6856943712786079,-3.042215704570614,-10.450167194478594,-1.8053449738678813
834,-1.7441017677628876,-2.050787804536084,-10.33116718472632,-2.0167372136259467
835,-1.8586340851253924,-1.1206697252105566,-10.206457746697104,-2.2326319768958154
836,-2.0031127374791433,-0.13173070133754533,-10.059492959581785,-2.3226440668404766
837,-2.1437441910700334,0.8681344323833042,-9.930773872534782,-2.322463794494355
838,-2.3927260487823894,1.8921664459621061,-9.808779460050175,-2.288769628743919
839,-2.66917095283459,2.9062408460621256,-9.671515999285118,-2.262208418680791
840,-2.859283928363915,3.849817767057511,-9.499773564287834,-2.270338978545357
841,-2.988279996806397,4.652551695139118,-9.299433321290092,-2.302841211412655
842,-3.108649287472221,5.264598671143889,-9.084436421704428,-2.3273938548846194
843,-3.2468511480838034,5.7044683939432215,-8.85794237316295,-2.3408934847161498
844,-3.4129042759475277,6.030822875267506,-8.616876692728711,-2.3407420832833896
845,-3.5088215740608995,6.30828508020114,-8.349033525398427,-2.2779608863923673
846,-3.4350924942237695,6.5921334866031085,-8.041410649893605,-2.109446510047442
847,-3.2933917162303676,6.897531177880772,-7.694341240041467,-1.8517649807691734
848,-3.221162353075625,7.210780349516255,-7.316915039273161,-1.5445291818187763
849,-3.187310580658942,7.5125513048645205,-6.927150507221089,-1.2299653035405531
850,-3.1126954172671453,7.787091319941597,-6.541157845114474,-0.9401932682163024
851,-2.9505746384914127,8.030967206135214,-6.151914265629759,-0.6501912269520225
852,-2.6714649378072495,8.2592315898377,-5.745807536894033,-0.3203733826615414
853,-2.3403472249466866,8.521438140861187,-5.322788098769196,0.032288466016886855
854,-2.045200624283797,8.859671011475022,-4.890731890434693,0.3767566782021402
855,-1.7335049557636806,9.250448609156782,-4.463946271242482,0.7118701968859972
856,-1.3347006452543733,9.640914415134901,-4.054336319762369,1.0434914290926343
857,-0.9356504547047958,9.983483747025549,-3.6840966626527774,1.3768972077332113
858,-0.6425374507010005,10.242841168119387,-3.3505315472289787,1.7156576714578142
859,-0.4368614977012359,10.425868362221943,-3.0334202379549473,2.050140655998996
860,-0.268042302884843,10.561865064076269,-2.7080447238942824,2.359619433167056
861,-0.10695095642085219,10.661310576597678,-2.377151699935193,2.6138444196166266
862,0.06769830811760243,10.727418072960198,-2.0547208953865996,2.787902990473159
863,0.20786444297579781,10.773901359796088,-1.742211942164501,2.880355081753474
864,0.25891974257858197,10.802030417702037,-1.4430898766891453,2.9072623845094236
865,0.30072088785921963,10.77765234102487,-1.1600562360460749,2.9012216744376382
866,0.42513996941644216,10.662378733541205,-0.8984868254091295,2.8939007404261545
867,0.5713870270859805,10.441761656342345,-0.6494775981907417,2.8852704365757034
868,0.6458778822495767,10.12171354333191,-0.3882219866829804,2.8615729413491025
869,0.6268654367627435,9.74109307970892,-0.11932520033238478,2.819259106865128
870,0.5245578573944587,9.347366233816604,0.11423404537886139,2.7573018969347154
871,0.41123328304687795,8.946723875405842,0.29106025595970786,2.6787811842008242
872,0.36881541089203024,8.534387038927115,0.4330404972000128,2.590535340287383
873,0.34251120019162623,8.138242015981227,0.5744712515585234,2.487340409011561
874,0.25510065237560997,7.786351788947893,0.7385266770070309,2.3660581370527907
875,0.19229873246172843,7.4799514478223115,0.9137940633498993,2.2522139469234888
876,0.2536198678635691,7.209364476010883,1.0754359048974858,2.1714611222231115
877,0.38551122663181403,6.955267377763554,1.198138263313356,2.117082081492887
878,0.49834736981758343,6.699039823060579,1.2833251257905482,2.069724667695368
879,0.5396451776522393,6.448693677451026,1.3419483211030565,2.006816767998928
880,0.4823008711189696,6.220405083934028,1.3940434048939068,1.910792629791461
881,0.4104990680974518,6.012547445256682,1.441208287062715,1.8016048916550589
882,0.42116978389253446,5.815558608610798,1.48408077844216,1.7077378064370323
883,0.4163443872817285,5.619855353614768,1.5267473507988905,1.6127414993749547
884,0.2726093463791526,5.412561048838107,1.5811101376723173,1.4950514621641688
885,0.07011737857732131,5.1784438984757255,1.6420545393104415,1.3774796954868438
886,-0.07012610910837497,4.909072434329724,1.6828787245224215,1.2903472829315294
887,-0.12933746623815734,4.608760595011977,1.691641940937098,1.24103122908507
888,-0.12642289560858405,4.291692067428666,1.6869967972094386,1.2261834167006829
889,-0.13998547871271083,3.9834430152125684,1.6883024578795411,1.2268393231190102
890,-0.25420412869373676,3.7060293355865275,1.7174555865281642,1.218246078009132
891,-0.3937078561056472,3.458266388443071,1.777184488531169,1.201745535112113
892,-0.4541822619709075,3.226754753282536,1.8594930838198047,1.1845776164424138
893,-0.5155411541517794,2.993269826452709,1.9383663141545606,1.1443453274875746
894,-0.6815254497286801,2.745219403435597,1.9993373851853042,1.0642866469858943
895,-0.8959824407554882,2.4969364777856558,2.0319959255268025,0.9633549057924583
896,-10.183099166760709,-11.389450376538175,-14.356142644836732,-10.858326337356331
897,-10.654129565608358,-11.998436693573975,-14.927409891343503,-11.130893335877369
898,-11.047934163567833,-12.619466402842852,-15.494629595809586,-11.374778433235145
899,-11.448345108123318,-13.213367537982254,-16.047728587576813,-11.594730954091432
900,-11.956583428700696,-13.756051380812666,-16.586402360935676,-11.814299606514474
901,-12.567058192863156,-14.240320874989923,-17.100371042659376,-12.060528030945099
902,-13.232467598504318,-14.67826794665815,-17.595937192217384,-12.354628098841719
903,-13.914142182195988,-15.097611720393584,-18.096281289792838,-12.702765355569257
904,-14.57107361117233,-15.525354554229947,-18.599272037433906,-13.087456658830046
905,-15.181599535125548,-15.974756995603286,-19.065880288626843,-13.460673260972973
906,-15.742488252825977,-16.444889914447607,-19.46724927975253,-13.776223706603583
907,-16.25074985359605,-16.91247215311125,-19.81229873537664,-14.0078631000789
908,-16.708252088645096,-17.353538534996982,-20.14389222498032,-14.165146864846085
909,-17.125876620929255,-17.77676549818171,-20.509878624233306,-14.33480312472937
910,-17.507765314709033,-18.19651609370547,-20.91393365835838,-14.599982097007072
911,-17.840652751722015,-18.604196640893214,-21.317620437937382,-14.943335597415988
912,-18.10226412371359,-18.98912441543502,-21.688671206282628,-15.308304947194744
913,-18.2647945951529,-19.348273809535595,-22.022632759244182,-15.64891971595432
914,-18.307290698954105,-19.68428129239199,-22.332674054690656,-15.925537974618777
915,-18.238556738632063,-20.016246464619904,-22.634877785757965,-16.13244822179593
916,-18.085336308419908,-20.362430659360907,-22.94261052961602,-16.285660397766808
917,-17.856739717597204,-20.71838077578284,-23.24956999452596,-16.3845288216842
918,-17.574504171753848,-21.071255698833603,-23.541230190176382,-16.436362793463978
919,-17.337576413003255,-21.40680102375596,-23.8112867989163,-16.49134153877599
920,-17.22249013178136,-21.714663160280445,-24.058403126029507,-16.592865134302542
921,-17.150107680762886,-22.004715766238075,-24.281460200887334,-16.723641607122392
922,-17.024424078974658,-22.28449742935712,-24.48921356424265,-16.854433737965334
923,-16.87852381015078,-22.540605723065365,-24.69208352431472,-16.988571571069713
924,-16.76390755706774,-22.74812438296093,-24.903582340401588,-17.132374116606105
925,-16.684364317958664,-22.85982614289298,-25.1148943763581,-17.285865245247912
926,-16.62640820287264,-22.847276480227716,-25.292749673016754,-17.443483165211823
927,-16.50789030337594,-22.758107685201693,-25.41328138632853,-17.569164544644728
928,-16.262083490738625,-22.65965230735171,-25.47705505369161,-17.630398020058703
929,-16.00046987936054,-22.585380068970814,-25.488413068555143,-17.65274595633317
930,-15.843001916239565,-22.546649479394144,-25.4635230122874,-17.672156750390737
931,-15.708087318413048,-22.525243695691575,-25.413604827688985,-17.672786830786574
932,-15.494195764425928,-22.48958190348358,-25.350720577923756,-17.640585372252765
933,-15.240155260838288,-22.42694686202154,-25.30616539666421,-17.6174554692605
934,-15.003346942188985,-22.333953014363622,-25.295805058575056,-17.637337416433933
935,-14.81858523213797,-22.208857592779097,-25.304546125688667,-17.68500246560519
936,-14.695678857530604,-22.0526941849594,-25.29307812706757,-17.720158001828
937,-14.51179813073591,-21.861133820324714,-25.230791667772237,-17.6636111494195
938,-14.157769007198153,-21.627944303470873,-25.111547594658845,-17.45663029228473
939,-13.763525429688608,-21.352744558306846,-24.937212358891827,-17.150219974037416
940,-13.481448517452616,-21.035747782821556,-24.718526510413742,-16.824303763410544
941,-13.256190105666931,-20.67079044281499,-24.453903646652865,-16.50777778129048
942,-12.996343086456678,-20.252776885586407,-24.14080223739303,-16.206300743683823
943,-12.685282357844137,-19.790042991105334,-23.789986949549636,-15.897283767038433
944,-12.3223774387596,-19.290805806827628,-23.412424397365854,-15.548116245923936
945,-11.971166123920206,-18.743087101530588,-23.01162477132988,-15.171807063829405
946,-11.684538610252098,-18.140270962847172,-22.584423198048487,-14.787342251130537
947,-11.328908950812066,-17.50687766321166,-22.11836277995702,-14.361613889186456
948,-10.776531626676633,-16.874404308912908,-21.598474372072285,-13.865049371360943
949,-10.148429276289427,-16.266677191858793,-21.013392283593006,-13.329613356926581
950,-9.596269786052202,-15.697370067243043,-20.362553117606087,-12.793399172027135
951,-9.102436662007728,-15.150893175622889,-19.664735348260578,-12.252934120261708
952,-8.616721725800334,-14.606351752111793,-18.94726187845823,-11.700638302445114
953,-8.114026773984707,-14.075648648822495,-18.23477809417843,-11.139876310333925
954,-7.579970968864246,-13.571276233052767,-17.54418987258687,-10.57990044028362
955,-7.096632476715797,-13.07322469850543,-16.87660810628194,-10.060073756008112
956,-6.749885221501894,-12.594985157625352,-16.25860759578189,-9.632206478649072
957,-6.398022219123539,-12.204887483448669,-15.762035948347583,-9.272660464573073
958,-5.911486268765738,-11.905378415399543,-15.416976277514111,-8.953657806850753
959,-5.416863045989274,-11.614705819901635,-15.184932681440616,-8.64836515215947
960,-5.0717128974344,-11.266706230356176,-14.999399480034992,-8.327439494126907
961,-4.839022243633381,-10.844781756526164,-14.800129798808554,-7.994541672949292
962,-4.627428147280002,-10.37054418424858,-14.561250600537164,-7.656237835015922
963,-4.345258092131933,-9.85661687036232,-14.30232481398873,-7.259315494725054
964,-3.561440879612288,-8.982040800806237,-13.847855986342871,-6.421135345925361
965,-2.7601982304106967,-8.096667664937787,-13.391291930533457,-5.561470125505899
966,-2.0754356546551045,-7.1849764019368045,-12.957390638183911,-4.750797885551705
967,-1.4569367567389557,-6.268296443553968,-12.53410476318867,-3.9929750811274447
968,-0.809710366411406,-5.374617970352743,-12.095158477474216,-3.2688430093351206
969,-0.14280733532117537,-4.500977309269378,-11.635638965022983,-2.574607092369482
970,0.5168992724196511,-3.635123094242145,-11.155559025816183,-1.906986334689466
971,1.156265420818547,-2.7697208132082447,-10.663944608644547,-1.2708961019720908
972,1.7613159256918918,-1.9016757744167447,-10.168676486469165,-0.6764498906595134
973,2.3928078697155764,-1.0421929216127748,-9.684698187743148,-0.12078899991207459
974,3.1053910346348506,-0.2111593106463423,-9.23807701324634,0.4037046440563659
975,3.768026954607843,0.5710325971975445,-8.84188996112171,0.8971946415084773
976,4.233989644951648,1.2863852717083004,-8.48198416956366,1.3578879775698154
977,4.590569349647667,1.9346430406315076,-8.143209573608909,1.7923239443377925
978,4.972607171827583,2.5197749298834142,-7.80671651118432,2.2037002208114314
979,5.351325339025689,3.0165304932897734,-7.473714876633697,2.5695507689798167
980,5.666691062347909,3.4053496819947355,-7.14603392247056,2.8715983735321737
981,5.909224651396533,3.7192201526204127,-6.8138743159522335,3.1334579973847534
982,6.082320960790851,4.003932684006447,-6.457003501061837,3.391554081231414
983,6.268260634685574,4.283624047750301,-6.075098990050222,3.6723921646977877
984,6.542895671556708,4.565245793773932,-5.691344783763842,3.9879180285223903
985,6.782427198086943,4.822190973937333,-5.3233085428043525,4.309681935282968
986,6.836284957616051,5.021644166867654,-4.970739382629492,4.596527316688887
987,6.761298983824043,5.169234639689409,-4.63511761818623,4.843415631602128
988,6.66861798074801,5.29011430081594,-4.311286195907557,5.057502279957637
989,6.592102281319217,5.414350073607216,-3.997028837221653,5.231188260584562
990,6.539916068355926,5.566469073174414,-3.6914035979611275,5.361294066796739
991,6.450069217470163,5.740667877813572,-3.3887704844687376,5.453339062648713
992,6.254064332521012,5.915722922912765,-3.0846458469297335,5.5197804032108495
993,6.055776393287076,6.068191981512358,-2.780727793299004,5.599184250885407
994,5.982351258692495,6.185001903843619,-2.4822107689361284,5.726304509452293
995,5.956028832144854,6.297505866877397,-2.1983604322163153,5.885241672259459
996,5.862150279700345,6.445716237750439,-1.938846004561081,6.0473956223021865
997,5.733561774181607,6.625543391301432,-1.7023583607044102,6.206485131692376
998,5.632651464578032,6.818226325902373,-1.4845916051272796,6.370250290765918
999,5.580871454429545,7.010215080996964,-1.296675235346257,6.5807097045157965
1000,5.5842149081451815,7.19359655290376,-1.1418976368004379,6.875460431350849
1001,5.57118462952788,7.397697411862436,-1.0085313572717554,7.21731356871712
1002,5.465343440207489,7.654073387644611,-0.868755058139344,7.54605674131126
1003,5.344862526378964,7.929651207301665,-0.6998055431411632,7.837597274839862
1004,5.312604702126351,8.17648654202682,-0.5049393114028325,8.086107766133875
1005,5.31827473007725,8.396962076810723,-0.30438974625414716,8.30757600451649
1006,5.2788688116124565,8.600875871007322,-0.1268533302198911,8.52748579149942
1007,5.186699998085375,8.769596711519988,0.0164712619782984,8.737437946144434
1008,5.051884498130119,8.8773639101316,0.1265758557063373,8.916433896215057
1009,4.915608902710721,8.895139851308342,0.21427011949861394,9.078149694994002
1010,4.8170124292300756,8.801271357903229,0.294061552574056,9.233549312449455
1011,4.657393936816355,8.605680828642086,0.3647877398739265,9.329031527094566
1012,4.3352623778435975,8.341776331323468,0.42214594286598484,9.315001151856642
1013,3.970931231603068,8.050454709972124,0.47964315219856507,9.235917129851718
1014,3.7191892296637903,7.776178024713175,0.5528318594244906,9.157760237662597
1015,3.552667010061828,7.565932804402506,0.6434756510510247,9.09315026624524
1016,3.390393413724377,7.445842047473553,0.7474622427441915,9.032112537064092
1017,3.177565625267526,7.3930428529457,0.8604719571443515,8.951513880692705
1018,2.8842927448245472,7.3613966268785616,0.9759939637957211,8.824160093307412
1019,2.590194920269922,7.313704521130466,1.084833585594438,8.650662424579629
1020,2.4080262309245986,7.222531815292568,1.186773776372262,8.452580643015343
1021,2.353053135545132,7.074338064914929,1.270744239734952,8.259246059949453
1022,2.396026393424258,6.874767858194473,1.3418783475889615,8.098600116847779
1023,2.51037918479346,6.648024206774183,1.4246857316330865,7.986541466139187
1024,-0.4284608656351077,6.7099405809001995,-19.963590268875762,-0.3028812556297029
1025,-0.18696773613349077,7.141965135935054,-20.417542694785816,0.030536926082618987
1026,-0.007340598737810039,7.5791700801645705,-20.857897236350553,0.3255048846647808
1027,0.08328822735990696,7.9739914405752454,-21.281397034195674,0.5297065783284416
1028,0.07668173154605154,8.282108959571522,-21.691489353369846,0.6298933917953404
1029,0.05641415456195925,8.511074665557969,-22.088716839893085,0.6531496082208471
1030,0.1012022079617306,8.68896402350636,-22.47378360369909,0.6423851461533795
1031,0.11124923402459137,8.836387448242323,-22.8565656924159,0.5984289021810403
1032,-0.02203734890353165,8.968421457369216,-23.241354225399128,0.5250288138568275
1033,-0.21947251574097543,9.08983028790144,-23.60590111890772,0.4374697156332158
1034,-0.37720747820226175,9.192203689643714,-23.927560751212706,0.36869062521872464
1035,-0.5006809936503687,9.24435547541029,-24.21485746033377,0.3295809172876056
1036,-0.6127326263830241,9.223614891552803,-24.483632028494334,0.301873358788604
1037,-0.7325973249697713,9.165272717131858,-24.72980768781826,0.27174812829337736
1038,-0.871390981216434,9.109878774607818,-24.95049841724244,0.2469095339915574
1039,-0.9448994028209299,9.044306092028917,-25.16727272845683,0.24677844070502825
1040,-0.8788449486458807,8.950055964388245,-25.395955304683415,0.29699651339262323
1041,-0.7760016238375074,8.8293847560843,-25.61696256849956,0.40981008468707864
1042,-0.7506466951154761,8.70033058684094,-25.8066851234226,0.5824089739417129
1043,-0.7467029099263417,8.627319676099852,-25.960548228307232,0.7913026483784389
1044,-0.6900951080891914,8.663408057670342,-26.08439478764324,1.0054175160946184
1045,-0.5916250717342166,8.771313416261066,-26.200953904294106,1.2105200833969842
1046,-0.48175383145335726,8.886853725962007,-26.32996762954224,1.4011971014948845
1047,-0.4529310650626634,8.977342360848395,-26.45738409889416,1.5574622922520778
1048,-0.5606421177870244,9.023901418428643,-26.557907051760434,1.6828992749185074
1049,-0.6121010130770481,9.029038756734744,-26.61694767650752,1.8099623355885592
1050,-0.4145126875071856,9.008982451794653,-26.62580627414344,1.9870540123332978
1051,-0.07605587307708901,8.961416375402973,-26.584625699959375,2.223980837419354
1052,0.24022726222320537,8.885345616705688,-26.500752207919614,2.4755063673822724
1053,0.5212061739052692,8.807749798702853,-26.381362416351664,2.687978239072525
1054,0.7902859838569838,8.751182886358068,-26.231532352767214,2.8619279528542
1055,1.1074103796577586,8.707003381391393,-26.054192150201633,3.0498750569262367
1056,1.5266013380296204,8.651566307784853,-25.84843874252178,3.2885089277815163
1057,1.935885050239683,8.55693063338168,-25.606653434383794,3.568664524051153
1058,2.217435582888781,8.39532868372541,-25.32612199845449,3.867914642486662
1059,2.4718503857735095,8.145427609589628,-25.01726004112936,4.17053950203682
1060,2.8150711025417214,7.802858643477302,-24.698056958059134,4.476114312584241
1061,3.180714538896392,7.393903889310183,-24.39862112838498,4.766137678029388
1062,3.4735804017686522,6.952102027439383,-24.137265670382842,4.999838251740118
1063,3.6644878354963453,6.487590308750248,-23.888673311280392,5.165712312492129
1064,3.7449702208263083,6.000976103179974,-23.615956152381262,5.288442756834093
1065,3.7640127897055176,5.5004625021128115,-23.298723395118966,5.384458490619841
1066,3.777135209909513,4.983616884807258,-22.930571415134963,5.449380857134004
1067,3.723730457906336,4.423224599469279,-22.530995309177733,5.48389363932165
1068,3.544519917499448,3.7904224541222593,-22.124908430658238,5.503108399250072
1069,3.3324256042986575,3.0711985993641426,-21.710140718889765,5.521862640499856
1070,3.1892611355297715,2.265464380776086,-21.273711338969996,5.5526779914862825
1071,3.094349234440381,1.3946056530175326,-20.810813126932842,5.578414053622442
1072,3.0021674166538475,0.4865330490034752,-20.31440028280151,5.586892869863655
1073,2.8881733654812227,-0.44540231771360306,-19.765456425653348,5.575459566511094
1074,2.737895404040024,-1.3917226889000909,-19.15351499000837,5.567202307170933
1075,2.6143219312768644,-2.3411241851716627,-18.497206838127124,5.585117451811183
1076,2.5750862307130293,-3.279087108992705,-17.820273036918945,5.623338039367753
1077,2.5174175104328977,-4.177090889354552,-17.13065614082116,5.668075869976788
1078,2.3438401251620786,-5.008730126135415,-16.427123332864042,5.70110561575933
1079,2.1593263429635425,-5.7683598400664415,-15.695071899363876,5.723411004831022
1080,2.0923845613584056,-6.461262026987553,-14.915755086338809,5.748695176879062
1081,2.138095572073354,-7.09910709388535,-14.091767412809407,5.793986273908869
1082,2.2590595361455255,-7.6946493451099975,-13.225712031033842,5.87899310973001
1083,2.415948297957773,-8.247918160397159,-12.28635711113037,6.021762208648983
1084,2.60795673127538,-8.772669793304772,-11.28876077609022,6.223228971957139
1085,2.930118878820179,-9.323094647597179,-10.342188127425265,6.4829597151814315
1086,3.468531285550696,-9.947068495723626,-9.51198550350486,6.76808300607538
1087,3.9269058581332597,-10.606516263944139,-8.786956965723963,7.037217770563074
1088,3.995273277460399,-11.231963685028559,-8.099440658816393,7.24262077846846
1089,3.868077462965219,-11.798837607869755,-7.3876988866142,7.327020133084993
1090,3.830337109943723,-12.279843924797152,-6.641991418213347,7.314700707949846
1091,3.8601417918379495,-12.72013249946974,-5.846399283567797,7.334580247982289
1092,3.8389055961504965,-13.141810519592608,-5.036032191351836,7.243113447265367
1093,3.7448129420017704,-13.54820485732604,-4.265985167958545,7.137291796039576
1094,3.514108399989388,-13.954285176454604,-3.53821004950257,6.991269281500366
1095,3.267274243646365,-14.375829465039795,-2.8593186432163833,6.793345572670508
1096,3.147293185951046,-14.814222867163357,-2.2355300709535397,6.551885610862213
1097,3.061010511920926,-15.24721467651076,-1.6764685105273007,6.273810292208089
1098,2.8703001127115337,-15.645468136862448,-1.188810139879221,5.939309404512821
1099,2.6043601280859057,-15.992660863895809,-0.7617129312451457,5.512839700100055
1100,2.331152231444617,-16.280723302471053,-0.37802142732214794,4.998964064494146
1101,2.0896084168472893,-16.49936354615651,-0.031329013163155506,4.432937710454953
1102,1.9028247477338518,-16.651511199512488,0.2825307209719102,3.864141553043592
1103,1.6824171539662123,-16.76881096766748,0.5766853236849966,3.304421286578243
1104,1.327656368870987,-16.890654010784754,0.8602956251298163,2.7542797561734744
1105,0.9280107934002867,-17.047189323152878,1.1261519880679436,2.2056359670245094
1106,0.6040419757446325,-17.252632461584668,1.3611703306307417,1.6647492355997306
1107,0.2979930671119798,-17.485064527340207,1.5558064970151195,1.1407076313604327
1108,-0.08031773861583355,-17.706290741435843,1.7061755788810273,0.647779400207706
1109,-0.5298910998088968,-17.900631283686945,1.8166721942572728,0.17306239653245306
1110,-1.0161446167249877,-18.053448187716352,1.9017747904508149,-0.28182832019828225
1111,-1.4505750660121899,-18.12574489938616,1.9893593866852584,-0.6896174481167403
1112,-1.739900933603149,-18.08166051084449,2.1061151657482124,-0.9954578899004078
1113,-1.932997885678344,-17.90254919695747,2.259299762856743,-1.1761393952023234
1114,-2.109693946934597,-17.592048519325612,2.442712747928111,-1.2661762687188154
1115,-2.1939073511160188,-17.20089463420376,2.6424944473065084,-1.3225656730256523
1116,-2.099369160832852,-16.789615085554477,2.8418916950116757,-1.3729117504942205
1117,-1.9000719902883372,-16.374943278410633,3.03020228762701,-1.405338700226806
1118,-1.6999707656802785,-15.951542027409012,3.2037234993017845,-1.406696814533654
1119,-1.535270903672068,-15.512335145179344,3.3670967617216974,-1.3753216836364384
1120,-1.4107544561102359,-15.048294035743751,3.5256904966619635,-1.3139216141173016
1121,-1.2493486112188572,-14.561077810818166,3.6772888107535984,-1.220830329772509
1122,-0.969656817140293,-14.06194959954894,3.815291495723411,-1.0955240561863748
1123,-0.6744149800984207,-13.567681933994955,3.9237111132698095,-0.9602916454362682
1124,-0.4939277429109981,-13.09205530457086,3.9955969666170876,-0.8587948682081195
1125,-0.34951624475815635,-12.629499444006186,4.061828224065927,-0.8010093876724184
1126,-0.12826170433381842,-12.165448721650897,4.1660745691535945,-0.7421211811655329
1127,0.13159248755886727,-11.693118404512068,4.3364819557567715,-0.6294560230366889
1128,0.3595010744267201,-11.207347990958427,4.583802622144975,-0.47041831199650475
1129,0.5084639003094382,-10.698514428073567,4.896292769907558,-0.33029476935947333
1130,0.5514731662284622,-10.161128978269971,5.242267297407597,-0.24715862534932692
1131,0.5900466003827664,-9.60171269921181,5.572886670391488,-0.21351230018866496
1132,0.7372292522901782,-9.032531667992211,5.846961527746466,-0.19456040291156654
1133,0.8860117742343059,-8.463115068002821,6.062459717129048,-0.1809143946112888
1134,0.8944078090050944,-7.9054996506435,6.238462621314069,-0.171051177569748
1135,0.8345250628354288,-7.377940505520334,6.399301621574946,-0.167549652541612
1136,0.8160227260027643,-6.896610248331323,6.561746630798175,-0.17991968738992442
1137,0.8288205003807663,-6.475385626667136,6.707827874494881,-0.2002307202744621
1138,0.8297319199649494,-6.1158010961219045,6.807102338647852,-0.2324459424310097
1139,0.734375269809245,-5.787289590494537,6.841927284801128,-0.3005783720424584
1140,0.47206105029717593,-5.453588370853044,6.811043857247772,-0.44904967915727284
1141,0.16722048232202705,-5.103876484992027,6.750525801876758,-0.6858451143608185
1142,-0.02470655478445344,-4.745544131519081,6.704621040687676,-0.972033029032994
1143,-0.17892502884234524,-4.400617674141273,6.678058871658065,-1.2744205947224676
1144,-0.41623153154760195,-4.09434242032598,6.657759176792477,-1.5876845094204053
1145,-0.6970010235097386,-3.8421221567534323,6.635514888935124,-1.920871814501169
1146,-0.9483257116659399,-3.6400252908124004,6.602457537252478,-2.2519987340976746
1147,-1.1326118799151805,-3.442896576487112,6.555574200175919,-2.52070699226479
1148,-1.227147376867849,-3.2009681644786876,6.498624251310165,-2.699270989826061
1149,-1.3063121321479438,-2.9126038160651757,6.432866337349269,-2.8002263235173617
1150,-1.4529396053463017,-2.5989307737842404,6.3599200980166675,-2.8567585950377925
1151,-1.5698735967999637,-2.2771910604495225,6.291603903808863,-2.862948083983162
1152,-1.4294857514650474,-10.585869344897896,-26.250680958539327,-2.821331217392101
1153,-1.3368007219236064,-10.834270418937773,-26.95349245533061,-2.9256886657264745
1154,-1.324010320103964,-11.111921648767055,-27.589647058852673,-3.041698969161479
1155,-1.3793460443980996,-11.408991513205065,-28.174105374172015,-3.154085427516304
1156,-1.4622527611644087,-11.697427469520264,-28.721960923742586,-3.244801602138082
1157,-1.5034355199457656,-11.957622693050237,-29.233953171646952,-3.2788921896766485
1158,-1.4495105536720034,-12.17460723482361,-29.69536324997129,-3.231321169381972
1159,-1.4036514227861578,-12.356485882804176,-30.10304464560589,-3.1387367129172206
1160,-1.4727173481828175,-12.51602346230281,-30.456598100806943,-3.0474078350095515
1161,-1.5566758857328304,-12.63861506943861,-30.757976665503172,-2.9501322795819718
1162,-1.537142514690209,-12.711922626668382,-31.01368442122129,-2.8358033899767356
1163,-1.4598357802837543,-12.746323886325257,-31.236499454338137,-2.727735796910996
1164,-1.3980954594486714,-12.765540159120967,-31.435792949888075,-2.65333373957246
1165,-1.3793940861408558,-12.820232361936384,-31.604582662445587,-2.6423004841762734
1166,-1.416984729406265,-12.950047370853651,-31.73585833679147,-2.709668999414987
1167,-1.450343432101984,-13.12719676833739,-31.830314831299965,-2.8101100526016456
1168,-1.425859416913852,-13.313562976245489,-31.898858921381642,-2.8929209095559307
1169,-1.455968256810004,-13.47831420664664,-31.957831835437435,-2.971853283985241
1170,-1.6537148944363116,-13.630592602784056,-32.01741715826101,-3.0731266764374867
1171,-1.935847450614938,-13.767460429054907,-32.079098106061,-3.19079971726485
1172,-2.1927886017217237,-13.896814074285695,-32.14334093484845,-3.3136998508428994
1173,-2.4329777806751975,-14.026871011443538,-32.2032607509891,-3.4310561549977416
1174,-2.6899565268053878,-14.16249067086817,-32.249977133948406,-3.5345908499604635
1175,-2.9973717355661758,-14.349640617403432,-32.27616767288697,-3.6397621785880045
1176,-3.381858176696618,-14.608509768092574,-32.27554703296394,-3.768355170405401
1177,-3.77764332193041,-14.926878507191727,-32.24078325824564,-3.9159860108773343
1178,-4.114471224631773,-15.293378509693097,-32.16705739446856,-4.076561919172025
1179,-4.46246512985587,-15.669453015098847,-32.05694632932707,-4.279254553815354
1180,-4.892367096445448,-15.990804407767614,-31.9126353895416,-4.540000458878155
1181,-5.320746622456806,-16.22566439686067,-31.727053839648608,-4.810960036526834
1182,-5.652215872914053,-16.391078412820903,-31.490507231711373,-5.035494467250397
1183,-5.889193651532255,-16.48175706831211,-31.197345331969657,-5.1887281589421
1184,-6.063708496891449,-16.498318795324895,-30.843088039170386,-5.269499213552993
1185,-6.2382549404183365,-16.44486716269655,-30.42212688445701,-5.318930412202575
1186,-6.464968468406896,-16.320821530723197,-29.932236822347207,-5.38319653908951
1187,-6.666745551077053,-16.117067145167763,-29.37935865006892,-5.4541040198079065
1188,-6.76065888867421,-15.83424081156777,-28.76991730254319,-5.5093391385506445
1189,-6.831064197448107,-15.498545813260488,-28.11157681440868,-5.553439320858461
1190,-6.973233075873287,-15.144137202851505,-27.40837356036635,-5.5934071727589805
1191,-7.139088253767543,-14.806828991029448,-26.66015951447705,-5.631646950142917
1192,-7.2631613661690295,-14.50312180907857,-25.8748346185948,-5.671094298221373
1193,-7.336026915485437,-14.198601898061579,-25.069077892722298,-5.697941973782452
1194,-7.368708035280198,-13.847454527540595,-24.24705072240657,-5.700353118557772
1195,-7.439907327826793,-13.428337417043636,-23.396358887080883,-5.708936279821769
1196,-7.616575455416119,-12.944568108446598,-22.500821234723514,-5.748812865749252
1197,-7.793582090779783,-12.439293231937587,-21.54971912815387,-5.774963801203442
1198,-7.858109711515792,-11.962696147064047,-20.552253513479982,-5.73758669663972
1199,-7.895072455878145,-11.530904346481929,-19.53308208757986,-5.6525313591711
1200,-8.001912941366468,-11.135960524940646,-18.49076835352757,-5.544502282309184
1201,-8.130356570140492,-10.746513669283564,-17.380765984178034,-5.40466669268762
1202,-8.202926762836869,-10.325452683951356,-16.161359136846876,-5.222861878721458
1203,-8.1453951158544,-9.864649714980033,-14.835778621824057,-4.9864414757747815
1204,-7.919187760806161,-9.368171397500552,-13.441342082964445,-4.696181838518755
1205,-7.649847127384006,-8.82847445959362,-12.018846726972392,-4.417981460960526
1206,-7.479111348790984,-8.24686832437333,-10.593274460732209,-4.213644979655466
1207,-7.357191736408436,-7.646188931311425,-9.167975366681722,-4.0545136091161345
1208,-7.20712563558292,-7.051716841143866,-7.728367920643253,-3.89460962245467
1209,-7.081578165325731,-6.485469641973982,-6.2538253541749755,-3.729974809135997
1210,-7.042981547287739,-5.953750932903351,-4.7313857103687,-3.574329629453589
1211,-7.107849308944274,-5.425854397184824,-3.1664273761006494,-3.4698153287203466
1212,-7.237230244409697,-4.87110880379782,-1.6238859929970648,-3.467894434600372
1213,-7.336799421512058,-4.3044887083877486,-0.2180840917787416,-3.553310733587052
1214,-7.307916802540875,-3.759646432940209,1.0009407785737754,-3.7021264890358534
1215,-7.326813384558552,-3.2790725735005664,2.065464906767918,-3.926551367413493
1216,-7.591360875506464,-2.8938901277421545,3.032036274969857,-4.233223335070927
1217,-7.954320045379181,-2.59693859653284,3.944450222287528,-4.589472679076537
1218,-8.213286282571728,-2.3633996938318136,4.824810223790489,-4.959099914045427
1219,-8.404332168745734,-2.1729753877743367,5.67478334466429,-5.324997274215017
1220,-8.63286320350565,-1.93140364484597,6.581969255092108,-5.663662780814742
1221,-8.92008373983914,-1.7313974483425354,7.43966803012372,-5.985150861481
1222,-9.295513754145643,-1.5812928126737873,8.22789084600276,-6.292326170501382
1223,-9.666835395387002,-1.449544053409655,8.928058493168345,-6.571219013337148
1224,-9.924041885789167,-1.3070349031264206,9.532499704067954,-6.8090797978968585
1225,-10.142393790829988,-1.1403385961854262,10.060481338680832,-7.025119385581292
1226,-10.428634754587323,-0.9675034005053591,10.542609181540506,-7.237835601742412
1227,-10.717511465448254,-0.8080663783353261,11.000336633296687,-7.426654794685506
1228,-10.91824922004527,-0.6535534654724432,11.446880849478994,-7.559508821152122
1229,-11.041819149598545,-0.47097630910019656,11.886920368562603,-7.613004790489883
1230,-11.12836560468893,-0.2540535863415942,12.317127277978328,-7.576534061298301
1231,-11.250127231804534,-0.01660399240723375,12.718135246297951,-7.475707327861858
1232,-11.46430610569483,0.21463753735718147,13.077591336843506,-7.352071390266128
1233,-11.675106739526164,0.4350258521939816,13.398260125245024,-7.221884469911858
1234,-11.756558849786703,0.6468606551167881,13.68859359567702,-7.096572923017621
1235,-11.72980357433196,0.8427897488862571,13.945985885602784,-7.012259890274558
1236,-11.664236815441834,1.0163936341515607,14.16469296575822,-6.9977990797271135
1237,-11.585636936422627,1.166527076984688,14.341213351115254,-7.045797557207228
1238,-11.511338623275241,1.2933165972821814,14.474821717796075,-7.133185393775916
1239,-11.443680368813132,1.3997065327331075,14.57039532753867,-7.230832133937562
1240,-11.367637237738382,1.4874149557438014,14.637598279607731,-7.315306157883312
1241,-11.27762308016505,1.551204515961517,14.693164987612986,-7.397918237816595
1242,-11.172967524858178,1.5816770236046815,14.747655787449535,-7.501631424149739
1243,-11.049582383235489,1.5681003301438068,14.796039538916489,-7.628355414554218
1244,-10.904912901758031,1.5038164060433177,14.82117124277021,-7.770309475727027
1245,-10.74383627000219,1.3900488523098273,14.804238847654133,-7.914841115394768
1246,-10.57073645175068,1.2391749050061551,14.738759847624957,-8.048115705601225
1247,-10.374031402616891,1.0824004521681492,14.630261531050746,-8.169823516710316
1248,-10.152365027611806,0.9526278376256058,14.483080439729482,-8.28831582186096
1249,-9.931363478274916,0.8616654940366745,14.292908609019081,-8.409712340280244
1250,-9.747415048454421,0.8070793800163439,14.058169151135703,-8.539046638561047
1251,-9.684754136028504,0.7809586538703972,13.788919504730421,-8.686928459270264
1252,-9.795436843366776,0.7705755522724127,13.504434888828222,-8.855503608317225
1253,-9.924913058791086,0.7596134697495504,13.216427822006724,-9.01350155813289
1254,-9.896064916587964,0.7399235206742647,12.922775439132236,-9.127133177678985
1255,-9.777338271873187,0.7257266146486813,12.619295877717917,-9.200538207326796
1256,-9.694435982284345,0.7368809490249865,12.316424443125854,-9.250212414128706
1257,-9.643453565384023,0.7817121272813655,12.03735124712346,-9.285075589667445
1258,-9.582514794739259,0.8552092566927842,11.793997051097527,-9.307097296063738
1259,-9.418530461422677,0.9318076607009678,11.574874307391756,-9.29060040521175
1260,-9.071121637217505,0.9795026181625368,11.356408347527248,-9.204614461899613
1261,-8.684276625023891,0.9773666865983198,11.120017443664471,-9.060439856872927
1262,-8.434753697214077,0.9214691276623963,10.873054095253663,-8.88068238644711
1263,-8.23054315043707,0.8363424155284818,10.646107182552544,-8.651303116589581
1264,-7.925526428258836,0.759008480106706,10.446500709471147,-8.363866761722651
1265,-7.552306166453154,0.7141940536169519,10.248329430115556,-8.055277418138147
1266,-7.1857124607239005,0.7143137070672119,10.023495264777045,-7.772499238414935
1267,-6.880464485551721,0.7599939506713169,9.769399366921563,-7.56417862785583
1268,-6.677426027338625,0.8366222633890226,9.513517584554481,-7.4544732225758725
1269,-6.48926838232254,0.9178954687015299,9.294868196630905,-7.370613023449687
1270,-6.209183937036548,0.9773456053304508,9.124750410308966,-7.221355002612401
1271,-5.929376652886543,0.9903137559373273,8.980644132868715,-7.019296246367005
1272,-5.771056481547204,0.9490457414561894,8.829574269994351,-6.808143510689477
1273,-5.659647995037329,0.8937493905316262,8.653074423432434,-6.579566377431038
1274,-5.486642552881303,0.8710641701962694,8.445885383464772,-6.323419503651926
1275,-5.253197187846093,0.8769276788785134,8.219589929068182,-6.053449248571095
1276,-4.992845252027895,0.8862743515435609,7.98820255616309,-5.7889390221689645
1277,-4.776771910702972,0.8786063950235266,7.752647790194397,-5.570797589967178
1278,-4.6710500718263726,0.8349862926217874,7.497174262195526,-5.435739778279779
1279,-4.581923744685744,0.75862165705941,7.215943298130651,-5.358778602350572
1280,-12.63743452610997,-13.215058562294839,-11.793971014285043,-11.236051923648521
1281,-12.850679612699746,-13.766509627452468,-12.054224108512797,-11.424994133542105
1282,-12.967834058241284,-14.34749843371169,-12.313084137986007,-11.68437662158272
1283,-13.039315581347786,-14.960722720615392,-12.55965101383682,-12.006188534575058
1284,-13.140878355839776,-15.60706703660138,-12.786341909756068,-12.3588595309085
1285,-13.204505360270547,-16.289677167333423,-13.002745433314928,-12.703877902004674
1286,-13.160038774776416,-17.004377029110067,-13.223698128650694,-13.008914462366262
1287,-13.03100767294661,-17.72183510897597,-13.450616817191877,-13.283749104259636
1288,-12.864370714249363,-18.408063064225864,-13.68432913826329,-13.553052231063406
1289,-12.731425409230958,-19.048383410542876,-13.937409909605277,-13.814047942452722
1290,-12.688659878765655,-19.637073704807126,-14.219777628086902,-14.0651730175343
1291,-12.670755189677745,-20.16669445644382,-14.530202055005615,-14.332771425052464
1292,-12.606039769785122,-20.639987131047466,-14.85996341532972,-14.638943589489061
1293,-12.56447887077585,-21.079223976049494,-15.188963094262233,-14.983336431663579
1294,-12.635971099777494,-21.50892772261672,-15.496546136068705,-15.353036120042743
1295,-12.817888419892055,-21.939646429152525,-15.78062884646271,-15.710780220689546
1296,-13.076860726398213,-22.373693658567227,-16.04314991438441,-16.02371468760974
1297,-13.394879913304303,-22.80933449340283,-16.270701113703705,-16.317813820110157
1298,-13.73294897523035,-23.23763845173157,-16.453166785395858,-16.621921177173576
1299,-13.990689510189352,-23.644313060710243,-16.59952991176859,-16.89900078249664
1300,-14.098925630966272,-24.01394957505133,-16.722652703428793,-17.10895607188757
1301,-14.12626931410166,-24.331038852154762,-16.831770014201584,-17.256351815274357
1302,-14.166076699948569,-24.586851157671855,-16.929678087194944,-17.361159697842808
1303,-14.232859281165226,-24.786591099581443,-17.002632135113224,-17.466718940753005
1304,-14.310939861006235,-24.94271921280533,-17.033697879401906,-17.60416309605602
1305,-14.34880101521061,-25.06917778202551,-17.017942199333575,-17.719060677546608
1306,-14.296296479085544,-25.177771801872378,-16.957920083340618,-17.74926328078161
1307,-14.218964377350488,-25.270287825948845,-16.864050312662815,-17.71751931247508
1308,-14.1835256379157,-25.343266466655518,-16.747800334610204,-17.663805620485697
1309,-14.087906416676969,-25.396940732919866,-16.608700732934594,-17.59429585828174
1310,-13.834944653837907,-25.427213186547494,-16.44211500178779,-17.507432866200546
1311,-13.508996069892534,-25.421830788319976,-16.248912581794038,-17.38544560452525
1312,-13.222336997007648,-25.367723523621542,-16.030077266933187,-17.209764081629878
1313,-13.014687884324559,-25.247729982788304,-15.782961484765647,-17.00921012303557
1314,-12.886398400012647,-25.058904149491664,-15.506889521317861,-16.814458922408303
1315,-12.746044016254404,-24.836960117416496,-15.206235637710577,-16.59364477991725
1316,-12.498379908757528,-24.624919540435897,-14.886621920300678,-16.315466941155275
1317,-12.20917250064195,-24.44472039919944,-14.555291640798927,-16.013314167815267
1318,-11.966443030897485,-24.297787341769624,-14.217252226353798,-15.730759267052386
1319,-11.71134608081728,-24.158479499780565,-13.865570696014965,-15.478232256651738
1320,-11.382861201687481,-23.9898295286944,-13.495180819758783,-15.255425261821914
1321,-11.035620185024008,-23.76332513748063,-13.120006316956205,-15.058915432117766
1322,-10.738290573990984,-23.46813861688408,-12.758128419294962,-14.874074241984747
1323,-10.541337379300206,-23.12224906815051,-12.415351733483623,-14.682456591121962
1324,-10.46478973149633,-22.759062203838607,-12.0914001261272,-14.467432628689341
1325,-10.396856850019798,-22.411404467753098,-11.791506949367697,-14.205329742266358
1326,-10.228846490566138,-22.101217741500562,-11.504694858161315,-13.889027633891887
1327,-10.064543573787502,-21.827156909683545,-11.210760932014907,-13.562586354721962
1328,-10.02302772763197,-21.57041963127169,-10.877491907979458,-13.274687589351466
1329,-10.020549327626668,-21.300869836174282,-10.49703765832434,-13.026902017752365
1330,-9.948858565080082,-20.988603012540555,-10.099117828797626,-12.80195964769375
1331,-9.81104241324128,-20.623418142295176,-9.715343490878945,-12.587102052194274
1332,-9.630560882863088,-20.20341594260399,-9.335203189763305,-12.361936840602365
1333,-9.447385413885488,-19.718904251843323,-8.925489218372249,-12.099557972387174
1334,-9.292868696308988,-19.16656370267084,-8.4447635823262,-11.777990625550446
1335,-9.064582882171111,-18.556121218442012,-7.886362204631754,-11.381437298207965
1336,-8.671613938862201,-17.90439963158803,-7.263708254698544,-10.907520932115366
1337,-8.249138519929248,-17.238145080163576,-6.598973711752384,-10.377250705254811
1338,-7.9392290973593855,-16.574724353491142,-5.916856317846942,-9.818308563214067
1339,-7.671360290180993,-15.902992962263939,-5.22877662067279,-9.250123301525525
1340,-7.314803887637037,-15.227242966689301,-4.582358583008644,-8.709489928124643
1341,-6.875779437045356,-14.555180890246014,-4.071338454417774,-8.210311810472952
1342,-6.37324890034258,-13.912525422074427,-3.723340399640014,-7.770983899710242
1343,-5.970278249996521,-13.276057597378045,-3.4676673023684996,-7.388733419086279
1344,-5.809905448291204,-12.615613492962058,-3.2132019003955925,-7.042672351814127
1345,-5.706590647781178,-11.978905009635557,-2.931976334060806,-6.694569694083015
1346,-5.436119608090051,-11.402854622993805,-2.6263817067226496,-6.323638042412177
1347,-5.097256915670861,-10.909007283243737,-2.3346368084868807,-5.977965862427138
1348,-5.029933168572755,-10.460418465234806,-1.9150170778685973,-5.730040278516652
1349,-5.055843559661621,-10.037725056166106,-1.5488113927876996,-5.544820693710468
1350,-5.144794724807073,-9.61735417770786,-1.2205264212213658,-5.386839747105059
1351,-5.211401133994001,-9.1604887234619,-0.9142996604636727,-5.200785767500648
1352,-5.172732253514534,-8.63398627923548,-0.6159637496325123,-4.949273197703526
1353,-5.145172415625087,-8.050784973879619,-0.330084158050305,-4.706651189761107
1354,-5.272929590498665,-7.4412476892642445,-0.07263998055179291,-4.562634455879786
1355,-5.449264879030122,-6.81178810854227,0.14175197948283064,-4.484067541013525
1356,-5.5215079694366995,-6.168134942897208,0.3059599154204702,-4.399602716142452
1357,-5.528530008611325,-5.5291233828285025,0.4323909697398124,-4.275470060872138
1358,-5.547056233074214,-4.916031164153751,0.5432366747632956,-4.094322887562923
1359,-5.586845034190104,-4.367112056392202,0.6583374884575107,-3.8876573310892595
1360,-5.6427900295019535,-3.9090787276401553,0.7891477738823331,-3.7023744934523073
1361,-5.639836125988577,-3.5007655544323093,0.928778391223745,-3.5079929699173404
1362,-5.508793203965247,-3.0841931623342007,1.062456255301264,-3.2656781204726073
1363,-5.3819282967252065,-2.6559306859953082,1.1747123911822812,-3.0290186503923087
1364,-5.414126667274221,-2.2286415282148675,1.2604432973459798,-2.863300360646781
1365,-5.526229125373996,-1.790563634371657,1.352125363069093,-2.7677944983199048
1366,-5.587894830393386,-1.3325276579730685,1.4863800012369262,-2.7173167774305242
1367,-5.5935583768722195,-0.8648620637916205,1.656500836316293,-2.671532393688433
1368,-5.580141310455843,-0.4004490878639323,1.83783728786641,-2.592275974647824
1369,-5.6340576829889475,0.05405163264862396,2.01014535265128,-2.5053650450987064
1370,-5.842019461052765,0.4947157081272281,2.157203990631368,-2.4511439263318247
1371,-6.120984256262522,0.9201118968424924,2.2819055553667695,-2.4098427427583706
1372,-6.351589823160671,1.3297417016278714,2.39820826097392,-2.346221768788136
1373,-6.604260534159693,1.7251608871152067,2.5118601342390274,-2.2450261725379335
1374,-6.972330989206536,2.1017295417886674,2.625970774776135,-2.1020170127399194
1375,-7.373103449562412,2.434253108845665,2.7483812679177753,-1.9434386948356686
1376,-7.696596791885852,2.697918001869391,2.884265444482073,-1.8028104610135958
1377,-7.924412023168131,2.88835773221758,3.0247474811622377,-1.6731717325882418
1378,-8.069940319423804,3.0178429464640373,3.1608289417040214,-1.5335650872531796
1379,-8.196187796557917,3.125398645171194,3.3061825878022244,-1.3866542793638699
1380,-8.36206216191741,3.2491877139949135,3.467298066021148,-1.2399683995496003
1381,-8.480889785696787,3.3797374188328124,3.6487333605616787,-1.0777135817790415
1382,-8.4374383240175,3.4885929519266585,3.821604621017567,-0.8909256069339991
1383,-8.252843973416683,3.564834553205312,3.9650580879197577,-0.7274255845773214
1384,-7.992381186624693,3.603028181726195,4.064414171438393,-0.6310216577433424
1385,-7.681608837667893,3.5995976790274224,4.141368813932888,-0.5616173607515482
1386,-7.3411513114268985,3.5602951575394255,4.226376755497686,-0.4567929590354856
1387,-6.984737041829059,3.4949175326697204,4.314807339033484,-0.2919432967577834
1388,-6.610074034669582,3.417828286183228,4.389213815464492,-0.06673156299537947
1389,-6.216401913266506,3.3565628923268287,4.441904820942409,0.1861417815807148
1390,-5.801826592860688,3.3340777992400756,4.467210294274725,0.4178105485639982
1391,-5.36129870271473,3.3447804353551422,4.462998081041766,0.5997220596752126
1392,-4.899827721578459,3.369146749201391,4.433365812222368,0.722343242643907
1393,-4.415621022754957,3.391732950789596,4.384985424610974,0.7951351621192326
1394,-3.9270918867406484,3.3961930694618077,4.3240313635057355,0.838229827100899
1395,-3.5505303639176806,3.3653082822610365,4.256402896188563,0.865430072109466
1396,-3.3849735923338673,3.2879371289547166,4.184101799281609,0.8801545610091047
1397,-3.359161885382835,3.15779025316384,4.094440674856846,0.8724791519641626
1398,-3.342588255337943,2.9782318666002445,3.9755203461831163,0.8284326646635793
1399,-3.2349424637556607,2.7741887010048334,3.84156821406574,0.7342642757947353
1400,-2.9797069098588267,2.575282056440072,3.71145703489127,0.5915492752617652
1401,-2.6705517268933208,2.39181315310853,3.583806017610048,0.44868493663137393
1402,-2.440902171323635,2.2277711400791453,3.449618802282924,0.358692283286717
1403,-2.2507972817970634,2.092797408813476,3.298141666094512,0.32502620732261084
1404,-2.0248585235159844,1.9956773123899716,3.120372042001744,0.3251764898176164
1405,-1.8308148538511946,1.948525286470012,2.924559474236195,0.32441260806789546
1406,-1.7504975398899976,1.9568417023519067,2.7262397364233713,0.28837735180150853
1407,-1.7770781648549339,1.9989039252597647,2.529033043916739,0.22270883119512744
1408,-13.849577851699781,-9.980841126829208,-11.572571544394973,-16.030835437852065
1409,-13.827800620807288,-10.094653064704154,-11.751178143753295,-16.42409435930093
1410,-13.94527989311438,-10.157401525206893,-11.915609022185714,-16.850667263783624
1411,-14.086170912811122,-10.173458996359495,-12.067300528292684,-17.278924225416258
1412,-14.11289715296803,-10.158481086675016,-12.205005592651451,-17.670584389713525
1413,-14.082029234400444,-10.135001237598935,-12.34597448501551,-18.015576586781958
1414,-14.082908150570814,-10.12515696620286,-12.50533180823569,-18.319450616264806
1415,-14.16181595634841,-10.139398588079192,-12.683306208892143,-18.626680732624262
1416,-14.336616835058582,-10.176781807130753,-12.870225506436622,-18.975939571969214
1417,-14.497694833677377,-10.22695860379305,-13.04394456138124,-19.320173149427273
1418,-14.538002628134075,-10.274821704834308,-13.18198152013868,-19.6083365943781
1419,-14.570035236270677,-10.306010839881194,-13.276512278757014,-19.874707000633734
1420,-14.728119195943167,-10.313811659232508,-13.333029091682837,-20.17039033110539
1421,-14.946362882980637,-10.30447648739309,-13.368120682471451,-20.51788862931593
1422,-15.137982310895142,-10.291485946515126,-13.402783642439555,-20.920808931464105
1423,-15.327409098230241,-10.295585662153577,-13.457313411776337,-21.34019497703355
1424,-15.55271718248773,-10.332274425614225,-13.538296059110687,-21.722441130373223
1425,-15.86601506815373,-10.387391579704568,-13.624585206755986,-22.05536109239422
1426,-16.286741274580024,-10.446134804478014,-13.686780539593355,-22.33712518081313
1427,-16.65570082218502,-10.530394060398214,-13.702369651192647,-22.529019897238058
1428,-16.81725860103147,-10.666695915948429,-13.664448463581431,-22.61123481070019
1429,-16.853617068968,-10.85577768236983,-13.599611280410267,-22.64062395510668
1430,-16.895860186963326,-11.090456674301091,-13.543046579421123,-22.680057050897922
1431,-16.9521798615637,-11.365444006104882,-13.507285919310307,-22.74198906281185
1432,-17.008031248752026,-11.66968869926914,-13.490684697788307,-22.81359432791899
1433,-17.053092127193263,-11.987686453890289,-13.486157750347697,-22.849909978338967
1434,-17.071517655148988,-12.301920930767713,-13.476804122277931,-22.81019693492185
1435,-17.119094130520175,-12.591942139378475,-13.435863689886002,-22.73048087408348
1436,-17.243313566271194,-12.840287098491665,-13.348554799329083,-22.662709409746434
1437,-17.338322879295102,-13.037736627403904,-13.223529406863557,-22.59409521316163
1438,-17.302816072737144,-13.184879732714231,-13.090871913604408,-22.508421549992224
1439,-17.22382969709116,-13.290558218623632,-13.013303267723456,-22.442418032154542
1440,-17.208538779434193,-13.36904726112999,-13.039464108516789,-22.426779170676035
1441,-17.242911492839134,-13.443753838783483,-13.15148942739626,-22.451472564032677
1442,-17.281884012886888,-13.521088297412591,-13.298097422057852,-22.486832535746107
1443,-17.265211712562394,-13.599250760911946,-13.419668383457097,-22.47346120922925
1444,-17.146842759136838,-13.6474660767857,-13.466520910986858,-22.36197157668975
1445,-17.00997975458512,-13.632846060659183,-13.432467632827262,-22.177262173197068
1446,-16.944896074404838,-13.557797800817944,-13.339062128597293,-21.963189552627636
1447,-16.87084525919325,-13.44614899782097,-13.213760308514901,-21.722826516917255
1448,-16.69119362094735,-13.325230074167443,-13.082361824802573,-21.448014711360994
1449,-16.455901599889103,-13.17838606452556,-12.956370662467457,-21.132997784860848
1450,-16.226287989886192,-12.987594284581082,-12.830450335412253,-20.767588125286952
1451,-15.978714785747613,-12.73326574617186,-12.68037960108081,-20.349765553093686
1452,-15.677364160872102,-12.434219542962703,-12.480143645172435,-19.88107627883935
1453,-15.277378419816607,-12.109575983875786,-12.22487011708488,-19.350592505885484
1454,-14.754398719791936,-11.779379681756565,-11.918621698965744,-18.75201492284055
1455,-14.208463568266039,-11.434314123582112,-11.563712784978689,-18.1054186539962
1456,-13.739476632649728,-11.05958869205489,-11.16439062988822,-17.431849293082177
1457,-13.274559231570828,-10.660983475685594,-10.718775886541254,-16.72951777654502
1458,-12.72205474269703,-10.25240517608431,-10.226728657126287,-15.991453578933799
1459,-12.120584622883504,-9.852526637853915,-9.710715412549916,-15.211886981782737
1460,-11.52799432762016,-9.47416186007975,-9.189866334325997,-14.38989097683006
1461,-10.968867208257825,-9.109403355324783,-8.64604069468763,-13.552031365612386
1462,-10.446941807234486,-8.736990689033844,-8.057396516549602,-12.723783272056266
1463,-9.877533917720829,-8.324278779984185,-7.435023225188095,-11.883594531311847
1464,-9.180294424103838,-7.8484453762267465,-6.797635297954559,-11.008355259909363
1465,-8.436417557645308,-7.323001021656892,-6.147202691925051,-10.123507221947516
1466,-7.745104497273717,-6.778628732500789,-5.4969782131722065,-9.258691645312489
1467,-7.051454429339799,-6.2458125340507165,-4.8544247877605935,-8.415031714810112
1468,-6.306019714818583,-5.789343383606498,-4.2819413572789005,-7.637208084398958
1469,-5.658881521908303,-5.506025976459539,-3.876385026765314,-6.959924961867059
1470,-5.247847915413214,-5.479155094791535,-3.6497761328021863,-6.439298225749532
1471,-5.074621902570781,-5.637486918521714,-3.534470953927607,-6.071874742915494
1472,-5.064422782034677,-5.8782196076411655,-3.4603804093548636,-5.814296890040076
1473,-5.042883964969969,-6.147058369984309,-3.4064266476200835,-5.62646760683581
1474,-4.859595491763594,-6.455420283589068,-3.377329815590645,-5.471882622577003
1475,-4.618045182077435,-6.8110450596868075,-3.3891250683444496,-5.328799735132287
1476,-4.623813392857764,-7.160853448076686,-3.4273097576023073,-5.065521541139442
