,TP9,AF7,AF8,TP10
0,-7.844114323657068,-13.836973503063229,-15.455297173956225,-9.697282023034052
1,-8.115119887874917,-14.183666555152405,-15.948632244581741,-9.820954681347777
2,-8.376253641039105,-14.509768843263608,-16.443476004789673,-9.996453835584472
3,-8.64150042267611,-14.827813871487647,-16.912589255405106,-10.210541543761362
4,-8.940458188076533,-15.151084798293004,-17.333933212690376,-10.431633601750182
5,-9.245704115049422,-15.475899249652125,-17.7148684980042,-10.640132553390291
6,-9.536450238450254,-15.792614955110572,-18.071836229187934,-10.82709824678899
7,-9.899301143867385,-16.086233948600796,-18.42651208870199,-11.059632070419779
8,-10.401997212308302,-16.34566412222718,-18.788217074401736,-11.39000879709483
9,-10.96350444975965,-16.58350178411793,-19.116760661585555,-11.706532111691168
10,-11.47023297794525,-16.814700864400223,-19.36745089459743,-11.891584825737633
11,-11.858428255619117,-17.034965744477024,-19.546010386404227,-11.997172443803676
12,-12.102134724699942,-17.232944939670816,-19.675468038013705,-12.110460906733088
13,-12.25851276858019,-17.392863094206863,-19.768561957713572,-12.24842236042893
14,-12.406371129168708,-17.50656555775523,-19.843406315206323,-12.417530226499013
15,-12.537460093468635,-17.590619804567822,-19.920480047961128,-12.60936208280826
16,-12.628834748319504,-17.6705011867742,-20.016753757613557,-12.808585641670453
17,-12.718027607530555,-17.773180716683186,-20.15980384959092,-13.071276552709254
18,-12.833865306373553,-17.909452324792333,-20.359438662252522,-13.433268191574411
19,-12.975049113177038,-18.042144626792616,-20.56885776888003,-13.771518616936094
20,-13.11973057007336,-18.129386223613913,-20.731016979057447,-13.955052236595316
21,-13.161466280739102,-18.141645712165587,-20.82536235777809,-14.010500308151292
22,-13.034012573565848,-18.082529350553138,-20.849822452081657,-13.998714712701052
23,-12.891134983103832,-17.969526290329323,-20.813817053394093,-13.916799532700407
24,-12.915298459138508,-17.814147708387473,-20.73850318281723,-13.766882310262595
25,-13.125341136069428,-17.632062555069428,-20.639265461193443,-13.559613028535464
26,-13.473242927715102,-17.457640699898132,-20.53043797768018,-13.319769770386078
27,-13.891543037886883,-17.327120079450196,-20.440850372983608,-13.164340873263424
28,-14.298264352501246,-17.230855959017468,-20.388602989440763,-13.186847743475862
29,-14.657319817208576,-17.12886892551925,-20.354277159889627,-13.29457216724659
30,-14.96421844929222,-16.97757369671316,-20.30814990812989,-13.364110402924881
31,-15.213069139843435,-16.77001485975595,-20.233901035178686,-13.40207172868329
32,-15.406257738915492,-16.5257771279925,-20.12297806009803,-13.441454829376129
33,-15.557827403521307,-16.305488220168673,-19.978452334661586,-13.481468159688486
34,-15.675111000996605,-16.148508955711247,-19.810380542344173,-13.52304429663289
35,-15.742833655293033,-16.03847076070639,-19.620168289233238,-13.53393520311087
36,-15.747618414516936,-15.91006866034877,-19.40898775802812,-13.490343425744607
37,-15.692851892539032,-15.729715362301999,-19.191427874639626,-13.476729023842733
38,-15.590366577144549,-15.513519731650584,-18.97754223252116,-13.565759798774161
39,-15.488984094570933,-15.27891711717807,-18.753011371530917,-13.68384577522404
40,-15.420241915315115,-15.010868474874325,-18.497077785942025,-13.731330596459554
41,-15.286285930052832,-14.690217140323545,-18.204119073200076,-13.660940519469436
42,-14.995345258779786,-14.298367267353987,-17.868429814055716,-13.468162682245838
43,-14.64554447227011,-13.857620803667086,-17.467945612284097,-13.257733099181008
44,-14.345575591038223,-13.402250900895032,-16.989341151900867,-13.135814768310222
45,-14.034328325846039,-12.957473331598688,-16.44608797727439,-13.041267308376494
46,-13.626086411526687,-12.530579642970675,-15.86450254251649,-12.878944896111513
47,-13.099379257252522,-12.087041353779465,-15.282375598786748,-12.664779751109384
48,-12.46486035441945,-11.59204382127256,-14.727883215916776,-12.4292138701791
49,-11.816465896258245,-11.013259214856133,-14.1886069942315,-12.151031464925058
50,-11.249472296971243,-10.368310393745483,-13.6401024912565,-11.8199777773809
51,-10.711735784601288,-9.704472035405363,-13.068308009414418,-11.447369065119323
52,-10.129385807973382,-9.068881187644797,-12.469638326933861,-11.053955846779429
53,-9.552113433378828,-8.44667273664874,-11.874818972994232,-10.721950726142316
54,-9.037086121669166,-7.803502214448233,-11.31033516288257,-10.506190208920886
55,-8.56200848304482,-7.125351250435495,-10.737984661240324,-10.279260496521623
56,-8.09102402513421,-6.409050097348267,-10.109741960597532,-9.90873404480159
57,-7.581772222817267,-5.67119409723738,-9.427392655043658,-9.47086044523299
58,-7.001844253709585,-4.934169689964076,-8.702702424161266,-9.066573034425613
59,-6.41477925709211,-4.202600970597046,-7.92950681267217,-8.666426696306516
60,-5.882338771331876,-3.4946121370813583,-7.153917842008541,-8.203057425140049
61,-5.256978168792436,-2.8378129410230994,-6.449529966522807,-7.676757042773665
62,-4.41349448580011,-2.273484818113894,-5.9053771446591385,-7.088350416112869
63,-3.499396710147805,-1.8198576744807031,-5.53685421552857,-6.580899982977483
64,-2.707487793778589,-1.4803155142869855,-5.2994038546416675,-6.271869011786533
65,-2.037273080185792,-1.2001437521491773,-5.111564706147907,-5.9918643506320635
66,-1.418228284715164,-0.8900425300180075,-4.894152566580492,-5.546643563325143
67,-0.7494500714812302,-0.552269582932039,-4.626373409965133,-5.007362638274822
68,-0.05320055332191305,-0.30243326978487406,-4.2307799000233395,-4.561278286948446
69,0.6323241075699407,-0.055338384728002885,-3.831484711174454,-4.181603875456019
70,1.120719834281448,0.17350930423788302,-3.454611687502007,-3.874855796645365
71,1.4706515671705123,0.39367279458929455,-3.107183238305157,-3.571749556892716
72,1.8107743198086883,0.611982097883352,-2.7828980448928324,-3.193416332462641
73,2.1398538810542918,0.811986559051673,-2.482834486830467,-2.7967879028181626
74,2.432716493292368,0.9668982750497038,-2.2043780610509014,-2.4693020166875392
75,2.687841890712942,1.0881370363793563,-1.9251146267899908,-2.185554917218123
76,2.8984666532669445,1.2284771900212927,-1.6266548066256772,-1.8969982413037922
77,3.111478424136564,1.4037976272668444,-1.3185999903471164,-1.6086263970322658
78,3.3720126391819463,1.5603790018714327,-1.0206489957056455,-1.333747515410598
79,3.5885771447729735,1.6355734407834592,-0.7561848111375183,-1.0963296356819348
80,3.659256593789379,1.62504342323027,-0.5401340739829316,-0.920729984567179
81,3.651175528213583,1.575064208344908,-0.3395622491677951,-0.7536315747321772
82,3.6672104303044164,1.5159501627375795,-0.11581029650035865,-0.5388610288561241
83,3.7095306718412764,1.456086425114123,0.10728969228751108,-0.36694059292462733
84,3.7531169884559126,1.3842820778283307,0.2931626277727767,-0.3351466506412707
85,3.762805983445399,1.3049643071480619,0.4465785928805436,-0.35331247225873363
86,3.710414960178213,1.2220602594821108,0.5868364295943915,-0.29627284256232644
87,3.677607002324016,1.1241597491947988,0.7393361091157805,-0.15718384671313032
88,3.7594659272293702,1.0040885386862506,0.9296130101760871,0.029626774247911443
89,3.8995958431276425,0.8681990257387612,1.149329610229157,0.20535272995239143
90,4.010793846567215,0.7306005622864687,1.3786989845682216,0.31525271261536447
91,4.113556939307502,0.6325527161389474,1.6308576577873848,0.42302575127543446
92,4.249558046577809,0.6065428966562206,1.9171850953294804,0.6226954747168447
93,4.4377086781159285,0.6014356713810558,2.2059424695056276,0.886780061942202
94,4.6826801155435325,0.5682108393232344,2.4568462952738375,1.1601357948371904
95,4.898722127751007,0.49891821353246085,2.6512358731926833,1.478397333958162
96,4.9975514621089605,0.4438313284444467,2.7851764049568164,1.8732480027693739
97,5.070179125723251,0.436047401391741,2.8727678521316564,2.2876440839191274
98,5.236601610140438,0.45749109634417207,2.9418170847533,2.6520036574226555
99,5.42933578603278,0.46985055989178826,3.0171430168575624,2.9171800457994674
100,5.552784780438556,0.46078136168444567,3.117849907455824,3.0684439908227876
101,5.647983915237481,0.4342524011636504,3.2623371143014315,3.2148706325243395
102,5.782571172255615,0.4101080329419655,3.4532713304786595,3.4778182907386705
103,6.000005426082469,0.387679556832481,3.657517793874053,3.7977046597089394
104,6.31557646103122,0.36077719530238794,3.832921906298019,4.066290254713116
105,6.618024887932753,0.33551299861570255,3.9584289160791486,4.301516470845994
106,6.776510482193905,0.31723367101469546,4.02744584429378,4.53758801824862
107,6.834317182916458,0.3039639042662079,4.051064695660943,4.730681782386611
108,6.880957052668654,0.29808592897738617,4.047914799577037,4.834696028276213
109,6.883042606010391,0.2704572051820543,4.0130186592782024,4.825217918014848
110,6.796641202443889,0.21841426811608733,3.9385889698736327,4.706414323628698
111,6.665070195593606,0.15249947934029037,3.8507831088183853,4.577106729126677
112,6.537704044253518,0.08978808287646567,3.7777874654782835,4.547909168460431
113,6.447274560402949,0.025289414041107378,3.7121704447817616,4.614180243028179
114,6.401133695101108,-0.05099524419119117,3.638542211103998,4.725047411137035
115,6.281706679523623,-0.13194555781120063,3.55728411714337,4.854352870382937
116,5.9744878271157456,-0.20760605160986828,3.4750476022867063,4.976190389063984
117,5.5892294478809506,-0.2797175613246584,3.4074391283810237,5.082262015798785
118,5.28450450333113,-0.35160145927554026,3.3718032224432246,5.173999148607663
119,5.048805304374056,-0.41715594265329464,3.365788468247334,5.204475967685323
120,4.82110606584337,-0.47087295158912945,3.378857228506169,5.133884388385086
121,4.58365353650229,-0.5226367268381942,3.4150591274165802,5.02124953975712
122,4.321448056198806,-0.5817808256177727,3.4758379256433725,4.9415458315608785
123,4.048404486157033,-0.6355406553445594,3.535976305747541,4.889212909081832
124,3.7978693010717954,-0.6681309086098414,3.5713425395548564,4.83715057713071
125,3.546714063152442,-0.6796764406357886,3.5857422267735632,4.766214971739449
126,3.2746528012390494,-0.6771127045698483,3.5938220786644965,4.665506332942909
127,3.0745804650970583,-0.6746429506849559,3.6186238630091947,4.60508208090359
128,-9.181768127906427,-10.600477832951906,-12.576534892785952,-8.059383988644447
129,-9.35487585915821,-10.996728324518566,-13.013845877149217,-8.240244250755739
130,-9.571039315644109,-11.399469334453915,-13.486161908287219,-8.553896700633608
131,-9.875942819620805,-11.773129975759842,-13.937303225932261,-8.953513368759449
132,-10.291940417611533,-12.088222671877217,-14.315404700568495,-9.371475545174862
133,-10.735266522313697,-12.370207272264382,-14.631334000493332,-9.815988695642497
134,-11.123004501844747,-12.655728214712619,-14.945631021853975,-10.307801970154708
135,-11.552253307042555,-12.959320732806269,-15.304322103253929,-10.87495160947748
136,-12.125406543019283,-13.285818061028534,-15.706059178964235,-11.522116606475615
137,-12.759326053774187,-13.614119398845943,-16.101367620253345,-12.132414829990248
138,-13.340190015917901,-13.925846567582138,-16.440926406825305,-12.589261600493113
139,-13.835748067602566,-14.261575428455243,-16.715842338701123,-12.933740124471788
140,-14.23975369106863,-14.658815016501983,-16.961209662752797,-13.238437508933174
141,-14.590284600431435,-15.088466742839426,-17.19007628665451,-13.49942964643853
142,-14.930132813130214,-15.502796252704028,-17.370366610095747,-13.699583478039266
143,-15.202573558343294,-15.857363426767236,-17.473896194500472,-13.806907126581887
144,-15.34751224726156,-16.127207416541957,-17.51322130084337,-13.80046350416001
145,-15.42012972573273,-16.354586498379422,-17.524366399203828,-13.768887785576865
146,-15.490024178731273,-16.594066450393896,-17.526043968165965,-13.79670467766242
147,-15.563800352895052,-16.84621078581051,-17.513157103560708,-13.807646662344851
148,-15.632213149175731,-17.090393542868714,-17.46862698649107,-13.706851632477816
149,-15.662446187485918,-17.30380206355013,-17.393565640029273,-13.525828617900014
150,-15.632029031361622,-17.465088586642455,-17.295962360212055,-13.319377667075198
151,-15.622629515227299,-17.577551399820333,-17.181850264942423,-13.095541563474752
152,-15.71522169631695,-17.65926125932877,-17.064029276272286,-12.869230287290415
153,-15.849869699925991,-17.723241720181512,-16.96440120943252,-12.651305360185141
154,-15.949090304120425,-17.782042379499654,-16.902053031415438,-12.458125361409234
155,-16.03457635504919,-17.855204599876927,-16.889254767643145,-12.403953795191413
156,-16.139775200502413,-17.949370042579112,-16.924425382193668,-12.56461169010383
157,-16.27615497759529,-18.035626183318275,-16.977776160396587,-12.771675882109522
158,-16.443601506779807,-18.079220165911664,-17.016284077722727,-12.845626979096478
159,-16.55664777877945,-18.071145074794018,-17.03338323478399,-12.847205553797677
160,-16.552767022124577,-18.01204360617367,-17.03477328990991,-12.89338238201301
161,-16.57515850462384,-17.902726470387158,-17.025201317906717,-13.02287911232826
162,-16.771956116878275,-17.749524087952278,-17.013817412935076,-13.25224573233931
163,-17.07101108927585,-17.555787462259296,-17.01221550634643,-13.541167194496458
164,-17.357369970624053,-17.329108276685172,-17.0247380512141,-13.82903375525453
165,-17.609445648361987,-17.09890943850326,-17.051076197000977,-14.153241978515277
166,-17.829851350767555,-16.891730362361717,-17.075442880008577,-14.54524226322749
167,-18.062234547875843,-16.702981365250796,-17.06894757150979,-14.886973411694418
168,-18.354386471782867,-16.518872063828752,-16.999999356813227,-15.064943948689274
169,-18.630537266474462,-16.33295558163089,-16.876738529062767,-15.121341638834592
170,-18.810444559620944,-16.138012641741888,-16.743799811835675,-15.135254488992674
171,-18.994441985013477,-15.934972092115483,-16.6197507822367,-15.139265177080402
172,-19.272436347099,-15.719922265752455,-16.47769069158091,-15.152612540947787
173,-19.511219308936326,-15.452519993531093,-16.29814613874328,-15.157209949993675
174,-19.560636723772685,-15.097686177579055,-16.060645115646935,-15.121479751923541
175,-19.423749603024778,-14.67727685771288,-15.777010345550753,-15.075890301581289
176,-19.147842118762167,-14.227056354815456,-15.4695969692295,-15.04237100865094
177,-18.807104352802753,-13.75323238452191,-15.140895103185656,-14.944342612646395
178,-18.462350086239393,-13.258619892942313,-14.785563339989713,-14.702575801084993
179,-18.00855842928695,-12.760624457618757,-14.397532875011782,-14.316110629411604
180,-17.339385072953007,-12.269575908049939,-13.967437270769603,-13.814531947071442
181,-16.586652627122177,-11.777869625094766,-13.486358299840964,-13.252228162763657
182,-15.89993367898349,-11.271319208143991,-12.952319149734855,-12.680177651685126
183,-15.220918833909613,-10.730385261901052,-12.37189561854027,-12.063976527443023
184,-14.462581991880434,-10.13761302298339,-11.757961220093362,-11.363979950130926
185,-13.628726747540343,-9.497159845272126,-11.133914778316578,-10.647204756721322
186,-12.743740802628087,-8.812972505885378,-10.510441718010789,-9.982589739713347
187,-11.875622282357321,-8.06311637041587,-9.891294208182572,-9.34857583333867
188,-11.0875020766466,-7.226045511691634,-9.277751960200423,-8.693448534619778
189,-10.276491474175339,-6.3440504153113935,-8.677768991724673,-8.014465516710501
190,-9.348017640585343,-5.4718205292614694,-8.139176601954059,-7.3131193444233045
191,-8.451978323145578,-4.710442696697516,-7.71322703379412,-6.691995809760061
192,-7.758996605222145,-4.133652547361536,-7.402021531392484,-6.241541363604543
193,-7.20617145131581,-3.67945643372487,-7.1488676976329915,-5.846186292620829
194,-6.672174490702988,-3.248593731645819,-6.901931358013546,-5.372501165630758
195,-6.08745146237262,-2.8103698694194046,-6.6544631831197405,-4.910811824964722
196,-5.4256630183641095,-2.4021933445608314,-6.474273048042737,-4.685352283785332
197,-4.800331429652637,-2.00999888506689,-6.323553283186738,-4.529988817997595
198,-4.3522061783862895,-1.6658482476158816,-6.173159884637904,-4.357731304988106
199,-3.9577933798991456,-1.3223883134662258,-5.995670571517091,-4.155427526720015
200,-3.4432764652206695,-0.9179781423130645,-5.791728464801683,-3.933492204616155
201,-2.861959962724069,-0.4731490937618491,-5.583418947669848,-3.732344292734971
202,-2.3233426608146703,-0.03477032717304333,-5.382764508366791,-3.595948695045413
203,-1.8465856930681914,0.3821884868021626,-5.17974526995734,-3.474213129018825
204,-1.4329981855306873,0.7680993150903996,-4.964624005979558,-3.300751010905984
205,-1.062169402479149,1.1031520226620932,-4.746350802903151,-3.1178664842248787
206,-0.6950160584019915,1.3836669653006328,-4.549282041643828,-2.9810749853779646
207,-0.3612583343281789,1.6371271804424778,-4.369619500179032,-2.8665760615856564
208,-0.0926883912203099,1.8987405675355755,-4.167401191332529,-2.7283459155167993
209,0.21270490463363556,2.2033698203105336,-3.92738386970698,-2.498567337989835
210,0.6586711960966246,2.565729725562918,-3.679258076016394,-2.1313911177165017
211,1.1772098574105647,2.93419272707869,-3.455954229213096,-1.7338841991361194
212,1.6628082578488592,3.2455236212086644,-3.255902688379352,-1.4367764626274113
213,2.09581437845663,3.500870570944319,-3.055481365945297,-1.194765186435219
214,2.492150378651741,3.728688632848574,-2.8221577186302085,-0.9193406064535499
215,2.926472514927494,3.95370173969874,-2.568761012387602,-0.6198604608369804
216,3.4715926975409475,4.197077773423126,-2.320276490704655,-0.3269741936475246
217,4.04419267069173,4.451093175482708,-2.1075914460005127,-0.07273114378119817
218,4.527281118535565,4.6908586933877805,-1.9334654910372775,0.11381930661513029
219,4.946347444265865,4.905595742475225,-1.794376884364227,0.29882730467120766
220,5.362715356033247,5.08543220094476,-1.6730510446089162,0.556759894102244
221,5.7746338645374555,5.205506094856383,-1.5502074193103672,0.7986815222834854
222,6.169062455188864,5.248926380041292,-1.4103918659628976,0.9177708973373063
223,6.5269146572400425,5.223313339070652,-1.247074010475029,0.9879684773390704
224,6.823444897618431,5.153824582373873,-1.0631563071342345,1.1136293421625074
225,7.082950944096317,5.084887285703398,-0.869858161970718,1.2862057870627617
226,7.3352886744282895,5.061239840875013,-0.6818670738703739,1.4669892214985896
227,7.528087558445697,5.095479716685645,-0.5112778469635161,1.5925062809248245
228,7.608451353431835,5.178306369269162,-0.36557235390086656,1.616458196588617
229,7.623637822959909,5.303377029208172,-0.2457384255473343,1.6674012749787235
230,7.6428871705182715,5.452771274096799,-0.14931628566952088,1.8925293320054972
231,7.706558105152989,5.569391419750031,-0.0727430562093484,2.2056202929551225
232,7.829292295217472,5.6033909342691475,-0.014582938798131228,2.462636102677945
233,7.920705670992409,5.573945907015591,0.015881073383030804,2.6698688162728743
234,7.887958980921201,5.521303591010894,0.010252774067197629,2.8624342869625194
235,7.8447918870162905,5.45661479257383,-0.022285085721509383,3.0176626430380455
236,7.934764351082569,5.379963209519713,-0.06532786929955398,3.115848177487742
237,8.082523114906438,5.27328559690358,-0.10543115940019178,3.130572595682887
238,8.170034879141795,5.119671210924743,-0.1325650423252642,3.04751118876573
239,8.208931659701001,4.954617364769521,-0.14169084527291964,2.9574700669942118
240,8.240485765713418,4.8237887566953885,-0.1325896062921257,2.9574768882837374
241,8.314684799740595,4.72805551198541,-0.11856431881555161,2.98879987177766
242,8.468111465350415,4.64983197825539,-0.1020144154275579,2.9570139197359735
243,8.584703211347746,4.569271751434268,-0.07403285040417948,2.883958403423349
244,8.529537780326761,4.466538864663086,-0.0076377566606194575,2.8111884107250926
245,8.390768656444669,4.34326490076373,0.09482512294018891,2.7185523007610977
246,8.297598065499644,4.2126824114355,0.19126072926059162,2.5816099517390203
247,8.178068224029234,4.0766416976967035,0.2535725508569601,2.378892649218015
248,7.934715503637176,3.9335699436425555,0.3048307685845793,2.1053219460449824
249,7.614962628687485,3.7950415270523075,0.4001125665803417,1.8477691859355496
250,7.2964868274756185,3.6657696057423483,0.5519057779358163,1.7024237954116628
251,7.034851245364172,3.5103462230687947,0.7085986754971779,1.6412128621196769
252,6.869126759115754,3.2938228939783754,0.8138934003020025,1.6069804294365106
253,6.728421131076743,3.0353985287355334,0.8702758926414133,1.6141499356404494
254,6.529344885270252,2.770344238231117,0.935394324493017,1.6927465860665212
255,6.369739101592018,2.5161868022161644,1.0614106343833587,1.8851167924107834
256,-8.831712488256626,-11.301147678499392,-12.577924295051716,-8.42407160713075
257,-9.165443672887768,-11.775552690317003,-12.90605873447597,-8.758396321475486
258,-9.351219240042006,-12.216843377056936,-13.210332841369157,-9.092965831858834
259,-9.464840794352845,-12.616555988634895,-13.50937129108496,-9.375310611842687
260,-9.51044594166797,-12.970626484593282,-13.835792154705086,-9.553161500730331
261,-9.410990998086168,-13.269048354089616,-14.289732919148404,-9.568305877286752
262,-9.15879842409372,-13.538257639411384,-15.011225908577899,-9.448480849327947
263,-8.852418424017552,-13.776072247403782,-15.867074804410649,-9.243216771062224
264,-8.574404681305069,-14.029168583804248,-16.461146002313207,-9.01679353151934
265,-8.36181324642805,-14.382103161635083,-16.656772756493712,-8.755342221570471
266,-8.176137619532847,-14.777633323795861,-16.686207510731684,-8.470304258465301
267,-7.970463500940504,-15.05338412291469,-16.79552539645873,-8.254265732721567
268,-7.873329938235974,-15.068156614773994,-17.0217977630571,-8.239385431940969
269,-8.100362748190179,-14.8311280949884,-17.250095819289463,-8.503909561114186
270,-8.659909892220696,-14.494491650997263,-17.459422351292368,-9.013556733299868
271,-8.99975240930434,-14.380316912986489,-17.769939491296338,-9.373346127882135
272,-8.251945885852262,-14.747734031852053,-18.14359114762047,-8.924773123437516
273,-6.450398721100123,-15.473735164604983,-18.336708120729742,-7.701363538590152
274,-4.834548188239431,-16.15889908228723,-18.187496013393623,-6.652579342050392
275,-4.655538171246166,-16.52797090854675,-17.656617010988853,-6.6779885558461025
276,-6.204966609833381,-16.52491042511835,-16.757564470149298,-7.9716908567650275
277,-8.89151558634936,-16.30332095544945,-15.625510098787505,-10.166900795506926
278,-11.689084585530079,-16.11621072176302,-14.46563271671099,-12.662757492670199
279,-13.655366467034776,-16.16053442165082,-13.525113055388285,-14.732387265574546
280,-14.481942658586943,-16.483208449908126,-12.978586639197347,-15.815831042552448
281,-14.61434951061624,-17.079641507571715,-12.782021455130296,-16.093115768041798
282,-14.808492203459535,-17.91902210131028,-12.727758102495693,-16.30591002363618
283,-15.449874125313697,-18.900884747340747,-12.641236916574451,-16.904763578694915
284,-16.45098797992344,-19.801259868536103,-12.46787725081237,-17.857593149857824
285,-17.6000039478574,-20.414981891333213,-12.238297610649544,-18.97416380689214
286,-18.75239858282534,-20.65284627822045,-12.018611570801994,-20.105060374648165
287,-19.858755411664994,-20.704277394588182,-11.827145681367394,-21.17245415564802
288,-20.949709281254158,-20.842349398445755,-11.628101767890472,-22.151897812520552
289,-22.099990032347208,-21.145549285764606,-11.428527214434945,-22.959856387265315
290,-23.263698676165333,-21.48941914677918,-11.303779822535947,-23.476020660773635
291,-24.251858307048327,-21.75137357912914,-11.304646955167469,-23.66588195070165
292,-24.905492829487237,-21.94183817671126,-11.368247026541376,-23.632407290184027
293,-25.18078250458389,-22.170200654249182,-11.35938543625718,-23.47281790575475
294,-25.1234659980034,-22.465472196911815,-11.231317148425465,-23.26705307742382
295,-24.825748613341318,-22.65829058480164,-11.100602065227855,-22.92185197795322
296,-24.40783580553373,-22.567044046011123,-11.134752599087388,-22.34095280014543
297,-23.969954272033853,-22.036829026353296,-11.38422695404453,-21.531625475599828
298,-23.5611350137466,-21.11537877015818,-11.779335787673226,-20.59197858313277
299,-23.182773632738094,-19.99917970924897,-12.24216352898331,-19.600440221526775
300,-22.773520891581597,-18.8398048465144,-12.74721486789784,-18.55050853859014
301,-22.207955533267445,-17.691249914658844,-13.296318831380223,-17.382640121096966
302,-21.375534641677778,-16.5348349131055,-13.86160118653035,-16.14013225517548
303,-20.310742467555254,-15.345526440532243,-14.408515879715583,-14.976524585635282
304,-19.155997558711622,-14.09197041737895,-14.894913850373154,-13.865695053316935
305,-17.895894053513082,-12.783803183242677,-15.304220631247457,-12.598357201845975
306,-16.328546454483053,-11.433650693968428,-15.633577919719231,-11.030093463093543
307,-14.556882187998989,-9.992006799248067,-15.878675376726553,-9.332058489062714
308,-13.03502524787778,-8.40969448753104,-16.041210920516487,-7.824926699906134
309,-11.99509118336562,-6.688333939916425,-16.137268058533028,-6.632738807979023
310,-11.292617602650797,-4.861453955324915,-16.157549542246702,-5.626933109804948
311,-10.671800787332709,-2.9939558662313215,-16.107923259449276,-4.641150668336831
312,-9.952240794526,-1.1534258058434503,-15.941431665471637,-3.6036757941827307
313,-9.014842276470759,0.6124010080682115,-15.565917781086792,-2.4741197963370354
314,-7.784053402555523,2.290727167776377,-14.950170019745308,-1.2774051724466151
315,-6.332039725094561,3.9651729292423648,-14.214034770756783,0.024855343698247122
316,-4.75583631589556,5.641282114315919,-13.56494900518369,1.4362109601671031
317,-3.243008072434382,7.228592172533555,-13.097174309693573,2.7866803521205545
318,-1.899926314785776,8.564509030553685,-12.691882902251923,3.8792473036401605
319,-0.8285917363913842,9.680859925029152,-12.260625294364312,4.594345238207814
320,-0.06304816086655363,10.783103340292696,-11.827375393263077,5.043929705201883
321,0.485848751366327,12.017627990084291,-11.458216093735714,5.449189471750102
322,0.9282551997375798,13.396860733992366,-11.202529963025368,5.951282064344399
323,1.3922747908031647,14.821651388810611,-11.087380986721426,6.487575215036209
324,2.0256197074084428,15.895377398276418,-11.018405054304113,6.955013525874346
325,2.642278668060619,16.906048687243793,-10.950960648892577,7.414066553404873
326,3.213460983529335,17.870867823570478,-10.820829984320874,8.007869594097615
327,3.8210031392079196,18.826500363131046,-10.58885904122555,8.77935484769771
328,4.5463566694779445,19.813703882759846,-10.277306696965217,9.620208361769315
329,5.379864433732185,20.816622855752335,-9.934828581812301,10.413702729854764
330,6.229298259884349,21.80420530296818,-9.595191844662425,11.139816419114242
331,7.051094845607727,22.801437920950693,-9.274883441427868,11.824019056132348
332,7.899777360154848,23.839480243789044,-8.970295957647641,12.531863248657746
333,8.839172126997395,24.896655775570906,-8.684127865669108,13.223187181581519
334,9.837122865403357,25.941235064813203,-8.417186602307064,13.862562564476786
335,10.78048792205811,26.973649597583137,-8.163372589531038,14.447686962596531
336,11.620473161134395,27.996820340593786,-7.91641899807835,15.0513749101639
337,12.414368387860724,28.99164384899143,-7.67072391501148,15.722002265682569
338,13.230659150296065,29.93794664908541,-7.422132149986737,16.424863324263274
339,14.056493206565998,30.826886339081288,-7.172346258499041,17.082670593483968
340,14.806460776430367,31.654227028802264,-6.92427256295439,17.66230320485069
341,15.444398413184995,32.42571582067951,-6.674053682144076,18.17620575547146
342,16.03409413884101,33.14767149590146,-6.415539792520757,18.665294314099825
343,16.66400070849289,33.80341574396098,-6.148202142981043,19.102669126249168
344,17.313931038442774,34.374800269148224,-5.871345692171354,19.47298343918459
345,17.849863814315086,34.87068633976907,-5.576616884657348,19.77850875355763
346,18.225691345984075,35.306374501659654,-5.259827355922626,20.070519847013706
347,18.51184575948351,35.69132952676094,-4.928378895342132,20.37994798289554
348,18.803373456509128,36.02649976801768,-4.599212699928863,20.655079453075025
349,19.096169310215654,36.282351964013934,-4.3096128527176845,20.829803389511167
350,19.315416090711555,36.4281627414276,-4.09192406611032,20.84497559313656
351,19.408278450971384,36.47683547726987,-3.9317807704861827,20.760708292366225
352,19.40729833092947,36.45842433262037,-3.807340778097019,20.675827739010085
353,19.400517024449755,36.395824896034384,-3.6850142572561295,20.613964834840772
354,19.425684766794728,36.3075454971136,-3.560247566153707,20.57225670854357
355,19.47249672008726,36.18959373568664,-3.458192456519045,20.546945545061337
356,19.500946694743366,36.03054216389085,-3.3754678772981035,20.525816334267937
357,19.531587575624506,35.85098061893592,-3.2978808321638016,20.53468592821667
358,19.59466139302922,35.671069146380304,-3.2059029766464047,20.5957292940202
359,19.676069333283788,35.46462875097202,-3.1168683671702473,20.641849554709054
360,19.751076974047457,35.19697056065778,-3.0556337839313064,20.59392667191403
361,19.794555345971947,34.86321579185071,-3.0122350632891894,20.45935903569224
362,19.785741108215447,34.47039578861209,-2.970043842681899,20.27526788767022
363,19.75271859673316,34.030927198069165,-2.934956009318547,20.051801062842397
364,19.73292771035994,33.56082450742975,-2.9124616999663715,19.802024994624926
365,19.687097243851287,33.06025843832892,-2.8969172487023025,19.549783980212
366,19.591598074222865,32.524616212907745,-2.8742963296289874,19.29400284334754
367,19.46280451454619,31.96997781678634,-2.8063520745771173,19.099672980830185
368,19.37053554466813,31.412518353548418,-2.658347129184761,18.9573265351929
369,19.370419691353625,30.838712145584733,-2.4422560029037292,18.787226967286916
370,19.428002814644053,30.232411398136232,-2.189731573041732,18.50739012741484
371,19.44186633227391,29.606031139011286,-1.9231048391780043,18.185460577341296
372,19.394118682271063,28.97829806050819,-1.6603109941826502,17.901918872931297
373,19.391096093881906,28.355589097187103,-1.407384720793744,17.71036800860821
374,19.532877647611116,27.737411365702314,-1.1632287661391245,17.57057747938164
375,19.772204419005686,27.111663042544443,-0.934136237852888,17.399842402090783
376,19.950113666993804,26.46031165111827,-0.7302042206099768,17.174961283292678
377,19.965130750904216,25.77572698264341,-0.547038352141494,16.916008356371123
378,19.829980466308243,25.051749553480644,-0.37740371508623044,16.659760715264525
379,19.60326730704607,24.277213734463555,-0.20311038419322094,16.351885301509324
380,19.277413238321056,23.44402081457896,0.012458977287612305,15.928979504701603
381,18.75634870145941,22.536552726411955,0.3853397333607729,15.311138552646565
382,18.00442525607998,21.576579166372632,1.0937081890763451,14.499916419601378
383,17.097802607084475,20.558965910975168,2.0463553782744226,13.52318180588539
384,-8.38105783584243,-13.732816023132019,-10.062100779576497,-9.940610957916034
385,-8.688674247978337,-14.42092175688774,-10.295096265652283,-10.22841339511277
386,-9.011035113312735,-15.175712751434801,-10.5683597606684,-10.685920427781348
387,-9.376172239495913,-15.997554271479487,-10.873087024643324,-11.19003345991496
388,-9.788451766933171,-16.873692951787685,-11.152609944036797,-11.580886722067941
389,-10.167308576970413,-17.812737550582234,-11.36592679555158,-11.901238994979304
390,-10.440290582721477,-18.80996953367224,-11.52722089885027,-12.228267150644077
391,-10.718777249767284,-19.825280161372568,-11.684005240518017,-12.571499885020264
392,-11.125934375535573,-20.81722762250937,-11.87101717983799,-12.934709911508389
393,-11.587974645348947,-21.756535499568496,-12.103608129238124,-13.286073465415416
394,-12.012641531946517,-22.63654326623354,-12.379703647466092,-13.596499237179659
395,-12.440841206641917,-23.507513039743,-12.708251683664075,-13.955921756174526
396,-12.928647302871582,-24.42041764536549,-13.088042607365182,-14.449475721629538
397,-13.514221315524605,-25.358234074492074,-13.487631490791875,-14.987015011003406
398,-14.206672216031548,-26.28317515531797,-13.87308056915556,-15.464376925773283
399,-14.86323583342359,-27.170818678503817,-14.230298460718645,-15.933294802864824
400,-15.353385843541025,-28.007618836136803,-14.55710885753038,-16.46068659777627
401,-15.814546701219754,-28.815650078938912,-14.862616548165219,-17.019677812616184
402,-16.40321213719222,-29.623620762265634,-15.161802146820714,-17.568392701852087
403,-17.020608541105556,-30.420513086737444,-15.461135378063245,-18.07159465026219
404,-17.535351518517796,-31.183054826409176,-15.763276216819774,-18.504485489111456
405,-17.95045870020748,-31.905932635482113,-16.075486431387695,-18.91205701470872
406,-18.299746005189387,-32.5821504734361,-16.39850719500857,-19.3426221594337
407,-18.652329461800907,-33.18702073652696,-16.71884273642851,-19.752243068118826
408,-19.068412623132623,-33.70650778689241,-17.01807413015195,-20.086592421303695
409,-19.442790040471824,-34.15587658345556,-17.276080613524925,-20.352400964732833
410,-19.668829242028085,-34.559982885899046,-17.47934742959437,-20.572636665838555
411,-19.869823454540136,-34.9525576358472,-17.63601446349969,-20.78132028369831
412,-20.17849567500571,-35.34874067625974,-17.760010373935227,-21.001436296638303
413,-20.521383457941305,-35.69747097827704,-17.852229597207533,-21.180863057504553
414,-20.783834624582457,-35.939481752836855,-17.91087266893427,-21.259706368226574
415,-20.913648853082854,-36.069641965739564,-17.93757560208554,-21.259924361070414
416,-20.886718090890977,-36.10586549229335,-17.935902867260697,-21.21805140805467
417,-20.752445005392794,-36.07652673253017,-17.914146575378457,-21.125362085769723
418,-20.586743005452945,-36.01032398722084,-17.88187046821827,-20.974980790622652
419,-20.378911555466132,-35.90319923864204,-17.847700541604933,-20.775508758183832
420,-20.112335103012335,-35.74532733371757,-17.81368024914384,-20.547741847540653
421,-19.884740103566433,-35.54801317721096,-17.766920638536124,-20.36136835362111
422,-19.777525068822122,-35.33185086256852,-17.692079200060633,-20.273972542473704
423,-19.7066919957819,-35.13555296628382,-17.582409703850686,-20.23891662359492
424,-19.580402160710555,-34.983894968109944,-17.438891065516927,-20.187358594126234
425,-19.44528223376267,-34.83980642801284,-17.27570819386454,-20.124977333816517
426,-19.372112243031236,-34.64904526109932,-17.107500914621113,-20.05954208132658
427,-19.39644476008669,-34.3833311927538,-16.93119850716407,-19.944249721205992
428,-19.52490637977023,-34.03146027091909,-16.73816728256924,-19.740549133636666
429,-19.66397376699742,-33.60292238947726,-16.524169046074643,-19.429282156376736
430,-19.715870399461455,-33.118575243958155,-16.286564384914357,-19.022185816713115
431,-19.72997454153003,-32.59694166263325,-16.031136624100835,-18.6497506108095
432,-19.774029633907073,-32.046394052438046,-15.76388304127899,-18.420639187467298
433,-19.806145975413337,-31.442816126848008,-15.471128681753335,-18.206794683257616
434,-19.768883513664168,-30.76273470468822,-15.144745432668886,-17.85958787561354
435,-19.62884774455817,-30.033544306659547,-14.787318777008132,-17.453751295050516
436,-19.374949560627226,-29.28490440936796,-14.414485386828323,-17.09345076540357
437,-19.086987151583486,-28.50257263405747,-14.027475041263857,-16.759109030981232
438,-18.841020956299293,-27.661990425244607,-13.605367017540605,-16.405688340591002
439,-18.571366535601335,-26.738426309105456,-13.132122799329222,-15.98248600583017
440,-18.190078365751468,-25.72020998517845,-12.622946566762685,-15.444195096230532
441,-17.700296717139924,-24.6491234515038,-12.113584506896894,-14.836171169780153
442,-17.13049044294262,-23.571565166918315,-11.617325434506116,-14.219964271609637
443,-16.517278811914128,-22.47817521173391,-11.132623595153474,-13.550274643489297
444,-15.881811751869549,-21.357842679674015,-10.65767417589124,-12.780605981665497
445,-15.205187971291513,-20.23734864874859,-10.221455880363473,-12.051906572491976
446,-14.457660850165352,-19.150576385515215,-9.853509512694092,-11.484847781403738
447,-13.795929619557526,-18.110715346615706,-9.548060542893715,-11.06066009152236
448,-13.356651712938474,-17.118268727275858,-9.280608375363096,-10.699422719921444
449,-12.960394524856255,-16.16189508606897,-9.019325435884316,-10.272946388462458
450,-12.396624910450207,-15.226844429847105,-8.7388113116004,-9.683077055195366
451,-11.719098717168933,-14.32372010947766,-8.449518181023102,-9.027653055539332
452,-11.088788932945432,-13.308976056085033,-8.093744588103053,-8.42695452086123
453,-10.482828538613788,-12.306705537944678,-7.748844883847548,-7.871248027270177
454,-9.925794997176624,-11.271549987649637,-7.40834341517738,-7.292609587206812
455,-9.367872510538772,-10.20501716850198,-7.069988963659979,-6.711295912031283
456,-8.755747424873828,-9.129183381496834,-6.7447052920714095,-6.162975032250216
457,-8.176821284778647,-8.07648497516978,-6.447467274382491,-5.669948809270698
458,-7.734391555433949,-7.07680109072033,-6.166095121108167,-5.241662418678133
459,-7.390057589327175,-6.1166415682399204,-5.8599977909868795,-4.801436628166415
460,-7.0660937003853,-5.166516588603417,-5.488873562558826,-4.269018595828378
461,-6.720946849862243,-4.229512524919156,-5.069313428374959,-3.7162714294859382
462,-6.33166327214655,-3.3137854803405076,-4.642427173202452,-3.244830010296084
463,-5.953633563612451,-2.3999405783848884,-4.238556946821358,-2.820873633809059
464,-5.654205931764486,-1.4716926666763779,-3.8806982592865493,-2.3856680442776304
465,-5.359059203215623,-0.5402318669387456,-3.57399031930594,-1.9589062556527925
466,-4.974153432372594,0.3739760007385238,-3.308747819089974,-1.5701895123245941
467,-4.561451422881242,1.2450598731480755,-3.074302435059535,-1.2450790656643143
468,-4.206280796962306,2.0554971167005958,-2.860246013497404,-0.9952118049507784
469,-3.8883187982721132,2.8290087861066264,-2.6604140309403577,-0.7263330951221514
470,-3.562220846704744,3.6001420221962115,-2.472404882714315,-0.3412348799251296
471,-3.1707717903343258,4.373309808825156,-2.2920800220876147,0.07346718721088591
472,-2.6755882449568396,5.139713006007895,-2.1155040276504953,0.39528469863913346
473,-2.1990781735069977,5.886063176846347,-1.9417917870403008,0.668113509455051
474,-1.8760396867290108,6.598737851587313,-1.7693895928705166,0.9642923047359268
475,-1.6017396080064052,7.284646858635798,-1.5922257065597591,1.247886202296036
476,-1.2255595401774748,7.95796400811173,-1.403004327663931,1.4719921811614953
477,-0.7851616048991157,8.618196679587584,-1.1977490738854786,1.6191144326656348
478,-0.3644811856809599,9.259967732684004,-0.9744547968335361,1.695641851264582
479,0.009290993276963297,9.881025007103633,-0.7301982309234334,1.8154416205770874
480,0.3231211424902286,10.478137526935207,-0.4664439296688715,2.09170525436377
481,0.6237598452666765,11.046896619378973,-0.19432078686244558,2.4424563258727727
482,0.9726436340770687,11.584394164188293,0.07165034846659847,2.7380403589373468
483,1.3064349239043058,12.091434911550026,0.3176776496459638,2.9882818212722846
484,1.5484175474796151,12.56888948398671,0.535585109045521,3.234894211243901
485,1.792101525773485,13.011622969657877,0.732464145174093,3.475104603197563
486,2.145795472860426,13.412373665509216,0.9222200068213047,3.701052123793842
487,2.5439464679312334,13.76940513133649,1.1126407208817137,3.863489172943026
488,2.8859501420604405,14.08037943816478,1.3092849339323496,3.919577847415281
489,3.153783886245253,14.333635851679484,1.517455846502545,3.9544652450403315
490,3.359757657361524,14.520186741354316,1.738920989078866,4.072171697953711
491,3.56774099541287,14.641036812820587,1.9753697699125772,4.244751817981017
492,3.8429153364354427,14.704446353436486,2.223581601789711,4.406762015337361
493,4.111732242317477,14.737024119082069,2.464374103330167,4.541940515942524
494,4.270834433276855,14.75586170386435,2.676424134490571,4.642700455617604
495,4.36076468940131,14.731168649578658,2.856011117561405,4.726421356641317
496,4.4493560219752055,14.618922089271974,3.0075044025380815,4.816227445647994
497,4.492237960169323,14.378881092183304,3.1287084199923623,4.840503861019029
498,4.4416263041858075,13.997443374513914,3.225417980427385,4.7329943282562175
499,4.336304009896961,13.548115906116957,3.3011578553447025,4.604974993569852
500,4.234001031637744,13.119999316162417,3.3698352522484036,4.585798832457653
501,4.199220771906355,12.719027260611156,3.4346317136253126,4.640950859094783
502,4.269483948604442,12.314554567229756,3.4761360878111662,4.6848880006111235
503,4.3450315046942345,11.871455173880156,3.4797334255278165,4.630574774005482
504,4.304764756214545,11.361015267781902,3.4447455215985925,4.421869355495609
505,4.175932974796316,10.813553694059404,3.396578331044149,4.198437579348262
506,4.0302768017329695,10.28300553555166,3.3725237346709833,4.124963938161275
507,3.899759518602394,9.78105324453459,3.3700459467796735,4.09732225687444
508,3.7959067300075016,9.30626228659514,3.33364122594012,3.951702615561725
509,3.6393718660305776,8.879262153879674,3.2151242472948294,3.7164330201353115
510,3.3457853881499156,8.50879892128595,3.0185898831528304,3.463485809997324
511,3.0170323893006152,8.165543864639098,2.786013542282864,3.204332546736641
512,-14.145035677904195,-16.0313962276512,-13.054768942199216,-13.522183236540288
513,-14.253212680809684,-16.48481793110534,-13.428251615801626,-13.71866533541426
514,-14.40011966506429,-16.99190660449693,-13.808406437653169,-13.839554929631237
515,-14.52761533698366,-17.51131252609581,-14.18464731911757,-13.898308908926754
516,-14.563024176491227,-17.978120185910072,-14.543708012922464,-13.91303088973071
517,-14.50680017906962,-18.354820144272143,-14.906421895937342,-13.959170619363825
518,-14.380939638987236,-18.62186809532169,-15.288031610937649,-14.089324525361564
519,-14.253639102132722,-18.79067529250028,-15.660873902020873,-14.258567035275917
520,-14.187564876713855,-18.89245317510278,-15.98998338854723,-14.3981806697308
521,-14.116735743604215,-18.950399474054226,-16.26269551976672,-14.452601974883827
522,-13.967386153803066,-18.983814215711494,-16.47677082830541,-14.40072226140977
523,-13.815502338788223,-19.014773015794283,-16.633729147440608,-14.339184182142038
524,-13.738337257849832,-19.05649011177329,-16.746991706536317,-14.369217792766117
525,-13.690887119704676,-19.099230144810267,-16.847610897596848,-14.431213106691526
526,-13.59932530211532,-19.130804964127183,-16.963489103018365,-14.438537130689975
527,-13.376234976497447,-19.165984398119033,-17.09813681256507,-14.422765581134351
528,-12.975048097688484,-19.215326563922712,-17.24473577650483,-14.422566046785727
529,-12.534657942128337,-19.25274917904716,-17.396842892405726,-14.405158462585767
530,-12.21293629833357,-19.247331353960174,-17.548613986192983,-14.341248545842571
531,-11.96700356453035,-19.183405433148128,-17.70346790867397,-14.21600277428388
532,-11.720624324352487,-19.059827627568115,-17.86567728550332,-14.04260509842681
533,-11.51027168860734,-18.9085679299996,-18.02833742162919,-13.947759074644765
534,-11.378188480164159,-18.768406783565073,-18.181275300223803,-14.039300079822373
535,-11.35561558768961,-18.637808997816723,-18.316189997867255,-14.223461287165325
536,-11.44613902122455,-18.511510779880197,-18.429380294677614,-14.368356341621748
537,-11.495845404352517,-18.42517306286492,-18.52499165900545,-14.470960910169747
538,-11.369271392035474,-18.405609889948575,-18.612536737812817,-14.552854989291399
539,-11.215042868635372,-18.433009989845193,-18.70980716001763,-14.605159580543484
540,-11.207993603315812,-18.46723094368791,-18.82667059277939,-14.625126696369746
541,-11.26307727845134,-18.454236777100366,-18.94141470435894,-14.58141076177788
542,-11.262121899909408,-18.35149228027286,-19.02534201120233,-14.458392284036828
543,-11.22959049258153,-18.166619731327113,-19.071766164390674,-14.35233546347137
544,-11.208288759536453,-17.931656017393777,-19.080807088766846,-14.358030926961519
545,-11.241287619391791,-17.680877214734075,-19.04595664560785,-14.438896632349296
546,-11.35189299172754,-17.440910163734912,-18.967756127522474,-14.525498341450916
547,-11.414608850928708,-17.202932346045433,-18.86063409794602,-14.594177262480944
548,-11.31252749526001,-16.94765063363636,-18.74066274751572,-14.629014154901704
549,-11.15671900616581,-16.681326319190784,-18.621820064724567,-14.631579067819336
550,-11.088505562677158,-16.41361618107015,-18.509071883393528,-14.607648940757429
551,-11.087998026240912,-16.1408465451388,-18.382930850060735,-14.5052021620197
552,-11.094501938427822,-15.85604450659707,-18.22127690559786,-14.279254098731473
553,-11.072736931639021,-15.54753227943865,-18.025496415441083,-13.985733077003127
554,-10.988303418747813,-15.201365523106322,-17.804532689933758,-13.685945909770055
555,-10.838834610482968,-14.81443231431782,-17.56234018229618,-13.346779128254038
556,-10.641838106637975,-14.383317006953442,-17.30050833583223,-12.921564093528497
557,-10.39923186758385,-13.886166560501405,-17.01515780017458,-12.410908088559646
558,-10.110613166423999,-13.30517502992487,-16.696802517780316,-11.828565251239487
559,-9.7826169507861,-12.65223527131213,-16.33452709410765,-11.20532218431836
560,-9.420347935986056,-11.949109570686563,-15.921186327561811,-10.578991078822554
561,-9.022157062888132,-11.201154049653974,-15.451720893272237,-9.935657780922398
562,-8.584910195818646,-10.414544206286646,-14.932342873114784,-9.26741728283762
563,-8.115162999504596,-9.625424831574133,-14.397979727887392,-8.668348774683095
564,-7.6067106247225205,-8.854368576005712,-13.878561300674647,-8.21018441917181
565,-7.02207962841545,-8.051923875526086,-13.365642144600269,-7.823025638589105
566,-6.319733720778379,-7.163215841152531,-12.834263255258161,-7.398172117962943
567,-5.458094341711115,-6.188792852561424,-12.250556740149,-6.834774816954817
568,-4.431288570632131,-5.154031961767906,-11.592284945677786,-6.082510955216927
569,-3.3317343440931704,-4.094953571433046,-10.889167897743546,-5.264297437103639
570,-2.2646254979171223,-3.0498742861804686,-10.184900513019572,-4.530619467749805
571,-1.2576027197629767,-2.03459129576173,-9.487254852975026,-3.856894215115476
572,-0.3047694370208272,-1.0907213831676041,-8.831113139782603,-3.2407356691966616
573,0.5576594747830559,-0.30638953828600024,-8.27368885633587,-2.8232275699284295
574,1.3013160086994942,0.23742215204236697,-7.875617778228053,-2.743164773927442
575,1.7893682975367051,0.5897360371864526,-7.618305943929298,-2.889265755791874
576,1.926639601097995,0.8592592416203735,-7.442746924625711,-3.0733816286698823
577,1.9086132911265525,1.1075725526935563,-7.292768007578333,-3.229218508956017
578,1.9714667154765222,1.367334413730775,-7.122552655896055,-3.334952005135282
579,2.095248579496076,1.6438758450238853,-6.913669377053313,-3.3768496033917823
580,2.3831257388124367,1.9654434969264243,-6.579963825677032,-3.2800772513959666
581,2.612737266521176,2.2484611492097115,-6.226179125281165,-3.109826071479196
582,2.782260165463939,2.478259903376978,-5.865669210156644,-2.842966668650544
583,2.9501938497921643,2.6641092740033248,-5.511347952874472,-2.571669936390723
584,3.1811629615059496,2.8314189730309542,-5.171569275809511,-2.397848192559051
585,3.390486358495524,2.9934722621326126,-4.848078740469881,-2.2990750338169255
586,3.476457729849795,3.1625200626714873,-4.535977861039265,-2.2115350579746678
587,3.516015626019657,3.374999176571882,-4.214330282553587,-2.093698063738999
588,3.6190631069022663,3.6564093260165915,-3.867054037772495,-1.9190523495203111
589,3.7814175667172014,3.975951652040266,-3.525750716603078,-1.7328368466715889
590,3.9616904685654957,4.284531298534238,-3.2273551725219547,-1.5936725526404898
591,4.1047176788533335,4.561552479756645,-2.9513401768980816,-1.454306365404677
592,4.157648743691519,4.7977347486339035,-2.664928001901076,-1.2489012824901071
593,4.161324938249442,4.977918598528584,-2.37106548698436,-0.9946607791406797
594,4.186050773357154,5.102632509361867,-2.0825321814714117,-0.7307020353412377
595,4.204627131993444,5.2019263252126136,-1.8127025936483145,-0.4985800011209143
596,4.178034468369396,5.313608994064983,-1.5735916071407663,-0.329875312624334
597,4.178004810329767,5.472607224282609,-1.3490404402655836,-0.1498739222118876
598,4.273127182404747,5.69638634253162,-1.1173239477902113,0.12175578167228539
599,4.405138426702203,5.9499848274835525,-0.8930616452429464,0.378493672297761
600,4.486613944485456,6.182993409866726,-0.6961743266806715,0.49192887211392455
601,4.471376196585018,6.387270966959068,-0.5136620095873858,0.5327200136465535
602,4.3453491575716265,6.565175745010028,-0.3245396742998797,0.6136440504210481
603,4.184266495193644,6.699108662439631,-0.12347458534516578,0.7416524806705462
604,4.0775536351381305,6.768409519734271,0.09178318266058118,0.894885320133389
605,3.9845947185788644,6.749318466513261,0.3278833580306347,1.0263014360542644
606,3.8320197859250893,6.626850823681925,0.5844904762097392,1.089529942606064
607,3.6263347321415718,6.419298917375652,0.8506213440477417,1.1666072619138783
608,3.395901279026925,6.1664039083351065,1.1084737849513795,1.352231872599471
609,3.1824038997318995,5.910551852787007,1.3285895208260223,1.5564514581774422
610,3.024546884801644,5.69213242334374,1.4882006594657446,1.6576237493605712
611,2.857410297742302,5.547796553672559,1.5972129649250248,1.6850737840703138
612,2.613102762058771,5.48819522695503,1.681206089748494,1.7031974550638584
613,2.3958598082720455,5.475955656194423,1.7628451697500276,1.7258966733067143
614,2.3366881811282214,5.453782498583167,1.8593970406100342,1.7551066859210789
615,2.4163215599435652,5.364435663177281,1.9726452302478052,1.7468523857455744
616,2.5679870828795894,5.173170701515119,2.0914138864643643,1.654692590695864
617,2.7630924431601156,4.918732862149631,2.2040678282434314,1.5500512493979943
618,2.97665056431972,4.664204183290542,2.299122579323092,1.5196522962551717
619,3.1936715681479533,4.414147463856113,2.356578482088142,1.5160440145821805
620,3.4177274428531548,4.159368318354455,2.3678646323604395,1.464736181969526
621,3.647469578809482,3.9313013198384543,2.368667572647566,1.372596137492539
622,3.877830324285907,3.7587348658827504,2.4004046861186867,1.2714466736277161
623,4.127016685008342,3.6361054490038205,2.4628227649913708,1.199631356514165
624,4.4002475716284035,3.5463278875085598,2.5380300416684975,1.1985820715825728
625,4.619311641708258,3.464607497047483,2.605004952814034,1.255327482504097
626,4.712071175201956,3.3698793723827634,2.6467341761982874,1.3438435513345657
627,4.7222436116645525,3.2788494507364474,2.678822360758298,1.5058276058949818
628,4.733408494773608,3.2161844157223327,2.726497540727132,1.7819557960903283
629,4.8255789688655994,3.173738266618227,2.791639524039355,2.134777431271545
630,5.047282368525104,3.135731368822658,2.865298105421599,2.498534247924711
631,5.298048266915427,3.0869106321575632,2.9291841842022923,2.81269972844556
632,5.450089119290029,3.023372485326735,2.965925533931364,3.0276321087402653
633,5.563820620335866,2.9981937370881457,2.990581698657506,3.143194174601494
634,5.736204803208225,3.064296703390321,3.027590680316338,3.189109816413807
635,5.913700073403975,3.1914009304044417,3.0688230502700335,3.168608182680978
636,6.017238517831429,3.317336979567618,3.101626770314253,3.091448374464547
637,6.034036516544769,3.3986246588534703,3.148176882258155,3.0321829659387256
638,5.973660478500491,3.404226687983062,3.2283243921775835,3.0536052383048613
639,5.898661104281252,3.332327913195895,3.3183431014446807,3.1225671366624725
640,-4.633269509201169,-10.67166352114072,-11.689156219154672,-7.153973527129793
641,-4.5592655033586835,-10.864871453848012,-11.993864452067104,-7.499354559804205
642,-4.649831445967165,-11.0805231335153,-12.295192585172014,-7.874801829002549
643,-4.803482672751852,-11.3042329124701,-12.591335020115539,-8.235704163431574
644,-4.893856427330282,-11.518844722824657,-12.882665762781905,-8.541121921321812
645,-4.962481734317086,-11.728348238000564,-13.178087724334855,-8.83075171404269
646,-5.073543772648296,-11.939432485559808,-13.483853130691411,-9.147460587876445
647,-5.269550829990277,-12.145915323480276,-13.792202349919295,-9.45245620957958
648,-5.568458167916644,-12.341706971972904,-14.092578935325626,-9.70429734135434
649,-5.839569004237699,-12.522330032391135,-14.38041407873501,-9.92139660785387
650,-5.966923096830792,-12.691280184926867,-14.654728461735289,-10.13519930532238
651,-6.096314344275053,-12.877334761396837,-14.922733151921351,-10.386797433374728
652,-6.3975636791214265,-13.110621834035461,-15.193059139993961,-10.7023719576974
653,-6.82135044259822,-13.390884502705964,-15.459748222842546,-11.013071348407472
654,-7.267895214732127,-13.70476500112337,-15.718312672553038,-11.252795519110125
655,-7.690317087435886,-14.051884509606756,-15.987218691108206,-11.493201452138418
656,-8.057396643025442,-14.422121298816982,-16.283998517053927,-11.816748629055246
657,-8.404860542830475,-14.76431466056644,-16.60444887484722,-12.198454426696514
658,-8.785547462456137,-15.03889828692779,-16.937587951588895,-12.587773497916082
659,-9.155042265780528,-15.27036172194423,-17.26661248575032,-12.932258335508635
660,-9.461873757695312,-15.499759807517567,-17.578781002774345,-13.193045962812693
661,-9.762895376249546,-15.754616533469148,-17.894519414279465,-13.446623195764337
662,-10.109478970750432,-16.041867508768107,-18.22915877169475,-13.764520521734369
663,-10.447513780990814,-16.313972065753777,-18.54674137597555,-14.020047268689195
664,-10.712995722262155,-16.515469004017657,-18.80160533569219,-14.085370400860644
665,-10.873538756555517,-16.642807801398654,-18.970754004514358,-14.052726865979713
666,-10.935229694926877,-16.71359948753607,-19.04964333690333,-14.04702338743151
667,-11.024009580266243,-16.749077359084833,-19.063354251467764,-14.069523054227012
668,-11.254814752454886,-16.771754153273477,-19.048996523479502,-14.098500781197128
669,-11.549628035385544,-16.77162160123579,-19.027527357288303,-14.1173653318107
670,-11.788079973850772,-16.733717304831554,-19.00687963914601,-14.108098211471168
671,-11.952724600496731,-16.69635658906337,-18.988626216502126,-14.129589634023644
672,-12.051568178523562,-16.686335164091116,-18.962657511525716,-14.231545611592821
673,-12.10027043414633,-16.639508338034585,-18.898050296256198,-14.303619957269712
674,-12.126876288829262,-16.48685542396274,-18.772559597278335,-14.235616505663916
675,-12.094762612641283,-16.234530082488877,-18.60900485976613,-14.103966086022558
676,-11.979697920714205,-15.914167792968287,-18.440348226300575,-14.008145421942169
677,-11.915959281120513,-15.557995320459034,-18.27633197696287,-13.931083607939943
678,-12.023251517280764,-15.198927712749311,-18.119637691420774,-13.836640689186419
679,-12.197716683259156,-14.838778255851759,-17.962335480917243,-13.694994982772707
680,-12.307880791295426,-14.471842167807283,-17.797619564667734,-13.493592700591943
681,-12.371806649124077,-14.124149723442704,-17.65648967757102,-13.332129641920899
682,-12.435857550581463,-13.818331395732661,-17.55382214890969,-13.301359740338668
683,-12.538421034712028,-13.546562175083773,-17.481171947129187,-13.313149782129793
684,-12.698415382268928,-13.286287390783087,-17.38620255932778,-13.251493500896402
685,-12.788532279053072,-13.001055740900675,-17.227690170074666,-13.115724288876635
686,-12.696032300637638,-12.659805289636644,-17.007807857756724,-12.935691360512818
687,-12.567666145379704,-12.264477260962003,-16.73997769356742,-12.7417042091773
688,-12.573301327756077,-11.83709459239507,-16.449481626773913,-12.566349072710066
689,-12.655078498889045,-11.406459602630804,-16.139014431087343,-12.37625144600774
690,-12.715524359497032,-11.00015444892343,-15.804011866791932,-12.137356645976409
691,-12.749230189542851,-10.631703042925933,-15.452095073300463,-11.929454359718068
692,-12.767352955045014,-10.296212324403465,-15.091228113312093,-11.827155477207693
693,-12.813684958602872,-9.972145270234622,-14.723601042733655,-11.768168874742766
694,-12.928576933417824,-9.63070730444086,-14.350013500833336,-11.668598427852908
695,-13.034209964299675,-9.237110513856734,-13.970364555852205,-11.513678641209221
696,-13.045768938411154,-8.77407499200262,-13.580583792543798,-11.304981641150487
697,-13.020934000640215,-8.276635648372734,-13.171218369748951,-11.063507302074267
698,-13.026623399933596,-7.7884386474724945,-12.731593191234303,-10.803613231417996
699,-13.015666133859314,-7.313231168514996,-12.252919785346805,-10.45076825984597
700,-12.908550793937984,-6.852084967280121,-11.764452157382756,-9.960948554522277
701,-12.725665714636282,-6.443529301738475,-11.347496559112482,-9.462833933694949
702,-12.491173130382768,-6.119877335369694,-11.05320503658502,-9.102769388524198
703,-12.351092536541172,-5.886170724385641,-10.856658654205388,-8.864365372531385
704,-12.423881805073753,-5.721337763366277,-10.688197876837522,-8.666668979583875
705,-12.523171443754787,-5.57303255383752,-10.52110054376429,-8.457429340865914
706,-12.425950655574233,-5.388651300882863,-10.344477154328672,-8.199013688906915
707,-12.20448212556753,-5.160727141664598,-10.145378026071826,-7.909121767940779
708,-11.987169274384469,-4.762941175755553,-9.776452974041527,-7.612055000954383
709,-11.814467111749419,-4.366923089700333,-9.414486466562819,-7.323540218861804
710,-11.68620425478693,-3.9913963502008083,-9.070970495105817,-7.0227884292708955
711,-11.55014152319809,-3.6545902323860298,-8.760747455963054,-6.744481359938529
712,-11.350401714726754,-3.366080458540965,-8.491654692223054,-6.521780700631188
713,-11.202802256594577,-3.1368881170293093,-8.257303480927224,-6.333420309361015
714,-11.233678932242109,-2.967855082646364,-8.045774397239747,-6.143574516857816
715,-11.318281558046857,-2.816253785252169,-7.8489793218560635,-5.92408400583802
716,-11.290597620100499,-2.637843268355768,-7.657435179872714,-5.657865992900683
717,-11.185229296256308,-2.457830941670198,-7.459046206736209,-5.369666932448976
718,-11.087013202899533,-2.3135437139194206,-7.240894531719888,-5.098433176299806
719,-11.031801378304891,-2.176634928975335,-6.9811901212833485,-4.843020941509535
720,-11.028604301272074,-2.010492598833287,-6.665801245510797,-4.593272846394193
721,-10.986570323700594,-1.824540266757103,-6.3151872348015985,-4.373347911943888
722,-10.794394434056635,-1.6444903923514402,-5.9629365924875435,-4.203846390220054
723,-10.470437073544188,-1.50122606998853,-5.626265913625578,-4.0673069778457265
724,-10.081759724146723,-1.422954086151461,-5.3183791923793615,-3.9369355395080583
725,-9.652074480284549,-1.4067469432745534,-5.05804599911764,-3.784689951665477
726,-9.196779117546415,-1.4270872053259214,-4.854083167221664,-3.591391663817449
727,-8.733041155672337,-1.461561560766957,-4.707500703519281,-3.4016899036541925
728,-8.263112895606785,-1.4825055448439264,-4.604228044491857,-3.2619912257530923
729,-7.775289653134186,-1.434210974275518,-4.481095517299949,-3.1040692945236636
730,-7.266094324297127,-1.2788396725506141,-4.287656689196677,-2.849216116611883
731,-6.751489769892776,-1.0565777729066632,-4.027377001860731,-2.539035276741752
732,-6.259606088295342,-0.8320126747479412,-3.7522763219282074,-2.244835561677463
733,-5.856089136358346,-0.6393365376137654,-3.5021162051665202,-2.0046538521525576
734,-5.5832011023606,-0.4908936211752726,-3.273495846051521,-1.8302005490939202
735,-5.347752854859338,-0.3600607660795771,-3.0542452263814255,-1.639144237305133
736,-5.030949539944456,-0.20866044561070396,-2.820612920070786,-1.338281560095417
737,-4.629088374039906,-0.045075646109030726,-2.576973435114453,-0.9863352545050416
738,-4.182227706292699,0.10681854022233617,-2.341307850609601,-0.675124431308218
739,-3.7265961939612,0.24518759125167067,-2.121593193316123,-0.37412805356016515
740,-3.296000858704534,0.3740992157268027,-1.9230116108388635,-0.029663722468499115
741,-2.8604822396800182,0.5018482318633071,-1.7499719810656278,0.35508455133108346
742,-2.3745813754776828,0.6408558063156562,-1.5987946320107342,0.7618187142717823
743,-1.8787705129468095,0.7886549265382605,-1.4578336105111707,1.1462370615298736
744,-1.4253330409220373,0.9405265092010856,-1.3115085070095522,1.4607490283878342
745,-0.9900208962865336,1.1155183413272038,-1.1370876206643645,1.7386375773011982
746,-0.5384274113362741,1.3285080505887796,-0.9189060931442085,2.0271833299305575
747,-0.05779723718239892,1.5619597286581346,-0.6729351075787322,2.268268166073287
748,0.4466746038002129,1.7861901221269902,-0.4245443294494129,2.39617613040884
749,0.8699407640918879,1.9619322829061316,-0.1790326143468607,2.462457326972759
750,1.1152787084038978,2.0630893280911162,0.0630348708410409,2.534932720016278
751,1.3171350884923956,2.1300857231659505,0.2976504088686501,2.611693299772666
752,1.6390068298887674,2.2175889850643444,0.5186140957856077,2.6643922570641116
753,1.9816817115707301,2.3189717938926355,0.7018487492223598,2.6212817307521523
754,2.1964464045049312,2.4062024983388963,0.8261873557631543,2.4262848073569545
755,2.3077697892167746,2.469303044861588,0.9072737324661246,2.1736119750941456
756,2.3818116140312036,2.500356402669873,0.9729113545452808,1.992897992476322
757,2.477307678486158,2.4925243861887925,1.036546467140558,1.8916247184615318
758,2.638878507510401,2.448283229814975,1.1039278865503603,1.8352014403465695
759,2.75424609984512,2.376326872336175,1.1706502008287394,1.811360444325671
760,2.6949848661409654,2.287797170046279,1.22611236915419,1.803973313125244
761,2.5883598954579883,2.1979199430700653,1.2678825135163403,1.8178692039881783
762,2.601589170464445,2.116942316573112,1.2977910717884278,1.864951952669265
763,2.6497938484747157,2.0333652283355863,1.3139487745592826,1.9035045719347912
764,2.6049219398203256,1.9304684146182933,1.3165605926990145,1.8883123639017698
765,2.499361013453874,1.8116100811515552,1.3151986336034125,1.8543386209172745
766,2.3966302600200926,1.6837612502620058,1.318205366661521,1.8465102035768945
767,2.347870204215921,1.5411301043448495,1.3200046511531203,1.8286530334121158
768,-8.570057652529183,-11.096075118969724,-13.902435041425221,-11.576049971534713
769,-8.80752358398673,-11.508738235962928,-14.388417820297155,-12.043865915825048
770,-9.213591986201918,-11.909519715230184,-14.925528342263492,-12.53902838079999
771,-9.678800958147686,-12.284747332817801,-15.496576638155151,-12.997446938161039
772,-10.064836541309447,-12.61878102517214,-16.071917504306853,-13.361321416405113
773,-10.39221173142588,-12.92029456006748,-16.62803033903544,-13.697550728811155
774,-10.703642826862534,-13.197984020799545,-17.14180240906212,-14.073517355102226
775,-11.006542748459122,-13.42569297477399,-17.58317327922837,-14.389073740632238
776,-11.298674098912565,-13.588852847461641,-17.935241772898063,-14.536026548379178
777,-11.479921522417907,-13.733929742428653,-18.2135811120731,-14.550450546862571
778,-11.474589520038018,-13.913874027558505,-18.44406373726045,-14.504975030688316
779,-11.456606472356272,-14.149125645749116,-18.64402567640329,-14.44209463324879
780,-11.602642831006923,-14.434019482176645,-18.823753926115987,-14.396910274379533
781,-11.797730619479903,-14.714837385116411,-18.97858650865905,-14.370233536983081
782,-11.889729484644779,-14.93463659646596,-19.098999769357803,-14.339744473453786
783,-11.906543763995442,-15.101724921905626,-19.189880039124066,-14.311943290102088
784,-11.912261885348137,-15.243725024051768,-19.25722729824659,-14.284365567863468
785,-11.972579645258696,-15.36089263018759,-19.295123583546392,-14.186158510357167
786,-12.13104620351353,-15.454596714445872,-19.29696456600639,-13.964532281812755
787,-12.266042482933944,-15.534166946432737,-19.260465454784356,-13.670136078757704
788,-12.253596197784224,-15.610452223100447,-19.188811067244753,-13.382259266482292
789,-12.194773230704627,-15.715139609118015,-19.097259263238737,-13.15948248883462
790,-12.223698199885318,-15.871069915107276,-19.00553760884976,-13.034245299813055
791,-12.326891069209013,-16.04276062699001,-18.92360723137383,-12.963867298788571
792,-12.458512183620476,-16.186978155698505,-18.85646262990218,-12.886538877280008
793,-12.591077184000978,-16.313813139518356,-18.82020995408085,-12.813738396528619
794,-12.696018365674657,-16.43673699591096,-18.81856090542717,-12.765122363452125
795,-12.803498058652703,-16.53011505421661,-18.808095489786496,-12.699997796528278
796,-12.94787918113213,-16.56601016272357,-18.74956462263715,-12.584451313051481
797,-13.050046076359104,-16.527339354480326,-18.659304684956794,-12.42546040976404
798,-13.040697269158205,-16.411585384827493,-18.571928198588587,-12.246691730078227
799,-13.016703489596193,-16.261236094391343,-18.520032641062407,-12.125578692934926
800,-13.085488904863592,-16.121615300774693,-18.522634200037665,-12.114778428623344
801,-13.211487668068646,-15.981942915758738,-18.549825727984416,-12.092803916457369
802,-13.334302259280712,-15.822174549670457,-18.55908047762977,-11.937223008767821
803,-13.446128605557336,-15.655067492380406,-18.541416793658865,-11.737406333778633
804,-13.548691069108449,-15.499963348937829,-18.497866359831097,-11.610047522954531
805,-13.677102987940525,-15.376859173261249,-18.42928154066119,-11.542237161476438
806,-13.859843357812997,-15.297480461520951,-18.336378136231428,-11.490281254580191
807,-14.015138342349777,-15.238881148563705,-18.196200554319304,-11.391326161244807
808,-14.061788372000965,-15.166320846653402,-17.988634452556642,-11.199393259015043
809,-14.061858027223414,-15.065333371651112,-17.7399260473908,-11.016490315704468
810,-14.08694083901411,-14.927715905869379,-17.47982408464371,-10.945254471341936
811,-14.106247661156441,-14.73369718385092,-17.19375519471134,-10.893917073013705
812,-14.065054356018912,-14.476383963925226,-16.861563876895993,-10.738206122764197
813,-13.892442637396037,-14.187406774588398,-16.49180678074415,-10.472057711712988
814,-13.55188477091303,-13.90033014079205,-16.0984393129212,-10.120057597509552
815,-13.168803713601992,-13.61686517714744,-15.683299620839112,-9.692719233133895
816,-12.883671064600177,-13.326484333399842,-15.252222942820113,-9.218502158327153
817,-12.66550393203537,-13.011764689357008,-14.825288279518372,-8.727417871527305
818,-12.442562972802266,-12.657362575457453,-14.414554227247494,-8.23934455620476
819,-12.216208184938644,-12.278969236051202,-14.015433860877796,-7.797570775732477
820,-11.985144109271197,-11.890243832743385,-13.606795701811613,-7.414917336816042
821,-11.733906908457287,-11.467450883932814,-13.131586523501571,-6.98230977246234
822,-11.444939883482496,-10.980191945438962,-12.545622186763628,-6.399104141996784
823,-11.030996811062064,-10.398359987739733,-11.877930503431486,-5.715988356420487
824,-10.435590668545466,-9.716344078525378,-11.180554940671232,-5.026666015435373
825,-9.797309130678899,-9.00814489106877,-10.485401139266385,-4.3882311450427745
826,-9.263536765859113,-8.353371190613727,-9.807605968784387,-3.833972758002843
827,-8.779944890739156,-7.7468693037539165,-9.128383739522745,-3.329000104180983
828,-8.236901336675258,-7.194160505101979,-8.45504479448085,-2.8450506862423444
829,-7.70813964397184,-6.718465890065869,-7.8403871441268995,-2.515590536230187
830,-7.250780619966989,-6.352033734530227,-7.35401462633477,-2.4527195840156457
831,-6.888535074018216,-6.045847671938461,-6.952443455619648,-2.4809389384692624
832,-6.6181406325984184,-5.72731326052243,-6.561410925268958,-2.3700983947779433
833,-6.329338005543625,-5.366099596035846,-6.19422978194552,-2.1373488882830394
834,-5.919445332438831,-4.9629500824665325,-5.880041234010617,-1.8793693338481154
835,-5.489288360315857,-4.559505471190469,-5.615068540559953,-1.6634200953504135
836,-5.3323125816801715,-4.363879495001903,-5.334362371698802,-1.5846261994916382
837,-5.284478053716247,-4.145499948125385,-5.059647496487502,-1.5262491016470123
838,-5.289531037578819,-3.849355370703357,-4.745608843666806,-1.3789427895979824
839,-5.28955323498502,-3.505428485438571,-4.398139293665226,-1.2205223798310012
840,-5.231502349192342,-3.175596509038234,-4.0417204753710445,-1.1586989403529566
841,-5.165377772293072,-2.9064975246848745,-3.687899640992299,-1.1272650469782224
842,-5.167342905786834,-2.7273956394522822,-3.3497743141583554,-1.0372241673270903
843,-5.186296569968526,-2.615241642547257,-3.0454059223189187,-0.9144743116243312
844,-5.153372983462257,-2.5227275766847734,-2.784169464773319,-0.8089141929721219
845,-5.122491193362596,-2.435798173892136,-2.565897603616675,-0.7746835529221233
846,-5.161822172167851,-2.3505692686042456,-2.3797165047155926,-0.8473779971960268
847,-5.256556643898366,-2.244190926639169,-2.188261750512776,-0.9073416294438796
848,-5.364948998704494,-2.098934509877315,-1.9566765191889115,-0.8217197561179774
849,-5.430924621036809,-1.924655092391925,-1.6999747446948568,-0.7017741330685127
850,-5.4001440144904445,-1.7363792814546286,-1.4469842134360418,-0.6966327883869666
851,-5.303217847265262,-1.526698282954573,-1.1951246974941583,-0.7262697760946528
852,-5.19215298167224,-1.2889577357833206,-0.934985457902816,-0.6654119680112128
853,-5.005518863325047,-1.0429327676128515,-0.6645063651305075,-0.5077787924470472
854,-4.683368737154543,-0.812262156818841,-0.38555888214366335,-0.28397947793421235
855,-4.332858742698298,-0.6109016924079879,-0.11960827432352045,-0.057423686632233926
856,-4.079993624711938,-0.4417055967717609,0.10999153680224676,0.09961926732353138
857,-3.9110977856911457,-0.2780371898492727,0.3093674455333683,0.22123945913551354
858,-3.768609644082029,-0.09168388172182301,0.49604406317601196,0.36740252146588753
859,-3.594664206553667,0.10840237143151421,0.6772590129652871,0.47922720656530504
860,-3.34423013623587,0.2963309400843536,0.8592421223106971,0.48896492785129025
861,-3.1069785545648587,0.44013221221727744,1.051432120712108,0.45125298254986157
862,-2.9861904366204968,0.5161452488314446,1.2586308073944228,0.43955029809082324
863,-2.869628736159637,0.5501103215253094,1.481190169231767,0.4648163461720177
864,-2.6170854109848474,0.5846184681120503,1.7141860975229577,0.5126916026790432
865,-2.2956338341633447,0.6197063081092471,1.9376285047077848,0.5174057819798459
866,-2.024287715027747,0.6485006688107149,2.132292618209111,0.4193649680807693
867,-1.8467086759740832,0.7049284427869866,2.305749616483016,0.29939097553877453
868,-1.775149655347056,0.8174316063208916,2.471453857383496,0.26377228881758696
869,-1.7585990160552607,0.9664419741759103,2.62328459200612,0.2897437084668419
870,-1.7210537465423115,1.1141803457027524,2.7492686609855563,0.3170679006186147
871,-1.6706754248508682,1.2196363100987937,2.8398955672870017,0.3110419389000059
872,-1.6389337940805315,1.2519978536854122,2.888220881892892,0.25046585371054725
873,-1.59347583811665,1.2280032340124047,2.900523691522787,0.19697057366421675
874,-1.500916541539132,1.187156832319831,2.8894904068704323,0.21956534133268812
875,-1.3727812391855385,1.14214820329223,2.8580979406462483,0.23349098326093132
876,-1.2340328460547951,1.1012063122404587,2.81011547979793,0.1322725503725457
877,-1.135885364569144,1.105864765951637,2.7630156561109938,-0.03269039375695911
878,-1.1189398620200188,1.1807555673259473,2.732813753824261,-0.17516523084526076
879,-1.1143369583928313,1.2813057669277674,2.725504659379747,-0.2893238518443167
880,-1.0395548978231315,1.3441621508442785,2.7363141452150113,-0.3874573245842233
881,-0.948041632780466,1.317785867916932,2.734475853055276,-0.49486195950045236
882,-0.91884695955774,1.1834469712727123,2.6889671652539597,-0.6358664860316998
883,-0.9356233645348819,1.0211299850454467,2.6119960387029986,-0.7391980098217681
884,-0.9592131339011744,0.9320097331110646,2.5299589313018522,-0.726243341322256
885,-0.9535681371612513,0.9207304315982403,2.446272786719221,-0.6719128222238188
886,-0.8899333530114664,0.9527174359508498,2.362451132505241,-0.6714370216212714
887,-0.8422653190009549,1.010041778880493,2.290707381002707,-0.6700052810187712
888,-0.8866625691908794,1.0739777634862118,2.2464046555327988,-0.5835206939795694
889,-0.8984095748872127,1.139571254615686,2.2542687242855917,-0.4032053681667474
890,-0.7320846749809983,1.2118081794076612,2.3352710426709393,-0.1456682129954139
891,-0.47556548489916317,1.2767927228593914,2.483527863389146,0.12977035651962193
892,-0.2652597836964692,1.3160934168344092,2.677592941599514,0.35984258462679003
893,-0.08884240661998719,1.3347479488960714,2.8982051641084894,0.6062457117724825
894,0.09299052614886477,1.3390187627598538,3.122791025577016,0.9423378215121226
895,0.28829630362945946,1.2985988701606357,3.3172164827337602,1.271567630861004
896,-12.09164474537323,-12.766161353094855,-14.645483334391942,-11.655403991912305
897,-12.430828416410291,-13.121087890350125,-15.030121326095149,-11.999045039292543
898,-12.824300683048596,-13.468852738431114,-15.426455672070919,-12.33477427125011
899,-13.203616965566068,-13.810645662268046,-15.829834794615044,-12.615150986508413
900,-13.493108307359613,-14.147887024261294,-16.232637635255692,-12.802590487354145
901,-13.71678783253453,-14.512834830576292,-16.627661013385687,-12.964476370239698
902,-13.924951202365696,-14.925077153269484,-17.01124550147607,-13.179735757901243
903,-14.15695655193194,-15.329174895733798,-17.381812028726547,-13.396383270991043
904,-14.441795635559961,-15.663069436654675,-17.741328794113223,-13.56112630785506
905,-14.74205054768735,-15.926050875057085,-18.098803054487746,-13.759894917073384
906,-15.009103400787941,-16.13932052338589,-18.460875399184566,-14.078210531187217
907,-15.295453889550256,-16.32465690630734,-18.82316042724704,-14.49659933176242
908,-15.646049606893584,-16.504882779085097,-19.176785966780475,-14.95644665349162
909,-15.9537244515457,-16.68039493341977,-19.509743219132957,-15.361607122442974
910,-16.119644320569485,-16.841168008137895,-19.815678889278644,-15.633036045639717
911,-16.20619350423369,-16.997792639303363,-20.10905169452629,-15.827985351524633
912,-16.306071593494366,-17.157917555052055,-20.408510356217935,-16.03342238272173
913,-16.48003826905402,-17.291146098265248,-20.717701929722676,-16.226807061392105
914,-16.751258720040916,-17.38747744489621,-21.033340227333063,-16.376828332298317
915,-16.980626757266705,-17.451994371961213,-21.3506458507252,-16.52731335016721
916,-17.040412339527425,-17.545284109818738,-21.65987622902925,-16.720599907068127
917,-17.09737541315714,-17.674340493424985,-21.94827126258885,-16.971420965321276
918,-17.33101463743772,-17.833506611864014,-22.203814389591603,-17.269246769138356
919,-17.621513625931122,-17.999711898175253,-22.41450384013537,-17.524579567077424
920,-17.8046467689113,-18.14175948663508,-22.57384163881772,-17.655953773287983
921,-17.86482840154036,-18.258698898409207,-22.688961605250505,-17.713720987887932
922,-17.832245208397865,-18.351440377484643,-22.768415492983237,-17.772274382636283
923,-17.782380532432818,-18.378345634862548,-22.810628208354796,-17.82369101102316
924,-17.794473335972963,-18.30707285300325,-22.80899850237087,-17.836776891747252
925,-17.835546362114314,-18.156916130491165,-22.75170645664055,-17.78548072287891
926,-17.838440530533866,-17.963625618947994,-22.629688171511592,-17.64076391081165
927,-17.79397546846241,-17.77741054950012,-22.451079472353324,-17.396893884849412
928,-17.705691355199406,-17.61908464252818,-22.23030508370564,-17.067593101153868
929,-17.570474988330357,-17.457069931480273,-21.97077614949389,-16.653347590252135
930,-17.393897664722438,-17.227571681962885,-21.67515470211976,-16.17144121238002
931,-17.176187368523617,-16.930176752394487,-21.36137570269495,-15.708111617312623
932,-16.916001282537174,-16.634236108438497,-21.033345330180772,-15.332734886123397
933,-16.627393460749417,-16.375342652134904,-20.681956055261185,-15.006334746594026
934,-16.31226207120553,-16.11575176540817,-20.27151997407405,-14.66268630504678
935,-15.947186374459077,-15.839397376467305,-19.799627657041608,-14.259741783355116
936,-15.497675474144554,-15.518959846840643,-19.273812095882906,-13.779885046070596
937,-14.88917689522429,-15.153065198602256,-18.71352350389106,-13.29838374461311
938,-14.08504300849972,-14.750414147153494,-18.14189445852257,-12.889267660907405
939,-13.214883837095107,-14.29774773233286,-17.55736504867141,-12.461541224368506
940,-12.421628389279505,-13.784524624758825,-16.964512212003562,-11.921001067171217
941,-11.684664490943822,-13.220338591298532,-16.37450688461228,-11.357587586533025
942,-10.943926988431883,-12.62622903672198,-15.815772195835097,-10.881297023628175
943,-10.198315548958705,-12.03761023565319,-15.30290684815683,-10.486590450523812
944,-9.450670720647148,-11.488368271553092,-14.812727798870576,-10.137581644764174
945,-8.715037218009904,-10.988097951698519,-14.303087809793587,-9.790441351476256
946,-8.006109501787293,-10.529707449653976,-13.766562199520319,-9.401611328155813
947,-7.266014031722683,-10.102031228168517,-13.217426268731037,-9.006267581956806
948,-6.444803555546659,-9.68714755939256,-12.676884408935571,-8.647529655095342
949,-5.628518704757198,-9.250863643320573,-12.114550149986389,-8.252278105879496
950,-4.910627992411846,-8.771022344563956,-11.507548114787086,-7.752795520649597
951,-4.224284664673096,-8.275651307576615,-10.859927082696267,-7.230962399107477
952,-3.4918519914707984,-7.796816557931908,-10.20579862053696,-6.773496185731712
953,-2.803733163947343,-7.32281886862194,-9.553913542950893,-6.343770068258021
954,-2.2379332544298025,-6.828744015214647,-8.868392511588883,-5.880405693902935
955,-1.6750309285992453,-6.293218333332007,-8.12863202810482,-5.336332759479887
956,-0.963105282798395,-5.758909005576595,-7.351078113789824,-4.727604567778907
957,-0.2110706764539862,-5.358445103348691,-6.615877056744343,-4.21537610433589
958,0.47694802761394783,-5.142765176155775,-5.9761323833229305,-3.9618662144378214
959,1.0636302485374107,-5.020509677591525,-5.415001110384708,-3.8190134957078343
960,1.5614008564799005,-4.895335625578472,-4.921852038313602,-3.577806420942325
961,2.1028471109176787,-4.703649251845391,-4.496430114829876,-3.279652099998941
962,2.8062055566955397,-4.432739379298717,-4.150132395550946,-3.0156589139205097
963,3.5491897077156587,-4.102917382263058,-3.8657793801472358,-2.7832303640457767
964,3.926252689486481,-3.5891020213798646,-3.5030841858716544,-2.533502125542034
965,4.2437665447709545,-3.135112735290187,-3.115543199978449,-2.2418670300602233
966,4.593766647588305,-2.7720330892326936,-2.6967823850121513,-1.8353998491181054
967,4.963653019032739,-2.498603125051536,-2.26085734689413,-1.3871384641852949
968,5.321334624655614,-2.279464525693664,-1.8280369072047011,-0.9900031160485283
969,5.656770544482356,-2.0159386349849995,-1.4009626276036478,-0.585618813146589
970,5.96443491487892,-1.639435460521742,-0.9773306742911331,-0.0924969419076141
971,6.296250562030586,-1.1570173094443021,-0.5582978887045613,0.47360489826631463
972,6.7002747062109735,-0.6521244637266371,-0.14842352543114745,1.0637858292397249
973,7.097089208095481,-0.21715974290160647,0.22582445871009113,1.5997638487597143
974,7.385441805936601,0.14697757120174937,0.5399153209177053,2.009096511475195
975,7.574673041345966,0.5267970137196952,0.8158581915817203,2.3464540063310255
976,7.709106535791699,0.9600202431389908,1.0784970266655733,2.696077764873924
977,7.816346609673782,1.3749836337234682,1.3410005507786635,3.000300107821035
978,7.919355518693035,1.6648868286695198,1.5868505701386502,3.1833531600787977
979,7.986020601955378,1.828579872950476,1.8027016128251878,3.3108054042507633
980,7.976380435646015,1.907295519047771,1.9964663671196041,3.4626944210657973
981,7.954727271352659,1.9412127170390274,2.1696402549764326,3.6143903655207255
982,7.995351094478245,1.9704380146704579,2.3280849707636526,3.7170214490763738
983,8.047112133009716,1.9910427300038707,2.4687983197544483,3.725556314631606
984,8.034894156884086,1.9795048637920427,2.584243924875286,3.61308231619878
985,7.968909425841462,1.9419274474268742,2.67995998310999,3.475083926311561
986,7.8760952671079005,1.8947193826762763,2.7550911820834307,3.4219212388523266
987,7.766091313409145,1.848163922944748,2.803420713095962,3.37854512062723
988,7.646781051951839,1.8145351896213886,2.8099612022226093,3.242782453021777
989,7.463256570756215,1.806288759531993,2.776589797701874,3.090583651994478
990,7.171105058368474,1.8270820409614459,2.7396412332037765,3.0307560706339127
991,6.903713381759127,1.8725149672586652,2.742041259207144,3.0777740041303554
992,6.802241597119107,1.9302867168635534,2.7913607988534577,3.210299701085754
993,6.780155534129042,1.9643926723686111,2.8629680433582725,3.367453763446647
994,6.694761236088662,1.9468976944832153,2.9389320747777803,3.478317037681724
995,6.509375784377155,1.9118739182503095,3.013803451937131,3.5587779387543375
996,6.234900024929243,1.9060685118529046,3.0923848378834644,3.653220778945366
997,5.958802521622564,1.9273992254358814,3.1697820104454735,3.739396164753336
998,5.783509681158904,1.955835277328188,3.2417695402723194,3.7898237640231107
999,5.655784879010222,1.9725601043856211,3.3126174661473953,3.8318402969559893
1000,5.48404379013708,1.9606456586845913,3.385438649429602,3.8965096317344563
1001,5.322424739331766,1.931465006008025,3.4626792413258984,3.9942113100578016
1002,5.241222918507689,1.9055332842131625,3.542235868160195,4.118347019423013
1003,5.189610780110219,1.8743969773377103,3.5940437290132663,4.204947083402214
1004,5.098163749291582,1.8235697519903926,3.6006225442858617,4.190101086521609
1005,4.945114847357781,1.7642142702656065,3.5681191250772444,4.116890737933404
1006,4.730131814251221,1.7110852683742466,3.5365785714253395,4.053292324732317
1007,4.515585441797821,1.6544909569849873,3.520253272069199,3.98400052395348
1008,4.367654319646253,1.5988892604776563,3.490636609779052,3.879603169820195
1009,4.220029321383739,1.5392851779254397,3.4346990450050154,3.745885672699338
1010,3.9846513826954584,1.5157831024158825,3.372967997607494,3.5986810640579465
1011,3.714243764082568,1.5293784841861826,3.317657172581567,3.497410354803221
1012,3.4870725485377445,1.5692110416341616,3.249187444672083,3.4917636775320653
1013,3.2870909290283725,1.6002324120602593,3.135854937710569,3.4966098657991966
1014,3.0789988415713037,1.5858096214265172,2.9787694338967867,3.4081689416565264
1015,2.843796357322322,1.5350087799549623,2.792641214856103,3.2704728799049434
1016,2.569898986004248,1.4739382421768847,2.6047238552950196,3.1601903634194186
1017,2.307812573541064,1.408368973293662,2.4246283520977663,3.0748411931887962
1018,2.1097235171542157,1.3419813939948229,2.2519898015933086,2.988135124335145
1019,1.9134655955381408,1.2770993373469008,2.085593519263677,2.8494690538303726
1020,1.6376608403580455,1.2166162248268826,1.9205180530801567,2.6104456917804773
1021,1.2956286434590758,1.197329855441197,1.751232765248277,2.3293169530422495
1022,0.932517123907224,1.2482739221764587,1.574976353366571,2.0878455801042475
1023,0.5899063582696025,1.321150981556226,1.3907136820969777,1.8395097896621553
1024,-11.62318594658808,-13.82032886909725,-13.391086198269871,-8.469437764776332
1025,-12.042645524728254,-14.254144587219761,-13.674330714071806,-8.793128892223743
1026,-12.518394169311364,-14.655485465536458,-13.924778905571703,-9.063729511462792
1027,-13.001169828383892,-15.020549580398242,-14.16724030458249,-9.277215402029729
1028,-13.430118366691163,-15.344590819308246,-14.4257088016022,-9.449532225516373
1029,-13.861502143507934,-15.635309252714608,-14.715819431416257,-9.658989453053275
1030,-14.35275839026819,-15.901223109884372,-15.04217729432738,-9.969374735413679
1031,-14.843447436942753,-16.12299208802396,-15.377675593080628,-10.303216287471864
1032,-15.26613879752659,-16.286883933712698,-15.697511322805836,-10.572496352813735
1033,-15.624870317199287,-16.434925543042876,-16.02786342500225,-10.829809793621752
1034,-15.944181629526538,-16.588404559932258,-16.398790196987658,-11.145401043500483
1035,-16.278010797225644,-16.770188618108516,-16.799995843369114,-11.511222000381617
1036,-16.66449823678362,-16.942363972243427,-17.207364177420622,-11.900163640151515
1037,-17.017026950302363,-17.023309686149602,-17.587979611569832,-12.262602692530729
1038,-17.242960474598895,-17.018472065957695,-17.913004402958997,-12.552908207148915
1039,-17.397198379748907,-17.03062614448706,-18.19976912077156,-12.831507144913527
1040,-17.554293523215616,-17.114276689215938,-18.470908819069955,-13.157155296604964
1041,-17.695157618872678,-17.22279986544063,-18.69251878849708,-13.415502025591177
1042,-17.78784722909581,-17.298277712627243,-18.83362613992905,-13.497177819155736
1043,-17.807706747720886,-17.33112872582186,-18.926539203881077,-13.502594695202763
1044,-17.74350043684816,-17.362711818435926,-19.013526143594053,-13.55075758209215
1045,-17.68175229374135,-17.40512363382212,-19.109805684876893,-13.617002330333914
1046,-17.693572318267634,-17.407871673083914,-19.21763926896511,-13.646962629903047
1047,-17.670139173350528,-17.355588526184246,-19.315926586191786,-13.588512401128076
1048,-17.488234452257263,-17.23931449106418,-19.378220273458346,-13.414298279144685
1049,-17.169598945667005,-17.092651333847623,-19.41160645170531,-13.240447688045997
1050,-16.782873504300667,-16.96045404878061,-19.42624078481067,-13.186764938763435
1051,-16.40273617613338,-16.85205157730321,-19.40053451914344,-13.177216001411109
1052,-16.095032715625496,-16.7593582064055,-19.311817393964024,-13.106918329208044
1053,-15.827607124840249,-16.670117732518886,-19.155997166398368,-13.008754067218788
1054,-15.54477090596712,-16.564685866181268,-18.939389922910422,-12.934262435420155
1055,-15.29593392223954,-16.430777907411127,-18.68583588605051,-12.881187372161074
1056,-15.126353881478792,-16.27590836622856,-18.42000866581363,-12.840750274456147
1057,-14.948526099140922,-16.037601983300444,-18.139385539725822,-12.78780164678052
1058,-14.676708686529992,-15.726007297608597,-17.834255182938616,-12.700054021498918
1059,-14.351064091703801,-15.398987242897944,-17.509578894725117,-12.614820889844124
1060,-14.031947764777778,-15.115514611571195,-17.171604806967704,-12.574195521712578
1061,-13.73560203607201,-14.853037085426633,-16.821391486849585,-12.56117358704321
1062,-13.459161702063696,-14.566531474489741,-16.46082168120531,-12.543235263703957
1063,-13.143251564795106,-14.231922133931866,-16.089716445553552,-12.501991589108027
1064,-12.737679770496237,-13.83984044829789,-15.71057966457622,-12.420044044290911
1065,-12.31406446993195,-13.42332786689793,-15.339767017895694,-12.298562244040266
1066,-11.962231891893026,-13.017947471856903,-14.993788384685315,-12.142417733602796
1067,-11.678469820647575,-12.597891169705566,-14.671340427395982,-11.907904972999155
1068,-11.43214531784087,-12.122773709912591,-14.366494091971475,-11.56772282030069
1069,-11.211346952711686,-11.583851635367335,-14.08236700458114,-11.201199044796041
1070,-10.996509599887393,-10.979814937408827,-13.817664278481145,-10.888938155045102
1071,-10.759493422108038,-10.30956731010682,-13.558975049105031,-10.612598040780703
1072,-10.480712664148218,-9.58023578518276,-13.287291419019683,-10.32257813196515
1073,-10.155041355779968,-8.795280015178834,-12.97694928924727,-9.966095590058096
1074,-9.784049130849796,-7.965721627852604,-12.607423807375037,-9.507357570892404
1075,-9.369305723254275,-7.134415851690411,-12.180611125120889,-9.003432092570012
1076,-8.913868028529167,-6.343083398274674,-11.707843222940069,-8.528553319647592
1077,-8.419108931343436,-5.591779260447416,-11.195108934969996,-8.055955178925222
1078,-7.884475669767414,-4.869279388882459,-10.648183980782155,-7.551359503290392
1079,-7.315749060791345,-4.186978522403718,-10.075540412099683,-7.079731325487121
1080,-6.710629802452936,-3.552199756465108,-9.482647026923516,-6.700851894671899
1081,-6.042929591081489,-2.9418211283167044,-8.866970104608427,-6.3780345804610405
1082,-5.286991052010954,-2.3331053265913457,-8.225851696723437,-6.062027553820963
1083,-4.428933704775366,-1.7320820166769166,-7.5650213131965955,-5.735146664388009
1084,-3.465468317286713,-1.177747307573008,-6.946706812380744,-5.453616914723583
1085,-2.6162481892768747,-0.7212660880234534,-6.420596542248139,-5.3293088057024
1086,-2.0419120349264466,-0.41274237921105295,-6.050555525007962,-5.4692500907028405
1087,-1.6926002026610871,-0.1746736294098014,-5.768990856864245,-5.645469394822414
1088,-1.4210078777536006,0.06546677014687041,-5.47058515674978,-5.581474271340608
1089,-1.0877331152970946,0.3129552958025145,-5.159921122331882,-5.357290238795972
1090,-0.5964743010718868,0.50514662232162,-4.871895341337106,-5.134721175890109
1091,-0.029394737404671946,0.6156949483524248,-4.60280599382063,-4.891838388233996
1092,0.4395697498310667,0.9666575759803959,-4.4053068490651945,-4.542321907897995
1093,0.9046755955091684,1.33507946381549,-4.2097267096545705,-4.175952672421432
1094,1.454403134188154,1.7179265123177876,-3.999074574617582,-3.8162105144605865
1095,2.049873020700972,2.0900065050226813,-3.7784723446740127,-3.514389262038266
1096,2.629957893701628,2.422250758543285,-3.5575948518770426,-3.3035474358810446
1097,3.175787880841578,2.6951486304606753,-3.3261192219301257,-3.0961321769240517
1098,3.682311362477489,2.903977318693203,-3.0749514228752846,-2.7916959497821945
1099,4.196575370607938,3.068549883939309,-2.8227359602642226,-2.4186254354955268
1100,4.771469096826405,3.224383500945609,-2.590675502461581,-2.045864981084943
1101,5.35197863587557,3.4063495600194074,-2.3750841744816054,-1.7166412031942975
1102,5.864551659056588,3.6381820216619833,-2.166154039366924,-1.4552980161750617
1103,6.350912411634275,3.9350945281339977,-1.9605229378242437,-1.1997023455686404
1104,6.8680292919577814,4.285179520091114,-1.7599437216615446,-0.8767594102142503
1105,7.382332532986675,4.6086014356743705,-1.5830703470144203,-0.5546250694808591
1106,7.840791153928775,4.825288724716673,-1.450854097666165,-0.3310960720213067
1107,8.211053299624881,4.943657608062121,-1.3606123528469176,-0.18562570146305574
1108,8.476282117953323,5.010726481010614,-1.3003422435095304,-0.07382271932347706
1109,8.68219109400095,5.0724787177922135,-1.2656791414687314,-0.009823780437476896
1110,8.887394930935502,5.16619763931171,-1.2519464135351213,-0.013735039495056254
1111,9.067359859753758,5.265242588857813,-1.2516693936155223,-0.1041766454344222
1112,9.181817482601437,5.325637937800663,-1.2585283980989987,-0.29138292402331534
1113,9.25340992110462,5.375170208344621,-1.2626942286497007,-0.5085845733228398
1114,9.31790320035464,5.43787214870655,-1.2556287706144769,-0.6780127835770066
1115,9.40572648304702,5.5353029669231475,-1.2457888657900469,-0.8467389908657992
1116,9.534564752442394,5.621453726886341,-1.2407549358610788,-1.0722608073170072
1117,9.642826027486471,5.671660308970968,-1.2186195316087791,-1.2519705054376398
1118,9.662248157739924,5.664745391644043,-1.1549979496223712,-1.2712888600166297
1119,9.652012664522555,5.6312267957712105,-1.0521495883245338,-1.164564348542144
1120,9.692765840190704,5.611962322315719,-0.9244373169200567,-1.0111537688950427
1121,9.74642241506834,5.584418144481939,-0.7957473230979829,-0.8815562707370466
1122,9.75229718688052,5.510083103297028,-0.6884915719767986,-0.8289866391038535
1123,9.713932771316312,5.386256646213066,-0.5914833384634162,-0.7757521200400042
1124,9.649012464326407,5.223255522312126,-0.48587074731820334,-0.6293618127754799
1125,9.587865763947825,5.0379523849549015,-0.38693177119016126,-0.5043032014807236
1126,9.558240226413028,4.8512364451296905,-0.31604619765051445,-0.545298024820896
1127,9.496775336779294,4.670142996751849,-0.270460371761193,-0.7017091104476385
1128,9.333374198884954,4.4908431513960245,-0.24132266078339648,-0.8737267943816619
1129,9.152993240240752,4.306633539257363,-0.22481786677270194,-1.0357150327988114
1130,9.055571937932816,4.111163844353474,-0.21677419980023477,-1.1791808737089498
1131,8.962604090939339,3.897301507744986,-0.2168741466202358,-1.32777849791695
1132,8.767054758332028,3.6673588960283383,-0.22737270625595007,-1.5114574432828611
1133,8.48466046958035,3.4582945149633915,-0.24157630083558848,-1.6681611270314307
1134,8.165564470172445,3.3049131230889737,-0.2528669576420793,-1.7232416119329959
1135,7.8680520105433285,3.1866774413186447,-0.2748857615495137,-1.7040493423341023
1136,7.641362181150547,3.0681448898306334,-0.31860669705438904,-1.6674258345945867
1137,7.4022790322737455,2.9355039855402834,-0.3616288578379074,-1.6330613225209443
1138,7.05381465483856,2.789872631588519,-0.3757342568212696,-1.6101592473541952
1139,6.7057631324115246,2.6700787610631327,-0.3514894894444196,-1.5928557087610016
1140,6.495167009203301,2.6173088199527346,-0.29446387448722733,-1.5654726119958715
1141,6.356373975315924,2.6053801050076264,-0.23638142859032207,-1.540684520911298
1142,6.179281114233507,2.589409594794357,-0.21532912672509363,-1.5372021955729185
1143,5.949206850758046,2.569619696014394,-0.23718787278370337,-1.5364465994899383
1144,5.680846724292222,2.5568379256909575,-0.29403772599583783,-1.5210479923589304
1145,5.422842325716595,2.545757351745415,-0.39186587895921504,-1.5197063230247185
1146,5.23315793778997,2.531158889009239,-0.5308240504007463,-1.5650690490530328
1147,5.071482126107814,2.507641124262184,-0.6887883462215603,-1.6691549119563447
1148,4.877099635765238,2.4679549792253916,-0.8403950116917789,-1.8236468870775873
1149,4.7060059108961125,2.417318917989285,-0.9650305668523141,-1.9502990627425687
1150,4.625212323218422,2.3629492941430392,-1.0508816930502,-1.973006266159149
1151,4.584392308634937,2.283137771617376,-1.119148894912954,-1.9570236838971942
1152,-4.6556650203265395,-9.989022491004677,-14.029079343306071,-11.908858638820366
1153,-4.557962639436568,-10.486754041477312,-14.418188394976927,-12.257786915294528
1154,-4.569439526220843,-10.96001104892667,-14.810071829091763,-12.505028711649326
1155,-4.599607858204009,-11.390080696976325,-15.209716582035755,-12.689091209922369
1156,-4.539386386422274,-11.762135604390513,-15.624594682051823,-12.863548263571651
1157,-4.4694604021497755,-12.046348592279056,-16.057106605335765,-13.026231430185918
1158,-4.483395691236534,-12.226605433541524,-16.50599197401226,-13.163285209196198
1159,-4.503791258578863,-12.311602668694178,-16.960134263813085,-13.240423113174229
1160,-4.4459809991093575,-12.33840140157854,-17.405052566284034,-13.2325147370617
1161,-4.348600633538311,-12.368984684090053,-17.837294081932544,-13.194254152070426
1162,-4.267077740452009,-12.461573867586248,-18.2553281349773,-13.191548651281972
1163,-4.228593196511173,-12.619827799521886,-18.642669690740938,-13.219833590114431
1164,-4.247373440387818,-12.785771128557835,-18.990719533221707,-13.259871885364738
1165,-4.261227151257071,-12.897604303752706,-19.32538524737719,-13.314964247328057
1166,-4.217541298930261,-12.96609220485197,-19.675714552326756,-13.387306025893494
1167,-4.225790638149572,-13.062933264652322,-20.04609194068288,-13.499293317599433
1168,-4.395949116525394,-13.226633911589111,-20.429404277777415,-13.66470003224617
1169,-4.656266646294753,-13.437177951335899,-20.80835679052016,-13.803725325764102
1170,-4.902784004751482,-13.64839430041442,-21.16485370953631,-13.851574691370892
1171,-5.113110192412785,-13.843794834536133,-21.50206241522967,-13.906175419410637
1172,-5.2878763887534035,-14.021164809321474,-21.825920603990436,-14.069500484220947
1173,-5.468290099698376,-14.195947689886323,-22.126396900813855,-14.302287776682
1174,-5.694245685056027,-14.390379371730114,-22.38956814922851,-14.523659123181652
1175,-5.890332981297513,-14.605076560579821,-22.596361776705532,-14.637950605916236
1176,-5.98623105298303,-14.83060532210076,-22.73569743197741,-14.583839948008855
1177,-6.055140566893077,-15.066556520396642,-22.834389532379532,-14.477004164816208
1178,-6.193658410978736,-15.306747077131558,-22.923186097363857,-14.455506319686286
1179,-6.4502038845269345,-15.519823264409823,-22.992249948075738,-14.4648776870675
1180,-6.82923733353646,-15.685543906475392,-23.02666370312801,-14.42423639892744
1181,-7.209280882793456,-15.795754038491557,-23.0411761230334,-14.390284641310817
1182,-7.4677794171317515,-15.868813667302103,-23.053878100807776,-14.424125877827098
1183,-7.678165466020685,-15.908163050119814,-23.067363907978724,-14.507193116161114
1184,-7.940956265799711,-15.891686086723988,-23.082705468077346,-14.605272382063408
1185,-8.199651065851421,-15.826380081878444,-23.105602951912847,-14.665312026836734
1186,-8.377397182083396,-15.756378509584117,-23.137501838122702,-14.642357845805634
1187,-8.47514047411169,-15.704788145007825,-23.174714155083898,-14.598708528490858
1188,-8.502261412066087,-15.653914762724694,-23.209251239746166,-14.595155935889055
1189,-8.477286539874445,-15.585710996520076,-23.22009373940574,-14.523702185634765
1190,-8.4254734753695,-15.47718239450971,-23.18932698078845,-14.277764069808166
1191,-8.282231130198017,-15.33085206399434,-23.128228762528956,-13.94171165575812
1192,-8.01288173999897,-15.160441520677214,-23.04875129562489,-13.622849309589697
1193,-7.824512744573727,-14.972997797979474,-22.931805103466225,-13.316612560839916
1194,-7.90084630808341,-14.773213702927062,-22.75380264477167,-12.995692983592036
1195,-8.098063398051048,-14.557329682663084,-22.505718047797544,-12.62141856082253
1196,-8.213109342778788,-14.319182108159008,-22.187157208682578,-12.173363479638496
1197,-8.20536485514691,-14.069256988363344,-21.812695330929678,-11.76136616215285
1198,-8.09502563273726,-13.815630748844963,-21.400558152561448,-11.495810545510581
1199,-7.97374904972216,-13.537759343904568,-20.95309017085183,-11.314392447163362
1200,-7.94617905134524,-13.216456031907486,-20.46869649855931,-11.121941733062894
1201,-7.962314110168315,-12.86064147406579,-19.950713864613768,-10.921923538219437
1202,-7.947858770967627,-12.486765435928582,-19.40256811148248,-10.732699968578286
1203,-7.981532560989246,-12.114104440162425,-18.836066675464025,-10.547903774900648
1204,-8.140770834833932,-11.752713772043467,-18.256132303173544,-10.363596743363633
1205,-8.364655443139425,-11.371988796581094,-17.63570776984805,-10.155249315068362
1206,-8.572943971031455,-10.948076903283633,-16.95831305538917,-9.900129335335878
1207,-8.729362409593227,-10.47107982233145,-16.189281840028578,-9.63463112401
1208,-8.820215012106688,-9.971989668095816,-15.346335557245094,-9.38996301184805
1209,-8.907775024030327,-9.490050041228002,-14.491847666819265,-9.118288640552132
1210,-9.051049864739651,-9.033932262706285,-13.645868776086186,-8.762053718955908
1211,-9.161727943030932,-8.607509987246196,-12.803506319757297,-8.303027621143142
1212,-9.146519371600176,-8.233023003906963,-11.986572623023108,-7.8060887760250015
1213,-9.17911486095919,-7.981924139478578,-11.28917342237236,-7.368417909971049
1214,-9.42088609000353,-7.869726819801811,-10.745905698586872,-7.115655671795698
1215,-9.7960230458493,-7.815758346725493,-10.312277814008993,-6.925065390170575
1216,-10.170503848180022,-7.717090262686203,-9.900874522099539,-6.637848186642053
1217,-10.522753091413527,-7.551950361582464,-9.519515912853333,-6.417242786299325
1218,-10.864040420993904,-7.363958870399025,-9.178220562348852,-6.433454250905075
1219,-11.253414246869504,-7.194559533696864,-8.85085947463157,-6.503255285904017
1220,-11.65043151016482,-6.949199119324132,-8.225931944741209,-6.03090945818313
1221,-12.11428166325783,-6.715058683035159,-7.574577973548013,-5.4532547048899955
1222,-12.53295071763937,-6.505493740717702,-6.90694981630243,-4.861270034530664
1223,-12.888124475094017,-6.377046979193508,-6.262866380834283,-4.380302821796357
1224,-13.181557012943916,-6.339165956703727,-5.679480768850222,-4.1110514165878085
1225,-13.379826636801523,-6.338717785338472,-5.143819058531938,-3.965193349506835
1226,-13.465928534742817,-6.2988053732409,-4.625743804828491,-3.7972291042704778
1227,-13.468237136505326,-6.1954615096371555,-4.114564981557491,-3.6120596498198965
1228,-13.42446428825542,-6.0358719832735845,-3.6086400038051405,-3.4545446044448966
1229,-13.353141231349836,-5.847383604235659,-3.11546982108408,-3.291461877539788
1230,-13.264210711157505,-5.667323108752929,-2.649801834561119,-3.095295477967026
1231,-13.161973939756741,-5.509001559256295,-2.2198739075527305,-2.8906468501931477
1232,-13.043540629915197,-5.364221094013864,-1.8260644137021722,-2.706224378915013
1233,-12.910313335902835,-5.221305619636233,-1.466489028245741,-2.5807652998743698
1234,-12.761367919528645,-5.049816969835051,-1.1315810209520367,-2.5284176280054442
1235,-12.583467518539953,-4.8192668213417384,-0.7895853941810238,-2.4429826088709374
1236,-12.368632737818787,-4.492949867948002,-0.4129592915609052,-2.208692434108557
1237,-12.112365756845987,-4.07687497337091,-0.018024125286123932,-1.853582184227728
1238,-11.828299671190097,-3.6266441110525283,0.366862364745705,-1.459956383043674
1239,-11.60638180587377,-3.1807787471390747,0.7388737344705905,-1.085337101355509
1240,-11.527544373667366,-2.7399437186916673,1.1044726736330406,-0.773672887571377
1241,-11.53104336729393,-2.303222982584839,1.4721487397584032,-0.5072411739965603
1242,-11.520904364111798,-1.8892711215276732,1.850990334364567,-0.24246035636893537
1243,-11.480445243095174,-1.5145995746882748,2.2358527700702298,-0.008189107240982069
1244,-11.426219626880162,-1.1996760281930752,2.6149694051338472,0.15968035639319791
1245,-11.409873323902675,-0.9485331444963154,2.9841458515433312,0.3177013719538993
1246,-11.47727623244249,-0.7549683471977524,3.341657760527357,0.5238757033583595
1247,-11.568718661129319,-0.6111967727526925,3.683658465707587,0.745102312603336
1248,-11.589430497626541,-0.5046632899088181,4.010377079996387,0.924260957723666
1249,-11.498105575518425,-0.42552606079150657,4.328598275755241,1.008988042234176
1250,-11.285426352094632,-0.36380055252179794,4.647688438591509,0.9715720019879006
1251,-10.978724782958972,-0.28647537619931474,4.980280478676382,0.9057364801478772
1252,-10.626205688499066,-0.17599237771575665,5.333518685183358,0.9224925757524526
1253,-10.24888025516649,-0.05116918722902267,5.694003711958648,0.9652380957052887
1254,-9.851549108806461,0.04260743019290196,6.039387240102109,0.9422698384443056
1255,-9.441783547001117,0.08578865901124308,6.358161896571493,0.8992942074158099
1256,-9.02063625612984,0.10847019990910917,6.641740316634755,0.9019534060137594
1257,-8.578272287201743,0.12699378651472168,6.869838022524278,0.9353916311505608
1258,-8.109534847477004,0.1616174226396611,7.031342654636489,0.9720218816406758
1259,-7.628931772516324,0.21274866159875735,7.14871683472341,0.9754121745320637
1260,-7.156781819490872,0.2711065792302385,7.253984234434687,0.9245214271934191
1261,-6.71234523912462,0.3464266196243684,7.366301570755668,0.9274803562167133
1262,-6.311174441854724,0.4472217738513803,7.492786446779665,1.0988428903998269
1263,-5.926788768216969,0.5618738001983818,7.61852781213751,1.3556037924152546
1264,-5.529709414315846,0.6705753701538567,7.719687277940555,1.5714452537955306
1265,-5.199699596255726,0.7446407038543268,7.7891548273621565,1.7632935706970216
1266,-5.009338821399218,0.7638367033818396,7.826714033037486,1.9806107679703482
1267,-4.815527752682003,0.7468438138673715,7.828085798755465,2.2281015675400213
1268,-4.459509277087062,0.7311895665765868,7.791862620621109,2.5024742280616783
1269,-4.032620159929286,0.746011884145021,7.7180859647553515,2.75459263359313
1270,-3.682608536905536,0.8143162954940916,7.609521090199793,2.932853818376742
1271,-3.4299169504292,0.9527434846762719,7.4824092182767785,3.104893565449431
1272,-3.2496900019150274,1.1618776474851826,7.353297987279356,3.3526243230218964
1273,-3.0615233860312885,1.4168527364062151,7.217636595551997,3.6098715770031498
1274,-2.7797272188601987,1.6820483958721197,7.066547149178627,3.7853961841159713
1275,-2.4853522546669944,1.9370816237772912,6.906794372040961,3.9062947518088365
1276,-2.294531469300433,2.1623729997579004,6.748919779009631,4.02175224748572
1277,-2.1366649133329005,2.3190344193450403,6.599568046453199,4.129314231754243
1278,-1.9139410024957833,2.377108595526313,6.4622346568249815,4.2134382544738
1279,-1.6976849587387968,2.3296197040154913,6.3299333091098635,4.233838941109905
1280,-6.264525621274989,-12.35855411212189,-11.175329987748617,-9.812175080929686
1281,-6.541360132757909,-12.666557838385076,-11.561288327912484,-10.115598059049605
1282,-6.804726393461371,-12.994820913640002,-11.945768164937105,-10.290645521620826
1283,-7.005591552421483,-13.305575383447332,-12.336755097339237,-10.419048220989183
1284,-7.111838651965546,-13.576150824495109,-12.738878683125007,-10.607396340530551
1285,-7.235781111187708,-13.802690007556148,-13.151824641145621,-10.865945559594653
1286,-7.487686086160602,-13.969695631749879,-13.561452437305778,-11.16816507586252
1287,-7.801511812519316,-14.060225564387634,-13.949081346283942,-11.444855225917417
1288,-8.08466866972691,-14.10367574244349,-14.307659068991768,-11.629277440398601
1289,-8.346366653500631,-14.166218773719784,-14.638039060687506,-11.75989041066142
1290,-8.61232612074649,-14.268579038989259,-14.947954326753393,-11.90071359154882
1291,-8.91135545546573,-14.39690053671842,-15.233953501836737,-12.040411560468291
1292,-9.257569674502001,-14.52134195397156,-15.501693370352333,-12.156408336959773
1293,-9.542892997139722,-14.65342189102461,-15.764611802637008,-12.271876009309583
1294,-9.669397789879687,-14.80530761959221,-16.044138410076773,-12.399149448240705
1295,-9.749768336919693,-14.954852526503245,-16.34015165045868,-12.500876850344161
1296,-9.916050846045394,-15.075337278668613,-16.6179219582315,-12.539892604223398
1297,-10.105966303871654,-15.139114037372982,-16.83546127235138,-12.503639979131796
1298,-10.23808443794852,-15.137986483356483,-16.978300365920763,-12.402166273274357
1299,-10.35135196849093,-15.126453847236117,-17.073250422611395,-12.300434061626662
1300,-10.495919278917528,-15.155394916300718,-17.167644069236324,-12.259245423158726
1301,-10.708568434381347,-15.268205179834945,-17.2875897301847,-12.246912086658465
1302,-11.000599359010696,-15.443179581328932,-17.420970504672344,-12.216925550948694
1303,-11.244959489349439,-15.616469665803724,-17.539468157267773,-12.1860911662959
1304,-11.326857086337718,-15.753290219918846,-17.642487376580046,-12.182972774724943
1305,-11.370972488633704,-15.827484538510983,-17.759844923115857,-12.227975260250476
1306,-11.525766961444239,-15.834358239402507,-17.904801100515527,-12.33196767467915
1307,-11.729212243687941,-15.768718247478997,-18.059795185460768,-12.44967607324832
1308,-11.889636787564015,-15.637907492866963,-18.203656630332965,-12.53185861541081
1309,-12.01967600371793,-15.477035165637444,-18.332431512141785,-12.61836156563252
1310,-12.147502872469026,-15.32150581588471,-18.462463988645272,-12.746751080744614
1311,-12.311931571587504,-15.181631935315,-18.61194026336455,-12.844716501653727
1312,-12.542526493420674,-15.052598258499824,-18.79004083091447,-12.84009759006773
1313,-12.75997460941731,-14.924517005376202,-18.965760740320828,-12.745191671355391
1314,-12.884712359024958,-14.783998649437018,-19.07520384176458,-12.603501614281008
1315,-12.985457173055549,-14.607305655126055,-19.12261688647857,-12.495769716127775
1316,-13.139503049994225,-14.387774918148065,-19.18842188348431,-12.477083512308285
1317,-13.318701852024066,-14.17462619290933,-19.289398803699644,-12.460018951890476
1318,-13.462423626177635,-14.005157247896225,-19.355206054834902,-12.335084310399495
1319,-13.463002250719914,-13.901482883446173,-19.345674947117477,-12.09337913209406
1320,-13.244957717630859,-13.822147173540293,-19.280072348962356,-11.765476930055296
1321,-12.948285315855628,-13.692166339984992,-19.180944523233727,-11.409316375510137
1322,-12.719819350884803,-13.47135844944279,-19.053390324435032,-11.066625926393304
1323,-12.45199276969732,-13.223629947878905,-18.9095039627902,-10.673860718718021
1324,-12.001377067051136,-13.066525752235393,-18.7734226749933,-10.133718956899314
1325,-11.390911375983443,-13.039276307660781,-18.688533838115966,-9.424138884725734
1326,-10.701285999522733,-13.090961404979131,-18.71090754369537,-8.547922003768916
1327,-10.002127826840175,-13.162116980948031,-18.705999654976218,-7.605004477083402
1328,-9.413873241880786,-13.21656570992414,-18.347036130246366,-6.718201744237008
1329,-9.103589781183368,-13.186830196964605,-17.48075330794871,-6.1899232321637765
1330,-9.200403975609316,-12.948799010985265,-16.21076079155835,-6.413654390048064
1331,-9.79276643115241,-12.446212710999374,-14.761909645412947,-7.3016780178252505
1332,-10.751606914371413,-11.697780559230964,-13.37229442300934,-8.265675040851246
1333,-11.887512736631898,-10.807618237311718,-12.157897046630692,-8.990178057859914
1334,-12.792125420315452,-9.938738971261508,-11.12183702707398,-9.215630322921013
1335,-12.902320630231445,-9.236504016814166,-10.268747551066943,-8.876307459788578
1336,-12.176212456049884,-8.706016375255631,-9.61570360826018,-8.047122946450319
1337,-11.128378230293277,-8.236795992559168,-9.040086432282076,-7.062003748499204
1338,-10.234882056149711,-7.774018966748115,-8.298341571814207,-6.162232004230507
1339,-9.953080409578623,-7.358019831843867,-7.3344799734202715,-5.602445197988101
1340,-10.780033309448214,-7.035605071662012,-6.358568722594935,-5.838735484965022
1341,-12.636151228494475,-6.878859617203457,-5.537358050411064,-7.041101547521315
1342,-15.143661335110195,-6.891458012088572,-4.8109707698794155,-8.944152276641432
1343,-17.697488370870246,-7.064643267048526,-4.1297219638907965,-10.998128411364695
1344,-19.690937270486533,-7.349862245567199,-3.618074232077516,-12.640240825736278
1345,-20.856592120316673,-7.710013033644218,-3.3797477511668466,-13.652636397909992
1346,-21.23183703377072,-8.14645905682516,-3.3328785052258003,-14.19281913715179
1347,-21.089988717399187,-8.68754241683267,-3.2732962005883715,-14.534698663418016
1348,-20.438669541144307,-8.096391451041557,-3.300094023835719,-13.92780268843148
1349,-19.750943721398126,-7.524050923664177,-3.345505202657298,-13.294876485027931
1350,-19.041696882525116,-6.982958394335012,-3.4223661105918777,-12.647066439558264
1351,-18.32638587513851,-6.482127405417009,-3.5199812089625477,-12.022774654084923
1352,-17.607616158731446,-6.024051520244,-3.6191071145428664,-11.463772455975702
1353,-16.871918203623068,-5.588889445317437,-3.708640796252516,-10.909040296141121
1354,-16.1157960885236,-5.152258881586334,-3.7865182321860993,-10.289889514421828
1355,-15.358713753150779,-4.714850180721256,-3.8698196797856825,-9.709445972543534
1356,-14.635167455651267,-4.284622923704399,-3.9757003623777982,-9.2810697112518
1357,-14.029033462826819,-3.8570464254889028,-4.113847438705597,-8.912794845109842
1358,-13.597150578949229,-3.4251478262022217,-4.274216731095174,-8.472403020163547
1359,-13.225129179524531,-2.983862328420876,-4.436759649247805,-7.946371165682985
1360,-12.766333803928354,-2.52937713215985,-4.5918185875392945,-7.361580079129104
1361,-12.23211717026703,-2.063615224303231,-4.744536230523673,-6.7799989300686105
1362,-11.684033413868555,-1.5947965674186682,-4.886542924191646,-6.262089557839688
1363,-11.132978279222991,-1.1326119080266697,-4.989123455058964,-5.7291284841484105
1364,-10.588155956294807,-0.6869961187558494,-5.042844207672596,-5.076851445886996
1365,-10.045937241895695,-0.2764970894946293,-5.063618484660533,-4.359804163339448
1366,-9.495508707721175,0.0923535131349989,-5.0669313888891665,-3.664536964884067
1367,-9.003404955891913,0.4547057009163974,-5.040455823128394,-2.975766498858121
1368,-8.631000333536067,0.8536993786229894,-4.956882112732132,-2.261456343668149
1369,-8.269300427931391,1.310572512659569,-4.817628545539415,-1.5025335511701912
1370,-7.794777386281798,1.8235858546618333,-4.66122689664088,-0.6975720299017438
1371,-7.295637528930622,2.34127924982662,-4.527832683166081,0.04343584062581507
1372,-6.892637209672827,2.804646427387109,-4.446308632773978,0.607629539115591
1373,-6.544339824727066,3.2250643661038154,-4.406156027699796,1.069541117559106
1374,-6.171093317283141,3.6264443763029295,-4.367206450908091,1.5482614866700288
1375,-5.711868485208947,4.029694089973441,-4.309247226565217,2.030500552857169
1376,-5.13233609669682,4.4257253409212405,-4.243879052226034,2.4735137738153945
1377,-4.560284855364395,4.8187824721923285,-4.1838396554193595,2.877283242240099
1378,-4.139322186743369,5.241734936045301,-4.128419475182148,3.2482920481858883
1379,-3.75911782820099,5.700678700775405,-4.078763059314881,3.6335390672208634
1380,-3.2641572356415414,6.143862942141453,-4.031481789018609,4.0788613501184985
1381,-2.7148969618914216,6.506401209150244,-3.9938383017701784,4.515523083085599
1382,-2.222817582498651,6.76868436391128,-3.9773180509002075,4.858710543564148
1383,-1.8228422122110912,6.945094230484583,-3.9837905036084673,5.155465264968472
1384,-1.5233883704245215,7.079532502435953,-4.013988327324597,5.477794135578901
1385,-1.2671199955834953,7.199063853494714,-4.080477487899661,5.808195667887329
1386,-0.9780091286101179,7.321863998344452,-4.186904685415608,6.114663859224705
1387,-0.6901517368743076,7.467805212522085,-4.3254113461139,6.380502512118184
1388,-0.4603760084312628,7.644709203418553,-4.4692280660766395,6.603217366700902
1389,-0.24832813148596333,7.8417573539467895,-4.578158753912769,6.87635929285279
1390,0.004058713323057739,8.042441906954599,-4.6287651464246125,7.287886949761415
1391,0.310882632675211,8.2311296644579,-4.646961145093234,7.735636183174828
1392,0.6704768131484664,8.399706298017168,-4.686650562462252,8.079494548012356
1393,1.0461329005721025,8.5648459085014,-4.772410565791614,8.33477258111909
1394,1.3972282551641775,8.746573713640519,-4.887569507446481,8.562595105176158
1395,1.7639154248774318,8.938387917649104,-5.0113025888576095,8.78063187119144
1396,2.1976751899405547,9.123394063189783,-5.133889387568695,9.004531296643709
1397,2.656375592936386,9.285624719882822,-5.250532296420979,9.226462658679155
1398,3.0793694016289654,9.415619949111916,-5.354319866372997,9.426413666926539
1399,3.4667790135513794,9.52831905905499,-5.445142839944466,9.656207614429803
1400,3.8302375318736486,9.648335980617247,-5.523218414684438,9.963445259581063
1401,4.174929112347231,9.788421666038902,-5.593585452998071,10.248806558264572
1402,4.504479684288314,9.958008144712469,-5.659795013134485,10.405432209756624
1403,4.763972940566892,10.12231762914377,-5.7118308670186755,10.501530609221465
1404,4.907876963260378,10.256674671474487,-5.741731401213823,10.645395105849731
1405,5.040947524916755,10.352738032506142,-5.745790539255298,10.859318461014142
1406,5.28464735387053,10.38846192013453,-5.735017625749005,11.128450936900746
1407,5.588994858180682,10.33698395034301,-5.72752957401985,11.387963893203898
1408,1.101322981754084,11.039292978262143,-17.791178260058068,2.923649195291466
1409,0.8651824407232351,10.753481955481114,-18.048581260354386,2.4555469902332994
1410,0.6214589901614586,10.435037826864287,-18.25964107838758,2.0639430702673645
1411,0.39424181238478784,10.076875825658332,-18.459176544986764,1.6924481399883324
1412,0.1969577434924876,9.651172657443071,-18.673920328675916,1.2723382276775177
1413,-0.03127420135914871,9.146286715488204,-18.92808765241211,0.8081298690803864
1414,-0.34891337032480335,8.580889133552654,-19.190613877230195,0.3187414810035524
1415,-0.6947906616836432,7.984727584060986,-19.429819278435918,-0.16691722245367688
1416,-0.9948970110908262,7.372714715320637,-19.611110242047467,-0.63100339053153
1417,-1.2772244980628717,6.768548934752982,-19.731592159326688,-1.162364155825287
1418,-1.5772005207085047,6.184835029937573,-19.801814696857633,-1.83313635964182
1419,-1.8795310617875831,5.613876377307184,-19.815676893244103,-2.5208729293499923
1420,-2.1598046727662252,5.045045586755525,-19.772328382472093,-3.086388575630744
1421,-2.349149154909975,4.458499568806901,-19.694891428819847,-3.5575329778053577
1422,-2.4089721182229926,3.8409698694124317,-19.60644629683188,-3.9997607695493844
1423,-2.492063911556388,3.161875048321086,-19.518542732450207,-4.431746799499139
1424,-2.746067778198034,2.370890541417835,-19.431530405767596,-4.867085007099343
1425,-3.066790342442657,1.4568875106285355,-19.316939738994698,-5.284259818841848
1426,-3.3132871130975334,0.4601421886435584,-19.147091573170993,-5.661587794692552
1427,-3.504109649683712,-0.5794661427855692,-18.945599781170685,-6.074112974348445
1428,-3.693004041082311,-1.6173262227617125,-18.732820286083598,-6.595780194432962
1429,-3.9225049856983962,-2.6217798753958395,-18.51654599541934,-7.163787188633459
1430,-4.228978914399567,-3.587983199961398,-18.275933209262952,-7.705580524453282
1431,-4.556080662091422,-4.548834050185461,-18.01624767471259,-8.275499858820426
1432,-4.839340856612506,-5.538950431136001,-17.77945530384885,-8.928920257325997
1433,-5.155240340284049,-6.600458180241819,-17.57950418909572,-9.62929703577256
1434,-5.580292606636728,-7.727782868101485,-17.378666553454973,-10.320328984983373
1435,-6.028580579118132,-8.88430777359639,-17.142917467327106,-10.927364205344661
1436,-6.402094944175265,-10.031066802257225,-16.843330067905793,-11.410907630202221
1437,-6.720728833851317,-11.16210730328497,-16.505533889456057,-11.893356781419014
1438,-7.0261153334718065,-12.291508950842514,-16.172383418435302,-12.50963068063837
1439,-7.346279435531529,-13.432389112485382,-15.859177300603534,-13.223072306771023
1440,-7.7012897959069955,-14.567328679746756,-15.568968971603304,-13.957105952793023
1441,-8.021366114486238,-15.655496907342418,-15.29217476500362,-14.701215818652837
1442,-8.254606721508384,-16.687315956019265,-15.012270782791418,-15.453530039881196
1443,-8.546079267443195,-17.692009251403697,-14.733834626994009,-16.23160467551175
1444,-9.041905582319124,-18.692296025189716,-14.459066425608789,-17.05096344060488
1445,-9.679222064645137,-19.705942180435986,-14.153642804194238,-17.838389817894402
1446,-10.347757771794225,-20.741176648498612,-13.785512102760299,-18.527916508163287
1447,-10.998557361091725,-21.80571848169547,-13.360585283165575,-19.18753491964131
1448,-11.608377099855568,-22.899188194307026,-12.898816466547258,-19.900959728067537
1449,-12.236880907136335,-24.002033289633804,-12.42133561131676,-20.65929497091579
1450,-12.949474784469441,-25.09863251806097,-11.947506821889501,-21.428760583115775
1451,-13.661384637850093,-26.19925391378221,-11.476503087993402,-22.174693937756874
1452,-14.277518147407928,-27.318877405998858,-10.998672485653398,-22.863775157686266
1453,-14.862013427960068,-28.469632504930598,-10.519554612741851,-23.52668548961554
1454,-15.493585052241775,-29.638326970123043,-10.038557621454656,-24.197246070588882
1455,-16.135203088576343,-30.79041956892522,-9.523308898116527,-24.79679003547315
1456,-16.736967887675842,-31.864021761953268,-8.940961561864917,-25.25504253159422
1457,-17.29321747213165,-32.823526965989466,-8.288347952223745,-25.662148040080428
1458,-17.801073053307874,-33.68366760348708,-7.5710339632805175,-26.1134751910182
1459,-18.290131871285602,-34.481190168533196,-6.79046507607211,-26.56491729019995
1460,-18.774010533563136,-35.25045186172535,-5.950132209383966,-26.948473271210258
1461,-19.132895670498222,-36.028845620142626,-5.04669006647233,-27.226569691412728
1462,-19.270096518452092,-36.8352779657627,-4.08216771488918,-27.393542712546562
1463,-19.287041368930446,-37.66370034470374,-3.0885464490437684,-27.565044325548698
1464,-19.329764762934577,-38.492680276404954,-2.0993554567952533,-27.855589065916597
1465,-19.49076327447673,-39.29484893023233,-1.115674125215361,-28.18617642939157
1466,-19.80447909837276,-40.047376863952564,-0.1302585796746241,-28.45138890013403
1467,-20.137530935808535,-40.74393609150617,0.8493864354105867,-28.703018486752025
1468,-20.336552788451048,-41.36211291043475,1.751350394243248,-28.97042475276335
1469,-20.482472702600003,-41.79222560457813,2.444387132821409,-29.125405702690838
1470,-20.689242485042314,-41.889081853868035,2.8877770338382,-29.02456549143406
1471,-20.850235012379496,-41.69392506064921,3.1611500686745235,-28.55023625085535
1472,-20.861822983802934,-41.435414947450035,3.3374786712268163,-27.682329045096935
1473,-20.852982196139365,-41.23182278549315,3.426863828557322,-26.67681923023548
1474,-20.953050689693942,-41.027660401810444,3.442617934302308,-25.822839441036017
