,TP9,AF7,AF8,TP10
0,-6.488846791601108,6.717583512937436,-10.530232186605817,-10.014964622219905
1,-6.966854006460213,6.37808558176516,-10.687690203827618,-10.068478780690437
2,-7.3399829798873215,6.084152078683081,-10.847035065274078,-10.232717020930673
3,-7.732369651536922,5.840087811655143,-11.008924086497373,-10.49686315666455
4,-8.278580060247947,5.63202412202108,-11.17438776824532,-10.815370104946677
5,-8.867474222470893,5.454152604750594,-11.338419083355733,-11.134591551133964
6,-9.367074342678443,5.306514528719931,-11.498439926978305,-11.406458507138323
7,-9.806704236478433,5.181759793938315,-11.671570065492217,-11.693617690471772
8,-10.24270148277364,5.073005857311375,-11.873173850939816,-12.052927487306158
9,-10.711963222119564,4.9800589207342,-12.091400332089297,-12.34833731366584
10,-11.234350936182045,4.901381143707698,-12.309348129470719,-12.449858317538261
11,-11.716560447500987,4.82806186358528,-12.522887753119578,-12.440438580888193
12,-12.068582465278329,4.747684443144859,-12.731091861608203,-12.448650171718729
13,-12.387340437789922,4.646988099957908,-12.9403891467192,-12.537228937501775
14,-12.788824476713836,4.508577152653506,-13.155130707973274,-12.73346738003552
15,-13.227526328087352,4.316421811623644,-13.351961317295089,-12.969762698300993
16,-13.634952797892886,4.054325605256819,-13.510773905320073,-13.162851077397084
17,-14.018320849517838,3.689612108656509,-13.653565214991863,-13.365794426990742
18,-14.392838136334886,3.2094414885612426,-13.808578076981235,-13.643951465357569
19,-14.786090099652984,2.665294365962304,-13.97768283948082,-13.935045483741282
20,-15.213186595538234,2.123956890463083,-14.15213207736475,-14.168524047741572
21,-15.583473898191796,1.6276097276782533,-14.320854325211211,-14.348076629865545
22,-15.816266829359384,1.2011128369457005,-14.468437843785214,-14.49904216233281
23,-15.982673993306218,0.8250062830024447,-14.576288009808492,-14.679475593893748
24,-16.179763570761672,0.48566983927046875,-14.635366494359118,-14.935366552521328
25,-16.444570741632607,0.1978969708536536,-14.66132760749959,-15.192609233759093
26,-16.77753424764205,-0.0016842699958931374,-14.673780717617744,-15.369236078359142
27,-17.07076163785078,-0.14335280673161688,-14.675854747218429,-15.5217185572193
28,-17.22992342266113,-0.3228721171480097,-14.662750593277885,-15.72179633070782
29,-17.391484707662304,-0.5818179389532773,-14.621440941022634,-15.943466447819024
30,-17.704162981886835,-0.8836150580209794,-14.540999447389584,-16.147424596150746
31,-18.075406032106372,-1.1832100876245821,-14.433224185799723,-16.315076247373696
32,-18.37538239257674,-1.4980151104821084,-14.314440968469231,-16.43449369297123
33,-18.601233807007528,-1.857994497082635,-14.186940945363933,-16.56383502043479
34,-18.776147940915266,-2.297368089829305,-14.049617785481507,-16.746031700055138
35,-18.93622805522837,-2.7838963093745024,-13.897762311391572,-16.847670640779743
36,-19.119407666403948,-3.26067955464156,-13.731744732540351,-16.745952264848153
37,-19.25604795436193,-3.688125337342,-13.577592137825526,-16.55074401128457
38,-19.28069668731171,-4.038400341653974,-13.462542210006559,-16.406242436745913
39,-19.31846313984697,-4.307092078541896,-13.38599508367399,-16.323302131211776
40,-19.487130897581917,-4.510024430945108,-13.337730006498546,-16.276133344176476
41,-19.674010845076676,-4.66235384097244,-13.311657396924913,-16.209531348937038
42,-19.739998328438364,-4.785412557054391,-13.29929390365913,-16.075086110516427
43,-19.686263619888642,-4.922867116795471,-13.294211692349052,-15.969273455971845
44,-19.553538878101353,-5.109737234634398,-13.289415880871386,-15.989181642742873
45,-19.41313070441648,-5.333994051083885,-13.265606511941611,-16.02765817592117
46,-19.32733511053585,-5.576307757310483,-13.207677191500528,-15.9600797299919
47,-19.20389570434987,-5.8532542955987426,-13.120963864285264,-15.830828650310634
48,-18.946871906632524,-6.186309245931779,-13.015920450998664,-15.710327295188181
49,-18.67568476050726,-6.575354909669354,-12.90242079779463,-15.600693000810633
50,-18.522503742503936,-7.014065341496463,-12.778861732622422,-15.489301757249565
51,-18.42320904437719,-7.502651188449472,-12.609979519880385,-15.333077528904745
52,-18.28683354180593,-8.031495362659681,-12.355744824148468,-15.086730113634005
53,-18.115680846529976,-8.56211463121932,-12.005353948738506,-14.794716242926462
54,-17.92832826066236,-9.061515982922801,-11.563345829593226,-14.505256500057195
55,-17.766120183347766,-9.534538059296517,-11.037918622830372,-14.144893556360621
56,-17.65951695568017,-9.999024864413451,-10.445421886269255,-13.646651141969173
57,-17.512646846915402,-10.474878622352565,-9.81090956989956,-13.07904733979189
58,-17.230522164379803,-10.959475863137364,-9.153085122957366,-12.53064391406095
59,-16.894252376886758,-11.45190083185457,-8.470508003419672,-12.033779418623352
60,-16.655959462797522,-11.854963308357746,-7.790845899657212,-11.605819093395413
61,-16.49052859395239,-11.967750354933134,-7.14324553775087,-11.197064642506263
62,-16.38132235400501,-11.741300428957189,-6.581145665637041,-10.76124848594494
63,-16.2848816989249,-11.281722845760688,-6.128852802517501,-10.390526901760337
64,-16.143447733629706,-10.714317192367243,-5.784160062297074,-10.170280406622952
65,-16.02732227174972,-10.029745377773645,-5.539273105728044,-9.969638551447375
66,-16.01951474730325,-9.235731696421032,-5.350337000448,-9.638212504950602
67,-15.99866549024492,-8.356542594595327,-5.20420845962176,-9.21405323293076
68,-15.629472624878305,-7.519706740295072,-5.056875490673586,-8.717898448613715
69,-15.24368744769397,-6.702107252647229,-4.895101220941601,-8.264870620750319
70,-14.990873880834043,-5.864343635053128,-4.737647730572692,-7.886347725361946
71,-14.863704865485746,-4.938028015924953,-4.575804158627369,-7.497296647677719
72,-14.787576440495542,-3.881410515117475,-4.396019521438035,-7.004112964704713
73,-14.639733362035484,-2.7548890741689633,-4.208639641278017,-6.5127245675085925
74,-14.301572713410428,-1.6436625837919836,-4.028944613525381,-6.162885431607725
75,-13.80048096100729,-0.6259898423822672,-3.8631712679948347,-5.913372518143797
76,-13.22665941161819,0.28422988690995815,-3.7148751189612357,-5.681207742639952
77,-12.608912337784039,1.0713822568331821,-3.579542712335653,-5.456150152375039
78,-11.957753358630656,1.7505025638983767,-3.4495349485610793,-5.244242659397847
79,-11.294350635183022,2.355677093687368,-3.3348640655122854,-5.093617261596454
80,-10.623297816610108,2.9254024960103138,-3.2431980964952603,-5.048521473189408
81,-9.926064451161256,3.5068249714447646,-3.1468007510252836,-5.009675931631845
82,-9.197928584872484,4.128558674722089,-3.0153544797711245,-4.859512356417575
83,-8.4643090165419,4.7578224314079085,-2.851799631078425,-4.648034576589776
84,-7.773872557326914,5.354043805080234,-2.67450344281396,-4.466551986277905
85,-7.239294580681944,5.862044158685257,-2.50921659903615,-4.31516014305659
86,-6.9408753809624,6.276116050235056,-2.380255107903266,-4.1716084456374
87,-6.76552290017844,6.640657505178414,-2.284300740306791,-4.020721186530906
88,-6.545964826839657,6.978413266949471,-2.2050156183580243,-3.8416839348099963
89,-6.232707858705086,7.269979989557959,-2.141685825023528,-3.6498480133652964
90,-5.827226824268108,7.5229383963652525,-2.095654422961263,-3.4687937962223248
91,-5.352580736275668,7.791494027215992,-2.0471535120771223,-3.256313434314587
92,-4.855510961503591,8.068473058893492,-1.9818541856118665,-2.970896830682939
93,-4.329019064171048,8.307758346494031,-1.927846149222832,-2.6658495714912873
94,-3.7605970579206764,8.45741482734796,-1.9151176857182552,-2.4066692441613116
95,-3.2455159087950283,8.556497509161298,-1.9311372297387375,-2.19327537036708
96,-2.876610254345274,8.666864420020898,-1.9457626949435862,-1.9979940839241428
97,-2.6012278258478636,8.791699109790036,-1.9233461323703527,-1.7562171215602875
98,-2.33227391079335,8.915790071632028,-1.8363851126389539,-1.4144129209555558
99,-2.0493587945295153,9.018795712293288,-1.7024868554106523,-1.0487328589901452
100,-1.7597557112987623,9.083048221277311,-1.5575491244648667,-0.7640498565396115
101,-1.5236403081394778,9.146633674602164,-1.4141432040953723,-0.5409501853389621
102,-1.402829841690675,9.241280686373317,-1.2766745218324784,-0.33062285359254817
103,-1.3201640389662352,9.375628843057273,-1.1512814257992992,-0.14986179798643567
104,-1.1759571794657826,9.503370876594861,-1.0363118855572928,-0.016207094500856514
105,-1.0280969071337531,9.576363056060082,-0.9301427055320861,0.061012959473486936
106,-0.9599107531713069,9.60217763596823,-0.8256100104917417,0.08888228520727341
107,-0.9399893581619899,9.594938443971975,-0.6875960437950751,0.19244904376108785
108,-0.911075110934067,9.587967429398404,-0.48574306259530314,0.48750614538769477
109,-0.829697590641595,9.598359471882606,-0.23822135781009507,0.8517993048982097
110,-0.6660432489614346,9.62890985618832,0.018382539863155523,1.1201635161749333
111,-0.4948853284942991,9.689814452538961,0.25645900733715626,1.3400675551725794
112,-0.403287355634041,9.774997581735152,0.45581509155523825,1.608212771709363
113,-0.2972773299791569,9.827611829972968,0.623396005233886,1.9273272097098293
114,-0.06674946385405833,9.794705826160877,0.7751687841608914,2.273772199328241
115,0.18433808563163162,9.676070703010417,0.8927320111974324,2.583576205442483
116,0.31786105767657125,9.509948888339025,0.9548914287975688,2.784050562254638
117,0.3357931696262938,9.394966283338267,0.9832076398558562,2.920477397088632
118,0.28830378923776534,9.421109196888462,1.0064005549910169,3.0636791912514183
119,0.2659387268734774,9.550038291581021,1.0214036313536363,3.142090030751353
120,0.3537906799591755,9.709096599438434,1.0182466569412274,3.0793907414005086
121,0.45315084304786607,9.830866575524217,1.0010042006420279,2.972360669008907
122,0.43577476359287026,9.915195891009665,0.9744081214844845,2.944401376385189
123,0.41857672985947353,9.950735865837473,0.9396046496882162,3.0014554409239382
124,0.5508216321927002,9.944514090792184,0.8983445298336898,3.1113415079132496
125,0.7394229656368285,9.89660727265332,0.846099033735462,3.2263489345641694
126,0.8509088153491591,9.801247508868085,0.7801910328193201,3.296040737712583
127,0.9040733269304144,9.660206068563078,0.7189371431490995,3.381781701835183
128,-13.43358217302936,8.5818019097979,-9.251405480881628,-10.4122714400273
129,-14.036070268214822,7.850975188460516,-9.356723651864796,-10.85361933996977
130,-13.792761873041059,6.985045346003107,-9.830901002021237,-10.620857170967719
131,-13.213581326652742,6.160246207830132,-10.535308657663034,-10.155458164430973
132,-13.035536929310812,5.549782382547114,-10.888064516355524,-10.076543214781152
133,-13.548662086277531,5.152089552103793,-10.622966933861395,-10.736219045857435
134,-14.768812262061163,4.909638320689263,-9.935327262884856,-12.202138855235578
135,-16.36366399061208,4.772590429914417,-9.187838983463914,-14.055876786692133
136,-17.838718448961206,4.70870150990804,-8.786930670176035,-15.72059434820539
137,-18.836457480329575,4.80786456251129,-8.953194720166943,-16.799817955898817
138,-19.265489601760894,5.1646187676215085,-9.510990591763152,-17.2063453828852
139,-19.46470608380775,5.684099435165604,-10.03005526227855,-17.46683216267425
140,-19.911982024253124,6.2533064235480085,-10.221746280904641,-18.19946079308308
141,-20.957860423576456,6.931519222739539,-10.13135062525931,-19.49516933606914
142,-22.699885079238978,7.781346691222645,-9.982107203683537,-21.169885907274363
143,-24.692482874184677,8.739372349170845,-9.938421454953955,-22.85564597886267
144,-26.402119108764893,9.707741829519037,-10.043073023000094,-24.19317280837405
145,-27.75467952375756,10.580146991621175,-10.271554224499033,-25.263424212200523
146,-28.869316447738694,11.271805893776142,-10.568957366797758,-26.282001721308145
147,-29.94696413035306,11.797871250937385,-10.86991084941842,-27.238604968053494
148,-31.144566344254304,12.208779741242061,-11.125419619240446,-28.060880015764496
149,-32.20677851239321,12.521498238096395,-11.344996353789146,-28.666879611254586
150,-32.81338144185339,12.72949764399374,-11.618521098918475,-28.96467991490236
151,-33.01706287343551,12.772191291112115,-12.049610543904505,-28.95997077200705
152,-32.983128484903645,12.57648784884607,-12.625236311516227,-28.716906727327242
153,-32.79814742879734,12.147641823581244,-13.220578044155792,-28.27017385788895
154,-32.545895274069515,11.48695001215663,-13.71831304186641,-27.671036410706574
155,-32.28172366718284,10.498703185479773,-14.069839272444215,-27.05794996217769
156,-31.99265111635737,9.089175133986979,-14.31743514387921,-26.527412677156455
157,-31.630261033510205,7.245014600813342,-14.556339605751303,-25.988187112047562
158,-31.139915390452696,5.017371677020085,-14.834439666399325,-25.323528744628778
159,-30.411391118266028,2.5111009675247096,-15.134724013398047,-24.530896847986238
160,-29.415688027267993,-0.12463755710817959,-15.459440533815556,-23.657305042072238
161,-28.44283216729411,-2.691394561688302,-15.850709736561564,-22.815300893721783
162,-27.767752544548454,-5.054185571109703,-16.3166721734899,-22.099534529308198
163,-27.263772634840233,-7.270581060657093,-16.81935072422398,-21.41104831176096
164,-26.704656056988533,-9.478867078753147,-17.32726905490457,-20.62129441621177
165,-25.999723166874205,-11.788842045256075,-17.839439018264677,-19.7791716529618
166,-25.116333479993855,-14.283113736940656,-18.347278710788533,-18.953193230637805
167,-24.15579502233142,-16.984429983017105,-18.821285755899652,-18.099031039240593
168,-23.240617118568643,-19.86845200085734,-19.216119256804753,-17.16573247353153
169,-22.279041111419524,-22.892445946487346,-19.516246592740114,-16.129790056227556
170,-21.156582001833613,-26.013752285632183,-19.755023037586756,-14.988611778865526
171,-19.93943586843867,-29.238079815051837,-19.98318363760425,-13.843996735634478
172,-18.720493024682217,-32.56751112020531,-20.227298059649666,-12.788704172709984
173,-17.54851371364885,-35.92102200134664,-20.489724366514064,-11.709407845042508
174,-16.437060906684042,-39.2138751875794,-20.757530212014736,-10.487743196186488
175,-15.254230167473239,-42.43577108023408,-21.02033324322738,-9.243178450175343
176,-13.875545056257302,-45.602323195713,-21.27750795323028,-8.11137428907651
177,-12.43473194656407,-48.722186528567676,-21.533847926717133,-7.049354497206877
178,-11.091011610780503,-51.80987254570084,-21.786888839369496,-5.978054526414081
179,-9.763773862405689,-54.87695199839907,-22.02726127916193,-4.840255873545526
180,-8.349651029460324,-57.918995751385474,-22.245020639054626,-3.6031717260496414
181,-6.8932767722832375,-60.92463699209026,-22.417903543959326,-2.3619855224326303
182,-5.459647410379966,-63.86141804435272,-22.512679072229396,-1.2199546861650565
183,-4.109214894994658,-66.64684331078537,-22.515057361500222,-0.09976749166758475
184,-2.8772042976361196,-69.2080387965943,-22.42268280324634,1.0949243929204215
185,-1.6340417211679577,-71.54494073020253,-22.241865563346256,2.305349707264149
186,-0.2554980009247519,-73.69106841018093,-21.99171425924018,3.4548578616062082
187,1.113494395612344,-75.68336024700291,-21.7111238046903,4.55299611366605
188,2.2385966940620303,-77.55489476885423,-21.44360629849909,5.631677478479537
189,3.168970275474521,-79.30679818082457,-21.206492753039704,6.616460955052367
190,3.9467288858926577,-80.91769690648897,-20.99221573322675,7.454190782489487
191,4.531237738319585,-82.35438709354715,-20.776830272128073,8.015384170360603
192,4.919852218619471,-83.58760075990143,-20.54046062940316,8.235597323486607
193,5.144736069779194,-84.60737658919902,-20.254021469251654,8.35969389989559
194,5.247603188504659,-85.40480838903575,-19.890652833473403,8.646995090123212
195,5.355636843596607,-85.96026966120024,-19.4688676732945,9.038832556281717
196,5.6043284604005255,-84.73900414579843,-19.04540449939695,9.164131429204597
197,5.92731706242144,-83.43033727110223,-18.670547406433094,9.273044794291716
198,6.2216669269525395,-82.05608565949184,-18.332424734541565,9.365792040532867
199,6.4786023219904205,-80.57430084426353,-18.011348552509386,9.478846892584913
200,6.728065397659987,-78.93724892526012,-17.6925400598293,9.648831954675616
201,7.051440549558307,-77.18921742907234,-17.37134826088524,9.794957035431766
202,7.532023052732909,-75.3935363906648,-17.04421094518294,9.837368418557391
203,8.107928357710334,-73.56146965121681,-16.69779619251122,9.887624433790865
204,8.677064205205038,-71.67824278592998,-16.30694002836073,10.081248011944258
205,9.284211201327533,-69.69003987543326,-15.867429227447145,10.38871587462271
206,9.984267709153734,-67.54435234098783,-15.384080799293898,10.727036070898553
207,10.659710106630332,-65.27683786264004,-14.869442621224707,11.01388454966284
208,11.187302181624048,-62.95968553478821,-14.338857314136131,11.187729405170083
209,11.60483865634824,-60.61779927465862,-13.81031498756123,11.342273407549609
210,11.995896645631271,-58.26775638375351,-13.291947114510412,11.599812090666978
211,12.441854581042467,-55.97627246334225,-12.786530460515252,11.880974001008731
212,12.99469518147572,-53.78459885813926,-12.300070901050105,12.066925826539709
213,13.511429327682173,-51.6162368231307,-11.827565047033097,12.201970902881023
214,13.828766651221304,-49.37211614700322,-11.35090240340993,12.358144701601164
215,14.086155861610939,-47.028699528295135,-10.8574881265508,12.524536375972962
216,14.468785843802639,-44.60625056595948,-10.352688606239939,12.674082106117686
217,14.876664026724274,-42.1703513673517,-9.851358506517768,12.765563195615602
218,15.150447658428684,-39.80051587290066,-9.373782384119552,12.76252295688029
219,15.26499650827822,-37.50545326291539,-8.929260533991867,12.730567386967548
220,15.240616088687661,-35.26850675886329,-8.517727494080106,12.748718680786164
221,15.15869441581136,-33.116810624764675,-8.131791630150332,12.751584270893005
222,15.112311659122238,-31.070810020961172,-7.76029173129094,12.649192932705391
223,15.049690686587633,-29.119488192984555,-7.394417401194647,12.487792524453893
224,14.879394552182555,-27.231746598180585,-7.029678182194727,12.330145352552838
225,14.63018423487967,-25.31156427940388,-6.670321073563966,12.137932466266033
226,14.357088794333007,-23.278930390167144,-6.320799043650001,11.857436293720134
227,14.047824630576361,-21.21045068359152,-5.974026611404758,11.45758608772208
228,13.689503155514306,-19.22213982164695,-5.617485586765363,10.93492289757863
229,13.30870806555154,-17.32775398680151,-5.23703280334373,10.393862109875005
230,12.935718913013593,-15.50151312036648,-4.822906031002229,9.949328645525542
231,12.605049117938902,-13.705493310567007,-4.383144542689144,9.565265964861684
232,12.340375923003593,-11.897841369061156,-3.9361257239690874,9.162617767407816
233,12.089575646340903,-10.100834296814785,-3.4928612441106934,8.731596157934735
234,11.79148895300688,-8.35217984709264,-3.0700355464410958,8.281247060441654
235,11.496436937350795,-6.622540565961633,-2.679347794892073,7.854793863986849
236,11.259742232001104,-4.858663479253336,-2.331530827771964,7.486512642547643
237,11.020585539192867,-3.0386893366401453,-2.0208235141607527,7.067911729655623
238,10.692303951175697,-1.1469181696226443,-1.6964690985183262,6.470045366491596
239,10.188674196382172,0.8752956003836783,-1.2689945888209826,5.734633445883112
240,9.464401392943506,3.0555174734358572,-0.6597848451468715,4.94549024691937
241,8.701304297840613,5.273817675631866,0.14117682820549793,4.083186291334001
242,8.09540167185767,7.393997769450134,1.0413212784409849,3.1223937563717765
243,7.481330878950231,9.430702315072068,1.9156424292097698,2.0870776342998676
244,6.647412709661161,11.459636613067978,2.7030575582432514,1.0285123570976733
245,5.681566998865426,13.534647383050348,3.4037366432299443,0.038476096755954925
246,4.733671907573397,15.714263839158097,4.016323576692457,-0.8237131454545393
247,4.004241115181233,18.030571143780556,4.505690572914832,-1.5222845928609428
248,3.5736849679635068,20.489813269329623,4.861014916696458,-2.1286330755550327
249,2.8230171144741143,23.146109596217073,5.26279549091148,-3.1157086711131483
250,1.1361039243274509,26.017440606155414,6.044847882747124,-4.873288219916338
251,-1.0841336280173501,28.940739792542782,7.12200755695486,-7.0439255984034155
252,-3.1082994326960334,31.726652663782072,7.907819572802671,-9.007363585567287
253,-4.565043759376706,34.34420562361827,8.057345914364289,-10.325562668466883
254,-5.323336237163041,36.82067993812104,7.6742185589990015,-10.800827355533642
255,-5.6177852165638145,39.18239427412236,7.07017919533269,-10.740759861146685
256,-14.599966632908693,39.727178755011565,-12.111597951871559,-16.002673786889098
257,-14.89731655143526,41.45754944732728,-12.389993416689917,-16.13462136115202
258,-15.194164196861479,43.11674805831826,-12.677675696207299,-16.36666332333217
259,-15.54713282933699,44.673906216729584,-12.982370366559744,-16.663321905181892
260,-15.994755949115152,46.10988713620328,-13.298743931161587,-16.959589066237008
261,-16.461485605905423,47.430105697891754,-13.613591522139862,-17.2231908221562
262,-16.857741060853307,48.64911454207185,-13.906942315737892,-17.43598538964892
263,-17.175743141046922,49.75565529075501,-14.15517125645822,-17.62852729754346
264,-17.43696627644309,50.740369623111846,-14.344611798676343,-17.839568191404442
265,-17.687738968166848,51.63947887267806,-14.47535543182,-18.02463132227435
266,-17.970943022608736,52.48448615512328,-14.570580060202596,-18.143061950036877
267,-18.226934829243458,53.24567997491453,-14.66498452123488,-18.268077779454394
268,-18.40090944017086,53.89293508932514,-14.79927595797324,-18.476790465651302
269,-18.601997837967875,54.4395614814164,-14.97816707729287,-18.753502072470862
270,-18.945797492110483,54.91557726001456,-15.159780864538458,-19.061600514061674
271,-19.3836587025444,55.38210866863959,-15.29929070423447,-19.359909406726384
272,-19.838822440319746,55.87554317149881,-15.394401984341892,-19.618820281021623
273,-20.314480917232277,56.315003778088325,-15.471763420108434,-19.926283359691684
274,-20.811271741792602,56.601247353000424,-15.568628282606062,-20.350536946335378
275,-21.321119416277103,56.71973677579211,-15.67882706408572,-20.722278320635223
276,-21.822180345609958,56.69183563552546,-15.78945558377211,-20.86889537298895
277,-22.164206228937985,56.55483042597973,-15.87448525794296,-20.873414524439603
278,-22.238504256243196,56.35219594140004,-15.934897618401314,-20.865273957182435
279,-22.250125707335492,56.08992354735266,-15.998368845216097,-20.862614303753006
280,-22.4182307683574,55.758155979651406,-16.076695384226795,-20.859468872080786
281,-22.63471649105584,55.36447756764046,-16.16003832461037,-20.8033929177965
282,-22.74301790231167,54.91615470027547,-16.233051513387355,-20.655030582091157
283,-22.757607779581814,54.40719592742576,-16.29919721164173,-20.54950177023616
284,-22.73377687856198,53.83362250497207,-16.36951873436647,-20.61853413769568
285,-22.7681375875646,53.20319433434303,-16.46299247926669,-20.77678197136648
286,-22.93574884471924,52.51986022158002,-16.58948688403082,-20.890891038415322
287,-23.10930565681422,51.77721539375711,-16.726028604548276,-20.91480000831715
288,-23.137312315296253,50.96027271004264,-16.835754686535303,-20.831680985131207
289,-23.06956417887833,50.03318862379145,-16.883592335199687,-20.670458299787153
290,-22.994599226732287,48.96977486299743,-16.847436797232923,-20.479754834931068
291,-22.90349361061983,47.79640227692558,-16.735109313871686,-20.229638361943135
292,-22.7802785604039,46.55491845503785,-16.572294955632923,-19.893486071480996
293,-22.62431710944574,45.25596468625405,-16.39019766126696,-19.561668836716656
294,-22.435039985126632,43.903804092184174,-16.212268507333185,-19.318636746736047
295,-22.268021363315295,42.52697353355989,-16.035890880056265,-19.134096058218304
296,-22.16565472715206,41.13270694466011,-15.843440498916268,-18.94209765934398
297,-22.036771586433254,39.66513201628465,-15.614545333847914,-18.674981209151603
298,-21.786950512159642,38.060082081011885,-15.332838289672408,-18.284252285890155
299,-21.468751350920574,36.281425567826446,-14.99751178770954,-17.81854850941552
300,-21.159717598102755,34.323102646682564,-14.6182237907528,-17.3502102872993
301,-20.856787712217454,32.244591176577494,-14.207457121224337,-16.857779484636186
302,-20.546330064110716,30.11116376707577,-13.776076076825685,-16.31355545066626
303,-20.22504598352235,27.9036020879141,-13.328964304968988,-15.787612293040098
304,-19.886856837443784,25.587826971889918,-12.864181874082366,-15.338941656371704
305,-19.576186716638077,23.185545550442246,-12.36798020132635,-14.913234030367539
306,-19.32072531820499,20.72406121933416,-11.830736262768468,-14.443444874874608
307,-19.00694784523052,18.214650488618265,-11.268355856024883,-13.920856215094064
308,-18.53197689544062,15.660435850895945,-10.702662190370964,-13.357617454661426
309,-17.969642084810417,13.028023463821356,-10.141724322387397,-12.805341766503409
310,-17.42620657447842,10.287683504450975,-9.586898826126658,-12.307375774321008
311,-16.949425902131868,7.47939872296663,-9.034283393042328,-11.785904705650745
312,-16.543187694285166,4.65031979795489,-8.474511489239802,-11.159481356794148
313,-16.078104031716602,1.7871649034268215,-7.900552929274599,-10.502612617013785
314,-15.431434842013122,-1.133583208652768,-7.307008604615152,-9.897304605650238
315,-14.721007946012302,-4.110234296649774,-6.6820299927148765,-9.289677676455034
316,-14.10279056178225,-7.043182065926561,-6.057820368064922,-8.595935375349884
317,-13.483709621131373,-9.843743663736394,-5.5343082420758085,-7.858291404721121
318,-12.767279849004323,-12.376976621695336,-5.173116417162062,-7.126106651255875
319,-12.053376194632886,-14.678074446869015,-4.956823463874336,-6.559750622015011
320,-11.46027907552534,-16.84590588398316,-4.840842015758662,-6.2715549850793435
321,-10.98327050517749,-18.849286577949748,-4.75135668608726,-6.051310598332578
322,-10.581734585683582,-20.64822644100802,-4.6180948612099675,-5.6547158027453355
323,-10.18878713048307,-22.333984267395294,-4.416874704925076,-5.119191992204714
324,-9.493993909901958,-24.19678211339924,-4.104107125729691,-4.508159196208737
325,-8.785915525826326,-25.991742873571784,-3.7960396405786363,-3.924424268751752
326,-8.126283767916698,-27.66766174152778,-3.496148544396448,-3.4119940472281174
327,-7.4599428139873645,-29.190518316670644,-3.196286679032391,-2.9272901644148384
328,-6.721145726850295,-30.55089873406317,-2.8795490725064017,-2.4099430939522857
329,-5.916487131768231,-31.81145557146157,-2.550609046607397,-1.9141689490373928
330,-5.086324271657148,-33.0522358676479,-2.2150857344232815,-1.5147245708203076
331,-4.347157768615668,-34.28937107585341,-1.8880588311331947,-1.1807437518854886
332,-3.8051073053292823,-35.50478477730596,-1.5687445661782697,-0.8655104346866882
333,-3.3632742168584593,-36.66463681352346,-1.2366790604377835,-0.6059534777231556
334,-2.8828948931089644,-37.73097478934182,-0.8915483509014701,-0.4371776152310771
335,-2.421659413375511,-38.70463040979702,-0.5624370961714749,-0.3276244365362763
336,-2.0717714046910407,-39.6041626659815,-0.2647027598742185,-0.22891960986608173
337,-1.7966438845127382,-40.429181777329056,0.005404585228564472,-0.05842893462050183
338,-1.5346508694302932,-41.17399896567308,0.263806616624026,0.23819150464843147
339,-1.2297631321688072,-41.83777219751762,0.5096829019541126,0.5150011764791835
340,-0.841575376370506,-42.41394811478553,0.7471152556099695,0.6096561379214677
341,-0.47643650593596865,-42.88948600907946,0.9883014625258382,0.6254859092115611
342,-0.25253749655522373,-43.25619839607323,1.249338874198359,0.7231064731127611
343,-0.03430995660547115,-43.503096375851925,1.5164240190938936,0.9002789953780255
344,0.34080805579710455,-43.635655119651034,1.739759279155045,1.1028655075446563
345,0.7532111227639607,-43.727605459648586,1.879512581840389,1.242579282379416
346,1.0336289272087842,-43.8509323831434,1.9360483675107774,1.2406982641152298
347,1.1838303852833882,-43.96909175734015,1.9234941764401938,1.2113387474998834
348,1.262519183837091,-44.00970089474591,1.873122031069696,1.3048749893733411
349,1.3821751456551732,-43.959047963937266,1.8072156501156982,1.4441280410923556
350,1.6535721084620212,-43.811695699861204,1.7398880746023584,1.5085839734823914
351,1.9595417729995532,-43.5247436712713,1.6782903282118469,1.5514053835324988
352,2.1477023571898757,-43.0674179572013,1.6240138029449551,1.6550811798256562
353,2.3811718660903143,-42.45183325698215,1.5848524820472305,1.8210919821664273
354,2.8516214931904873,-41.71324688112293,1.5670917098216322,2.033349631371829
355,3.4112111194805546,-40.91127685256723,1.561493544397447,2.249772121141781
356,3.8494490715357137,-40.10103385150013,1.5568170818850438,2.425660154683717
357,4.149383796026879,-39.28007555400692,1.5547253970034787,2.6224052964348195
358,4.36021329620117,-38.41762318158254,1.562837629246854,2.913509522309641
359,4.5787976564483115,-37.499425092542126,1.5880758533238362,3.2136170020160995
360,4.909331293326071,-36.50996953204773,1.6385675079918394,3.421114458765105
361,5.283763914487966,-35.42138383683709,1.7240642719551753,3.605154311380348
362,5.588540015558655,-34.218623427606225,1.8481199481645736,3.861976886887477
363,5.888459457428195,-32.90247926924484,2.002247701139681,4.181066206458768
364,6.270320611913867,-31.497335670487804,2.1700887484159512,4.517648453432636
365,6.65749234585558,-30.089322540261342,2.326309796755973,4.800813421106943
366,6.953539868440532,-28.762209386654337,2.4477909121853703,4.971447225925828
367,7.162096747312462,-27.501623874086533,2.538776393492236,5.101308705443967
368,7.31742683307464,-26.258999694055348,2.60701818948002,5.292349196026697
369,7.476340809872991,-25.023922093805663,2.6525047119785907,5.531741115936839
370,7.688652570386626,-23.799463620647394,2.666082498002821,5.766579558777892
371,7.891311340747334,-22.60137045104875,2.660775358439172,5.963071035797737
372,7.9964515085826005,-21.45604727150008,2.6753769262441778,6.089694676364269
373,8.032791005478161,-20.36770782289751,2.7173803072171583,6.154671640940655
374,8.056757896705133,-19.33391856137909,2.7508845752788647,6.18386096847858
375,8.057322428740262,-18.377859149348897,2.7520713216869064,6.140785593555776
376,8.017522941435839,-17.516744313851827,2.7332601650248116,5.994750904442854
377,7.940462416722957,-16.726504505366858,2.704989784181886,5.831305393465351
378,7.837262350004127,-15.96947638539412,2.6880645340514238,5.745658650405042
379,7.769406892169163,-15.216857757203748,2.694210399542089,5.716752025389679
380,7.7890438151831045,-14.447276032989905,2.7226649522025577,5.686554974053338
381,7.832245778066429,-13.66239132733071,2.763588783153829,5.621950930423929
382,7.807733341040983,-12.87428420381778,2.7977889952164565,5.499530516820454
383,7.697444459439005,-12.06917275008057,2.7986991855946286,5.345239643938899
384,-13.793368519907295,13.56823643869806,-9.611976164168516,-13.924855066619319
385,-14.244165181966578,13.921133244440357,-9.6829830761791,-14.101974100935534
386,-14.649847155876953,14.143326601327646,-9.771858320093827,-14.287345312706709
387,-15.0829692391534,14.261800074241519,-9.899225589915028,-14.44080435301989
388,-15.60713517322964,14.342208361301536,-10.07317598558855,-14.527794616486952
389,-16.14765777144831,14.45320115227087,-10.287118067508471,-14.61505678837128
390,-16.616110854907063,14.644210741681839,-10.526851331108782,-14.78044680839669
391,-17.07528416021962,14.895237350192723,-10.789682235194483,-15.082034370113549
392,-17.5939899132588,15.153454758558503,-11.073761897582692,-15.530145318340441
393,-18.11150257630822,15.382221423188765,-11.35812276744621,-15.983037995738417
394,-18.554192561177086,15.559483443144046,-11.624936983202833,-16.293705503809935
395,-18.897635333130047,15.67942809681942,-11.889693523710651,-16.50889413889002
396,-19.147297192260705,15.76266783021295,-12.166708709204974,-16.717238181053858
397,-19.391146763107802,15.866966163047584,-12.4311476247565,-16.904275223148527
398,-19.71219653588932,16.044044982818416,-12.657325755729607,-17.047505676754007
399,-20.048395589760087,16.29127546905943,-12.845793050364765,-17.148728823047943
400,-20.313849764329788,16.586171281688898,-13.009750620504335,-17.216528296334875
401,-20.52342058172939,16.907897966217458,-13.185037840500383,-17.326379519515157
402,-20.711404909508907,17.242970693449585,-13.398587363620168,-17.53905098545329
403,-20.89480601861655,17.624279809252254,-13.616400684101098,-17.757860895382876
404,-21.08286460505112,18.080903240069507,-13.792240701014878,-17.87602782037862
405,-21.223578681458132,18.56076802962602,-13.921201436724278,-17.95346268020407
406,-21.265183159601154,19.00226025702904,-14.011280279561573,-18.06768199935657
407,-21.27289410030563,19.408976408707563,-14.065451552996675,-18.1833122933647
408,-21.314262791608577,19.795507037476874,-14.09301783093326,-18.25577598158911
409,-21.312659413062597,20.15376176987946,-14.10403043393964,-18.264779643443724
410,-21.190061288306794,20.471933363323373,-14.10488264113291,-18.21138258057579
411,-21.004491202718555,20.721787575969174,-14.111410980440539,-18.212017381128017
412,-20.832363551500606,20.88080987186011,-14.128861335484405,-18.35964698239122
413,-20.698211469963713,20.976520716821515,-14.115063710454917,-18.50465470805222
414,-20.602011137549617,21.038975459663266,-14.03224397680962,-18.47726045289547
415,-20.468946996168174,21.05658306190071,-13.908147215024831,-18.335467292892325
416,-20.229251640067744,21.003492090818522,-13.783450450709541,-18.17845294764114
417,-19.976426799510676,20.83634027583249,-13.667609585335105,-18.001501404313455
418,-19.809520482676803,20.52552940175117,-13.559208929191678,-17.789687372553388
419,-19.63620041450141,20.131602438961284,-13.442757286796828,-17.529006457115187
420,-19.355503731880994,19.720977509013483,-13.303031086170263,-17.211971997961104
421,-19.015734639677536,19.2469712008729,-13.15907254000976,-16.923286500717786
422,-18.69865029340535,18.660599646662977,-13.034561364621839,-16.74601711196658
423,-18.4825179376169,18.018144062994633,-12.92774616319033,-16.611081039975197
424,-18.418117987875778,17.38813545064616,-12.827719580209498,-16.43931486370861
425,-18.405455646897373,16.800833650327352,-12.715688141007755,-16.3064133274537
426,-18.33193509136559,16.25312530869611,-12.57751781473184,-16.28905192941379
427,-18.285638819452238,15.661869274892775,-12.431282099255508,-16.33562334593683
428,-18.36440324374483,14.938043342192298,-12.3004890599581,-16.368174352153677
429,-18.46964788802163,14.091249700424388,-12.183253076076735,-16.31828483638156
430,-18.485474859181856,13.166845198076427,-12.067998914384855,-16.144148953704146
431,-18.410942746891592,12.185677397654507,-11.944243410699459,-15.92654650676021
432,-18.271254583849668,11.171264475976256,-11.799284115876324,-15.75244057469869
433,-18.119152049933486,10.152382212442081,-11.61919580949401,-15.550691326843946
434,-17.9922377184941,9.143446099036751,-11.39617755094623,-15.230449502417596
435,-17.770187252494626,8.147573399014878,-11.137811398694978,-14.804936000402872
436,-17.338090445082887,7.151888444272943,-10.85220983139919,-14.314105299124968
437,-16.808965602130264,6.111644354422784,-10.531401515014348,-13.809942035842111
438,-16.315483345191314,4.984291909002731,-10.165182871437375,-13.331495893087395
439,-15.822150185459888,3.770429544390042,-9.748288165499732,-12.810634631306986
440,-15.253154796975437,2.4899007056937905,-9.282975553484649,-12.168058035943938
441,-14.52773004759598,1.1538031699811082,-8.79231712994471,-11.451694368534742
442,-13.598648146792257,-0.22016685449402668,-8.298649840112423,-10.721623626922746
443,-12.59874426244529,-1.598061089982533,-7.797406798666228,-9.93504638752547
444,-11.68191216233927,-2.929479457800914,-7.2891064262495755,-9.01858973795146
445,-10.785254490759351,-4.16188570053439,-6.802687356052694,-8.094196979644487
446,-9.828825304331975,-5.25836902396368,-6.3712513269513185,-7.25846272024776
447,-8.947499617045295,-6.306562224524787,-6.016202829062185,-6.633480628659967
448,-8.28681065092314,-7.409009647757611,-5.734356367349839,-6.273580211149588
449,-7.805058250894579,-8.516353378980764,-5.476574654568843,-5.953155888528378
450,-7.398459431856293,-9.547415728863122,-5.192327939682814,-5.428797232408036
451,-6.9584466977508805,-10.503736446988565,-4.879261259466551,-4.799920183177467
452,-6.4208293071517355,-10.776207606810507,-4.6510296104468525,-4.33357705470947
453,-5.85712895693097,-11.106557732362914,-4.406466775041999,-3.889027995144745
454,-5.398607436499162,-11.545371051762954,-4.154554839043619,-3.3949570656774952
455,-4.998904569734431,-12.054701293456938,-3.894997500871224,-2.868487065812807
456,-4.568042790439456,-12.574079182610701,-3.624601228763748,-2.34380269178996
457,-4.113887268315509,-13.117790909900249,-3.348957131241211,-1.8728349563291649
458,-3.6703190474838325,-13.715880148300593,-3.073973141449918,-1.4973281750135916
459,-3.2935136360179227,-14.347209274419402,-2.7951493355103088,-1.1448734451158982
460,-3.0331811395827972,-14.982996148966112,-2.5084832499489726,-0.7243275596266259
461,-2.8122565013910985,-15.62307183173547,-2.2245006396885145,-0.26403372074426246
462,-2.525688423126994,-16.262807605399782,-1.9552115035089237,0.17543392782721118
463,-2.219527506122872,-16.870867849495085,-1.6998167866933473,0.5677590653608315
464,-1.963371992023465,-17.409100398911043,-1.452886149651682,0.9053478298868669
465,-1.6718259338349408,-17.840040331568876,-1.209506677418133,1.2599928392432067
466,-1.2567622924363577,-18.136652671024777,-0.9654880714440389,1.704580826607113
467,-0.7892927025582172,-18.30910546117006,-0.723946523092674,2.1499564308744152
468,-0.37409367551646133,-18.385705003864967,-0.4909429832322182,2.4769076039912012
469,-0.06417949549495305,-18.375600048298477,-0.2668850176675569,2.716807654252709
470,0.12664445821774464,-18.292092760946286,-0.0538363645312439,2.9377489504516325
471,0.2991307024384516,-18.18112282347417,0.14144359112182853,3.1358603701744467
472,0.5731409064918342,-18.087002311723808,0.308374975871039,3.300166373581612
473,0.897475805250663,-18.028308979952033,0.4217577029362492,3.4301889787608455
474,1.1813816042915881,-18.00067148112532,0.4631846517405467,3.5283000228739545
475,1.4665423248591507,-17.953431880024766,0.455204033886716,3.6549439879100523
476,1.8114142486930442,-17.826749385138513,0.43434531635794116,3.8688669990555073
477,2.2136757016268778,-17.632417066137144,0.4193651340489074,4.1056651000227316
478,2.648294462947602,-17.3956326587972,0.42230558041871036,4.281040052839839
479,3.0090787505541825,-17.057586929153338,0.4491119810432919,4.439823004814086
480,3.202707907473003,-16.562945363752007,0.5016882374002402,4.645733563227548
481,3.358922112528259,-15.963576370359684,0.5965078652931544,4.864644370731375
482,3.642099209969428,-15.342146907370141,0.7483866387333168,5.045819392674058
483,3.980265138209433,-14.743506935668773,0.9422789914057581,5.157808677873161
484,4.24648981052231,-14.198752016153351,1.152836770523397,5.18767864826448
485,4.44475899568298,-13.716391832351293,1.3742292991836065,5.231101101487117
486,4.605242550253179,-13.291131687370555,1.6002447274596696,5.38680093299563
487,4.75007099135392,-12.951354055445897,1.7943771325214342,5.5420914742133345
488,4.900085502822959,-12.722330126921568,1.9245384756053565,5.557904714395968
489,4.975959734382287,-12.56953470176086,2.005594623737424,5.529581975167949
490,4.893255266609158,-12.445358756368567,2.065529420948483,5.592785406917945
491,4.762204480665013,-12.332032900833495,2.114595805694465,5.732054772366877
492,4.715584482789912,-12.222589454169121,2.1572918339890133,5.888056512697158
493,4.664915330716784,-12.129846189530914,2.181989645829142,5.984922560738549
494,4.491209843051568,-12.06171691436159,2.181220994259565,5.964316114987286
495,4.2359608036821434,-11.959019995032827,2.1987987246365286,5.922624690446226
496,3.9867277432270614,-11.753734905131807,2.2843173045449254,5.9924389124711555
497,3.845576563640691,-11.450684325978974,2.4371371591965345,6.165583958953367
498,3.887901483468788,-11.083545956568758,2.6306945356081566,6.382677518033118
499,3.991403905906022,-10.669902872853054,2.8256458445250674,6.606741042209951
500,3.9935721027732836,-10.231838686038985,2.978109881319586,6.800738020565824
501,3.958292284411258,-9.797611690668946,3.072566016256336,6.966629317106919
502,3.9960470924467275,-9.38351851390818,3.1088606795127918,7.1207497968888696
503,4.051967430815427,-9.004680016926573,3.0715404991573134,7.211418315366384
504,4.047120951690547,-8.65338169223885,2.9541568943195533,7.182950721432345
505,3.9761333895961197,-8.24837581101027,2.7865186675184312,7.082173239757287
506,3.8568375797738668,-7.708358325722688,2.607714130481892,6.971405514909973
507,3.762152635092912,-7.042107689920079,2.442041359161299,6.808736227987495
508,3.7679467899533243,-6.303583136816816,2.3041388741533186,6.5512667265704865
509,3.8119160232979366,-5.560452857192995,2.194710426314293,6.259531470698245
510,3.804914122768245,-4.871404247952563,2.1057153404342377,6.017281385987282
511,3.806719041815486,-4.229100279159644,2.0397157363955047,5.9008719735701005
512,-19.074373028050264,13.256513412343878,-8.872321960145603,-14.692534958475612
513,-19.1719999657849,13.546269369202495,-9.301966641547809,-15.16564368087126
514,-19.221921177394023,13.76084598130215,-9.771854217077028,-15.747614802278239
515,-19.322315095271897,13.973529844868475,-10.253867830010599,-16.341456778255917
516,-19.552835191046448,14.275003659837738,-10.710714806099467,-16.82546298323776
517,-19.76694181091629,14.667629555569958,-11.11468869311876,-17.209736497392683
518,-19.79446219859903,15.117383088363797,-11.449181966162804,-17.528637995330087
519,-19.685093964014776,15.556604332681914,-11.718815495906485,-17.77249189395218
520,-19.53674103893139,15.926576715111878,-11.941485650340095,-17.93944399744655
521,-19.356238510444037,16.27274277577341,-12.128704063351709,-18.02660530386319
522,-19.14662673046441,16.6645166890339,-12.294781857393735,-18.04395489154318
523,-18.929510064172433,17.089014614369752,-12.471143027413047,-18.08096185348932
524,-18.720435963522334,17.516648146899406,-12.678163179354705,-18.212171017490192
525,-18.560481519059127,17.96726290577822,-12.903130258147069,-18.381161576317133
526,-18.484923884502084,18.43863243702799,-13.118582574543503,-18.50331452302993
527,-18.453206645478637,18.85176140229629,-13.286411207498984,-18.55058061347109
528,-18.42389764170995,19.12091177964528,-13.382712791279566,-18.523507181411947
529,-18.453619741039674,19.197080205170334,-13.435819395049217,-18.471364351627166
530,-18.597215277532957,19.069911523736838,-13.488491685766224,-18.45301163223677
531,-18.807334638109655,18.799823634187195,-13.560458689883571,-18.447548476533036
532,-19.01500889558763,18.465566973959305,-13.653914418869016,-18.42054259162301
533,-19.190036162908548,18.08833001707716,-13.74584586747317,-18.41880568193341
534,-19.313388750894912,17.668067208877158,-13.804359731339998,-18.478562727021167
535,-19.377024037035476,17.21464867629802,-13.816364336417722,-18.53198581857792
536,-19.38668287801788,16.722775632818013,-13.78223611375086,-18.506007037561137
537,-19.342783190024807,16.180919418166855,-13.708966865778851,-18.396779788584663
538,-19.245703492775267,15.564085681993447,-13.612572533792946,-18.226086871409322
539,-19.108650688460653,14.792017218227048,-13.518644898261817,-18.049476990218047
540,-18.93334242036868,13.805285522703919,-13.446745146515244,-17.914112494325003
541,-18.70116686262913,12.660033839863653,-13.393308009209177,-17.751157781721833
542,-18.387113427078308,11.445874230405277,-13.34634761101846,-17.48892494397214
543,-17.92677440682691,10.204529515781507,-13.300956913872442,-17.211049645099795
544,-17.292057358898685,8.964997136587964,-13.255068171281728,-17.006736652756693
545,-16.6309691981277,7.753996687264988,-13.208851650877056,-16.825981205536422
546,-16.08829715488349,6.57873235860942,-13.166892773599251,-16.600268238553227
547,-15.585624682369684,5.443781811675643,-13.136640074396205,-16.2984988755711
548,-15.00566931258179,4.337612241437036,-13.125162114121768,-15.917393099524398
549,-14.355704997853422,3.1986533482559545,-13.136855978834516,-15.578493215639988
550,-13.666689080813423,1.9746614017440491,-13.172471638692306,-15.381960448491709
551,-12.972878283108058,0.6824247935758954,-13.227502957261006,-15.163004697050981
552,-12.299957184393874,-0.6340849449637347,-13.295417298556215,-14.7425416481311
553,-11.557472918372316,-1.9256710887574071,-13.370724159752998,-14.211330272934637
554,-10.659807852288763,-3.157653421173905,-13.44750776046138,-13.704507951705336
555,-9.714860080092354,-4.360211641412822,-13.521861042863565,-13.222919070414209
556,-8.841865659875303,-5.580949884571253,-13.586314799704578,-12.74003090895454
557,-7.972355623153763,-6.815145803156662,-13.619188255253938,-12.215432383933871
558,-7.0187299667069105,-8.045847956557473,-13.598619175861021,-11.610670031409256
559,-6.0002519109974735,-9.29551003165203,-13.522217667467674,-10.989098255781663
560,-4.95994997577923,-10.57284958888598,-13.393978451279148,-10.422898209200811
561,-3.9687893156385483,-11.814423651799387,-13.204483919229059,-9.860519041723657
562,-3.0793782618002603,-12.969415160093886,-12.95778104828725,-9.23844360065002
563,-2.1849310949600835,-14.074916766311814,-12.665717855713593,-8.586141782264399
564,-1.1751384722669966,-15.201638125007154,-12.358685943744131,-7.945409981807743
565,-0.15296271211397328,-16.42779597651186,-12.051504951989779,-7.325976370772251
566,0.7601165394913452,-17.81178845992356,-11.726585250839937,-6.725299788301874
567,1.6209900912707733,-19.330465222958185,-11.369737696751846,-6.106672036352145
568,2.510103713881332,-20.929223304267584,-10.96954258207258,-5.431847580205498
569,3.4283914524718724,-22.58809291724305,-10.54996048076257,-4.72081870722119
570,4.360265370395956,-24.291046858400176,-10.129332765671546,-4.004870741598632
571,5.260961776096045,-26.010586376318773,-9.71241422693117,-3.2746416761828083
572,6.070188752130297,-27.6554717668361,-9.299125609616327,-2.5018961888131077
573,6.799646314497022,-29.106198749856976,-8.912003257732913,-1.7901473822026284
574,7.464123431819617,-30.234084398828774,-8.573541928278972,-1.207047906942417
575,7.975899279423828,-31.146942947442728,-8.30615160799589,-0.7907143872101497
576,8.271545008885758,-32.00964394636136,-8.114382314175515,-0.5278470509771757
577,8.448460658573733,-32.7424493599762,-7.989849222529063,-0.2529591673864338
578,8.626822713314107,-33.29130529601995,-7.914380134315162,0.19023386407756898
579,8.849464410383863,-33.63088626327836,-7.905307274407163,0.6909268375818873
580,9.114305396511394,-33.77661635229161,-7.899634523815301,0.9873795484027289
581,9.266131635997285,-33.88312643435582,-7.956014783579084,1.197642313387181
582,9.164550950872563,-33.954685747561285,-8.058374740876594,1.3966634343492048
583,8.978583229027185,-33.97076211678521,-8.195841041622089,1.6035312404353428
584,8.935846079335182,-33.909116375096936,-8.355541806432186,1.8317765827549801
585,8.97033410421231,-33.78152530218835,-8.534720483030924,2.07159776396659
586,8.946359538157237,-33.6138332347338,-8.716435372115122,2.294439998095864
587,8.873932272006225,-33.422883352238145,-8.865031227137203,2.520726585629329
588,8.78561879338341,-33.22204149422278,-8.924349390018245,2.770972470234562
589,8.713803175551442,-33.02582600484514,-8.831869729361086,2.968393308196325
590,8.685918397254362,-32.83653678382779,-8.579014825077248,3.0380057608266546
591,8.587095766934343,-32.631124548885374,-8.211654742664134,3.038872607452781
592,8.297556663005949,-32.385441056081696,-7.780134634540806,3.0592148262636485
593,7.94433867031025,-32.08895986880361,-7.318199238664022,3.11337951457919
594,7.695002753740343,-31.74875902098456,-6.841262913896229,3.1897970952862473
595,7.493163989798659,-31.42753977882786,-6.356790220189763,3.2452577849944118
596,7.231295568422252,-31.18371161848525,-5.862193314929613,3.2394534595438325
597,6.903205321861218,-30.963225978382326,-5.351406641063205,3.247390538046306
598,6.525870874270664,-30.69005761442202,-4.822273913973879,3.3558019179177707
599,6.140962362434069,-30.383687460087373,-4.277530647603126,3.5115089603539413
600,5.793468109003596,-30.08881195837191,-3.7279402576312664,3.6256286673141327
601,5.422277630450885,-29.82141966461511,-3.2048017051268785,3.66266123465015
602,4.950234246326996,-29.58794092144196,-2.7371540803364494,3.613102834507342
603,4.428921460020704,-29.35900177798552,-2.3131341473042366,3.543513407132451
604,3.936002935858101,-29.099784399162612,-1.9140501021901364,3.530135279226103
605,3.4657907019336496,-28.839967202211568,-1.5318926201839071,3.4878454023134955
606,2.992124747866154,-28.620278817263124,-1.1761179646656374,3.31515622398529
607,2.497796696940399,-28.4286511460179,-0.8498883684798895,3.116829328220316
608,1.9700211033190635,-28.231801086008026,-0.5426291008574549,3.023286984789019
609,1.4494303400178956,-27.990134795462545,-0.25085307399556933,3.0005245787471697
610,0.9896020290661103,-27.664776477278885,0.004633529873792189,2.9657300358151937
611,0.5625117914155927,-27.25206268554475,0.19586307053454516,2.8325490761918193
612,0.1343649076192815,-26.76502547273952,0.3237859645743269,2.537540080245342
613,-0.219309465656223,-26.196470576446508,0.41593329875887947,2.192617114108388
614,-0.4156310282133335,-25.541437008139845,0.48601402023323037,1.9429238951080956
615,-0.48223105938735605,-24.822247146068374,0.5353811255319403,1.7040016873022574
616,-0.4805234059792969,-24.064966599576483,0.5578920300642329,1.3560768410932311
617,-0.4387442835973573,-23.279062508742463,0.5641214092855606,0.9951067844370238
618,-0.37755832305385645,-22.467061288312678,0.568597834850997,0.7493150303880863
619,-0.30603158236508476,-21.627618866889847,0.5783512180781463,0.614962870990766
620,-0.21815642882400663,-20.754632871607747,0.5974794164379442,0.5492483184715586
621,-0.12048965107893866,-19.848579209633975,0.6244101148696306,0.48690620381548827
622,-0.017748737922894234,-18.908283672145057,0.6537944388309587,0.362780732134295
623,0.11615228232537371,-17.909716477096904,0.6898344970608796,0.2386125165541711
624,0.29364969318437334,-16.82967017626257,0.7351343791234461,0.1980292769387514
625,0.4918142631430529,-15.683405070213226,0.7677272458822515,0.15214091160811682
626,0.6642480748294776,-14.497860540974008,0.7733052878134345,-0.006677256355972203
627,0.6696159091951905,-13.269644583292248,0.747510334344142,-0.20820897544332995
628,0.4055646152971942,-11.99896391439651,0.7153353684467075,-0.34930664634348163
629,0.07356928133760605,-10.729373126777704,0.7054847112771115,-0.42521773432426835
630,-0.08062710966587373,-9.504805269742144,0.7268323465606344,-0.4569628503256409
631,-0.1270517344835711,-8.343393925414352,0.773614404350164,-0.48704210679042825
632,-0.21751320734872012,-7.240583434877442,0.8575016123029092,-0.5526719852246779
633,-0.37093344335308415,-6.127781865889503,0.9933862740088252,-0.5647033103787998
634,-0.566057420131076,-4.94473536943273,1.1926704034340363,-0.4238048891064628
635,-0.7023591748122388,-3.762304591648101,1.4350888488940716,-0.21089541172692738
636,-0.6821669001050198,-2.682759024334058,1.6861793710464952,-0.049283388981728474
637,-0.6382657101420628,-1.7290968505972597,1.9156398115549553,0.05963221834683105
638,-0.7534427254184131,-0.8868962117301764,2.100170852282017,0.14153121322389198
639,-1.0022005880935774,-0.1008618452943903,2.236069000774866,0.1794169618645089
640,-17.772783702996993,20.23110139977888,-9.144275911555258,-12.795732188921464
641,-18.55114142552001,21.20512733311439,-9.326096991001792,-12.983251738761208
642,-19.277114707102445,22.08951699253877,-9.511662019066932,-13.297628178291149
643,-19.93406419912887,22.897249752124573,-9.688242747050694,-13.645267261254219
644,-20.52922235186113,23.643971618909408,-9.847629442122608,-13.910798105278
645,-21.061672105467395,24.333268094488535,-10.009387387226372,-14.177927044705122
646,-21.52724395196903,24.96917984482368,-10.19617837345766,-14.540259836260253
647,-21.953262795274064,25.549145112009466,-10.420487034117158,-14.947159658569962
648,-22.347298409132087,26.07784329287394,-10.684224183930224,-15.324995021308224
649,-22.616640953291487,26.600992315634816,-10.96525026170589,-15.623052490576297
650,-22.684576511775123,27.157386240294777,-11.237036251685389,-15.818729576883227
651,-22.6105027035488,27.721650499480663,-11.498406067359605,-15.99727589927441
652,-22.489938941141162,28.25119984057638,-11.754017364003436,-16.255413077636796
653,-22.40442222763177,28.725974959367992,-11.994433567059572,-16.564779691107496
654,-22.398445628941246,29.133133369111366,-12.212299183886524,-16.866253806303327
655,-22.36507084847864,29.47352905381266,-12.40949878119328,-17.157391143765565
656,-22.19355509588343,29.752758930971392,-12.591271780189993,-17.437864314741653
657,-21.9915140373107,29.95138982269638,-12.772967531819837,-17.695348261903884
658,-21.88488739863729,30.05397066069288,-12.965867992819906,-17.92073638459329
659,-21.81297956685401,30.08413104714405,-13.150833098931285,-18.07494174012966
660,-21.683410243333302,30.07337658463032,-13.307460890064048,-18.13431035493417
661,-21.46763526875554,30.03361169869068,-13.447601387641358,-18.17350998665405
662,-21.16030926380987,29.968578657579542,-13.586491738445641,-18.26524317550266
663,-20.81860210235169,29.880648501017177,-13.723684175747717,-18.366898136254605
664,-20.506272422094792,29.762955975649195,-13.849370534239888,-18.411982869876347
665,-20.17861481264272,29.596128202336732,-13.932962864474698,-18.378436073755086
666,-19.776007620183677,29.367256417715947,-13.946730111683895,-18.258906125198635
667,-19.336217738931857,29.075183009180243,-13.904776629958493,-18.090210867586805
668,-18.90198875496433,28.732823896100612,-13.832554948227548,-17.911009895035992
669,-18.446998201394727,28.397806286231773,-13.72906439890308,-17.649812881778022
670,-17.939473850609303,28.09691275340675,-13.59444138202903,-17.25141691380674
671,-17.363199587712923,27.80275680442373,-13.453609920838156,-16.84327259652346
672,-16.718955015151586,27.43855022717634,-13.327184515464008,-16.563787079850954
673,-16.07837241766292,26.950296538144322,-13.214929536142376,-16.40230746664606
674,-15.508014169037867,26.364530177870428,-13.103550244589053,-16.30281306378055
675,-14.954711542938227,25.76041340628071,-12.960711074687254,-16.207907912727777
676,-14.357323448264516,25.138365870273333,-12.758098809847061,-16.068079143326127
677,-13.751534959015824,24.406282101416938,-12.504583589802662,-15.930794970664016
678,-13.194027599235872,23.525400371888615,-12.22496225463625,-15.854096657193613
679,-12.747381836371108,22.54792155106243,-11.934655591302116,-15.763381595996675
680,-12.44373852914008,21.525954000707852,-11.64898653024876,-15.57984139851258
681,-12.16078228820387,20.444488114392716,-11.390851644694719,-15.361759599367643
682,-11.76972646354281,19.234107878189285,-11.170768126460878,-15.177656502042506
683,-11.358979344791875,17.876939419100268,-10.9696559056316,-15.004901887915794
684,-11.031360585654891,16.42527098473618,-10.760375384315243,-14.803452808440682
685,-10.677961521136726,14.932597419590449,-10.526864627270731,-14.536743792858292
686,-10.184202234441898,13.419739094283285,-10.262327105568271,-14.179277749633037
687,-9.587598799797629,11.896633394334671,-9.972174472356976,-13.791085413893986
688,-8.962760648291649,10.351770418195462,-9.670124342680122,-13.435281317372747
689,-8.407243703623836,8.798245179792202,-9.36948638174807,-13.033149999822506
690,-7.984692587149319,7.229381213569856,-9.079245217806418,-12.508808063550903
691,-7.557720609797773,5.6250308885147335,-8.80118724421111,-11.967253683861388
692,-6.972448275565059,3.9434402458528703,-8.528799478624517,-11.516291841485614
693,-6.31270537910359,2.1979923530815157,-8.246324606779408,-11.105162833581938
694,-5.693261673285631,0.47463382653465047,-7.937620851712989,-10.65014141469043
695,-5.054085324342482,-1.1579773850215331,-7.596165932268443,-10.093158032393386
696,-4.322902883424049,-2.6982716536553335,-7.221944003058907,-9.405809778899501
697,-3.5158583349226005,-4.18532331097198,-6.819190285625637,-8.681449086728152
698,-2.6621228541318303,-5.639294286489864,-6.394657225801359,-8.020309770582564
699,-1.8243043647701471,-7.06516372012027,-5.952642032964433,-7.354622845748861
700,-1.0480724102317929,-8.457140029807459,-5.515578400492013,-6.597677213104065
701,-0.21700500959243724,-9.859514057378107,-5.111549000671945,-5.840675963562451
702,0.7674779338720161,-11.287309637643016,-4.7772760190331365,-5.182745286560288
703,1.632488219051222,-12.74282571344381,-4.5450009169534455,-4.660321879826254
704,2.1120423669049506,-14.172408831802896,-4.421624038519793,-4.264880162748042
705,2.4265634488091625,-15.46021838423505,-4.35271277863147,-3.890257608001822
706,2.860853245285207,-16.561360183301247,-4.278883253476146,-3.4377711460137124
707,3.3944300562998757,-17.55315022730441,-4.1999868378222445,-2.973563698009182
708,3.753457149519915,-18.93032889047006,-4.221618785866143,-2.721118048449652
709,4.022417028571956,-20.26526961044557,-4.224683357489178,-2.5064425489118265
710,4.088875693886736,-21.559892946375324,-4.1940858154504115,-2.273443912396945
711,4.084738364341791,-22.810379134750896,-4.123068420234384,-2.008229579792574
712,4.188479108393488,-24.055724198909207,-4.013197818606065,-1.712937723482402
713,4.358354519568668,-25.339114121410496,-3.8756180416630577,-1.4187273981981683
714,4.494921559118913,-26.698065969051495,-3.725971119941372,-1.1594093257917255
715,4.583419218050243,-28.10988357974772,-3.5771887454820646,-0.8666173587217478
716,4.624478932690631,-29.521611872199745,-3.438868822434671,-0.47086923925264423
717,4.644881825326685,-30.881824554553845,-3.320149429599975,-0.10281293995373675
718,4.6843750806461095,-32.149990012863455,-3.2254909150456514,0.09483729389492916
719,4.686944290638712,-33.324778099976086,-3.143662330893017,0.24069775920704675
720,4.589708924905656,-34.4243724031657,-3.0626912357873928,0.49199590539729704
721,4.499234436685749,-35.45295329871781,-2.9959058480527494,0.8015529572916938
722,4.528882225152353,-36.405082322002606,-2.957113276141347,1.0682903871057616
723,4.57460709357617,-37.26639583230933,-2.9313948454617065,1.2171834428291968
724,4.497098817149969,-38.016685847229816,-2.8951164097486823,1.2047722476363392
725,4.307318499815745,-38.63551506379713,-2.826466736923688,1.1510022764966628
726,4.065408633883984,-39.11525300907973,-2.7141329999823918,1.2100613484563199
727,3.855572399116996,-39.48196262393033,-2.5826185546518095,1.3302229500610816
728,3.752765843178414,-39.77069489458776,-2.46745157226311,1.410124579976816
729,3.662080777819176,-39.997318047486864,-2.380734986368697,1.4984541561457874
730,3.463597628507857,-40.164469203631974,-2.3215387623884243,1.6586327873870041
731,3.2662643417106607,-40.249074538419386,-2.27806430478392,1.8589157141982915
732,3.2133518970366026,-40.23335348662735,-2.2324413312297944,2.0523431289361587
733,3.249987422955392,-40.11214904658255,-2.1867928206687517,2.1890326396705677
734,3.2728280085746073,-39.90680366636158,-2.1464242056487177,2.2389315672520325
735,3.242837097285707,-39.607766244394284,-2.083524751861686,2.3006814171148733
736,3.140878524686725,-39.16008331362463,-1.974437967272334,2.4857448501188477
737,3.0063920729105598,-38.56935447445177,-1.8447858581751815,2.7321772519556893
738,2.8960160995262942,-37.92466554897349,-1.7327484472699566,2.9349641554916905
739,2.759816598836664,-37.27525658753702,-1.6597375433153427,3.091716202371533
740,2.5359137903616467,-36.587086782723055,-1.629292848862655,3.228755337858493
741,2.2850372858206907,-35.82393558695194,-1.6079728530479325,3.3704126487100874
742,2.0874127209892652,-34.93921281854389,-1.5501768597892698,3.544321505289253
743,1.955548924911418,-33.93656236445658,-1.4354436978912193,3.7176566707834526
744,1.8707700216394403,-32.85672308491603,-1.2646020578429018,3.8444069722480454
745,1.7544633849053315,-31.761991124195532,-1.0605779175037613,3.9767061739033394
746,1.5281539283937047,-30.710517756150338,-0.8576198453661764,4.16911827439452
747,1.261709458954926,-29.704258482316227,-0.6801819051868649,4.340116630603651
748,1.0521316192538848,-28.716584311201533,-0.5396689741983589,4.39271660194075
749,0.8383942478173203,-27.74337878464341,-0.43214312412482747,4.342848514506889
750,0.5341203741593623,-26.78741424335073,-0.3454144465876376,4.244170464630098
751,0.16765077937191575,-25.82403799550967,-0.2641411959290604,4.152906002490505
752,-0.20841367742480205,-24.8565380012778,-0.18167323961277212,4.117356051528924
753,-0.5558756905620283,-23.947212949244832,-0.12703263802166137,4.089095580903432
754,-0.8469370211171183,-23.178692064381735,-0.13125095539646847,4.002292720919302
755,-1.1531242485233713,-22.54838881030555,-0.1794422097224271,3.9252719896690804
756,-1.542948015227762,-21.97297080571696,-0.24053819571563317,3.938682489594997
757,-1.8879293562634938,-21.381114089453735,-0.2926510179380074,3.9932537668642554
758,-2.0295717824256796,-20.762534487152895,-0.32258436348916997,4.008445507937649
759,-1.9917443534926016,-20.112921736299025,-0.3463639714044017,3.9249297009075446
760,-1.8578735101435553,-19.45023810217561,-0.3902430242687476,3.7141260991889635
761,-1.6636428717011353,-18.76425083534961,-0.4501797357973768,3.486846468030202
762,-1.4392308956789697,-18.036283430762317,-0.5144048255271032,3.373624472419111
763,-1.2025668917226553,-17.27441166228802,-0.5957394963347916,3.2955579093244762
764,-0.9487308178711394,-16.491361777109578,-0.7042785507143856,3.135102978437909
765,-0.6806935480976267,-15.689143516418367,-0.8214800156889609,2.970876143238577
766,-0.4053854021790627,-14.870676165149156,-0.9220839512768888,2.9063941565081914
767,-0.09655198191519201,-14.03223777031401,-0.9876905487093877,2.9055446220357024
768,-10.163943119179411,3.6396266333274374,-11.826791500352812,-8.568230231276678
769,-10.564890569167728,3.986007457354166,-12.15705447081844,-8.826222970346498
770,-10.959485355149987,4.2789008376499735,-12.502951181025972,-9.213348075467383
771,-11.40406183220011,4.576267275931324,-12.859924831939603,-9.630085761921109
772,-11.94392187481595,4.937270324443342,-13.221291055190497,-9.9611702128113
773,-12.528859896131449,5.351295341654398,-13.601264860551156,-10.2939240087039
774,-13.083581383501972,5.783875328222685,-14.004866730396706,-10.720955141260296
775,-13.643918906931669,6.193007626918381,-14.397501175517581,-11.170731957405604
776,-14.234352715112163,6.538887456847644,-14.745537760444138,-11.549323734310965
777,-14.711576637937235,6.822152216563751,-15.013507819149044,-11.799609213729573
778,-14.94981616377399,7.0541255409315875,-15.207331308831387,-11.900065417936647
779,-15.010967907379145,7.219731588115305,-15.359521154700339,-11.97487232520322
780,-15.007075233355186,7.300134322257368,-15.509749632073543,-12.145775058483636
781,-15.034020135157437,7.278722026832686,-15.65735773068171,-12.287567671344407
782,-15.149629137947498,7.149216970530977,-15.793306013449882,-12.260157994644093
783,-15.244416298677065,6.946366374309759,-15.904270043811511,-12.17680341716583
784,-15.196631516377648,6.709644625570837,-15.990521270898649,-12.17720467478818
785,-15.11319831602401,6.428391218157877,-16.046031159236943,-12.23422669720582
786,-15.124743858280995,6.0831313336891775,-16.05186263854921,-12.295422256481833
787,-15.162400548515285,5.703134914757595,-16.0128867061468,-12.342476353525317
788,-15.143712961145512,5.312015522142944,-15.976293436832133,-12.364425086671055
789,-15.105965229069431,4.860007235162747,-15.98001797626785,-12.430445438795307
790,-15.101302527359369,4.307650776209538,-16.05169667827051,-12.598513280172268
791,-15.194891534723599,3.709603700407526,-16.174848380304134,-12.744667115896437
792,-15.416880142691541,3.1364755606183348,-16.312711262337213,-12.743848901772942
793,-15.599903536849947,2.6203266024541834,-16.439472489619025,-12.680971692922931
794,-15.585519700067412,2.168396479277977,-16.536000419496627,-12.672381510395878
795,-15.505741734623443,1.73329447132011,-16.59379506201796,-12.716024880711403
796,-15.53447288185125,1.2614468025373877,-16.615568854302598,-12.786642442952502
797,-15.637695589154024,0.7811929045903228,-16.604402959393607,-12.854954997090926
798,-15.745978738823174,0.3283607401756926,-16.568785965661075,-12.897499523165552
799,-15.86204594426003,-0.13826353434695687,-16.530334089570875,-12.990913970303486
800,-15.991350632308741,-0.6677060376587011,-16.508572582586563,-13.203963498222992
801,-16.156488994296797,-1.2649411310609338,-16.506687632634108,-13.440349882786448
802,-16.376145068914454,-1.9223709423026596,-16.518228452625216,-13.587383896556332
803,-16.58461192562211,-2.62250472118326,-16.532921928026962,-13.659970205552593
804,-16.71162242647756,-3.343064322838773,-16.53571904862424,-13.70232119294122
805,-16.78828081719802,-4.090355943503918,-16.511255150365745,-13.742541994102421
806,-16.859006804713083,-4.867160053602669,-16.449398688169506,-13.798780413100678
807,-16.896600567442363,-5.626168356325336,-16.33767544299447,-13.811113043484617
808,-16.8712440732355,-6.318329529593807,-16.175586919417505,-13.719740486116295
809,-16.788692832733144,-6.937997869702657,-16.00554447924333,-13.600002601944208
810,-16.662280694346002,-7.493944506469477,-15.85342409913495,-13.531195948167325
811,-16.536303261895373,-7.99670805304272,-15.710389230712202,-13.453278344442394
812,-16.440053496685124,-8.45646348470427,-15.526325064130768,-13.289632449184756
813,-16.28639628907027,-8.858403403085386,-15.249839840404029,-13.032283577988158
814,-15.993114341643691,-9.185604046685079,-14.878293544923899,-12.698432831242899
815,-15.631527267432306,-9.458745691583553,-14.452166830877886,-12.35828849163566
816,-15.287626666524941,-9.69929617985177,-14.00467453157162,-12.073648040061927
817,-14.961574011340566,-9.883207977191544,-13.547011802112111,-11.764030221479263
818,-14.61950051676894,-9.981364523155092,-13.072385509331959,-11.34118136722622
819,-14.141083072327634,-10.011285158708173,-12.572392755427517,-10.880652408093182
820,-13.44178825043976,-9.987917300365995,-12.03593001487909,-10.470919128873717
821,-12.709628818427035,-9.865987962038531,-11.454005386981715,-10.081194914144618
822,-12.14424920337094,-9.613042650752268,-10.825946977856024,-9.661422344636668
823,-11.643600308943517,-9.27416682901091,-10.162922596909734,-9.169727167267897
824,-11.055622476954984,-8.92096318914292,-9.480671159719883,-8.583384219007094
825,-10.387641198612545,-8.624082209687277,-8.792452933467208,-8.016666987299704
826,-9.682440825487255,-8.436175086452158,-8.106507494655776,-7.570156170989317
827,-8.99862553478649,-8.346726010913406,-7.421702497898534,-7.082561456337409
828,-8.38054420036623,-8.34140412597672,-6.781584809565394,-6.4450024384625095
829,-7.854574394084258,-8.487696797723386,-6.28650556933779,-5.8816695918398905
830,-7.403849479977331,-8.840854889738225,-5.980030356091089,-5.661497510795969
831,-7.142367022071731,-9.310757347990895,-5.81601244390342,-5.7368559485699295
832,-7.141191648491644,-9.768932522730967,-5.722768819625499,-5.9510265639920314
833,-7.204815532996622,-10.185505452987782,-5.62360894691285,-6.1921416383716625
834,-7.121477980565002,-10.57054532246552,-5.482427727881779,-6.373095454474424
835,-6.932235164091419,-10.9419224402892,-5.338297008532548,-6.531744442131286
836,-6.89680255736151,-11.549972821381369,-5.058970584154919,-6.730431407976813
837,-6.857659724674593,-12.13487203579549,-4.826398593402081,-6.90437773099073
838,-6.812079855165058,-12.655200633466906,-4.640240413662191,-6.945735091238919
839,-6.701834160401305,-13.077783960294699,-4.487312093014268,-6.874969915810407
840,-6.46864726136301,-13.376780884951788,-4.342468867599578,-6.7497126418844555
841,-6.184475391265741,-13.555171423430732,-4.185117212947277,-6.605869419162832
842,-5.946965132255854,-13.632708575708987,-4.002696589289468,-6.475223859625919
843,-5.745900557645449,-13.606967401923487,-3.7848357461258235,-6.3257630739727
844,-5.540417629906281,-13.481614042397279,-3.5317819031053768,-6.119132492029407
845,-5.299853340989186,-13.312048709976292,-3.2704775874601797,-5.950337725534478
846,-5.004196645988597,-13.157079802282158,-3.021114777108281,-5.9186148735327
847,-4.730727659206179,-13.01983584787808,-2.790279104795283,-5.951448916290775
848,-4.563113172128079,-12.884017056901738,-2.548677375588435,-5.936523800388791
849,-4.405069550112746,-12.750358841207499,-2.2865920305231895,-5.839874568690689
850,-4.136508228959862,-12.615922892632039,-1.9992137248621176,-5.663831682752949
851,-3.83317956725729,-12.472390469708403,-1.697325766698925,-5.482319420022395
852,-3.603717024135728,-12.31024988041808,-1.3984154784973872,-5.3787269737425625
853,-3.4243618187686136,-12.09570431807732,-1.1035337921121675,-5.279793375247084
854,-3.2419135319106447,-11.80884431268441,-0.8094568910508606,-5.084527399505192
855,-3.009678602657367,-11.499955316836228,-0.5210392251949567,-4.873258939457509
856,-2.6964759891111627,-11.24089776107562,-0.24552884367736486,-4.751659192139717
857,-2.4122569643267924,-11.076767276441897,0.002268737862978959,-4.657931726182969
858,-2.2786183844533587,-11.025051564494314,0.2110721686537339,-4.507881965620638
859,-2.176149636692044,-11.053821649767066,0.3959845149364309,-4.334916834407393
860,-1.953527965550668,-11.104303423778804,0.580238313141,-4.192551052597776
861,-1.7141514303660257,-11.139985997515673,0.768852964356233,-4.103529869150024
862,-1.6052669089723435,-11.1379960916652,0.9606865258669259,-4.075234392763213
863,-1.6118718649552892,-11.061974580939365,1.164348130976737,-4.036747807443664
864,-1.677466494601681,-10.892488194934595,1.383475070740453,-3.9164433744589373
865,-1.7355943960570226,-10.682617129948405,1.5995324580759052,-3.797026453324964
866,-1.7328332977928704,-10.4822647950305,1.793578811380958,-3.7873185141398205
867,-1.783957105146322,-10.231730934264592,1.9690205670560186,-3.857324538474008
868,-2.019850246913851,-9.848545777961654,2.1390049178429638,-3.936721880232328
869,-2.3298124410772827,-9.316890872102144,2.3192023943031996,-3.994490620137599
870,-2.55142889677858,-8.656969424116337,2.5215389470065537,-4.011109965561093
871,-2.6887059750829407,-7.93148255073557,2.7380800878766354,-4.003762633398029
872,-2.7928483545740486,-7.2125591347171785,2.9513378140925792,-4.006970022940844
873,-2.893174180684259,-6.503237234254191,3.149033703633275,-4.002127318114068
874,-3.017935348498789,-5.779695440087749,3.3230372262311927,-3.9637078160906922
875,-3.1301320799084227,-5.0482184588742784,3.471399097913543,-3.9344178307938438
876,-3.1760404442103214,-4.320988063707738,3.5972843798479417,-3.956700515177017
877,-3.205065675491668,-3.6129299629145617,3.7031173131366963,-4.004141885249465
878,-3.280035330341648,-2.9451428155296964,3.7823083793310626,-4.034324971294903
879,-3.348654012818685,-2.309338537947352,3.8481149672221457,-3.9995927622342378
880,-3.347456913682437,-1.7003859140803719,3.889692767192668,-3.876161374903755
881,-3.306244468407766,-1.1911654314949307,3.877457725865697,-3.779108858878865
882,-3.275313095408248,-0.8480797579389812,3.7883246357794778,-3.8290107227028107
883,-3.2998583759056315,-0.6168776188724735,3.662135879444597,-3.929592195926317
884,-3.402983379613297,-0.40853614875530464,3.5464386507729664,-3.9409531621159632
885,-3.482670564598774,-0.18210654510319912,3.4711887675430497,-3.881991909034889
886,-3.4289287400913326,0.07854545598626828,3.428878243031108,-3.8147838379904084
887,-3.3205177208570165,0.34365686604684126,3.3933951678271526,-3.786358377049536
888,-3.2758518957376124,0.5664065868033767,3.3593236669662705,-3.828360405284214
889,-3.2838546149283276,0.769803333874871,3.329183603516273,-3.8454543581294374
890,-3.2894531865586143,0.9836366128230607,3.3174660927221664,-3.7229722631708992
891,-3.230578121039052,1.1492368836318043,3.3239152793505666,-3.5448985461160856
892,-3.0468482800789687,1.196570328324068,3.3455596385096156,-3.4282896313900584
893,-2.7725158386759188,1.1203131058637337,3.4013140493953165,-3.2902027682791246
894,-2.476476965459513,0.9416463311500837,3.502982243123753,-3.027149596750229
895,-2.11941727015716,0.6949173885881186,3.6207640700770263,-2.6970179764152618
896,-12.6594739360588,0.3083213853808909,-10.283473996146913,-11.586256222827283
897,-12.672744007192874,0.67947031775868,-10.497950093329905,-11.68995519094397
898,-12.682531066377244,1.062361875739302,-10.692817804877523,-11.781380534298831
899,-12.680065276075698,1.4842067546465,-10.863677403346975,-11.804147163112878
900,-12.652204595002646,1.9645159391421945,-11.007166121208869,-11.707716520096243
901,-12.567909077302126,2.446610425260314,-11.138276853870535,-11.559586795638912
902,-12.413429399966274,2.869406605485684,-11.2741675289577,-11.439268052750371
903,-12.286732651904241,3.2268685344735286,-11.422836549919811,-11.318195483015781
904,-12.285028487401943,3.5381664018296304,-11.586263981383672,-11.158142281760908
905,-12.361980312208143,3.854274094071245,-11.755509957270434,-10.985504553371523
906,-12.445938422468029,4.217778737334882,-11.920996251129262,-10.83837056164241
907,-12.545634492592407,4.582595419133018,-12.08758989297868,-10.766689179355819
908,-12.68159558285157,4.884645331420535,-12.264099007367363,-10.807489992031726
909,-12.869407153993894,5.135299721914062,-12.455534269237804,-10.895692536028132
910,-13.116662165001241,5.351795566493481,-12.662701735906522,-10.966008836496153
911,-13.354478758824897,5.489529948768194,-12.875752921205251,-11.10494489571728
912,-13.518921155666929,5.5095285023126515,-13.083507048042975,-11.397458952800443
913,-13.687618201380834,5.427641111735214,-13.285023812804093,-11.771374768462223
914,-13.944114191335773,5.2729540542255995,-13.485443931875547,-12.130701718328607
915,-14.212897661663394,5.074310701565171,-13.691573219945145,-12.427567772426194
916,-14.410965668977106,4.853317725044202,-13.908757523024304,-12.649346886911802
917,-14.587580843030459,4.585158315130989,-14.144685513357654,-12.912864492449655
918,-14.80729664449593,4.24815255039772,-14.396772828867526,-13.322598907108635
919,-15.087984076612308,3.8906295218370195,-14.624779591298255,-13.7257249624585
920,-15.422808444698903,3.5729015823439063,-14.795192442459365,-13.954396621337104
921,-15.720530190764498,3.31795056317075,-14.936160250627202,-14.112092067219045
922,-15.895402374605071,3.1313891161660234,-15.087473966236676,-14.331728401585838
923,-16.035441916790848,2.997427387744813,-15.25654084664636,-14.570125649560675
924,-16.23519201153065,2.8954395661195163,-15.436890295849516,-14.75589292853932
925,-16.394376614386154,2.8370786922189546,-15.607673223366254,-14.847487244277936
926,-16.40206172218171,2.8434161744120376,-15.746162534768716,-14.825272992033675
927,-16.28687489381821,2.9119890965276944,-15.855657614336161,-14.776632828033042
928,-16.11718968593008,3.036837697817892,-15.94985228282791,-14.801800201746321
929,-15.986503160093147,3.237876874691139,-16.035000893207986,-14.856562016912347
930,-15.967229640016047,3.5209835279249697,-16.115637809480155,-14.87678180789908
931,-15.966578878247319,3.829188201110904,-16.192339683088672,-14.922547647949514
932,-15.87262471131857,4.109475295908922,-16.258381363900583,-15.044124081477653
933,-15.767869047809457,4.372162772952499,-16.309623002528774,-15.176630589934343
934,-15.743903596304412,4.653055531459733,-16.335189009136805,-15.237820026473498
935,-15.708656172952315,5.00482299988249,-16.29450910236225,-15.158559068216393
936,-15.559229862056835,5.46280141923372,-16.156943108206775,-14.910090409036458
937,-15.307603706868688,5.979842188942121,-15.948870142364814,-14.614585039636399
938,-14.998219296997862,6.489465533230073,-15.709924368354454,-14.399392667579956
939,-14.701723532067373,6.971731439229712,-15.453971848954192,-14.192830738987901
940,-14.478837576821396,7.427095799983067,-15.1832392050632,-13.896423692196445
941,-14.266862148733711,7.88352696362547,-14.885933600243844,-13.548272694841131
942,-13.989204861228947,8.368572461639218,-14.54466391536228,-13.210218373676682
943,-13.711838665074898,8.838015182622785,-14.162588854591556,-12.926604428801024
944,-13.5066467128547,9.245949161676274,-13.747551857774523,-12.721729257255017
945,-13.31699565916159,9.640014983489786,-13.287133417271459,-12.510161440493249
946,-13.073446314741657,10.076995479310124,-12.7744652796679,-12.205607352435894
947,-12.766120477227313,10.535338294163115,-12.235047231653686,-11.886719523663778
948,-12.408003960840105,10.985226746771346,-11.698188473828816,-11.650676080292582
949,-12.061106296029012,11.444448637460537,-11.172058141275517,-11.463318195455743
950,-11.78214400029676,11.92802666593813,-10.658707021732496,-11.27054245704888
951,-11.512984261994395,12.427269090302866,-10.159657312845562,-11.061594560518367
952,-11.184230197696804,12.922826005499182,-9.675115988599105,-10.835208853568176
953,-10.835325406987863,13.358857233649015,-9.215767541311575,-10.64305946295529
954,-10.515300335125383,13.68996460588113,-8.789888113231061,-10.524237340787417
955,-10.224318272355722,13.968442253380621,-8.38139406259846,-10.367151051923265
956,-9.926480472442751,14.226913042077692,-7.9872692902571885,-10.082216561159871
957,-9.583872472028299,14.39593130078349,-7.641792492785129,-9.805945130176546
958,-9.162689726066677,14.392101790683537,-7.381671405529681,-9.694434434223263
959,-8.889702503621303,14.267973802852385,-7.19733765141425,-9.70456108787523
960,-8.962548838183135,14.115672310212467,-7.0534238839875085,-9.730161418321618
961,-9.12264533289753,13.98569271084743,-6.89828673457623,-9.702930750684018
962,-9.05806917656872,13.905855718196909,-6.694005499748451,-9.577712901474886
963,-8.8605426934326,13.87090153615288,-6.468743783275924,-9.390580774463537
964,-8.409697648576437,13.818716168502958,-6.103668130535436,-9.003403962268434
965,-8.00069005135825,13.801882132906304,-5.756752602985517,-8.563776893049425
966,-7.590329042474353,13.830614724949262,-5.399302367433527,-8.001259089563751
967,-7.127133067014249,13.896740062733215,-5.023581318035031,-7.392514184944112
968,-6.574191758964483,13.985351258856184,-4.628276180728516,-6.84372708571951
969,-6.048734696230851,14.0834787275563,-4.215496007433877,-6.361346716892225
970,-5.686010360764742,14.18378028466277,-3.791662489689284,-5.917495783513343
971,-5.413293770050313,14.302813806593242,-3.347287483152765,-5.4752690939732815
972,-5.111588368850938,14.458526448832938,-2.8776955709085814,-5.001448376441803
973,-4.795577177029627,14.628527489806414,-2.424136848514997,-4.5451377544481915
974,-4.5137751696988175,14.78227924510518,-2.0307446484151646,-4.174606198520242
975,-4.304469671624802,14.921554984234557,-1.6910326417840098,-3.8657146442255383
976,-4.195694715583774,15.051470792718371,-1.3794607024497492,-3.573926386542863
977,-4.120800606787578,15.167112752336957,-1.0773440681663407,-3.318462630961877
978,-3.99657622608683,15.255533605528427,-0.7700033322955167,-3.124008228369937
979,-3.860858567707052,15.260021947872456,-0.46434692502168007,-2.9827172903479804
980,-3.7827698367540745,15.133465043107739,-0.17899783328760735,-2.8808408913203616
981,-3.765641634681572,14.934470974222616,0.08823935567873636,-2.777835624905639
982,-3.7988178356352287,14.745525503887414,0.33837070929285823,-2.6425735986412646
983,-3.8625834035002824,14.566497658910079,0.5336893625781708,-2.5575570432233543
984,-3.933872573090361,14.372263733932355,0.6385749779673384,-2.6097085682713415
985,-4.077874351471282,14.162428698651896,0.669804660377661,-2.716817568643894
986,-4.350892995072671,13.935915105767988,0.661473595098633,-2.765319420093027
987,-4.603831765572482,13.692789614384871,0.6303406569018929,-2.7680953407931135
988,-4.670246201965374,13.436758572251808,0.5907071621393024,-2.768354173471782
989,-4.630568413104897,13.155421427626234,0.5526893602589295,-2.793991009805133
990,-4.616020929824539,12.836415778192487,0.5246153223553853,-2.856503608432236
991,-4.608240643430682,12.496717508077321,0.5386050441218807,-2.8465321245744817
992,-4.550708820675843,12.160694522082899,0.6240246350663965,-2.649531799075609
993,-4.372539693530694,11.828694684615565,0.7621500531913014,-2.369423103277394
994,-4.016890597993238,11.501180035357937,0.922673401271514,-2.148564301794325
995,-3.614040444738825,11.204362215931342,1.11015197504177,-1.9251427561776397
996,-3.3180933736137677,10.965591850601015,1.3347239100436938,-1.6004038506474445
997,-3.000269602474304,10.79766981937663,1.5867415316663422,-1.1934209406092577
998,-2.494570508525342,10.697472710069825,1.8525118023604927,-0.7509784729027777
999,-1.9305794137812178,10.62640720870633,2.114907251242667,-0.3338874840310956
1000,-1.4807216644842187,10.534442916195454,2.35787924662694,0.008750229795125575
1001,-1.1132346806515943,10.414931838204739,2.5913589997837128,0.3620955993030162
1002,-0.744283394072702,10.273807411928818,2.8287815079065557,0.8323588749255544
1003,-0.28806919858318364,10.062183365896912,3.0442031316460465,1.3643806924676616
1004,0.3170610406150638,9.751109005491076,3.2094310788687204,1.8618290805687951
1005,0.922906663155994,9.431409605659685,3.344535931711755,2.321813250571731
1006,1.3518956901161125,9.214021896765578,3.479416619990889,2.7604006193294266
1007,1.7184781990390985,9.1340923274342,3.6144850355661107,3.172669619688496
1008,2.1906846705072938,9.176712469630582,3.7431408963132364,3.560075049062712
1009,2.6996005064301594,9.257535886497152,3.860606358629392,3.900177522692562
1010,3.1276614768386044,9.27731468817859,3.963865887734532,4.17619491092893
1011,3.4478091855224635,9.237721641130301,4.072136619659796,4.466090677490076
1012,3.664497991526312,9.175793009382954,4.205131108273294,4.849481898795685
1013,3.859769711158427,9.072858362911798,4.346750845494609,5.266078184864516
1014,4.126847592105117,8.903908007678854,4.47004808946716,5.625206690824345
1015,4.406077832267478,8.669278820389746,4.56388865920649,5.930631793729527
1016,4.598538033944037,8.370971385548032,4.622942213745743,6.208298426380472
1017,4.7231978376155705,8.021962276445269,4.648352482605819,6.46802924150865
1018,4.821308887159458,7.635030132470963,4.645028713631891,6.7115487832202
1019,4.8817022650013815,7.176622599896634,4.605313890722586,6.8759969421916765
1020,4.886787918834423,6.616294537944183,4.5216697642308645,6.894541654319066
1021,4.796921624354283,6.00210654860024,4.405607376739118,6.818507086473143
1022,4.585191935580104,5.396058538633915,4.2733453984711405,6.722686238245088
1023,4.342682006861815,4.811063040227431,4.134099978351076,6.57790718173751
1024,-9.680797961480502,-4.1514008964130165,-15.018119270521963,-12.95040314842265
1025,-10.362896311392394,-4.5016558425292645,-15.053398141190042,-13.297994237506941
1026,-11.005088375915841,-4.798359791489006,-15.112374113405146,-13.714787953424105
1027,-11.591418835398539,-5.013225644684964,-15.198036033796189,-14.158260177682434
1028,-12.123353786651194,-5.121846698636839,-15.295934328540403,-14.580763904718808
1029,-12.615830929772537,-5.139037642606384,-15.400325986134412,-15.033501383978416
1030,-13.073188051466625,-5.099122722280031,-15.505922190901762,-15.567101541830233
1031,-13.484418692205853,-5.046756404175227,-15.601726669416342,-16.114962580607827
1032,-13.83007981263415,-5.027837120584902,-15.682562953413797,-16.602049707450586
1033,-14.056094234590187,-5.06098861472529,-15.75339363709275,-17.03667448771312
1034,-14.137429716944247,-5.148753930550464,-15.823380133925776,-17.4468581189812
1035,-14.18128539229767,-5.314173529103079,-15.906908679956622,-17.86206623083014
1036,-14.298286697832824,-5.557466143533208,-16.01324980505996,-18.303674530600674
1037,-14.462994732795602,-5.794991371742198,-16.12790446006244,-18.717324807004154
1038,-14.6101479037667,-5.94864569010629,-16.23299029481233,-19.048756501871647
1039,-14.696474383678051,-6.033253604899056,-16.33236757049987,-19.36383430708677
1040,-14.696043697539311,-6.097105467509889,-16.43179246178136,-19.73105804293055
1041,-14.651915720036898,-6.1947558488334264,-16.523976999981745,-20.097676241305813
1042,-14.62428625298069,-6.368519091611326,-16.59745378998283,-20.396154055716398
1043,-14.598875312144704,-6.578856509281169,-16.635562032585224,-20.609920590950793
1044,-14.550937116243205,-6.780426354633257,-16.625411147449654,-20.74484094325497
1045,-14.511677321054343,-7.02744415282322,-16.57243849828022,-20.877529435402035
1046,-14.502523161177812,-7.387205457596343,-16.488874831392593,-21.07024801215724
1047,-14.506444829930835,-7.862566047750135,-16.38424962499637,-21.20709929851435
1048,-14.48793540068974,-8.433728136142792,-16.262972263016348,-21.16603883224057
1049,-14.346747227526082,-9.076362308161396,-16.11494902388975,-21.030370892600477
1050,-14.015535213794978,-9.757400575615842,-15.925617362381777,-20.907106809078662
1051,-13.629804311806444,-10.448257490980398,-15.694290707135078,-20.768472146880363
1052,-13.33935950632897,-11.138878364593044,-15.424461001970144,-20.565769567303853
1053,-13.077824508308057,-11.836953813491128,-15.104481874018816,-20.266010841712973
1054,-12.748501356679991,-12.560431841331722,-14.730957485101737,-19.856377692758713
1055,-12.391193272151675,-13.354374193169573,-14.342117955191336,-19.44041724250188
1056,-12.058916963692623,-14.233339000672954,-13.97220441196824,-19.116009386535573
1057,-11.769282577410442,-15.099395262783316,-13.601786003434214,-18.792283305379353
1058,-11.526972024111908,-15.842921050530723,-13.198986209971162,-18.3546356775051
1059,-11.2455249350825,-16.444288570082797,-12.753628080387061,-17.837918609136608
1060,-10.852835864862131,-16.92764746993766,-12.264706057071239,-17.30275924535027
1061,-10.490169061245243,-17.345448717520146,-11.74203785124606,-16.752367673021766
1062,-10.294199094293063,-17.759744350037597,-11.202937745287917,-16.19017073892199
1063,-10.133564131936728,-18.175319552948558,-10.656969612163746,-15.607218055069962
1064,-9.849545183633854,-18.578060579542523,-10.108699505028811,-15.000992603802127
1065,-9.46599558161204,-19.014758028515303,-9.568813020096435,-14.469041007645771
1066,-9.05350221833769,-19.51039468719131,-9.04199793889934,-14.088832676764836
1067,-8.689246803874894,-19.96300281470106,-8.504562634283777,-13.74370149056058
1068,-8.438078318939638,-20.274935470231572,-7.940068939908472,-13.303852043682788
1069,-8.217533561886937,-20.479632778819344,-7.383580096793016,-12.816052696014655
1070,-7.935319194133219,-20.644147953485785,-6.875948775217884,-12.360256270238468
1071,-7.707158433596894,-20.812893915951037,-6.421687487167739,-11.952042579604905
1072,-7.650343044211019,-21.00376072133687,-6.011472977609383,-11.58606029994814
1073,-7.6652875037512205,-21.1465553298125,-5.626368713847727,-11.203928618023074
1074,-7.622849327920678,-21.158576184167266,-5.247640852538816,-10.741914006981148
1075,-7.50190486388045,-21.047019266454182,-4.887530616033718,-10.245013989520091
1076,-7.313809532331363,-20.84448415333964,-4.560278595357782,-9.766515911932942
1077,-7.111035820398662,-20.565250888249974,-4.245505358028103,-9.233346566331207
1078,-6.945906856025606,-20.206030122984195,-3.916352883617197,-8.572929231765388
1079,-6.7502807521165,-19.711482155123782,-3.559143767302273,-7.83710941734061
1080,-6.4461690760643995,-19.01197449970545,-3.1655398514663933,-7.091252684828143
1081,-6.096491279335016,-18.08197521232623,-2.7419957366517105,-6.343546413699236
1082,-5.7758326535119755,-16.92070066834053,-2.2954048583140128,-5.583682285149429
1083,-5.446984024180849,-15.526053328624123,-1.8038932540315327,-4.752289401054501
1084,-5.009726340942381,-13.865882273301684,-1.256902007253206,-3.797739240572998
1085,-4.4961658227889085,-11.996933311838859,-0.6986170448840772,-2.882367646046798
1086,-3.9234173690936056,-9.947480462455177,-0.18244555844814397,-2.1502471067385756
1087,-3.5088866220644825,-7.783405425272883,0.2638769057823288,-1.4984431903103625
1088,-3.4456959299766137,-5.576902273133399,0.639016213343481,-0.7775562624384524
1089,-3.469231198067611,-3.309444008938841,0.9827701325014476,-0.0063591616402767295
1090,-3.2604916335262337,-0.9444178807291084,1.3403413511470168,0.7416426824044026
1091,-2.9448016286885834,1.4665639356449673,1.7136272338976686,1.3879071367713245
1092,-2.912183490261112,3.576749647232199,2.0844316555065996,1.7893960845939811
1093,-2.999358050177654,5.750839801903304,2.456441279478408,2.1054089802228715
1094,-3.186370761864582,8.029234040465582,2.8205253568531337,2.442091380458181
1095,-3.3980407634579914,10.349262114142427,3.1370515341304364,2.745348856430047
1096,-3.5536181305338177,12.619523243885842,3.368162328497399,2.930091385781886
1097,-3.7700091967909275,14.798767422832347,3.521861131795822,3.04732679498214
1098,-4.186069631393849,16.867043677492898,3.62482014982908,3.170496490631108
1099,-4.664058361460525,18.824654687507213,3.6912243180551574,3.298176664711332
1100,-5.025493368207514,20.679445407745913,3.73286576348017,3.4135338133019126
1101,-5.33574821750499,22.39320822098581,3.758900370409048,3.490524703713678
1102,-5.706072078838289,23.922706963378612,3.7697819685438576,3.504167010568425
1103,-6.137995596580113,25.281515267781792,3.768198186977144,3.514688587103104
1104,-6.588837927891402,26.502315379012735,3.750255913998711,3.584318457561579
1105,-6.936328654232621,27.598724202744467,3.679826601091623,3.62611053840623
1106,-7.054914273981727,28.579725852727545,3.5250028725752225,3.536598311468182
1107,-6.983032519168563,29.46113248227413,3.3081809633807207,3.3569443073922174
1108,-6.823648503766325,30.24831716969427,3.0690752638432013,3.16912392185471
1109,-6.61585819726789,30.914149471027148,2.8287641000577053,3.024862010956227
1110,-6.379848359977383,31.436205426405316,2.598138554222449,2.955382996083282
1111,-6.135825074568288,31.840614694660665,2.3648671116676625,2.900246903306729
1112,-5.882764485558588,32.175375812644525,2.11225316444446,2.786379128219009
1113,-5.611772757560673,32.493617445785844,1.8616495090744585,2.681595395135822
1114,-5.324926528789511,32.84200952258471,1.642214998449906,2.6815776089508954
1115,-5.019229916551229,33.21870619652621,1.453525804825002,2.7744352947404196
1116,-4.7169560335236165,33.61080731735795,1.2817437321400653,2.9105528873382602
1117,-4.548288540018235,34.053161257740975,1.111144788911216,3.0455276547558263
1118,-4.626046427574243,34.5840842814485,0.9227857807755789,3.1308047045159695
1119,-4.8765329709719145,35.21949559088626,0.6957608944023459,3.152594480551475
1120,-5.162820547090758,35.95055576048909,0.42109140235251374,3.1185102398019815
1121,-5.3846300005070935,36.6863180812219,0.12155717340305518,3.001987971242348
1122,-5.486390966263638,37.33643864988061,-0.1727882293009256,2.7889045122211638
1123,-5.574458504422725,37.95308659373814,-0.4542928106565682,2.553827676231424
1124,-5.786060028862559,38.61911208324271,-0.727021845628847,2.379897639686169
1125,-6.031790342588886,39.31625430348201,-1.00116209243222,2.2607796390314223
1126,-6.178879791602722,39.98731936108788,-1.2829442575911438,2.168834506120922
1127,-6.294666048867212,40.56873392348567,-1.561616717025937,2.098708356042329
1128,-6.4790991087868175,40.9974216230297,-1.8106797135583068,2.052377904783813
1129,-6.718899139914984,41.26135533215754,-1.9759494352712634,2.115752438737649
1130,-6.974392051404259,41.38050089527143,-2.012551716988906,2.3540645856639624
1131,-7.190428814543976,41.372991423175186,-1.9440667788075074,2.576529616767874
1132,-7.3178992931255245,41.261643582803515,-1.8204612695058662,2.570982959820466
1133,-7.4370950898947035,41.06170406302744,-1.6652613754687269,2.444365163358283
1134,-7.6497044729184065,40.79121030551986,-1.4914578803633431,2.3732932024096693
1135,-7.871158374055625,40.50109120757782,-1.3092176158941387,2.3445167067460084
1136,-7.996988769766691,40.24627485824804,-1.1178662787358347,2.2911088415135445
1137,-8.13149925396335,40.04982865176068,-0.9103112742297557,2.128180019611182
1138,-8.3987592014842,39.915548013561015,-0.6850208416694423,1.7844128216093598
1139,-8.755371998442076,39.839029697428956,-0.4476946733146453,1.375702069411065
1140,-9.09978632428919,39.80194573544924,-0.21805191317832232,1.0563190451797575
1141,-9.320150589712373,39.77250448098057,-0.05107956882984873,0.7731952255804163
1142,-9.324770726243736,39.7180792696183,0.0038195438220783888,0.425252420890903
1143,-9.155014179886283,39.61330528620207,-0.04243534826984447,0.0346495548275387
1144,-8.909619198578454,39.439544881240536,-0.14942505115315172,-0.35029761158431133
1145,-8.6236326725791,39.19443507146568,-0.27635203439424977,-0.699069876525888
1146,-8.30843647990624,38.87410747000017,-0.3868541865091158,-0.9834453881422436
1147,-7.98152256658488,38.440305304603086,-0.4729599082961988,-1.2359329477809677
1148,-7.644421236472366,37.85321354216802,-0.5446750941597788,-1.5011136280736188
1149,-7.284088323367168,37.110095839173404,-0.6046504042377319,-1.7241305270017535
1150,-6.896628501210621,36.23052670912213,-0.6557593248613977,-1.8415234502233795
1151,-6.494167883940996,35.250070675146425,-0.7077787738429919,-1.9073466585056387
1152,-14.572877744178825,7.266143665829139,-10.236958059655029,-12.95461775746755
1153,-14.961197254350983,7.66915668878144,-10.576547542638194,-13.503605950371481
1154,-15.442919539285679,8.01209164865191,-10.914172505987109,-14.037030614033226
1155,-15.918839354996246,8.342070243537389,-11.252005249607578,-14.491800109234552
1156,-16.278179059210824,8.712459639159654,-11.588527516772869,-14.822105250212653
1157,-16.564420739152695,9.133490313870828,-11.937017793735636,-15.114073614247834
1158,-16.847596049840725,9.598858930990048,-12.308975468998197,-15.474094307156225
1159,-17.197065057198625,10.127481821011056,-12.69688059734968,-15.8789803637234
1160,-17.65435747992483,10.72187962627041,-13.089265747769806,-16.277141038056044
1161,-18.089428337957326,11.330432214115248,-13.484076830556933,-16.685543097344585
1162,-18.373071407990945,11.895951934127673,-13.876976855474888,-17.11000077324901
1163,-18.63476908462336,12.3887218172682,-14.256292781282575,-17.500172195299132
1164,-19.022801886630816,12.803131153865863,-14.608426098656636,-17.807621674842174
1165,-19.449782200409565,13.175927950463441,-14.91238607225414,-17.990099152181596
1166,-19.794928309589448,13.552106760508934,-15.15555477782973,-18.04172724807033
1167,-20.052942993430726,13.934003782175997,-15.35827731036507,-18.08394019369642
1168,-20.243761712588178,14.313086211552623,-15.546271341615125,-18.23412171319686
1169,-20.404927208551413,14.696651966175745,-15.721678342615288,-18.427371696309255
1170,-20.57636715028647,15.095039026294447,-15.878635527769909,-18.566122682929528
1171,-20.715698597889507,15.530967404216756,-16.010153734444035,-18.671686716699515
1172,-20.771085522098392,16.02352268952958,-16.109096023590887,-18.77553698474517
1173,-20.787396568786185,16.548394935812155,-16.182872831517656,-18.86402294734215
1174,-20.815700234616326,17.077213483174187,-16.240717573836086,-18.91491003586661
1175,-20.824080278045123,17.63487709176188,-16.270872071630183,-18.856128316471686
1176,-20.774120790291196,18.24306253074091,-16.263158243578832,-18.640981752641288
1177,-20.671970373623783,18.857380486935167,-16.2357945595459,-18.38283478729996
1178,-20.533500931659702,19.427512539554638,-16.210547515861734,-18.209192570802394
1179,-20.3925538871811,19.948053659002206,-16.18721540811381,-18.10202810931345
1180,-20.277067452787982,20.422235533926713,-16.16417471888028,-18.006822170074816
1181,-20.135775641084017,20.851111658083475,-16.1542589491627,-17.901201920271163
1182,-19.925501577468886,21.230405072077463,-16.16816609541922,-17.77289709894378
1183,-19.726617279388392,21.512183133118484,-16.209516618284525,-17.667777739039742
1184,-19.62581803100193,21.653114056532992,-16.273660313973885,-17.632796399478114
1185,-19.61949913100413,21.693805097123743,-16.33194555587818,-17.600544061429034
1186,-19.670175064500377,21.66686551842745,-16.358626518815463,-17.49710564281967
1187,-19.69521912180666,21.59030047833612,-16.3670220319206,-17.376153165372532
1188,-19.635467722167625,21.428672120657744,-16.37672854413554,-17.297792621850085
1189,-19.596307901437676,21.173134704320443,-16.38559722056806,-17.219121843782585
1190,-19.695777244481498,20.890837035822653,-16.38178303285464,-17.088467161852716
1191,-19.885675005690448,20.610413545217664,-16.340446217756316,-16.88782483808796
1192,-20.074492718350808,20.357894855210866,-16.2402088086707,-16.62259430656919
1193,-20.22407725756064,20.130218109148423,-16.09186557736973,-16.3906248164716
1194,-20.306445796782114,19.90560974690859,-15.918194458988594,-16.27630666141711
1195,-20.30592823758814,19.667596752729207,-15.73066555555884,-16.164725317259858
1196,-20.226687234268883,19.401286720429187,-15.537345139046186,-15.928073080268774
1197,-20.07489956282551,19.096400581615462,-15.347099881604347,-15.65497211454092
1198,-19.857471268349716,18.741311192903275,-15.158356128209139,-15.444553211407134
1199,-19.572180053635442,18.309340521340875,-14.955094314371388,-15.226440523212284
1200,-19.213533631766044,17.771788009005046,-14.716954740787799,-14.903298667870644
1201,-18.812056880991378,17.11461146132193,-14.419216249341876,-14.406349809166088
1202,-18.383666656367428,16.337477792018603,-14.048818634771191,-13.706654884373688
1203,-17.838751433912467,15.438995696249465,-13.631558602465429,-12.931812482522558
1204,-17.104466795695323,14.437631282201284,-13.196002338331741,-12.217602082843953
1205,-16.264143727397915,13.418026154055637,-12.736374968404899,-11.488804314080255
1206,-15.427025944324821,12.452490609365139,-12.234658057521836,-10.643054646135079
1207,-14.627471981268814,11.498875890259361,-11.665696716171656,-9.729495771737149
1208,-13.857468952389542,10.498241978260939,-11.013405083597315,-8.819524606339577
1209,-13.030509659291937,9.472142824486886,-10.309685669329118,-7.950183012568733
1210,-12.05108863612097,8.459985728156264,-9.591829658176112,-7.132316502788763
1211,-10.960242116830534,7.484195485358205,-8.851128186948287,-6.2707129769075
1212,-9.80109269239652,6.564253375523183,-8.10048044422588,-5.336929800380101
1213,-8.586555925453586,5.6422849214824655,-7.393578431674069,-4.515411841367459
1214,-7.314862117059856,4.669838259434979,-6.795898256347838,-4.02073311960427
1215,-6.193563432315597,3.594520603639523,-6.295923171613178,-3.713321511400184
1216,-5.39674124366494,2.41090872443645,-5.85207678129692,-3.370469605154312
1217,-4.747948108531104,1.1496249671935603,-5.469339207247738,-3.026299792831993
1218,-4.014645724823144,-0.19892338016483313,-5.1330260538474635,-2.768291831848554
1219,-3.2497674860756343,-1.7301036943632289,-4.875959840757995,-2.6093493401502195
1220,-2.7989038400193156,-3.9527287031955147,-4.710955455285545,-2.5946244995408327
1221,-2.409158518660493,-6.168178020171763,-4.566166634019143,-2.5994628510995934
1222,-2.0458618499646226,-8.33510101374345,-4.415759753733053,-2.5190950359804276
1223,-1.6454719168049203,-10.412988945457538,-4.245961677000458,-2.4553143695815214
1224,-1.141561526607082,-12.375869427453468,-4.047368874003546,-2.526763996799827
1225,-0.6054616221322042,-14.269497755831408,-3.8164523639955323,-2.6075800443940422
1226,-0.1351624322225155,-16.134838715432977,-3.5559318947973164,-2.5366319923483607
1227,0.3488450289845625,-17.989783600419962,-3.265326126966282,-2.3326126786848413
1228,0.9443595906712025,-19.787327592031072,-2.9473385092147253,-2.0642387663194355
1229,1.5580169542304225,-21.51102274051038,-2.618779526173208,-1.7915614257520986
1230,2.074126157394628,-23.208243291221493,-2.2998787417810695,-1.5600515182459056
1231,2.5158701636475884,-24.876840662323662,-2.000558423351938,-1.275492025436447
1232,2.9454975411090443,-26.43508951012764,-1.7259469866429609,-0.8276044473521228
1233,3.438205161482712,-27.853124519881668,-1.485585007801744,-0.3139973098089189
1234,4.048690823381567,-29.18706200835758,-1.2830199953647055,0.12101628133464512
1235,4.658878246766858,-30.474941117028518,-1.1007088676160879,0.48429704653992783
1236,5.125418885831895,-31.687509131545383,-0.9172640367980177,0.8193799653710204
1237,5.533908665326658,-32.82778204395951,-0.7294695447483782,1.1195071772397642
1238,6.01520223032355,-33.88299720687472,-0.5370693120130722,1.3835455928388043
1239,6.520676294822798,-34.85862387410561,-0.3320124705701205,1.6048286131681178
1240,6.968951769217238,-35.76198354949999,-0.10271348242534661,1.7824309150583295
1241,7.358643165650309,-36.540390771757416,0.1765760005900069,2.012000066789003
1242,7.706624846544798,-37.16954460945369,0.524296201465117,2.384068156953013
1243,8.064556185911494,-37.65108563036801,0.9162517096100392,2.8054139021248967
1244,8.479494177724732,-38.062898616418465,1.3130351419269675,3.151121044320898
1245,8.876813921556685,-38.518143796368456,1.6908680300323078,3.4634995950049694
1246,9.159679901067689,-39.018761186795096,2.0370529123610033,3.817850512062127
1247,9.34774129429106,-39.51344584866993,2.353642127795895,4.2034309408813755
1248,9.497305132323742,-39.92614445329866,2.65355552388956,4.583799850017516
1249,9.635779351263817,-40.30634273838966,2.9476948947599597,4.891502560510357
1250,9.782876779730733,-40.72755146820292,3.2411490564501615,5.063549516536154
1251,9.920654903092315,-41.14668359449257,3.5310771560342746,5.145696239162696
1252,10.019049053985091,-41.49213090093471,3.8064959492263286,5.212191010186326
1253,10.116435261596594,-41.736786406480554,4.04557212282894,5.258640594297901
1254,10.257364656085157,-41.8689090008951,4.228635717901372,5.255497987407498
1255,10.3905050680025,-41.906674394990276,4.360644537380862,5.170241968307558
1256,10.456654148711788,-41.88273897421648,4.454147291891942,4.9762536581606
1257,10.490636770423755,-41.78781515011807,4.504545154813445,4.731744615021066
1258,10.541427565196802,-41.60781828865578,4.505444736095002,4.509157445414737
1259,10.62721740350155,-41.378951600524424,4.46208524813328,4.246950742186955
1260,10.742116784590854,-41.14528724530567,4.382693301680987,3.8729777350575834
1261,10.767498923593287,-40.917606193584234,4.279158418685514,3.487845148084649
1262,10.595849787499473,-40.69267110492067,4.162391899963156,3.211027569809873
1263,10.378196439068832,-40.463372618840545,4.02737520893522,3.007030510826614
1264,10.303819972196788,-40.21461019876964,3.8698339496163605,2.8064205022753144
1265,10.297349172105779,-39.93089064370304,3.7036858774941535,2.5837125904077016
1266,10.224097088912874,-39.60227884307561,3.5506718637056083,2.336120954452582
1267,10.078987712036056,-39.217366430847356,3.4445130128959693,2.1680327031627704
1268,9.894291933401643,-38.77252591270779,3.407081224560404,2.181404494153868
1269,9.756797867157136,-38.30064428708062,3.4029409383102203,2.2427283940718588
1270,9.750472795551893,-37.82800551047846,3.380515205064202,2.181687543715368
1271,9.75629357978375,-37.310923720407864,3.3253995320964034,2.0668686340107247
1272,9.621190728993694,-36.68970388752847,3.2401641981405453,2.0173436802271674
1273,9.443195899565234,-35.94532310739852,3.1330550061165736,2.0248881128479117
1274,9.35960154052385,-35.08501949737092,3.0190216472346583,2.0468948455523677
1275,9.28151549165212,-34.149692662878365,2.901396811906568,2.0166718095553096
1276,9.09112359155855,-33.194736680064295,2.780010306718438,1.8750194031375702
1277,8.818426195170241,-32.2381654593892,2.6706560490824427,1.6970232109433014
1278,8.528703047205187,-31.282518207746804,2.5897455258745397,1.5938277697430057
1279,8.29830707523371,-30.357447120831,2.535460983585873,1.5546636906327287
1280,-13.95921341411976,-3.33697413881643,-8.319024035892697,-11.941997981935703
1281,-14.301127074692186,-3.2550565760421133,-8.729886385708056,-12.317767321112855
1282,-14.770695134900743,-3.1362719718183363,-9.107332387624774,-12.67889016122677
1283,-15.237752053091514,-2.961901758708933,-9.449215356739556,-12.982798864730901
1284,-15.55307511449086,-2.765754937946932,-9.766585717365079,-13.199525970276534
1285,-15.739842344072187,-2.6219517432171977,-10.079523619811381,-13.393342033911074
1286,-15.873975660474757,-2.5475351428254296,-10.406595995944505,-13.63407283356733
1287,-16.05369370807529,-2.4905008312883865,-10.735310984742018,-13.841213774533571
1288,-16.357043061634272,-2.4185552155593366,-11.045846335602622,-13.934983465130596
1289,-16.69105327482347,-2.329357856739082,-11.343597756119639,-14.017960154531695
1290,-16.93547769582904,-2.2385587570480707,-11.635229492577238,-14.198023892437652
1291,-17.164939181733246,-2.1500224923802307,-11.909000757336955,-14.434612602636674
1292,-17.46101009422926,-2.071379179263068,-12.153015724872475,-14.657687110543751
1293,-17.70731864017521,-2.0127933444095585,-12.362238839046753,-14.807111081266621
1294,-17.794939317855363,-1.9853393642117623,-12.538470155291813,-14.852781914855148
1295,-17.780878930424553,-2.0224861572974415,-12.701045645328676,-14.92514374499981
1296,-17.772989061742418,-2.137445889704821,-12.869913560213694,-15.150273107663608
1297,-17.894772200434847,-2.3150230425785163,-13.042360180551102,-15.397395255437777
1298,-18.233494991487092,-2.5091736707630097,-13.208185563176542,-15.515987291588997
1299,-18.719111740966685,-2.709372512054191,-13.364085550733561,-15.590466334711252
1300,-19.227665580161524,-2.9515125975813117,-13.505307035135925,-15.737127308042185
1301,-19.70711713674179,-3.2413012319286993,-13.625510308263443,-15.954772761636892
1302,-20.1322879869565,-3.5387604396542884,-13.71856983492454,-16.21325762227408
1303,-20.48528472759447,-3.8279592092338794,-13.770762501111887,-16.45679884159747
1304,-20.77030625877969,-4.1369469710064095,-13.774525689186717,-16.627600320606337
1305,-20.997423944396367,-4.474319294144738,-13.747729260497572,-16.76288994107684
1306,-21.170246834203592,-4.848849211321373,-13.7128765400799,-16.91334770981051
1307,-21.28992549967126,-5.240873333079743,-13.675462774122618,-17.02707567504558
1308,-21.349585359944967,-5.6398238531559555,-13.634374025508285,-17.05260398182881
1309,-21.30722394452837,-6.021985384303729,-13.588154182442155,-17.02946871095653
1310,-21.137359705214536,-6.418742350527031,-13.530778336105644,-17.010474731669348
1311,-20.910253526412276,-6.883097465307494,-13.455054370137686,-17.032285774189248
1312,-20.70033074942527,-7.450070803166606,-13.35377283531743,-17.10465702052986
1313,-20.485241834589818,-8.033787536971797,-13.213811767668302,-17.13948265395727
1314,-20.221989280232492,-8.552979658115355,-13.027718627824969,-17.048118399501845
1315,-19.89722196745994,-8.99693091829251,-12.81035427137152,-16.880902925708106
1316,-19.508238542018276,-9.436795950549374,-12.579228929068051,-16.714153897069064
1317,-19.09610538896526,-9.899623850453809,-12.333721204790955,-16.532233671143167
1318,-18.696672925243398,-10.396242819705744,-12.06886615669498,-16.308476746529198
1319,-18.242996724716843,-10.881436643476714,-11.782423311855654,-16.05907732831868
1320,-17.66560319807769,-11.301374427895158,-11.473947661128772,-15.794824721447945
1321,-17.012286414467603,-11.592942637573442,-11.155522289094382,-15.515795501971306
1322,-16.344773659403028,-11.757014611968852,-10.83744850857403,-15.215401851369476
1323,-15.655693139305699,-11.852269580027992,-10.504957197493864,-14.836141927553847
1324,-14.923350120305717,-11.920101158681247,-10.1404961706762,-14.33945054087702
1325,-14.110792765429244,-11.964247383755433,-9.748629604216514,-13.815817354123993
1326,-13.19385413390737,-11.991294459249241,-9.337446345111573,-13.362046398123095
1327,-12.258961400370536,-12.022575982821966,-8.904711036913794,-12.947330241332654
1328,-11.389078976266587,-12.04003935101222,-8.448744840420758,-12.512565341517442
1329,-10.500731692493948,-11.9832288304304,-7.969780363418188,-12.037975366522824
1330,-9.505205046395536,-11.878585551620453,-7.472761333543715,-11.51481147758427
1331,-8.463231788458328,-11.849568337872082,-6.978632932541237,-10.981442300332423
1332,-7.465011904343459,-11.944426470410184,-6.50988945872248,-10.475451684782865
1333,-6.580382757413347,-12.107289593898455,-6.06883666899795,-9.922113191127403
1334,-5.846262294238227,-12.253059998358871,-5.651535948836378,-9.254689940442944
1335,-5.146202976561993,-12.387077827655144,-5.268545404431986,-8.563543878917717
1336,-4.362646555691496,-12.540554751376499,-4.921808625383255,-7.953532664494549
1337,-3.6240342024194248,-12.743961597592207,-4.579402958512216,-7.4210492742167
1338,-3.0683764309970223,-13.022152685342395,-4.208519627027219,-6.928714248261348
1339,-2.5773985510456168,-13.326018761732412,-3.8037600613000566,-6.420095324327371
1340,-1.992885894242651,-13.660281597853809,-3.419241532913918,-5.89626188343391
1341,-1.4071144775972415,-14.11680511230796,-3.117122918012476,-5.468857678537717
1342,-0.919356398766159,-14.793401799176111,-2.9679271499860924,-5.268041812179069
1343,-0.6161494858448662,-15.650076024233353,-2.910335815146675,-5.133070205598248
1344,-0.5269302851826038,-16.57607088361064,-2.832852525225286,-4.860536603981421
1345,-0.46255511678140254,-17.494757199842393,-2.6926986103661297,-4.535252470831136
1346,-0.2252727374414137,-18.440557759720345,-2.4776350261435645,-4.289186004217336
1347,0.1061052656691758,-19.489554079107386,-2.190091864395495,-4.098733919092099
1348,0.5004699145311395,-20.203303657090242,-1.8273401702165997,-3.6791633009132707
1349,0.8614293719768731,-20.909195851245737,-1.4409332028151973,-3.264546191052463
1350,1.2348633930822104,-21.607801305942488,-1.039873496748676,-2.8156511013160817
1351,1.609769063951414,-22.27573886596282,-0.6333502896686248,-2.3950532198144314
1352,1.9668442551942347,-22.887137616747065,-0.2224762679168489,-2.0673406722142933
1353,2.266283342212164,-23.434772213612646,0.2020672722194376,-1.752895531426526
1354,2.479356059372348,-23.924042935785117,0.643516421322831,-1.3529114700280447
1355,2.7163457863770235,-24.376946863010396,1.088927215558094,-0.8794002985817035
1356,3.0864884595401096,-24.814410991198336,1.513382442097463,-0.3840595029516063
1357,3.4633250624283365,-25.227146992291342,1.8680798635885179,0.06608342901647064
1358,3.68481737152124,-25.592631245824418,2.1124903412907896,0.41099853172782735
1359,3.7868202784460174,-25.890174521490888,2.275574777409032,0.7037125805689891
1360,3.863169015727339,-26.107901839385427,2.405686439064519,1.0235449664047027
1361,3.993329651648836,-26.261864779625217,2.494159689796574,1.3078987163401172
1362,4.230256043291762,-26.37818033097919,2.5246523993491135,1.4785477191502345
1363,4.445611638807165,-26.469872715248304,2.529255279624267,1.6171848144481922
1364,4.485663983577535,-26.535455324201955,2.5442156627411094,1.819690953646631
1365,4.466531672113428,-26.55130561644921,2.574604303311292,2.0449679484229946
1366,4.552808851783411,-26.484711676049216,2.614374053991267,2.221139974299069
1367,4.667804667891324,-26.314743311424266,2.6497428446432294,2.3032899397153948
1368,4.691671705548285,-26.03760783565854,2.663704509569407,2.272774063517788
1369,4.638853024568332,-25.668196423174873,2.6620726049949712,2.2319033435847473
1370,4.549825687981903,-25.237865159352314,2.653993445211963,2.2948669813677287
1371,4.475117008910594,-24.80429478447276,2.614573167961091,2.380044194503838
1372,4.4565515152309345,-24.416809863777402,2.5161999291221187,2.366594661611278
1373,4.3762746385670575,-24.054861379547216,2.369180868782555,2.2992684452774412
1374,4.106563667508821,-23.694471663984682,2.192315900545486,2.2547036153110835
1375,3.7888752652492634,-23.32506194281688,1.9844684427655,2.2302174844110327
1376,3.6007244952336364,-22.992675728225322,1.742678771362604,2.205289869712496
1377,3.4480464933427535,-22.708590955324304,1.4664792627438412,2.12936041116432
1378,3.1849023028221115,-22.472438542913714,1.1606905156490543,1.9558204260368472
1379,2.817899081151089,-22.244969164469847,0.858910512429282,1.768150254033695
1380,2.399909158139162,-21.975584782398045,0.5950935557499966,1.667067241533479
1381,2.0190441190381843,-21.651314924891075,0.35853468361517377,1.5815694126758297
1382,1.7648437179260552,-21.284373530720075,0.12534740509860945,1.4177568997978218
1383,1.567700211412827,-20.894378444571174,-0.1070000442351435,1.2329939843935303
1384,1.3263789237470824,-20.510743736787308,-0.3336378353862321,1.1168740145269904
1385,1.1341106836637362,-20.17049480892717,-0.545153260989582,1.1104554851982207
1386,1.1041444308828547,-19.878940176078483,-0.7295650734392767,1.2245557200269988
1387,1.1612758031988766,-19.643574153823103,-0.8885821309850301,1.3766200944106322
1388,1.19132035908163,-19.402616596866757,-1.0296920908060465,1.4673326800406359
1389,1.1594409999239053,-19.075956567729033,-1.1493861148952058,1.5371726387410516
1390,1.0634873884084366,-18.597175584262352,-1.244886564545186,1.6592126216115615
1391,0.9629108762831399,-17.997683516777563,-1.3313311127619476,1.798448762583151
1392,0.9286997711187176,-17.34636906469975,-1.4249787518107708,1.9024535620256373
1393,0.9170635267435183,-16.67912519968721,-1.5198916441633967,1.9686451854221096
1394,0.8552393659402252,-16.011889564207873,-1.607267651906319,2.0066425984058167
1395,0.7574410984803033,-15.31562490888924,-1.6984867340718324,2.0622032696060106
1396,0.6563386440154603,-14.554537728892603,-1.8058234942939486,2.1771404535407113
1397,0.56330879080957,-13.777307989862052,-1.9302387998135837,2.2728216035007636
1398,0.48497842607345537,-13.038584690284027,-2.0648083595066082,2.2602921767965056
1399,0.36499718059442515,-12.370005532417826,-2.179820329123266,2.2103120497016797
1400,0.15086348372074598,-11.752665164452022,-2.249090476026095,2.2226293875784795
1401,-0.04178392755347429,-11.167325510531123,-2.2959375989706046,2.2839384639628912
1402,-0.09257975790076686,-10.631119398603145,-2.3560068630500783,2.3479407397610625
1403,-0.11777396588308212,-10.173548539867733,-2.4345193458914824,2.3687808454203596
1404,-0.2757639241481986,-9.771130819492024,-2.522998242054158,2.306615752060763
1405,-0.5643017619626493,-9.351492584739596,-2.6014570630487546,2.2179805527739886
1406,-0.9215733779204317,-8.891466105669137,-2.648073566077991,2.1759767899498357
1407,-1.2495097463592766,-8.439346873934916,-2.6712800737017246,2.1027555248556493
1408,-9.340036182120958,-2.4077167862333915,-10.624841732998462,-9.76769567035365
1409,-9.571943139520565,-1.5060007886981377,-9.890511398570027,-10.577846489301677
1410,-10.631353112659982,-0.29487006719265946,-8.993939097496856,-11.843790354999005
1411,-12.256837237269531,1.2383295429611167,-8.25310186519826,-13.301869894733427
1412,-14.045974150298374,3.0694865018333655,-7.868935139683937,-14.873608158072978
1413,-15.799327004777208,5.114532665578041,-7.965739112035745,-16.381061714793653
1414,-17.439831360271736,7.285395546894655,-8.397877433451908,-17.499244339713208
1415,-18.926383468614013,9.567652351302879,-8.770353733882034,-18.16135620452043
1416,-20.30422386146533,11.93376867280206,-8.804616133761408,-18.71243836005597
1417,-21.636487961009387,14.22612953666169,-8.603874467137272,-19.578193102443116
1418,-22.997815988795697,16.27563905738805,-8.505398713574298,-20.775778266487254
1419,-24.580956696679195,18.036219165525363,-8.648078689505873,-22.144184747139924
1420,-26.49179592125219,19.479412740475,-8.89732730797529,-23.39375828129557
1421,-28.456985967100998,20.49461171886023,-9.142558722788154,-24.470163395608555
1422,-30.15721106323697,20.98958069177069,-9.396683093369814,-25.39771768448074
1423,-31.60467575057245,20.960891182254542,-9.724000664435419,-26.17612493094159
1424,-32.8795107769803,20.440121724417338,-10.183497170352442,-26.795576175383303
1425,-33.91869558920777,19.488026357987167,-10.774558434200888,-27.083842958986715
1426,-34.65937088664898,18.16940723017035,-11.455404830300317,-26.97615265695968
1427,-35.06531542735029,16.472650500150095,-12.191268170988407,-26.51920220140058
1428,-35.12398790529389,14.40452184138519,-12.937483404852689,-25.999858050362032
1429,-34.94785587793465,12.105124464275098,-13.639078114521084,-25.63962152282249
1430,-34.66452998547,9.737660066418375,-14.30176548123966,-25.31591282963965
1431,-34.23556973178264,7.408086478853752,-14.992933667005865,-24.91027896393103
1432,-33.6186914976139,5.1666709594874805,-15.741705593548074,-24.282180163796006
1433,-32.946840277154124,2.9663670611569555,-16.516635964593437,-23.55790028022464
1434,-32.344103278311586,0.7296562961590431,-17.260086818260774,-22.90909947003775
1435,-31.808114447849082,-1.5617818470938147,-17.930893072883553,-22.245161813647567
1436,-31.272583514205202,-3.880825588287607,-18.517485253979824,-21.43980903063623
1437,-30.542557486684206,-6.167923061714727,-19.04293527296043,-20.52035764405337
1438,-29.47094511374674,-8.341732182600374,-19.55900702279219,-19.543208612922797
1439,-28.25633997176716,-10.315588069820109,-20.085820765073446,-18.552874403897327
1440,-27.147233226707495,-12.054916766328832,-20.600258114545284,-17.591407612418653
1441,-26.10536635388051,-13.621342313140374,-21.07128916650032,-16.64011121181464
1442,-25.029842097727826,-15.127218166812343,-21.479098898373216,-15.65443634104459
1443,-23.920673120238835,-16.722729473549943,-21.821358316959337,-14.643976400142973
1444,-22.781488295052885,-18.500629393096872,-22.098895737218367,-13.613731189314977
1445,-21.629880916245895,-20.368523032130692,-22.305804519665017,-12.47553711955841
1446,-20.48997010334406,-22.174074400767967,-22.443972480065256,-11.16759892045934
1447,-19.29326720760665,-23.819352112644346,-22.506023577509353,-9.786489927424379
1448,-17.98294434328713,-25.262820685702646,-22.468985260774055,-8.452485598666756
1449,-16.67207129525408,-26.583844770728216,-22.345016734688873,-7.195253579701411
1450,-15.478103588322524,-27.895039576936092,-22.182876140961742,-6.01122292589965
1451,-14.346498921537647,-29.19899805909906,-22.02003062519054,-4.860045386366193
1452,-13.19636330895173,-30.473079438047225,-21.86958211779291,-3.7058780358487313
1453,-12.027604781031666,-31.755892755239454,-21.7295086512953,-2.6269232435840624
1454,-10.8634824319603,-33.08288471247146,-21.593905027377346,-1.7071964459425837
1455,-9.76444582971724,-34.44783236125529,-21.458325791907836,-0.8970557936557013
1456,-8.785445698971783,-35.84022943632874,-21.320112604645946,-0.12643630717037735
1457,-7.865818358379927,-37.26428321928235,-21.185347603024297,0.6007813375901967
1458,-6.93129461756114,-38.71927757445037,-21.07414107995713,1.2720332663452365
1459,-6.030331635973712,-40.18828072306166,-21.00478797771018,1.87210366123363
1460,-5.215569113351498,-41.647722680408364,-20.969820342317366,2.3996579674730714
1461,-4.437715721987832,-43.0746897162301,-20.94132697066399,2.956137153366568
1462,-3.637271346641979,-44.439492789234556,-20.894190553965075,3.6301678904190626
1463,-2.777077322537981,-45.700977971211714,-20.81848773055867,4.332403419569445
1464,-1.8448078514032704,-46.81842153297213,-20.70745802022155,4.955278594401461
1465,-0.944170350478324,-47.76415831840774,-20.551226835291533,5.53259597657058
1466,-0.15921212715200622,-48.527120071144395,-20.334550705157092,6.126795696825859
1467,0.6530984025532127,-49.105567770301946,-20.043341831602,6.770341179297154
1468,1.6688545948307538,-49.514132228969615,-19.70699309409397,7.426471698180095
1469,2.7375907385639526,-49.86217682198275,-19.406094201061833,7.996178413579214
1470,3.701407340558865,-50.23730580010557,-19.18883867170721,8.360382631495307
1471,4.496707069764383,-50.63451760772518,-19.019974868298473,8.689123595074228
1472,5.1369238537213135,-51.00576415588437,-18.8399366735261,9.187034093841268
1473,5.8067965084821775,-51.29101011262454,-18.616501208600333,9.718396086231316
1474,6.677007496151552,-51.44085470350879,-18.349342057989595,10.10363764797476
1475,7.620382106031446,-51.49214819442589,-18.045993035877974,10.42629291428726
1476,8.385169536158788,-50.38101842238372,-17.486151527138038,10.823018826415867
1477,9.067020598271782,-49.28132564716913,-16.92319647486533,11.25836871554806
1478,9.73878445232331,-48.13382252787175,-16.353094534724093,11.69909862951431
1479,10.3883143187384,-46.95471536665353,-15.777565814516366,12.073160341109299
