,TP9,AF7,AF8,TP10
0,-19.945172359427747,-17.830691884562135,-20.86969008593367,-16.308120732631
1,-20.50326087821986,-18.456278965950403,-21.522719958369272,-16.757724507203086
2,-21.117544073548785,-19.024349031479353,-22.218128538752342,-17.16872980018406
3,-21.668136348791545,-19.519459180389052,-22.927818886650375,-17.540740858570288
4,-22.030113726424442,-19.932839286031005,-23.622868121116866,-17.87164132258549
5,-22.314777983771794,-20.258620404426118,-24.29103439517858,-18.173315453535327
6,-22.653295687620208,-20.506086627203338,-24.939378534568824,-18.454672080755763
7,-23.004006036920398,-20.683294574357895,-25.574204296883458,-18.725745052084438
8,-23.297661812476736,-20.790419026531808,-26.184557523343646,-18.993001896810622
9,-23.49690246261435,-20.838613609793747,-26.749471778520345,-19.233855269301547
10,-23.588581725388103,-20.856223092894208,-27.24400307694087,-19.430527679179107
11,-23.689712181317677,-20.874423693153144,-27.66905649368251,-19.619585183370546
12,-23.90884067395921,-20.9116569284473,-28.02435151691446,-19.82492657835348
13,-24.11668946216498,-20.975559934695916,-28.299763994554002,-20.059860113099408
14,-24.167556436313472,-21.082384104853006,-28.478306134820247,-20.27359315631783
15,-24.150007993405367,-21.25336844102499,-28.574884552953517,-20.438965211485062
16,-24.182612632275887,-21.48686961258029,-28.63274443087692,-20.535613966969688
17,-24.250410735407577,-21.751942028112428,-28.66965126582795,-20.58081901713825
18,-24.31974116892278,-22.018791100238403,-28.66694789090686,-20.608294271620462
19,-24.35736515774413,-22.265971184813974,-28.61195179941651,-20.62686391409791
20,-24.340577136686868,-22.50088795603407,-28.516827335659052,-20.64106628137773
21,-24.383883040865623,-22.752024683328322,-28.409323342814332,-20.680846368768147
22,-24.579228643789314,-23.02353622297085,-28.314063831469774,-20.762480784530872
23,-24.75012614266325,-23.288115170558804,-28.226313419707687,-20.849459473767748
24,-24.710343689036517,-23.521875291308113,-28.117677577487136,-20.899012145361624
25,-24.533624864598902,-23.720296760221746,-27.97100687573051,-20.900901990921298
26,-24.350110194526472,-23.889691666761163,-27.788238840582206,-20.861131503063856
27,-24.21572405173644,-24.036850495665323,-27.572815170911785,-20.80272831318365
28,-24.153513573875028,-24.169110735499846,-27.322875515946254,-20.749316767021448
29,-24.07868449848583,-24.286700059633535,-27.03964580117896,-20.6916009268012
30,-23.897456557283267,-24.385318515506967,-26.739897899731968,-20.609621371753853
31,-23.695410308227483,-24.463777811157318,-26.43907156681528,-20.50066710548026
32,-23.574427703754033,-24.519253419240602,-26.153060155222178,-20.36292313519828
33,-23.47036289851354,-24.541010145954004,-25.885095202744974,-20.185093758376738
34,-23.299692234835895,-24.52101591535127,-25.632515313370604,-19.960831740648185
35,-23.06105332948212,-24.46460069116772,-25.4025985098123,-19.691087818253724
36,-22.771971279268282,-24.379203804235654,-25.190919336300492,-19.383995272095227
37,-22.488370998740862,-24.279854308933455,-24.976616903146844,-19.06891350145578
38,-22.25480903980905,-24.171946015968484,-24.725649971775983,-18.768640049616454
39,-21.966305734540224,-24.052818489710127,-24.412677508090837,-18.459741075581736
40,-21.52085820445781,-23.92361382641266,-24.03741362910824,-18.111022703736165
41,-21.029131394486672,-23.78471460283327,-23.611281462655366,-17.723566329637677
42,-20.615754536631798,-23.62522341822804,-23.14960160820907,-17.305369227862514
43,-20.22202884421162,-23.430732472197256,-22.641293127571153,-16.858119029399333
44,-19.76040814184123,-23.189265976685615,-22.075076263891557,-16.381178349822353
45,-19.20726916419212,-22.905124831467766,-21.445726036367876,-15.859808151352917
46,-18.562389032357213,-22.58414353939695,-20.76271295346692,-15.279543702511575
47,-17.90409164981444,-22.239109445502834,-20.031265221290813,-14.649497307437258
48,-17.30667819833776,-21.86676318178258,-19.240553448832163,-13.985478454523824
49,-16.669680556104872,-21.444821768237702,-18.3812689849403,-13.290732725853333
50,-15.886328043169206,-20.95818283072875,-17.468821264618686,-12.568428510603152
51,-15.055928837025276,-20.39871910220074,-16.533505873738495,-11.833094189856874
52,-14.291359299096086,-19.753511733898463,-15.584738952554474,-11.094409505547656
53,-13.54560753045133,-19.03571259784664,-14.606700156833725,-10.34688621380151
54,-12.747473532237365,-18.270668126196245,-13.594653621935551,-9.582205712500302
55,-11.859656218712981,-17.494219761403095,-12.56432178197262,-8.787778410176726
56,-10.871974093381723,-16.735044706661974,-11.527821566472765,-7.963156222311801
57,-9.899715270700527,-16.01700870519251,-10.499369332150891,-7.149222029358724
58,-9.049097700816601,-15.333515187271532,-9.486760755771211,-6.383696829812411
59,-8.19818941637155,-14.65524598003021,-8.487493633400973,-5.6614900804234445
60,-7.254528107105827,-14.004150424036784,-7.562793474831362,-5.006267351924533
61,-6.418434787949596,-13.467809786596796,-6.848056564707519,-4.4711971816461595
62,-5.906407584633801,-13.078344253898498,-6.379202688610442,-4.05680631619614
63,-5.651775429817021,-12.78105188794064,-6.062491455389774,-3.737964013747174
64,-5.482546964665792,-12.522393382775673,-5.789669930280832,-3.4931435342504478
65,-5.246333850640468,-12.271519079783173,-5.4949860364772585,-3.2783787362878267
66,-4.839574792222685,-11.996891995598128,-5.184764777668705,-3.0466207054106773
67,-4.361779310593683,-11.652895457895843,-4.935657941091489,-2.8193607555661204
68,-3.90482193806317,-11.17559397653007,-4.6738887650279475,-2.4985452541919804
69,-3.484836105363853,-10.717411775177897,-4.464455052785488,-2.2120453674968124
70,-3.001435741384313,-10.283461898282559,-4.307108091381301,-1.9923565752166972
71,-2.475258538029894,-9.857288651575182,-4.1705470510724885,-1.8434397710446087
72,-1.9538053474763786,-9.429749014920587,-4.0257920960742375,-1.750235556848039
73,-1.4722347679490742,-8.999651350707511,-3.8575234412467605,-1.6994621053353938
74,-1.060758929997675,-8.571695594598363,-3.667621919356113,-1.675244250834095
75,-0.6599758493097431,-8.14405333797391,-3.477086244564205,-1.6538376046969454
76,-0.20688624578901216,-7.713750243767817,-3.305927897442892,-1.6177305029400122
77,0.1890997513499458,-7.281160641504289,-3.162549722608841,-1.5714094737440176
78,0.40143441436809785,-6.8484915776447455,-3.029594304520956,-1.5230686001733416
79,0.4946471784825869,-6.4160360686530264,-2.8989649909265083,-1.4664944318701476
80,0.5835538991785317,-5.988508960483282,-2.762754147844401,-1.3870275647886883
81,0.6956319266024475,-5.586176653178038,-2.6233224381710243,-1.257010630817116
82,0.8408374577510576,-5.227335453234295,-2.4820735241502967,-1.0526584587660948
83,1.0207179077407997,-4.908988858336862,-2.3374018575084636,-0.787604221829863
84,1.2255045099591855,-4.614089706693449,-2.177454848843576,-0.4913556401888869
85,1.5245228048133355,-4.316286566763935,-1.989948088637672,-0.17367815984719118
86,1.975042592707812,-3.9924344351387657,-1.7858956851294288,0.155545578722569
87,2.439372866644107,-3.6211718709070104,-1.5854872534397335,0.46226132967067973
88,2.762643614803453,-3.2078359125151494,-1.4124206896673204,0.7198255667555999
89,3.007015289733718,-2.7793578139716515,-1.2716529050734398,0.9325546343579616
90,3.288149800180706,-2.367280195960516,-1.1572440134621012,1.1221637886736389
91,3.631698202405566,-1.9877415453249911,-1.0607135138091772,1.3372846363570048
92,4.025698572277531,-1.6404842605074204,-0.9738190815917035,1.6180635653814242
93,4.374052414735504,-1.323626114704525,-0.8973468043803925,1.9243057436410567
94,4.574503866763521,-1.043157019702487,-0.8369493003982744,2.1963392112972
95,4.714814311554347,-0.802989049925431,-0.7965464915211489,2.443585947284585
96,4.9214898897506725,-0.5966530068193281,-0.775464618044408,2.691098364974186
97,5.136673028733332,-0.4141410683969321,-0.765506096125364,2.9280310015213997
98,5.268290178441231,-0.2424836289259702,-0.7537031591910565,3.1389467691812527
99,5.3412877108494055,-0.07415113964263656,-0.7183180060200106,3.3104745832328444
100,5.399844761953722,0.09289981281236587,-0.644933375919359,3.433539188495082
101,5.467198050889375,0.25657276661803186,-0.5562965718648606,3.5348248725191427
102,5.555645304133463,0.4113502991461252,-0.4782852874597912,3.645863366429317
103,5.586180369182122,0.5485118572590268,-0.4226648711997378,3.748921337568791
104,5.479551674597525,0.6624797053457131,-0.37607274148004227,3.814937720864733
105,5.338319892723765,0.7594295095333259,-0.32165865565013285,3.851499853625753
106,5.293455456365651,0.8511104550472371,-0.25492949485226446,3.8708042936130105
107,5.29523391834278,0.945205783018406,-0.17677236103307273,3.864024950827701
108,5.2543949638850425,1.0472256847257342,-0.0976283196999291,3.8191470839400306
109,5.178198861262078,1.1655481133257097,-0.0174891726385851,3.7214944790808357
110,5.091874772868878,1.300011382269954,0.052355442157142586,3.5627537637353197
111,5.026289249878805,1.4469550210144793,0.08975943748360483,3.3740086456650387
112,5.010514275789387,1.5934606608266302,0.0554514775808979,3.1960784678407905
113,4.9612104898736495,1.7339574120565486,-0.0636726377891548,3.0242547027284723
114,4.798297610973573,1.88443587096356,-0.2455709966818923,2.8628670732295585
115,4.661444378915883,2.0722667441365616,-0.4704096217315892,2.71981770707607
116,4.714859077684477,2.324955190724229,-0.7346467412173727,2.6379774200154884
117,4.899531550169745,2.641267398732662,-1.0253367062798073,2.6605390224333543
118,5.095545100125005,3.006689114292551,-1.301356046760136,2.7617006433887528
119,5.251760728004651,3.397991870370501,-1.516678712473769,2.8855082967387378
120,5.344177408691024,3.7989498586700643,-1.6503324702164877,2.9641970232754447
121,5.4455731581983935,4.1941285343628625,-1.703123658083297,2.997246695535315
122,5.641702213843758,4.571126808226933,-1.6833908802415585,3.011266519172238
123,5.8178904852303015,4.908412579332266,-1.6090463161837463,3.0028901373169283
124,5.833568790407811,5.188485303193892,-1.502911109525021,2.9665597506191035
125,5.78184133031779,5.394719632496424,-1.3741940193979039,2.9112787693461972
126,5.7951883014426855,5.525026005901397,-1.2130132405868759,2.844646954754276
127,5.8411724115957595,5.576643358990918,-1.0088667067463875,2.776938547724709
128,-18.923105113682922,4.644633854445668,-43.729517995830996,-29.482642113427435
129,-19.14534391194173,4.653168095350676,-44.685043209169585,-29.894095608138393
130,-19.47957025584039,4.676968829331695,-45.583040802166764,-30.283672729980292
131,-19.82106630832469,4.668575327297548,-46.422553049368275,-30.61391414498216
132,-20.034205652031453,4.608904868819649,-47.198931300489825,-30.84004097604581
133,-20.169558465570617,4.508150827932616,-47.90613556102112,-30.955502924725383
134,-20.306379942311157,4.392178011577573,-48.54473957064241,-30.975933446712567
135,-20.41935070180484,4.271535849050011,-49.124903224273545,-30.952958091982154
136,-20.48360281340616,4.147794520817126,-49.66604837372059,-30.94594365693189
137,-20.527973805623315,4.011970365407881,-50.208280816068026,-30.968298185547198
138,-20.579511125102062,3.847263357338356,-50.77317802552364,-31.01360869524476
139,-20.67159204660008,3.6355798670464194,-51.34489500414772,-31.099843936982094
140,-20.81993021272094,3.3674527909161287,-51.87541857717666,-31.225247036566106
141,-20.922747708356813,3.0519099122103563,-52.321875357915,-31.314912226006285
142,-20.893566868557276,2.707938632167645,-52.672066613266125,-31.29840491387468
143,-20.864207289086508,2.357774673507155,-52.939718103952345,-31.188953408741874
144,-20.96917066025559,2.018387560601031,-53.14537923065207,-31.024673968356037
145,-21.110342052104674,1.68807655689039,-53.300230407675535,-30.824260863785092
146,-21.156444557306006,1.358059267391836,-53.41230001213123,-30.602674340845553
147,-21.08122379473507,1.0256914699130113,-53.48060222387092,-30.354005972507146
148,-20.899006347794124,0.692860414087207,-53.502476228106985,-30.068522275525698
149,-20.722109229844442,0.3660487930655393,-53.45578185059713,-29.77672722159628
150,-20.6458726232591,0.054563956470192854,-53.296373749923795,-29.500216537768033
151,-20.519543442638888,-0.2314867476824929,-52.99951420511969,-29.203932970834003
152,-20.17957194711119,-0.49157162584172437,-52.579700323510906,-28.835913669808907
153,-19.721617019886743,-0.7433756238047583,-52.0625843308955,-28.343394030190645
154,-19.287117343878048,-1.0139127057046757,-51.483416071261445,-27.697022619531506
155,-18.90069930786803,-1.335302753515587,-50.857016404060126,-26.943583016412862
156,-18.555632070126844,-1.728188039449605,-50.19278373323867,-26.152035869555828
157,-18.19545824997724,-2.180971934899122,-49.49265434171151,-25.340178346018412
158,-17.76027746636177,-2.6656119163905165,-48.7628932443738,-24.51363903623989
159,-17.33667099549843,-3.1545469880272052,-47.999791145555264,-23.70668092026328
160,-17.014394376045644,-3.625774264524283,-47.18064282718924,-22.93848037232683
161,-16.67956986216167,-4.0681240070970555,-46.27445025035202,-22.177383384864843
162,-16.21523572188104,-4.484499912293221,-45.26539091696064,-21.387023210599683
163,-15.707143506769645,-4.9014479639688595,-44.17272940477132,-20.5604766793437
164,-15.2621515012195,-5.341617816398257,-43.03630760544752,-19.702605526647577
165,-14.881123763470212,-5.786042695518044,-41.8680172516564,-18.835106203094846
166,-14.526836763670522,-6.209043251672523,-40.645761549727844,-17.97355769744936
167,-14.100129286523552,-6.613624688519161,-39.35643561907312,-17.079982963269135
168,-13.512002270870134,-7.013108669053552,-38.00730169244463,-16.113322287990563
169,-12.843964637516999,-7.422602244887962,-36.60261168482785,-15.086497453970978
170,-12.20209465427906,-7.85864501465643,-35.131910205128555,-14.027050192553324
171,-11.524183331684297,-8.3284269974663,-33.59006206907245,-12.951852513573026
172,-10.741290128528496,-8.831265758961447,-31.97743745475576,-11.871063751043655
173,-9.927414695482108,-9.36438862121593,-30.312471719424867,-10.771251109644822
174,-9.1649886238347,-9.919546310172407,-28.618705095082554,-9.63293018988117
175,-8.471128213386642,-10.481418083365018,-26.897868696845553,-8.458711132187233
176,-7.831715395726263,-11.034288904673005,-25.130223756864147,-7.255987528715625
177,-7.14973031220064,-11.567561425037386,-23.30632520596747,-6.027499615118842
178,-6.341160282086444,-12.077307963344644,-21.433785021706992,-4.774417270895311
179,-5.5082631485852405,-12.566090859233706,-19.517507245466376,-3.4780490716618364
180,-4.769917550737589,-13.044091146345538,-17.553947661901507,-2.126360268998338
181,-4.062325663771966,-13.531355991035145,-15.549477767695425,-0.7602388820083658
182,-3.2976859237845524,-14.045892881174657,-13.522545335220606,0.5828227299296467
183,-2.4867894457327,-14.59075908614735,-11.465564550670681,1.9287833116040731
184,-1.6561572244101601,-15.158992424896955,-9.338828337562447,3.3215604208093064
185,-0.851258849607467,-15.74015156113838,-7.1110310226888895,4.790284834091286
186,-0.10121666395946019,-16.32015053603543,-4.777593148328083,6.352483116328317
187,0.7151528999148205,-16.880159558997434,-2.355794963478525,7.998012928441523
188,1.7029095570384625,-17.43462943154784,0.07552551215712267,9.71220497174415
189,2.6335728407908916,-18.04624397201546,2.3705030015426183,11.418489971558415
190,3.282589202905485,-18.73895157151053,4.443901325702725,13.045572670472502
191,3.74420556629192,-19.496010910019756,6.312815547350162,14.490908806009505
192,4.188418540121011,-20.261672813847312,8.026518441981713,15.668139646554852
193,4.636635790370896,-20.992165202273014,9.617773033056634,16.57594370908121
194,5.061923606440342,-21.66924827445424,11.100583304048401,17.251018038752537
195,5.3886689507049885,-22.246221940332386,12.462970856417785,17.704560194952375
196,5.575097288113757,-22.80125789923527,13.87107194751273,18.128626559340404
197,5.642780286061945,-23.251370988787624,15.149203972620557,18.368590450249258
198,5.699315771126807,-23.60716997146991,16.29975246954062,18.46781353446658
199,5.704015465867938,-23.887125103576768,17.31271413088273,18.470817278927296
200,5.59111468902003,-24.110913493316556,18.197881400259135,18.413868119504404
201,5.39468814681856,-24.276130712815792,18.976249190487867,18.286648471153132
202,5.168499443369357,-24.374729610501287,19.67212675088786,18.06712361125898
203,4.965964349904756,-24.428761516883824,20.28908372440377,17.786960206040774
204,4.825159526582546,-24.457352540017958,20.821310990102752,17.4846828055797
205,4.652147973183655,-24.435780497782766,21.266355489971556,17.141506656395244
206,4.348086184107439,-24.342992777262793,21.622267226633642,16.735053758835573
207,4.034560019599875,-24.140554243459555,21.890539207986098,16.289930486655397
208,3.8650190362044294,-23.848104034508403,22.077108681252806,15.844698261489336
209,3.801146969137918,-23.52388873570215,22.186325630498356,15.44166326018528
210,3.7478330691198187,-23.235689949421836,22.22520080995665,15.112501657054652
211,3.630235546912423,-22.984878294969068,22.21202106670246,14.827639162063832
212,3.398836247609968,-22.745812557540233,22.163789128005295,14.541299388738055
213,3.1569370568554582,-22.509607554219617,22.082400591165317,14.26874378569772
214,3.037338486839006,-22.27142817742059,21.962411084564362,14.036034230591127
215,2.960385660256811,-22.038777699146344,21.795798534466954,13.818998752135014
216,2.807965176619585,-21.820722121442394,21.578149297914987,13.588224432701706
217,2.6579443836945265,-21.60172196134232,21.318811905389598,13.34366928471341
218,2.6149712761702113,-21.356096917819244,21.035032259632647,13.092959065193133
219,2.6484945849439865,-21.056032898450194,20.748768241057466,12.856829232389181
220,2.7030970712636297,-20.684590996797684,20.475423215296228,12.654480804689967
221,2.743480081053978,-20.265597552103582,20.20545685450084,12.447585578172587
222,2.7494019458500714,-19.83529464046597,19.923393764557368,12.197545179065678
223,2.818853888485753,-19.406255635060315,19.607744118329467,11.961298526456345
224,3.0498335913416317,-18.977232259009842,19.25878940444068,11.807778451522763
225,3.310396874234746,-18.5326741307381,18.898407138885432,11.722119003992212
226,3.433926334614524,-18.055948788426594,18.555693959408742,11.65977149329739
227,3.4749976700816725,-17.55585933944899,18.231922969555285,11.57902931078686
228,3.5420567408907924,-17.05474845819787,17.916987854533478,11.446826423877
229,3.6538287538428955,-16.57804271907458,17.61068478935125,11.281642242027031
230,3.8018870140607413,-16.145850640848014,17.309876877843415,11.1234088534882
231,3.9213724448050558,-15.750729870222303,17.002028984657674,10.982026531236189
232,3.9390913315478637,-15.37295316601524,16.675662692407997,10.854015996191947
233,3.9274356877651013,-15.00593474078061,16.308787878200217,10.733150294545595
234,3.9818293347637828,-14.644636558437206,15.895617144138651,10.605125600358436
235,4.027453756800327,-14.2777866306468,15.445604573791135,10.459566524886771
236,3.9640916527046337,-13.89490624823126,14.980636979692862,10.288019468673493
237,3.8249799560390683,-13.481382744543383,14.526776792563902,10.068950603845778
238,3.67124313437903,-13.02806963580258,14.106891290919465,9.786596133902131
239,3.5352620984818928,-12.555660603977516,13.73150185392945,9.4615165414586
240,3.4368572422154235,-12.092818140111687,13.398709197736782,9.124564955052623
241,3.2942476595719614,-11.633638165409419,13.092663765993109,8.777372597496258
242,3.030085951588315,-11.16875074553996,12.793127105530699,8.42072309215178
243,2.7994539154891807,-10.739365597557637,12.492958106884409,8.087341428534533
244,2.77703642722452,-10.374325210231715,12.189509981950769,7.8098985762111015
245,2.870755515987389,-10.061855904930995,11.871454512181304,7.600970316502007
246,2.922164827271216,-9.756680600970874,11.52873723199765,7.455866101449089
247,2.8809231280100596,-9.411357460147425,11.160009769748113,7.325965203457574
248,2.746046593848609,-9.032417666070026,10.76794494089182,7.15945853852242
249,2.623792188782792,-8.678936186176555,10.358673760484292,6.981077986677388
250,2.63396831265146,-8.36972527404785,9.937654064202185,6.827413438104794
251,2.686086603840213,-8.059762938658741,9.503731920823121,6.661402361256355
252,2.639069097671014,-7.726752301010184,9.051536942573012,6.431500022772089
253,2.530148087780508,-7.376544214984075,8.573295488344755,6.119301415527456
254,2.435365633229072,-7.033347602842059,8.06720422320734,5.728322254097253
255,2.3306024309278612,-6.709009510280669,7.541758130877749,5.3028585776852815
256,-13.500203031512314,-13.308415925601967,-23.364184304307333,-12.637988968415518
257,-13.918862093868466,-13.85753898936489,-24.01257164826211,-12.973366566558626
258,-14.302881077167,-14.412309736769185,-24.570028666407147,-13.251097061572892
259,-14.586146428738937,-14.890347100862225,-25.074113627841406,-13.425053122858639
260,-14.73340530263712,-15.183681377504001,-25.589278959058003,-13.534458940731477
261,-14.869040847725568,-15.310565530911083,-26.12430869481368,-13.700237533016145
262,-15.114173359891058,-15.4284340656597,-26.62553927605105,-13.974292795661144
263,-15.36654038762919,-15.672218113156736,-27.068870499830307,-14.296580821982152
264,-15.494883528767641,-16.069362441665554,-27.503634913116063,-14.565736296897121
265,-15.49652720671119,-16.57412608395447,-28.004461259012338,-14.654247900224393
266,-15.432972113015436,-17.11227668910762,-28.589404567763005,-14.454728257471393
267,-15.452087211332115,-17.62539703878901,-29.194438893752512,-14.087794086415164
268,-15.694431368073639,-18.109680845608857,-29.686812908651632,-13.913596801407225
269,-16.12832708531209,-18.609068261711982,-29.933086726018903,-14.190339817469702
270,-16.640965729161664,-19.08000474092611,-29.915756105131603,-14.837601331496803
271,-17.182414388961902,-19.38064664835621,-29.76835545044131,-15.572289852912272
272,-17.689481544569247,-19.513192760836972,-29.67865111307426,-16.1785255758662
273,-17.967022178604235,-19.70751827392974,-29.654322748473692,-16.603146958657867
274,-17.92627364479285,-20.18145127549368,-29.491456626376753,-16.915788025847867
275,-17.8130479592978,-20.90902582650941,-29.056831848840517,-17.316318867940634
276,-17.94801208310493,-21.589840343023802,-28.40179890484633,-18.059222860532905
277,-18.563306799384264,-21.87874100639435,-27.669317974447,-19.211314801895593
278,-19.72027485119106,-21.71506313617761,-27.010907334739137,-20.548483638856474
279,-21.088686717719657,-21.29383495870666,-26.510351826522637,-21.737538794165545
280,-22.2546966404408,-20.80971404390961,-26.189413175755213,-22.59240505548347
281,-23.10843125385877,-20.41359159406669,-26.051799616475662,-23.12863106536665
282,-23.686570372200507,-20.231208612756053,-26.02900823831243,-23.47006501733771
283,-24.056220963143492,-20.2693331209169,-25.99153777111891,-23.740585206867145
284,-24.34834145911488,-20.42690161898033,-25.87287517405977,-24.040685244505376
285,-24.68299005520882,-20.58482027284542,-25.68386410204772,-24.392514118759177
286,-25.124854258443037,-20.639448849298713,-25.453649799538866,-24.763421410578413
287,-25.734160946364707,-20.568024254873617,-25.22201980909517,-25.147207523001743
288,-26.482567823810665,-20.410035427272835,-25.04602440745902,-25.503589382136308
289,-27.087371362909455,-20.247207845610184,-24.9689526897917,-25.743472869517284
290,-27.296785283157657,-20.143905508030738,-25.00702689084899,-25.76540536744546
291,-27.236294734482517,-20.12120132427623,-25.117654208054834,-25.55868744458168
292,-27.117256901634956,-20.132545592905917,-25.251463671372232,-25.198301135624792
293,-26.97316123455061,-20.095402544377507,-25.377801460033744,-24.75795929823095
294,-26.791559329570678,-19.971780495962932,-25.50249782035041,-24.27410386591296
295,-26.51564606463175,-19.801698677224902,-25.643378314435903,-23.739210534477508
296,-26.086001063090226,-19.646175774478927,-25.803379879965494,-23.121048829142794
297,-25.629474315613347,-19.532354093321253,-25.971761026957626,-22.42421818028446
298,-25.270944549353068,-19.444605727858455,-26.137310968305574,-21.664048200066407
299,-24.860116937493835,-19.353494612144324,-26.30174652325111,-20.845338062797268
300,-24.232403362701092,-19.233099953945864,-26.484804447517984,-19.974714519968547
301,-23.472176816164193,-19.070308190915203,-26.69956360728851,-19.05840136015278
302,-22.700213495826485,-18.865361823188362,-26.951092887594292,-18.102350775465798
303,-21.934836407261187,-18.642152809127772,-27.210070058045197,-17.1159111117635
304,-21.163159999226025,-18.437922481517514,-27.45117485717543,-16.10986160249866
305,-20.29468089307177,-18.242863060845217,-27.667332934804058,-15.099977307329294
306,-19.249629733642617,-17.99985724573124,-27.876432220066672,-14.08809792632107
307,-18.150544947823036,-17.690206877167743,-28.083287264965797,-13.0729160085827
308,-17.133448370832507,-17.348413755227824,-28.262656168664734,-12.027637222971979
309,-16.117718175765262,-16.9904455019003,-28.380116740987663,-10.923297644055703
310,-14.993449710328445,-16.59424163814655,-28.40615426537002,-9.756965679761283
311,-13.78098472444722,-16.131592840676642,-28.338759342651827,-8.540389177520813
312,-12.522718816735818,-15.587533667247705,-28.19893434319189,-7.2765006457145125
313,-11.251572029853262,-14.961100538795078,-28.005471861351314,-6.003248434983997
314,-9.999939108951043,-14.26670335718754,-27.75750529601477,-4.756103425709476
315,-8.708019708337993,-13.519481170511082,-27.447903562034742,-3.5420143232260846
316,-7.354475247660199,-12.76290576661689,-27.131159580138135,-2.382142147800291
317,-6.186323093695953,-12.071467513267974,-26.952843902987482,-1.3320280229114614
318,-5.4178055330473915,-11.488478651382417,-26.98499674908176,-0.44773396466949905
319,-4.799189127617216,-10.991993769069396,-27.17261600970927,0.3095484294922321
320,-4.0031016953023215,-10.526140399662612,-27.426696241292277,1.0352699193629131
321,-3.068198015337227,-10.005141728540098,-27.67996811281931,1.8092482878202234
322,-2.1412522726792544,-9.404399393402455,-27.888450433946446,2.6529116125249157
323,-1.3132969981139602,-8.760447488812321,-28.03481891952786,3.533599489255546
324,-0.688299381332554,-8.294304037469896,-27.720205168802835,4.166008735247556
325,-0.10430498633906804,-7.847271904294278,-27.364825629919835,4.803901904841378
326,0.6070093795089716,-7.410539712300652,-26.98636176158888,5.455898802693307
327,1.3870217069551931,-6.983052856646756,-26.61386473592631,6.141015633547207
328,2.123945404626554,-6.557002987716985,-26.272557872218353,6.846588271640431
329,2.871028630490107,-6.1047287832628125,-25.951682050267497,7.530162394569007
330,3.698648696962071,-5.602374173820599,-25.634503292551663,8.179314279238207
331,4.590509379161617,-5.046639568518681,-25.292843298713393,8.819635344486475
332,5.5011538494082615,-4.453762597642108,-24.92914659287643,9.473138119510603
333,6.31551338266818,-3.8730042915252776,-24.58767793611104,10.11008874465029
334,6.930841215836098,-3.349540064338788,-24.303227239722684,10.669436010875051
335,7.449273180590865,-2.896680261804271,-24.079443652690767,11.127814178693834
336,8.016327373032693,-2.4879493684173166,-23.894096333963212,11.514237905913319
337,8.584938633302086,-2.0998239860802492,-23.71269480620257,11.87044131449363
338,9.06860636526713,-1.7139699922495433,-23.496752536901937,12.219395860760137
339,9.492630905144912,-1.3246009982476457,-23.219045356107657,12.575609976234867
340,9.902307146809584,-0.9465863406080265,-22.87137357649572,12.936231968110668
341,10.339339764633495,-0.6131966385530707,-22.47086978639085,13.312917895297225
342,10.833806692992072,-0.33517829215678824,-22.046452878557766,13.708692325429881
343,11.300872140127055,-0.09061517625498272,-21.624469322901966,14.078577700603716
344,11.64401963437356,0.14183521993753576,-21.219524706589507,14.38370642263471
345,11.942417866889725,0.38490044747546837,-20.81764001091996,14.596473635603251
346,12.304666846027061,0.650958535451737,-20.398576982247313,14.736411579787621
347,12.684074278279613,0.9380246020773825,-19.9469577245429,14.855389504424917
348,13.000883688123851,1.2330518377280582,-19.47138991815624,14.97561128801709
349,13.242688174191949,1.5098641851801975,-18.990598138694754,15.086340802682939
350,13.415069691245174,1.7501946800236907,-18.52815298140427,15.159037125571409
351,13.56232219243102,1.9596876688166114,-18.09286891374466,15.195293471028787
352,13.734408821786529,2.1603588852888733,-17.68104496475977,15.20801222363694
353,13.863472543929374,2.3581410293160885,-17.278203816336877,15.204947131263088
354,13.874591685627202,2.5358509281263095,-16.866808871918426,15.193680362488594
355,13.873363968076744,2.681588012412623,-16.438871622753435,15.175698079349965
356,13.987276706384662,2.8004515880147154,-15.993563215861188,15.145367179620196
357,14.175020413254048,2.8979053264300645,-15.538896397940487,15.097554459375608
358,14.355601487712839,2.985014116267846,-15.079514695579146,15.026453728660105
359,14.499577343980032,3.0657007980815094,-14.613269241726112,14.917252710296804
360,14.59922301798842,3.1409736802669213,-14.128492295365158,14.762733164561189
361,14.744378907298756,3.215620715797812,-13.617835910826805,14.587887089300876
362,15.02391372609821,3.2951739418755586,-13.096734689174653,14.425763610848453
363,15.300558342069378,3.3857765609377535,-12.591326071549501,14.288692289972591
364,15.407172184921832,3.491736843814876,-12.118641423534354,14.178434354230895
365,15.427831173400335,3.6088031269981613,-11.657382513240059,14.08888139348454
366,15.498345110136619,3.726686727821665,-11.165436931264932,14.00668567702885
367,15.605431837243334,3.8396910437796445,-10.62515326347151,13.932405187175355
368,15.698710254190999,3.935571404662027,-10.052106827652706,13.865078943169811
369,15.721777276192908,3.9979135305486526,-9.463691494964161,13.762178839570643
370,15.625120375565968,4.007876548258692,-8.859796244428477,13.591008731567483
371,15.501061722324119,3.9758125617792373,-8.22680460355463,13.365143332754219
372,15.461857456420724,3.9439854586621297,-7.557373295712162,13.12773557290449
373,15.404177248046324,3.9363913876135213,-6.8424794595123535,12.899562053669227
374,15.196006261911142,3.9453283173081357,-6.061652470202547,12.661829420445848
375,14.930617481340024,3.968925422359293,-5.223160240914152,12.388057751528851
376,14.732150235165767,4.02773871419945,-4.3757947691261965,12.069415211903793
377,14.565000184755448,4.133370469100205,-3.5627911142954725,11.70577676420059
378,14.353338667489858,4.265651165848478,-2.8023258013567185,11.264612321033356
379,14.02118105432862,4.339804278545127,-2.0647949430153343,10.68670999407861
380,13.513780027789975,4.228715506543637,-1.2854972817179324,9.996532422401614
381,12.942150388877852,3.922062982229402,-0.4489851063325646,9.312959505451996
382,12.434313805234915,3.561566470757595,0.3944379711091953,8.700780987401142
383,11.897230989426166,3.2905845227496604,1.2175776857995277,8.1133173007622
384,-19.761146741424085,-17.622054325501505,-15.662660974650597,-13.856861991388133
385,-20.413891996381672,-18.051329440181757,-16.162460014534236,-14.355026135265788
386,-21.037468745032104,-18.478263862608003,-16.64292146418085,-14.914286338733257
387,-21.609733992467305,-18.90614660106949,-17.107761566708756,-15.509017869970982
388,-22.11786474109023,-19.332396641512613,-17.564778125140993,-16.097784721010573
389,-22.621886511273214,-19.731610206418253,-17.998169865210297,-16.649996536955268
390,-23.178906208169717,-20.08671003680946,-18.391348020651854,-17.143366908947446
391,-23.702909339364517,-20.389176263832837,-18.748440599306516,-17.57244264622954
392,-24.105216951112745,-20.660543413254867,-19.079452548507042,-17.943316895570025
393,-24.462364216265666,-20.909958807103973,-19.392092221350957,-18.25457316199319
394,-24.866155167974668,-21.149502339307308,-19.69417658197304,-18.513509708062106
395,-25.29275572959555,-21.379568846366038,-19.98732063486196,-18.75410747732254
396,-25.69963799596808,-21.620085639187348,-20.27090690723584,-19.01264461882198
397,-26.057620799571367,-21.89717955758517,-20.55387703108876,-19.30896191907296
398,-26.350378834696144,-22.265763830207906,-20.8423430430252,-19.646522757301355
399,-26.666421431478604,-22.787855264149783,-21.123780763521598,-20.008247928953015
400,-27.078770620221274,-23.44718937984359,-21.386706857547896,-20.364764356971868
401,-27.447539474841157,-24.171107747483237,-21.63441240192897,-20.688204745966782
402,-27.6314001705809,-24.861393291497265,-21.87680955259844,-20.962746525885265
403,-27.715273847346438,-25.46706408602889,-22.136994595256233,-21.18242364487356
404,-27.827649437587432,-25.960848671034437,-22.423060806551174,-21.361572939378778
405,-28.015271717574464,-26.317632771187768,-22.71390877419676,-21.56775146972239
406,-28.287318145357172,-26.535931399914126,-22.966168585934792,-21.85344906547422
407,-28.56017478465103,-26.634092945077615,-23.151219350633585,-22.16541450737808
408,-28.74258347088625,-26.64796263943581,-23.27448352280172,-22.42989702123794
409,-28.90424424108111,-26.64792563686556,-23.351491728547117,-22.63936735194291
410,-29.13159597457233,-26.688049787793485,-23.40630846024117,-22.80343186134377
411,-29.357096209886265,-26.757478371271223,-23.447739996820683,-22.926357835689018
412,-29.499570849709997,-26.812397578760677,-23.473035497463467,-23.015231431585043
413,-29.576367576301188,-26.782897116268295,-23.477475650770312,-23.054393598498663
414,-29.618665091962622,-26.627199120521325,-23.45177598322646,-23.030150933872733
415,-29.64952731856701,-26.353773796971563,-23.377655144773513,-22.97135302997834
416,-29.6814590412476,-26.023312440244915,-23.25255649907556,-22.911006298469097
417,-29.63794093918793,-25.656966292251298,-23.084058636204645,-22.851891832249137
418,-29.454408390666195,-25.216138478563742,-22.906090228480753,-22.78281427215638
419,-29.236392824155253,-24.673921535029752,-22.75839467577258,-22.68232561824281
420,-29.09659778670076,-24.03936861046719,-22.651299673047685,-22.526012114683454
421,-28.98501927774707,-23.333036412256234,-22.57547263013502,-22.30734734280132
422,-28.8187106947673,-22.56704491666161,-22.50658097416498,-22.030625771925965
423,-28.55689300979601,-21.76299726680602,-22.428420565667363,-21.691731331065647
424,-28.17907895121312,-20.92229417726101,-22.327248965971645,-21.294986514679042
425,-27.76050553998587,-20.035912875542063,-22.18680430464214,-20.881617948510396
426,-27.368979755744924,-19.07518141220973,-21.995480207977767,-20.484483921277256
427,-26.87034746110117,-18.026977712558725,-21.748755819723517,-20.071684790710382
428,-26.12960349568418,-16.904308583632915,-21.44708912055968,-19.600540838581352
429,-25.25221874097611,-15.726898400272013,-21.09357367865178,-19.07339117094537
430,-24.373176960729044,-14.500104812532243,-20.692854161776925,-18.498192452253342
431,-23.472971746469163,-13.23221058294283,-20.253336475060607,-17.86847512206517
432,-22.50510576733341,-11.931727089446518,-19.776773886297367,-17.177269197826835
433,-21.44269120119279,-10.634150439910336,-19.249851223524047,-16.39827718930962
434,-20.273830139159873,-9.35227428605373,-18.657496853530322,-15.523498876816069
435,-19.092161657411637,-8.075380735426734,-17.985020003849918,-14.620478810226125
436,-17.990712070056894,-6.7440000387947165,-17.2371171107999,-13.76454785872082
437,-16.88862186616154,-5.260704884170923,-16.46711174228493,-12.97952204020692
438,-15.691030034135416,-3.582801097137253,-15.733860981390766,-12.254577356256098
439,-14.463419562022386,-1.7637665876391107,-15.060665499562068,-11.530941222987037
440,-13.286070202550452,0.10753257146284684,-14.44204856583459,-10.745691998980588
441,-12.151176410576232,1.956536419644969,-13.840395214112283,-9.907709495524303
442,-11.028199092142424,3.743257371627138,-13.21005127203337,-9.048350597272439
443,-9.847579736408612,5.43987245587243,-12.522439426459425,-8.160351995564584
444,-8.625523583190601,6.958365013268684,-11.827443993706083,-7.277101065940982
445,-7.527940076150707,8.172584400274356,-11.256149780490723,-6.502219809548254
446,-6.747120489995662,9.038570893188652,-10.914670706803149,-5.939791807270276
447,-6.11019971952551,9.625966239164006,-10.785952506779825,-5.597071365844224
448,-5.371840199704347,10.040525675717317,-10.765035809455735,-5.412289146044935
449,-4.590944398057391,10.384279966886641,-10.75018451326666,-5.2664289003927145
450,-3.88241625973675,10.72014873384383,-10.681231757441067,-5.0586794075980315
451,-3.2071513362518496,11.061879567545859,-10.534005695119557,-4.821465127034924
452,-2.424407895552729,11.154761136902179,-10.276241234118203,-4.529335124233007
453,-1.570623976697071,11.268861029513692,-9.9420620984718,-4.238201455905924
454,-0.5993081556072525,11.407591733079476,-9.530957722340691,-3.8952020591587977
455,0.3688762453262273,11.559252631536795,-9.07773770189157,-3.5021537240781546
456,1.2012279116576567,11.706355901533142,-8.626246071929769,-3.079857728395418
457,2.00771765797841,11.83209559325564,-8.196479938801144,-2.6380912689242906
458,2.9401097805781706,11.925763652582672,-7.7960022522820065,-2.188046277467519
459,3.960880565738423,11.993660337794196,-7.437468034653242,-1.7403091500368855
460,4.9756041884655975,12.049942687281327,-7.122434536764989,-1.3006022428845552
461,5.9059644864307925,12.10291622222907,-6.824117809540978,-0.8745975906664174
462,6.686696626629397,12.158008544443149,-6.518449567328687,-0.4658744392145242
463,7.378191012541241,12.217797423429127,-6.183621731117625,-0.07423332669463373
464,8.071569638172386,12.281009069130771,-5.826490648312207,0.3027540408234152
465,8.680940177604956,12.350137608495604,-5.481217868848688,0.6719115232875803
466,9.105991140200333,12.425139561101755,-5.166338245338569,1.038201031157347
467,9.458494588311408,12.488661587787236,-4.883022971261482,1.3947476768337883
468,9.87765765240321,12.530462128620762,-4.617476800278909,1.731000310079086
469,10.349534893733844,12.53789724359963,-4.360520375455115,2.043921762479033
470,10.813507384684902,12.521144146444996,-4.103649117966718,2.3356336953696664
471,11.18888463197145,12.510938750724664,-3.835150088323543,2.6076257956647115
472,11.412257397610857,12.508912388572757,-3.5500239826553415,2.86770838659996
473,11.604384740407031,12.477235467839341,-3.257224919745423,3.1405422984466553
474,11.909414727145961,12.396642580896462,-2.96931482481123,3.447316686532551
475,12.22727923999054,12.270369286676146,-2.7001269411989535,3.7852510188780095
476,12.40698464905412,12.11802192756111,-2.454744398945949,4.134654408603394
477,12.464122882114449,11.951237104709607,-2.2026119548633196,4.4579552210968085
478,12.458966173592568,11.778590477124702,-1.917398589307536,4.717333535237784
479,12.434945860344834,11.609225371751098,-1.5941368665011364,4.908823928430433
480,12.42996561475631,11.44338453632631,-1.2595697936518675,5.045013186996805
481,12.386407663498884,11.26338501581436,-0.9498094127649271,5.125551851108605
482,12.229402672655372,11.052655944907244,-0.6725586054767916,5.156361472842395
483,12.036716350739551,10.782997422900422,-0.40556721718624844,5.1678693023999225
484,11.906669286074468,10.447354852740887,-0.1396402517550157,5.193255226792255
485,11.772909449667212,10.063257036229954,0.10838024683286582,5.252673775097036
486,11.547222006253948,9.636739113022923,0.3284404298783863,5.352595689297168
487,11.265056064267624,9.151906776835917,0.5171217339930104,5.4769746714392795
488,10.988924056053557,8.618023978433088,0.6778175805483732,5.5971889269498405
489,10.767094750932435,8.080317523546514,0.8147483570308093,5.694295763174487
490,10.63168589169842,7.5889232859507585,0.9340384100929067,5.753733860829243
491,10.491727639843566,7.141046484238111,1.0424591699597006,5.751036670381881
492,10.251827962921391,6.71412088834076,1.1506552739131757,5.674227944904806
493,10.041659682241868,6.301795948412604,1.2440512272573983,5.5487294629376045
494,10.017685847559594,5.899824543859432,1.3212961711980185,5.410926599351364
495,10.110092626661823,5.503138631552814,1.4030717470541985,5.288093672478082
496,10.189551185347934,5.109451918902954,1.49245275326563,5.193092867425601
497,10.196964891909628,4.713219519315647,1.5796829073144527,5.096264694586254
498,10.105810815825834,4.305399469987305,1.6495689743750503,4.9591247882969425
499,9.997107946118032,3.876514376279258,1.7003967354313962,4.798316309024002
500,9.969690401340427,3.417526445711265,1.7381606668998055,4.642521755385425
501,9.92718761443253,2.916801426843588,1.772472673571792,4.473738888259319
502,9.741853808732754,2.3696947407514553,1.8089536698563184,4.271562459872569
503,9.489309993528357,1.795060368831268,1.8710175574132386,4.051082176248466
504,9.282367740448262,1.2175559103939844,1.960823894575503,3.8393515670346785
505,9.103588179969035,0.6418238510238893,2.0530405962030716,3.670007064554969
506,8.90789470697563,0.0642226100860302,2.1358079697802372,3.568922366399076
507,8.670537130170306,-0.509166299069717,2.2126411253889855,3.521902519452502
508,8.372833952706781,-1.0778073045497882,2.292145879616095,3.494108080202785
509,8.072568763693566,-1.6661338036996107,2.358728223731559,3.455850785370883
510,7.834618918674565,-2.293846827527677,2.393233742815338,3.381220040568675
511,7.578918151573701,-2.9745252394420016,2.395946808303589,3.2584089146616404
512,-11.875647062233266,-17.59174891034714,-19.5269590667444,-12.506302516169365
513,-12.171539020701605,-18.079650280306673,-20.177615487921933,-12.692196126488255
514,-12.433633655456598,-18.556252968961157,-20.812295496106174,-12.902452523709435
515,-12.683334536129793,-19.039480163425484,-21.421023223935062,-13.146114108178388
516,-12.966564736381084,-19.54760403012066,-21.988252396905107,-13.422383617027338
517,-13.368760848149998,-20.084719382630308,-22.506430628509165,-13.752085742776448
518,-13.93799354874707,-20.643703152720146,-22.992119229075918,-14.127210432818242
519,-14.498994452718366,-21.204927395056703,-23.47683353675529,-14.524048380772074
520,-14.867544299066388,-21.7447420209975,-23.97568698913541,-14.884827333576766
521,-15.129764754804883,-22.2547737846008,-24.488659826649076,-15.183827345256917
522,-15.41498367171163,-22.7254154822972,-25.003578288260638,-15.460884300429584
523,-15.68012345223186,-23.151635514394297,-25.50924321478697,-15.777232932955995
524,-15.869149577497328,-23.522054741226846,-25.993765931375243,-16.147439964692254
525,-15.9891002622021,-23.857718768112566,-26.451293317874914,-16.556158147196868
526,-16.06255286988627,-24.20088431228743,-26.873330558107277,-16.96324525054118
527,-16.192966853500653,-24.60820756507386,-27.249061754365464,-17.35469761002176
528,-16.457388442359257,-25.12905279148911,-27.567679087156574,-17.719092845530863
529,-16.70574927802681,-25.74945995238268,-27.831184505797854,-18.019959075118262
530,-16.776428393536438,-26.398826352590472,-28.067828253532326,-18.232934463065998
531,-16.74737547830337,-27.009384029706542,-28.320188468679138,-18.368702293852316
532,-16.736858176662587,-27.54181561788733,-28.599551170679835,-18.453299882268176
533,-16.746045535289337,-27.981477994804123,-28.879481092014657,-18.53663479644841
534,-16.75170619981246,-28.325585053168933,-29.130870883079574,-18.653259432685875
535,-16.701765489855354,-28.56020140303365,-29.339396116267263,-18.751239225398052
536,-16.553079465009894,-28.662189403468822,-29.502343543688177,-18.78467783292544
537,-16.410497868192177,-28.621924655764218,-29.621401915961933,-18.746892685102317
538,-16.382370968458698,-28.459143668926487,-29.70399816119222,-18.693032372765376
539,-16.36666723606472,-28.207088978567946,-29.76129501209937,-18.66635941930826
540,-16.247775873451612,-27.88443933064997,-29.798245432660373,-18.665346109369246
541,-16.1157505033522,-27.486485851222003,-29.806459318474474,-18.68265633937333
542,-16.0683484987189,-26.999727322740405,-29.773238927364847,-18.69327638339206
543,-16.047253524472808,-26.42018104678978,-29.68269480241646,-18.677593200557386
544,-15.972252324423522,-25.758598548417396,-29.534930937254035,-18.626287096795725
545,-15.790484745080978,-25.05607086514565,-29.34737948670107,-18.54393102381105
546,-15.483512249474064,-24.351542969658006,-29.15223802979371,-18.439934653258383
547,-15.179701617567819,-23.67456163532957,-28.97775956289362,-18.31876639060233
548,-15.004801925597846,-23.01755855702392,-28.811905497935133,-18.177878593256544
549,-14.85377524025429,-22.345863371004995,-28.610884093803385,-18.0003094901889
550,-14.596245874804195,-21.632705866713522,-28.354626990976715,-17.770548290546635
551,-14.291971471042727,-20.869194951527092,-28.049826696275588,-17.49371131196595
552,-14.02574809375208,-20.063052806639647,-27.71176537369314,-17.184741289320407
553,-13.806471847685374,-19.239779773918517,-27.336688278430923,-16.86191565549867
554,-13.620476967559858,-18.416838994839072,-26.91278573641986,-16.541054329232455
555,-13.384132693695358,-17.589052168954417,-26.445090398609416,-16.22195969418093
556,-13.028547530027598,-16.732443923524702,-25.955409966035084,-15.897934659115107
557,-12.667435342167693,-15.841447184269434,-25.454330323030383,-15.568328761254577
558,-12.426648122412784,-14.935210894915643,-24.936051264682085,-15.232347671509286
559,-12.244911704414767,-14.010659331884796,-24.395199209261452,-14.886139290698027
560,-12.024451970484412,-13.029543720435642,-23.83590665481028,-14.52434080348875
561,-11.753133946233673,-11.965339378064838,-23.25917130628875,-14.139852667314397
562,-11.429632837248311,-10.827566066116665,-22.655168986338634,-13.724582377067305
563,-11.055332005907454,-9.643652920667705,-21.989672606513402,-13.269351150190824
564,-10.63840048809088,-8.437791474492629,-21.226592730830887,-12.771821847528427
565,-10.121448471380274,-7.2289119943888185,-20.367122756284218,-12.238960647419422
566,-9.467192836405225,-6.032076657409328,-19.452080766367537,-11.684332985934255
567,-8.800316128256725,-4.836717058482709,-18.52878695025685,-11.138982388873686
568,-8.242625059053582,-3.6096550921510966,-17.615950258127363,-10.618516322936184
569,-7.735083689294943,-2.331900778201814,-16.708379119209905,-10.082963240388706
570,-7.180367822620569,-1.0073793332395833,-15.781918897504832,-9.484063629121989
571,-6.542122945480788,0.3627830397693957,-14.82148881248378,-8.795351211033804
572,-5.8822164337882255,1.7084861540873193,-13.867716191192423,-8.042123112103896
573,-5.313896445478865,2.8894744311731078,-13.017930932636608,-7.338917613663372
574,-4.980398601786578,3.847585947001885,-12.306546817883957,-6.792864404627104
575,-4.687782223657411,4.623510649169852,-11.677747877804496,-6.376791745902101
576,-4.201582244533394,5.295385162156487,-11.07405014056714,-5.98805859703201
577,-3.6986102291784713,5.937438044317291,-10.49849516098061,-5.581528884045205
578,-3.4090319258407957,6.578326467047409,-9.960245650558619,-5.1703575268874165
579,-3.2472728468266,7.213110566418564,-9.458148701436222,-4.805820615999668
580,-3.0696524604781907,7.688736557927194,-8.845431346558017,-4.415361913539225
581,-2.849026316415552,8.132513037102788,-8.219657080150727,-4.061688520690494
582,-2.5741298470959344,8.54172414829348,-7.600694975097078,-3.698494135766576
583,-2.34489535428973,8.913505906025188,-7.004366116267102,-3.3129971744154156
584,-2.264858718806502,9.247182854847553,-6.427647093924541,-2.9114840641820154
585,-2.2242075533633874,9.539579960691027,-5.868567929009427,-2.491232965638167
586,-2.073212932311812,9.790909844157508,-5.316468714926567,-2.0531509911091006
587,-1.8544435052878225,10.011889176222397,-4.75798037064889,-1.6117242649081602
588,-1.656610006655873,10.219165410338814,-4.183897661748066,-1.1802958853115857
589,-1.4837723107864382,10.434746429101493,-3.5922361250338133,-0.7613496645619662
590,-1.3281220745175948,10.675535773662043,-2.9902942372614145,-0.3539142494790309
591,-1.1687013907644392,10.93792879720915,-2.3999429105235524,0.04561719488146685
592,-0.9843925986481413,11.206668968914544,-1.844430471356442,0.43685384779418396
593,-0.8636034327832242,11.465180371525761,-1.3332848316394328,0.7967546190067244
594,-0.8947866156922104,11.699260666060773,-0.8678397258462592,1.0994562957776124
595,-0.9684430864158012,11.903501450643553,-0.4373709715291376,1.347992224665191
596,-0.9450868169655251,12.080292518636355,-0.03567561832907845,1.545653590711695
597,-0.874221130976982,12.24383520866834,0.32179913415850747,1.7200962120299175
598,-0.8427621667064051,12.408844162618966,0.6109198019383184,1.875342372777234
599,-0.842923446963604,12.559076362663685,0.8361038966107676,2.001113007804605
600,-0.8437732387240596,12.685177086111347,1.0294986971148994,2.113620092314577
601,-0.7697047591389691,12.799187257411292,1.2066160409392102,2.255102550871968
602,-0.5594730825025718,12.93551827636598,1.3546560439549693,2.419732558088416
603,-0.34964660516499274,13.095292511724587,1.467781614028802,2.569903635428274
604,-0.29742541461977995,13.23485981537227,1.5663587543992579,2.66466589036256
605,-0.3102894518148041,13.323178820443875,1.6800737725320365,2.7338977746824344
606,-0.2389419008369634,13.362733939187796,1.8238751011657837,2.8290208917690802
607,-0.08138326729292765,13.37031797197853,1.9859791433437994,2.98084045515459
608,0.12281666947356161,13.362689187761687,2.139578729555989,3.1979478696164967
609,0.32208020187112957,13.351811840576085,2.2701263475693856,3.4231151359177323
610,0.46481305143405327,13.34142923038173,2.371462079900497,3.6027474659590926
611,0.6287873057966339,13.313607207324464,2.443657062266184,3.7255802340816193
612,0.9092936718005883,13.230433981909016,2.496399828807273,3.8447097043540364
613,1.2052058652350104,13.08122588646578,2.5489317477633016,4.0010313969313795
614,1.3907587393929006,12.87316316424072,2.619487622181596,4.186073210389953
615,1.5368793382578154,12.629478188023826,2.7126952650907374,4.402969177394785
616,1.7468794935148395,12.381877581348917,2.8243964521598355,4.63973418019191
617,2.0157949385303966,12.169384845977467,2.947405853241108,4.892626447036478
618,2.30078065893282,12.001641678538785,3.071762521953792,5.158859275303847
619,2.500087627236208,11.841145207739094,3.1885245628108003,5.412660012575991
620,2.5222632158742906,11.620995303259892,3.289502336287015,5.626674446089442
621,2.4714519785193496,11.287428557423658,3.367431814549417,5.798748791453385
622,2.4925379633451157,10.84934844663422,3.412640092733536,5.934997002460101
623,2.5365536264690784,10.364110309813181,3.4254858247051563,6.034856608765808
624,2.5119052795785692,9.868228640561604,3.4030429341534494,6.098757397408428
625,2.4422993424094743,9.35792469533112,3.3536610277459054,6.125529551962396
626,2.3679808426590143,8.822814557837665,3.304002811092079,6.115902650258185
627,2.3025497918214017,8.271714913997766,3.2755950271043215,6.0878045439533315
628,2.2516927667298745,7.718972762039974,3.268915395389263,6.057384903121256
629,2.146690970221178,7.169630333761001,3.276369197935712,6.016345039079989
630,1.9205886557166107,6.623693151465639,3.28350141996015,5.946111126530984
631,1.671951368567103,6.070512148865899,3.28526698246224,5.824028379404705
632,1.5225729720316208,5.496819331081384,3.281627030458426,5.636063188717368
633,1.418201636156144,4.897914619961912,3.2763718373538624,5.4054450834849535
634,1.274912637862873,4.279102631249791,3.2677333891873563,5.170601911504295
635,1.1113451640933312,3.6606226317234114,3.245883718054533,4.9451378164308695
636,0.9763064164227052,3.0664404313040983,3.193244438461681,4.733988473508231
637,0.9698180776461588,2.508805431724929,3.0980751484108633,4.566000303823864
638,1.1674194500778647,1.9892048650592966,2.9732026672345335,4.443034165383396
639,1.4126141897568096,1.4950419829886312,2.8503019133579395,4.3493764349011945
640,-11.627485727765372,-15.367648664684712,-19.810025708891445,-10.380302068560635
641,-11.946288213869225,-15.857610934582416,-20.499401203153457,-10.659143872146856
642,-12.09973974594208,-16.296227817420725,-21.15975927720733,-10.856446586789312
643,-12.181338680245807,-16.699712991637817,-21.77249875626167,-10.997762682569608
644,-12.316810608398933,-17.09943685217399,-22.339485555691688,-11.118912941847393
645,-12.511581510335226,-17.516937160321277,-22.878633121138307,-11.273754685406665
646,-12.73788101766748,-17.965710400074407,-23.39542995583274,-11.49383569473272
647,-12.916993584353941,-18.436733244237463,-23.877806494006336,-11.7204920777807
648,-12.981878917300962,-18.910015155092804,-24.32577601349033,-11.887110950322425
649,-13.04264971280434,-19.371834018977548,-24.75691492755767,-12.01458883761751
650,-13.2216034715453,-19.81371840015315,-25.170445851363787,-12.142640432104649
651,-13.432232154588434,-20.237993054766545,-25.542268031588613,-12.28067554386516
652,-13.56988673768953,-20.649211264103275,-25.867820814145517,-12.427240433355689
653,-13.692618241034326,-21.039239043464047,-26.181665218293922,-12.55155016692399
654,-13.87424057173032,-21.397745153083598,-26.517393743699028,-12.62421749658092
655,-14.125558632200411,-21.72226345991801,-26.88228617482543,-12.674894770030667
656,-14.432282695170885,-22.015214799856363,-27.253161721743936,-12.745709727474313
657,-14.695784633155755,-22.28263884360002,-27.59534672570741,-12.83960129246454
658,-14.832831285768698,-22.535553349069552,-27.889646636510825,-12.952345653660506
659,-14.957841445836124,-22.79106729491527,-28.132808244170743,-13.092125905064451
660,-15.19803251377523,-23.062682278433527,-28.339914926091343,-13.261457342190687
661,-15.484611110929086,-23.34986289479144,-28.54032134354346,-13.460157360683896
662,-15.717531217868478,-23.644090382457424,-28.75650076696969,-13.680085571230043
663,-15.879256334742427,-23.935534400209363,-28.991745128747898,-13.881889979811154
664,-15.980576330096397,-24.212818443098413,-29.226407702154056,-14.032312711011947
665,-16.105269610033545,-24.46502920437356,-29.443050583838286,-14.150204308728146
666,-16.329014288033427,-24.68652736900044,-29.627109906118427,-14.269665734591834
667,-16.54078562432226,-24.877582735932634,-29.78066340479821,-14.403279600038717
668,-16.619668455494004,-25.04494840641415,-29.912783186698867,-14.557557602368425
669,-16.66629710566867,-25.205739820246407,-30.02630559017063,-14.739444333462489
670,-16.79429582425494,-25.37432151877686,-30.12004664278942,-14.940830796409333
671,-16.93217458823004,-25.544256892989967,-30.187825423994454,-15.141873052242074
672,-16.988456817145178,-25.6996221858267,-30.222129659955762,-15.314397768192
673,-16.942197763822346,-25.8308443996421,-30.21942048656636,-15.400675239141647
674,-16.804065267055083,-25.915834437229535,-30.181648898062917,-15.36628373945901
675,-16.688773950208024,-25.940289316955454,-30.120241876870352,-15.274500865013454
676,-16.694185467178716,-25.86796607705738,-30.047541019701868,-15.205325001951747
677,-16.682475247039545,-25.680647764224155,-29.965290269749048,-15.165828063310741
678,-16.499545446824076,-25.377720236727765,-29.870334996253405,-15.139509781282076
679,-16.227375330544007,-24.999448666750993,-29.760377925350706,-15.124781501856692
680,-15.982572738715648,-24.591936215354472,-29.630548157801066,-15.105849102519382
681,-15.764239223787557,-24.169261181148787,-29.47288126030171,-15.049200031349194
682,-15.542204333350222,-23.72609836979948,-29.279502945557983,-14.9240423676886
683,-15.246145134117574,-23.238131144175007,-29.04173992506232,-14.696235759549273
684,-14.815774677204228,-22.680233280852278,-28.7529952290901,-14.356987259251191
685,-14.347779304792027,-22.06178016923815,-28.416116102847194,-13.971839654077366
686,-13.95286655563288,-21.4014055402874,-28.03149926753465,-13.615284150871009
687,-13.553034793223363,-20.700583540198384,-27.584188497113566,-13.294588462650685
688,-13.059260059681987,-19.960034219526865,-27.056444658985107,-12.994100604462078
689,-12.558213149370467,-19.179056259198916,-26.43593188164799,-12.713223329289576
690,-12.141544690461153,-18.365775904408814,-25.719942757978448,-12.444146328635567
691,-11.780190704672155,-17.564057453056623,-24.924951554035985,-12.169332715329277
692,-11.42071004679062,-16.816000649534313,-24.075111570765486,-11.876164520245775
693,-10.991548675126383,-16.121112043771895,-23.187125122581914,-11.551780193353062
694,-10.45297439733873,-15.459088997638899,-22.27126949100143,-11.19564601812494
695,-9.948771826767654,-14.801798378358047,-21.33311085550741,-10.846449176033255
696,-9.621830347145469,-14.120027231296334,-20.366298831713344,-10.539414963017265
697,-9.367055979502965,-13.407756024877354,-19.361123460276346,-10.259682407260778
698,-9.04092340654455,-12.659595545638064,-18.300610279561482,-9.976038561948245
699,-8.660008044706984,-11.872324095149498,-17.17311711784708,-9.662609775093138
700,-8.366951182189093,-11.085136528186835,-16.04060976008058,-9.352753706900396
701,-8.221091412282066,-10.389306379546715,-15.034812971040198,-9.12131252721338
702,-8.319432251208612,-9.847649243548522,-14.22761942697689,-9.063921341476162
703,-8.46384517366979,-9.449885309929998,-13.589018391352512,-9.133447781154317
704,-8.424924449372277,-9.171295141378742,-13.066341565475053,-9.231688554536186
705,-8.411608798357776,-8.958438373727873,-12.609377472363704,-9.334730362315096
706,-8.675703859090724,-8.78242633864018,-12.168549484358106,-9.442999048625213
707,-9.070887442325384,-8.619532529227314,-11.704717422739629,-9.564205988370757
708,-9.106296515711076,-8.183861616467752,-11.11035287388451,-9.465161559048344
709,-9.074408672344155,-7.7729663093129355,-10.511493050772389,-9.374766525258929
710,-8.989066891153977,-7.352609083334477,-9.922145606573757,-9.238445797356404
711,-8.88312591357664,-6.902141572944461,-9.356782527607468,-9.05745647979647
712,-8.787414727117996,-6.400376389110657,-8.812919524542092,-8.844843583968531
713,-8.622204398434432,-5.848496162975745,-8.26749209353904,-8.578672160466853
714,-8.300037222056764,-5.2400365659014305,-7.698259852065545,-8.241046971144444
715,-7.906087197318078,-4.545572391365962,-7.095184957871626,-7.841185991834213
716,-7.556235673104475,-3.7695432411131935,-6.460693076337229,-7.4023690923988
717,-7.21528922400588,-2.9435974194490364,-5.801409796368247,-6.975454807865756
718,-6.822996495694225,-2.1105449706532093,-5.1326276806043,-6.6087976867609886
719,-6.402496368247856,-1.2797849192319921,-4.485642785932221,-6.283838790495009
720,-5.994385799909648,-0.4568173230474847,-3.886954673251165,-5.964717870702247
721,-5.662060063085612,0.3525650605356046,-3.342745291672558,-5.676918916336788
722,-5.4521288993516555,1.1291869443770486,-2.842599898070391,-5.450611203278202
723,-5.261272529960229,1.8544613933530114,-2.3715160077918434,-5.255646726468658
724,-4.967552286988097,2.537014601608534,-1.9217349147131897,-5.052701314232571
725,-4.633262296795202,3.186466158144742,-1.4947513388481521,-4.833807143901758
726,-4.366199741610643,3.8148954482087207,-1.089075848210939,-4.605056501193038
727,-4.169582295917207,4.410454214256923,-0.6893384593385831,-4.389353847540978
728,-4.0219982389430395,4.958739100691854,-0.2859803434784063,-4.212495658399638
729,-3.9015452692273533,5.47215780983379,0.1147947521782775,-4.069844466722984
730,-3.781769704828863,5.971853595170793,0.4916424359634705,-3.9389399843498025
731,-3.7240836838453615,6.478562742586578,0.8317647534326654,-3.8063969918998937
732,-3.7870911355079837,7.0034814649610215,1.147040225089223,-3.657495132469564
733,-3.835236054515785,7.521711357402322,1.4643550772807068,-3.4500847445605873
734,-3.7199879434581535,7.997146760658151,1.7922034714057282,-3.1600892143101116
735,-3.527266650856274,8.421920110586044,2.113382122925057,-2.8438296740286315
736,-3.3926165703775144,8.802277567102289,2.4114457625657693,-2.5719753258294866
737,-3.3297686243316265,9.137287347179676,2.6876358741725093,-2.3696648882563722
738,-3.309023310630944,9.442998628160026,2.94952869780016,-2.228234510155693
739,-3.2280850333748665,9.739030342383534,3.203796538405448,-2.067326153243049
740,-2.9927378993898492,10.06118330098494,3.450845693237946,-1.809147308129514
741,-2.745656771681797,10.417434441171395,3.691087579487648,-1.5186359812367507
742,-2.6655700039414776,10.776529682280323,3.927792596590342,-1.2980798903305524
743,-2.66093796270112,11.110462403437948,4.159667727828453,-1.1524774388284222
744,-2.5816381249389257,11.408479260114957,4.3756163414266025,-1.0548429688253849
745,-2.4427138953993266,11.662918565924329,4.560505314160246,-0.9872874153645185
746,-2.2951677835972557,11.853056303643397,4.707158403731155,-0.9270800132936907
747,-2.1727923198348917,11.952538986205212,4.825986048229938,-0.878860428497436
748,-2.102114567671572,11.964706655853039,4.941608404989655,-0.8562141499811016
749,-1.9937305535610323,11.922241959993793,5.071051707046969,-0.8299425796476388
750,-1.747514232398838,11.847414761666943,5.209799255172925,-0.7660666260228928
751,-1.4709451344415343,11.762593197109481,5.340200815774614,-0.6787226074187143
752,-1.3012056516891402,11.682052986700132,5.452033464375022,-0.5880488776861492
753,-1.154342580195567,11.62761143184183,5.545113706387254,-0.47673626517583984
754,-0.9128430069181119,11.610742735723178,5.622141736114009,-0.3196410673298397
755,-0.6204881210904563,11.604830629128287,5.676896406253656,-0.1044945291759295
756,-0.3542316933597504,11.581789740489668,5.701515512521529,0.17117392442909934
757,-0.16201994222808536,11.518133601701145,5.704641334711365,0.4905211395472566
758,-0.07067504248278761,11.423641608101807,5.717867704553202,0.822760761122346
759,0.025064368287577243,11.317340264361782,5.771016278396893,1.1395096887816167
760,0.23903891386425247,11.217347011193958,5.861850631061926,1.4149700400176997
761,0.4476596770654327,11.092343959421449,5.969166877418121,1.6226347471769997
762,0.49207604551429296,10.903145913604385,6.063592333877065,1.7519153610669977
763,0.4462946856946203,10.660332556327793,6.124041226599361,1.8176353496295836
764,0.4339682706684678,10.393340092249588,6.1482499924099505,1.8493272501479496
765,0.4697305142633499,10.126259044836756,6.151394534679161,1.9018562115033073
766,0.5339249216341111,9.878458337225279,6.138057572450155,2.015335218074143
767,0.5474356541880518,9.647730462324413,6.094649954793943,2.138087223960657
768,-8.037626829531492,-10.783589075449983,-18.800684691393318,-9.808998124426946
769,-7.750023912332514,-11.204796515189546,-19.296859410980414,-10.192527510804892
770,-7.545970101791397,-11.635912854161953,-19.800131905495405,-10.573524445532774
771,-7.511996818570246,-12.089245648399732,-20.312201863373478,-10.92302019681777
772,-7.674695820795985,-12.568612120426137,-20.823721589627855,-11.214790804900527
773,-7.915409550367777,-13.065272032365963,-21.311987323369458,-11.452012244407193
774,-8.089538979012751,-13.567893832803799,-21.756392296549947,-11.654760866075222
775,-8.110771706473185,-14.068894364142313,-22.15574568381011,-11.835903148327455
776,-7.965283021242694,-14.571342183850382,-22.524251798962517,-12.015522374858577
777,-7.809209422777419,-15.10670931593696,-22.892534835527695,-12.24023741894614
778,-7.806586213098716,-15.702664870159593,-23.286881185252103,-12.540667317546436
779,-7.886517920346712,-16.343743355305328,-23.719307300575114,-12.895766285628708
780,-7.9359071875700105,-16.99873239940978,-24.176867510300116,-13.260673089246563
781,-8.002405609350081,-17.64418484211782,-24.63719437131082,-13.575262639626347
782,-8.147832515404279,-18.259478481326873,-25.08194613199541,-13.795400145562157
783,-8.363910463922984,-18.835581088141947,-25.490697303443824,-13.94973192229345
784,-8.629065781026759,-19.37244561270087,-25.840114148413324,-14.085908319289215
785,-8.875088732029315,-19.86001301276372,-26.134834265189422,-14.203033891373293
786,-9.044261561236361,-20.29473268650065,-26.410135037059863,-14.290332839085949
787,-9.231284665084837,-20.70761529816255,-26.69272370960802,-14.358573529836951
788,-9.528094801303387,-21.122528020044367,-26.975841105553638,-14.413866939110454
789,-9.815992992437955,-21.512714073199227,-27.23190304446676,-14.445846214345305
790,-9.962747454317082,-21.83869327546517,-27.43246675220847,-14.443751005125932
791,-10.016965442368727,-22.07605386740226,-27.579108977605618,-14.402976024895397
792,-10.057454641029285,-22.21468616193405,-27.69536560053873,-14.322657545382016
793,-10.105157890955514,-22.275317174404588,-27.80404108099935,-14.213142105093537
794,-10.164620385461376,-22.290441985245785,-27.91017281324925,-14.087885776321201
795,-10.165535820021503,-22.27288306548627,-28.00478054007736,-13.940673876793989
796,-10.051998011287802,-22.230187644966723,-28.08473943136061,-13.772462487858297
797,-9.960752752143714,-22.179258941864138,-28.157532715693762,-13.626309919869446
798,-10.031633998808035,-22.133945598009817,-28.21542292451574,-13.54184761547266
799,-10.181915829113136,-22.093586268292174,-28.232567913311613,-13.518969809925576
800,-10.293270227927533,-22.055765430778703,-28.205575342158564,-13.53314438653293
801,-10.369025182711232,-22.036761831511672,-28.15293714496049,-13.528708938312512
802,-10.434765601589989,-22.045218249149197,-28.09544161031289,-13.454675475057089
803,-10.521892356303775,-22.049409711015183,-28.02079377230974,-13.321756507927292
804,-10.657335357161449,-22.018384401273913,-27.914374395467124,-13.160121564513187
805,-10.75496505198622,-21.95662967541231,-27.754354886229766,-12.975004834320515
806,-10.742034288789645,-21.88670690369519,-27.542399856015344,-12.769610620886704
807,-10.750516926448908,-21.847311040247536,-27.304373144806156,-12.54720375705642
808,-10.919482846564375,-21.87027817618051,-27.051141479276357,-12.313421348940286
809,-11.193832019785866,-21.94550175444991,-26.781258999958762,-12.101012462129706
810,-11.47087904341237,-22.040526400261484,-26.484708867866722,-11.936535949269384
811,-11.693127480996916,-22.120719342649203,-26.171293942717913,-11.800003715218004
812,-11.819969896300124,-22.153113779254095,-25.837363357752203,-11.656825412673676
813,-11.88554771099737,-22.1201272289484,-25.45590892329506,-11.484850286463024
814,-11.941092766367568,-22.01924029923204,-24.98784737873833,-11.271492056493553
815,-11.91862714942701,-21.853182989568847,-24.42428238958486,-11.01716916374011
816,-11.760977951626455,-21.633568801435132,-23.797353167388273,-10.736293973292156
817,-11.589523626776204,-21.3875907038304,-23.15030772526182,-10.459927298017293
818,-11.527889037870146,-21.136727143293975,-22.49623826456675,-10.212178764434368
819,-11.538420200377029,-20.87439207023143,-21.823139041988753,-9.979156775529393
820,-11.545219034244244,-20.583107489357943,-21.11072766403663,-9.73867991765715
821,-11.494572313092535,-20.249556376632114,-20.356751879238814,-9.486027674605682
822,-11.353470024191992,-19.86288423803114,-19.573116889037127,-9.223766475598289
823,-11.19961744075356,-19.42023108007837,-18.775747320581907,-8.970944262823027
824,-11.111158903656438,-18.923159151198703,-17.958884619659933,-8.736697042502886
825,-10.98725212187178,-18.36902148808315,-17.095289155505196,-8.479889895181307
826,-10.715481945664315,-17.75468435095893,-16.165743445428166,-8.149515570471586
827,-10.345417465187577,-17.080426585173097,-15.168371661304194,-7.719335587284207
828,-10.022256512538272,-16.361471063193775,-14.162613558728582,-7.223447875679267
829,-9.782031993827585,-15.619481320521208,-13.263857209333393,-6.739073270075077
830,-9.675306145847069,-14.886678529054455,-12.527203074184015,-6.356176508577933
831,-9.534834926107576,-14.184130707015148,-11.909690890215836,-6.031681276676984
832,-9.183186114653886,-13.52199291222174,-11.361945710866543,-5.694940123049347
833,-8.821296854004336,-12.910905007793332,-10.861188261325372,-5.31284140136527
834,-8.687560255739264,-12.351855290434592,-10.410095360705501,-4.910341276042389
835,-8.64474813782167,-11.818822787474307,-10.006403679061123,-4.517439081571973
836,-8.525047533624484,-11.38920425814271,-9.512000164033193,-4.213738915966261
837,-8.344189526899772,-10.956178556513851,-9.04730559306347,-3.8874721297961257
838,-8.181552013419713,-10.534707467780649,-8.617771458787182,-3.569941363902646
839,-8.082406161324869,-10.135043802208981,-8.219821927405233,-3.3013245277122616
840,-8.070158634714767,-9.760534472868919,-7.841897055281365,-3.1112610354814034
841,-8.048572717043859,-9.394414418927429,-7.464855713521442,-2.977624647204734
842,-7.914512021312823,-9.015202716021246,-7.074914665634205,-2.864748336968038
843,-7.787847953224265,-8.619002914435152,-6.680577494001898,-2.7758851646309783
844,-7.822342157805311,-8.213411501368919,-6.301887445594351,-2.724514420516826
845,-7.9509588719243816,-7.817334218676175,-5.957230484657491,-2.7176415765825537
846,-8.05657382722417,-7.451566817211343,-5.659255759014937,-2.7542242624077975
847,-8.12922714097656,-7.115928291105077,-5.408990337919659,-2.7948943014905896
848,-8.184895473079832,-6.801042777426081,-5.189565148680083,-2.7974118957558045
849,-8.26278389114733,-6.510736626392629,-4.9818739719429175,-2.773691907774259
850,-8.40651796509222,-6.246192036046624,-4.754761846426434,-2.7548358862623896
851,-8.541228759901019,-5.98626994887206,-4.481133084808003,-2.753414249634747
852,-8.579300641842458,-5.710074208328248,-4.159318222176787,-2.7739354660832207
853,-8.616322804399877,-5.415812879499187,-3.8084239833335842,-2.810892386657691
854,-8.765900206928535,-5.110324989326293,-3.4582272042837965,-2.8452178841952493
855,-8.946913676281925,-4.814333004846955,-3.1241304424245397,-2.85787049798584
856,-9.040097328776827,-4.5419124915721305,-2.8115736630523505,-2.829242071135026
857,-9.032428219102458,-4.2558472076167035,-2.5224634155976897,-2.7215115877505496
858,-8.947809662315441,-3.909509315761866,-2.252818899349194,-2.511273370358476
859,-8.840653936782294,-3.506015389860516,-1.9931194907320444,-2.2421136535878685
860,-8.76852877906878,-3.0659868706578948,-1.7359769596363264,-1.973476013430275
861,-8.694218126687266,-2.596836869395402,-1.4852847400220888,-1.7147720390563983
862,-8.55072506287529,-2.1081018931147737,-1.247826784246663,-1.4597968663545666
863,-8.340452878949998,-1.6108765349990875,-1.0247526040843293,-1.2126229913845579
864,-8.085350232854358,-1.1164747730113034,-0.8135894751052515,-0.977605916622151
865,-7.783022498060498,-0.64971038875566,-0.6036410547030734,-0.7766229278372968
866,-7.434075279122681,-0.23422298516216694,-0.3860948893733288,-0.6303192529142878
867,-7.051611950100981,0.13169731365398213,-0.17129565540177605,-0.5137840598942123
868,-6.646490026695097,0.4611193040522742,0.02426162096233965,-0.3930606154106431
869,-6.221333846512064,0.7541493740077062,0.19202840166119933,-0.27561522512831615
870,-5.775949087911932,1.013983078766936,0.33064733852206063,-0.1783334195763884
871,-5.311889523798765,1.2747157599852115,0.44922573581261793,-0.09506567388107307
872,-4.829863033045355,1.5644718324878548,0.5635672386102473,-0.016064485281454738
873,-4.326652609895694,1.8568528672233848,0.688682694587403,0.05916422878697428
874,-3.8002938109134368,2.109405261355403,0.8337991191814413,0.13016116977333714
875,-3.2569896038200095,2.307225282987271,0.9985773956082249,0.198950992691225
876,-2.705838232244524,2.4453194742336932,1.1741213581112762,0.26151217492502044
877,-2.1531067940843887,2.520827226653007,1.3393404927124362,0.3048598058091342
878,-1.6083695713160069,2.5390663612750064,1.4756623522003522,0.3129430006987041
879,-1.0786507289460112,2.5026832086999264,1.5923187053896968,0.26162259076532257
880,-0.5726669943142967,2.419558837785813,1.7027398125069133,0.1402846116460454
881,-0.141400411602946,2.319707483914507,1.8158504473583614,-0.014783744799443
882,0.17432130872762103,2.2354200576750007,1.9259808902691566,-0.1536057115936668
883,0.4553305888786029,2.1810030932469253,2.0180926819945046,-0.24520538919896553
884,0.7868519863921052,2.1557541926181396,2.0889735603604276,-0.2770845089463532
885,1.0888854585953567,2.142799078319859,2.151280623392251,-0.2772139739302897
886,1.2485518924774086,2.11749736636824,2.206661533473272,-0.2817562156388488
887,1.2667663180919286,2.060227643391149,2.238779205108625,-0.2758314489621416
888,1.1943389086884786,1.962067962842558,2.2433404592747967,-0.23217724511122717
889,1.0792496946963304,1.8325555714504251,2.2341507755489802,-0.15413022981557722
890,0.9870899199632034,1.6902206631690648,2.2301810098927146,-0.05850972128801152
891,1.0215712737859644,1.550105778020431,2.2366766378644134,0.025720110614092823
892,1.237881897378004,1.4204693760097364,2.247523603342616,0.06753835971342576
893,1.5404928126889763,1.2970311343093353,2.2407867032719047,0.06290613101658118
894,1.7870773229350776,1.171616544504545,2.1929686469802796,0.026091635644781175
895,1.8737344203986372,1.0384793744802479,2.0978850277964707,-0.03346708617723404
896,-10.783056594274118,-22.913105631936567,-24.56567756259251,-11.242596326285904
897,-11.166377231947699,-23.79304189033461,-25.03787084384425,-11.557848631998464
898,-11.413739903066237,-24.63121948939979,-25.435771321178017,-11.73358216071708
899,-11.645131358254538,-25.41278127913089,-25.784997472681958,-11.817738560874195
900,-11.990283425448142,-26.136437296810954,-26.0990310042961,-11.877157726123487
901,-12.370125708644556,-26.81996062082362,-26.374215502564972,-11.948405861282238
902,-12.67862451422032,-27.484717816548162,-26.626300703237,-12.05051574279274
903,-12.932571745357773,-28.133640993387775,-26.89500426887001,-12.188109505642466
904,-13.166842651303545,-28.76202617175721,-27.187229691104985,-12.347605866048704
905,-13.41768019128736,-29.35080584178716,-27.47399494917133,-12.50888642880655
906,-13.70246473369139,-29.883765097543606,-27.71768182945349,-12.649758511801142
907,-13.895147441903354,-30.355999440038232,-27.919051674041622,-12.742836669345436
908,-13.882571521056978,-30.752249760340273,-28.086720331204837,-12.773511306919255
909,-13.792721256571632,-31.042030709408444,-28.234313991330655,-12.758810925718008
910,-13.777807477189528,-31.203406668631924,-28.364336953271213,-12.726165613846552
911,-13.792011880439993,-31.25586671051798,-28.469827159855473,-12.695021013006489
912,-13.756311623323583,-31.23264903896844,-28.5535483522528,-12.67553549405917
913,-13.656882429094365,-31.15637389579294,-28.63076425175204,-12.658722754502108
914,-13.500165279665618,-31.043501849443086,-28.699145435072303,-12.628454427755333
915,-13.373056971374753,-30.900338075530392,-28.73702616824672,-12.582489822164314
916,-13.355205400170325,-30.726982344047396,-28.722498365032603,-12.52301153334819
917,-13.338175360822069,-30.524399123654387,-28.658296102233265,-12.445704387798305
918,-13.207438586782741,-30.2981533242847,-28.560906596875775,-12.358457368476317
919,-13.065572596208215,-30.066802151507694,-28.4584814635296,-12.259793884045786
920,-13.034020439239125,-29.844771509179573,-28.374035221314095,-12.170701634212588
921,-13.0810502891811,-29.63803261230313,-28.30016307934274,-12.132483127054119
922,-13.142781281451125,-29.432312793820966,-28.214345889849202,-12.154900572635901
923,-13.166158378089808,-29.215366752613782,-28.096713578661195,-12.223350972912444
924,-13.115293475953612,-28.973550793371263,-27.9308617126201,-12.308665174893598
925,-13.069514718135034,-28.699765789382983,-27.706322309734425,-12.400880500171313
926,-13.114029506206775,-28.391264038902026,-27.427766464173118,-12.490354947552119
927,-13.1689779901833,-28.046079339184526,-27.121921933327137,-12.544674328345293
928,-13.143119107050236,-27.664228323268464,-26.815487276379432,-12.541920219226052
929,-13.09077763885347,-27.242540503051163,-26.538513169217136,-12.494369687093318
930,-13.085035817440442,-26.785430336366627,-26.289721413352886,-12.430707196447829
931,-13.14056588526473,-26.301797946091664,-26.050311729992153,-12.394023700942059
932,-13.245339209987721,-25.809543371837115,-25.79071709034888,-12.413715735143134
933,-13.321243417909002,-25.310426400011657,-25.493850778012792,-12.466394706863491
934,-13.29059323574898,-24.786744868472248,-25.149053432374984,-12.512964945724882
935,-13.201399010887176,-24.223240851316355,-24.742986977890517,-12.49138495721184
936,-13.12032874465899,-23.6143075979281,-24.272192443111173,-12.375939198250103
937,-13.004270939078888,-22.957577175804985,-23.7498514285187,-12.178109871415494
938,-12.80694695572124,-22.248139325166616,-23.193372875240904,-11.914211953281757
939,-12.56135761290691,-21.49493555299153,-22.62414133813029,-11.601603521946265
940,-12.31135103150853,-20.70933582981157,-22.048442509062074,-11.27778249189152
941,-12.099648378737417,-19.904631518239743,-21.446568763945425,-10.975115652520984
942,-11.94563605125503,-19.07852294469394,-20.787417764610794,-10.70840789298423
943,-11.75682992478598,-18.2020868570054,-20.06785112887316,-10.439208804617662
944,-11.440558273618088,-17.222111409241386,-19.314500324942816,-10.12074435651954
945,-11.066840920124966,-16.1048524255854,-18.54017684405994,-9.74971983125799
946,-10.72405959898568,-14.878436992471139,-17.725167950163318,-9.338100055184043
947,-10.363718811770827,-13.607221845812102,-16.840350610766592,-8.896854126248217
948,-9.927577944302945,-12.323879909416636,-15.884906922739313,-8.437444778847
949,-9.437313722911153,-11.017678016422957,-14.87420066132583,-7.949392704926771
950,-8.928666635329735,-9.676428921827169,-13.831820601453646,-7.422763060761268
951,-8.45485637390216,-8.307561718125676,-12.756092439966261,-6.884372965314405
952,-8.049934621913575,-6.9288957211246816,-11.637553889219518,-6.355370255691454
953,-7.6160816119782435,-5.563606598568347,-10.475837136332697,-5.849511698044155
954,-7.052207780801771,-4.224359763371224,-9.269959015266728,-5.342344667230158
955,-6.437850122923851,-2.89295678950688,-8.01719096494548,-4.8073112870564385
956,-5.894544264097045,-1.5822687216158555,-6.776853730249999,-4.270303944524241
957,-5.353885537740625,-0.34797135497378395,-5.673852606981587,-3.857299369091361
958,-4.765152216497263,0.7820435383721487,-4.767475796872734,-3.6111081135214125
959,-4.144139153306134,1.7996637808003306,-4.030486041342689,-3.452347658432965
960,-3.543171396956902,2.6798073632231656,-3.436361661137057,-3.2773155618690266
961,-3.1425193757786105,3.4301048404797103,-2.95639254444796,-3.0829471639352515
962,-3.0810905364702794,4.082275082078518,-2.569059411483994,-2.9334579533252216
963,-3.185987763490529,4.668994176402242,-2.25366563655263,-2.864234530359355
964,-3.158410685017176,5.177303804580264,-1.9421133165371545,-2.8246072505673414
965,-3.1087623567758444,5.583265221548408,-1.6512257290648318,-2.741017418536901
966,-3.1182963988202275,5.878842003614694,-1.3899948981212424,-2.616065106849863
967,-3.157589889285018,6.1245343167280515,-1.1649096015884588,-2.4610227837113237
968,-3.1666837922188975,6.387223925660048,-0.9770418352375388,-2.2927891986731095
969,-3.067047878736616,6.702705877698858,-0.8202207264979587,-2.0836422215228807
970,-2.7976182000692003,7.069784620955265,-0.6829041716651787,-1.808545623294888
971,-2.455742878158545,7.470350985449485,-0.550824150515898,-1.465685060576459
972,-2.1717136448780874,7.879664963558243,-0.41351640847626464,-1.0922039089579583
973,-1.890669922324555,8.280983934511287,-0.27291075559580014,-0.7470982497669185
974,-1.5260302490277036,8.675874708424395,-0.13789434150422458,-0.4590308199929214
975,-1.1548143114232896,9.082852446092984,-0.017118010101656374,-0.22677158468299438
976,-0.8679668023189209,9.501212752057278,0.08396150576637541,-0.02190066432802631
977,-0.6429183092472284,9.897549976612316,0.1653744189014664,0.16647759127068293
978,-0.42598828550436074,10.239284764762987,0.23442143693324607,0.35955732223070175
979,-0.1342670471675157,10.518871048721115,0.3119028830535183,0.5914516628526887
980,0.2942881896189782,10.74624601652387,0.4166646982967531,0.8993116354641539
981,0.7325092892828606,10.938795132997695,0.5429241018333639,1.2570362253995315
982,1.0280343282001876,11.117438963681888,0.6762774779548567,1.5769921739959891
983,1.2693895698441198,11.296863167006805,0.8094939681471446,1.824255035967796
984,1.592780593374512,11.480091099706724,0.9404497776194198,2.044135294776555
985,1.9624896323633723,11.652889414187817,1.0792510512558373,2.2755265516865415
986,2.303272437617717,11.794649125936152,1.2361688791475447,2.5108150622673726
987,2.5705177313911296,11.893641499802827,1.4042203465382928,2.7354475847872712
988,2.7336348918430584,11.946773308039596,1.5652276175546058,2.917042986762482
989,2.8757220642713146,11.957765522989328,1.6919606258559523,3.051813456173777
990,3.0892103751293627,11.93795629574939,1.7624359439366806,3.149861844454155
991,3.2561847299749105,11.895098310072285,1.7777336883332073,3.209019441385672
992,3.2324428567686327,11.834217430969082,1.7569803222774636,3.236986965769442
993,3.0955302693527558,11.741052319429436,1.740905669063234,3.235276053729985
994,2.9720883426305664,11.582671453005046,1.7671428581660031,3.224245869186386
995,2.878704870731276,11.33757469814369,1.8275375960895093,3.2205578611785173
996,2.8005835457481125,11.006198422036723,1.8978439468638413,3.231402090736532
997,2.6897490678429046,10.596309411324798,1.9724375155347253,3.2010733583796367
998,2.4973382155881656,10.127831949450915,2.0521691843123344,3.092855965367668
999,2.3061922545053317,9.624491939403303,2.1498895188275884,2.927111372846302
1000,2.221216848105602,9.10810936427243,2.270409080257092,2.785068802687863
1001,2.189504461632621,8.592838007703719,2.399153742440278,2.73294260163523
1002,2.127802055374378,8.085742343835857,2.5006532916662567,2.756417915453567
1003,2.0659094377086493,7.593135584317133,2.5432721971336543,2.7851371778027487
1004,2.051286574718928,7.116906501835707,2.5312862292630385,2.7735222401008386
1005,2.092442562743741,6.645025682407038,2.497013424328832,2.7146426708803286
1006,2.181753173396506,6.167293090317098,2.465430970214683,2.6334294597307895
1007,2.243206643976082,5.696594095837324,2.451331326997836,2.5393092899919645
1008,2.2021898724003304,5.251533205352898,2.4693536990871943,2.443969094055051
1009,2.1381391502717615,4.840363180811885,2.5203385825235136,2.3680492278455443
1010,2.157989208079327,4.464102985049087,2.5904788284858706,2.3335048934060234
1011,2.211804649539477,4.108707134215472,2.669443400864502,2.371504650774945
1012,2.2218127541544774,3.76387411185056,2.7637881763980308,2.5051962336560925
1013,2.2173788179356055,3.426411946447612,2.885866527401354,2.7240339108014693
1014,2.244335070011734,3.1135230836327583,3.0398660655480847,2.994711094607546
1015,2.3245795013125132,2.851829597122723,3.204273672336335,3.280629975205959
1016,2.4644631580151626,2.644967314845725,3.339591875484031,3.5399938933296924
1017,2.5730118209892994,2.478329219451488,3.4177585144493445,3.714937926537717
1018,2.5605470639039862,2.326639420455266,3.4409486620169987,3.767939908436753
1019,2.536527428164881,2.1749264997326203,3.4283094099905083,3.7295829953536788
1020,2.64096027455838,2.020321644208967,3.38971109210783,3.6578341067999185
1021,2.8103460366800825,1.8802656652841574,3.3184552207642493,3.5886336565377785
1022,2.9394624111685963,1.7791175541803743,3.228069779435744,3.5451982203192243
1023,3.0382014343728065,1.7251212238969313,3.1607155397974185,3.538778767442863
1024,-10.52619033691573,-23.23984113962787,-19.076978940884302,-11.167647835993684
1025,-10.64424579456843,-23.78058129128169,-19.50603603400957,-11.347324208916357
1026,-10.60812819072952,-24.294032906880656,-19.937132237410264,-11.445891476943599
1027,-10.541240413141198,-24.77216623393191,-20.386106390168507,-11.457199908198103
1028,-10.573845496338322,-25.21607920206104,-20.84278266212658,-11.393477682993188
1029,-10.644001610500537,-25.631878251215987,-21.292796794097,-11.299982556190173
1030,-10.661136530294561,-26.037551212050307,-21.721863192279415,-11.225451663053851
1031,-10.659570741384396,-26.46119220863726,-22.137559971420867,-11.178258398025347
1032,-10.689033291260055,-26.918851798029035,-22.54943603386531,-11.151336340057036
1033,-10.768894428549716,-27.40549459633784,-22.961916075928908,-11.149602565806147
1034,-10.904833897231391,-27.90324979269605,-23.365416434477673,-11.17061725509171
1035,-11.02542868415523,-28.394913560961275,-23.741024341470116,-11.198973569783854
1036,-11.068538859101194,-28.867922613491665,-24.08152926131606,-11.22096776194949
1037,-11.12661584006842,-29.314854142344625,-24.39200642051869,-11.214419545337154
1038,-11.305158735317589,-29.74575692827116,-24.677676085602172,-11.176342198035506
1039,-11.561811406485006,-30.20145539935426,-24.9502241873827,-11.175031622492522
1040,-11.82900038929228,-30.724014130139395,-25.232444636151225,-11.275274588113252
1041,-12.114141655268469,-31.330460554165565,-25.541276906908355,-11.453234327158087
1042,-12.424699445512607,-32.01168019044124,-25.86469685562576,-11.655932703905926
1043,-12.751365756345617,-32.7252679767466,-26.17053424588302,-11.851632758619976
1044,-13.078851043323157,-33.415833742749214,-26.44231886648451,-12.016034266337163
1045,-13.319953218255176,-34.04274100245271,-26.680325013666813,-12.136478163312084
1046,-13.414748029377995,-34.585712138632466,-26.896352802200067,-12.220516859926562
1047,-13.496128032784227,-35.03303685569915,-27.096867341835452,-12.293133972385997
1048,-13.700328584592386,-35.400957051648795,-27.288905446057793,-12.37923013595641
1049,-13.96031498776154,-35.73431681290338,-27.475681693184285,-12.490823027373397
1050,-14.17055515120199,-36.06596403401098,-27.663386501354093,-12.624468197707733
1051,-14.29150978061366,-36.38548461828495,-27.868873977352777,-12.74906097667261
1052,-14.320500904971485,-36.658521026112226,-28.105422050253953,-12.833212802083855
1053,-14.376550654408598,-36.87420449109524,-28.353275224517045,-12.88369025063999
1054,-14.568898097215918,-37.05236579171245,-28.570747171948295,-12.915211086705213
1055,-14.76653470856936,-37.19670343744592,-28.737592240756904,-12.923900148275084
1056,-14.816145083414792,-37.27560115722561,-28.86211290201698,-12.90149324015898
1057,-14.789267866899724,-37.250031548552634,-28.947271623711664,-12.831353246240843
1058,-14.790255634518681,-37.107157871101066,-28.978319563418577,-12.70455502877629
1059,-14.810009249933056,-36.8613034770541,-28.949352274561804,-12.551378402287273
1060,-14.820050387621963,-36.526184043265204,-28.855760443118577,-12.408158713282115
1061,-14.776913257868157,-36.098585357363476,-28.708200269460637,-12.28211830655572
1062,-14.641477129200394,-35.56721270407991,-28.525185417322472,-12.168083436589676
1063,-14.493314463482522,-34.935383651830904,-28.32059616461454,-12.057519492485541
1064,-14.40679734512194,-34.22152837516744,-28.10551370696722,-11.940817795572286
1065,-14.26117701969757,-33.45969759831776,-27.89102988244156,-11.814902297246144
1066,-13.934221915607372,-32.68583553776795,-27.67743254192668,-11.686240881157282
1067,-13.510176850493115,-31.90798787675892,-27.44752760297353,-11.577517006841838
1068,-13.107067427703637,-31.093511559489887,-27.177456496084144,-11.508294293876212
1069,-12.74664340365664,-30.193079007898856,-26.839061436310054,-11.470063040257665
1070,-12.428730456166384,-29.18108541314792,-26.41550708072095,-11.444865974002365
1071,-12.120193035253164,-28.09140533468345,-25.927641010641814,-11.422442803556835
1072,-11.792722070344169,-26.99864764082094,-25.40042564036985,-11.395753516202426
1073,-11.548587990567075,-25.95100066126162,-24.844393879005395,-11.363754749473962
1074,-11.484522455888204,-24.943089959843885,-24.250940086264826,-11.32826349674581
1075,-11.504762432582817,-23.94893545938286,-23.613335647330132,-11.287582934824322
1076,-11.491989586736498,-22.94991555074908,-22.93508490626401,-11.237948026432656
1077,-11.47650485633504,-21.932542621992948,-22.218007854691074,-11.168502784994752
1078,-11.50678148342252,-20.877195110611137,-21.46821464433619,-11.070268891920936
1079,-11.574916400539195,-19.76743770885124,-20.68736405457499,-10.95628180592153
1080,-11.658491511780268,-18.593658241162554,-19.88057136185278,-10.835865216939316
1081,-11.672963335570348,-17.366466323341484,-19.051979631277536,-10.683547473564891
1082,-11.548565042214628,-16.099683205674364,-18.20914319775822,-10.470157987099023
1083,-11.396476476750934,-14.80803746339088,-17.36178363517324,-10.186757590973487
1084,-11.336920153512798,-13.550244214615184,-16.54457820811652,-9.873471579513831
1085,-11.219532895990115,-12.438395707354967,-15.826629803850414,-9.592559939538583
1086,-10.903316505262008,-11.510378320890931,-15.23534286257975,-9.417060189866904
1087,-10.484796334465358,-10.71184070200549,-14.733050454815537,-9.289952558180731
1088,-10.114456374920008,-9.97699248532478,-14.267895203294575,-9.119873122592248
1089,-9.888495090266863,-9.25674737745513,-13.7913708876094,-8.927792201443909
1090,-9.847143379498728,-8.515304656130096,-13.271031216444728,-8.751324386518268
1091,-9.847361613599688,-7.72960382874759,-12.690064536670521,-8.552885158185036
1092,-9.536234824081298,-6.644722436013704,-11.947772688957963,-8.07809126542205
1093,-9.131377741671777,-5.538056329858333,-11.186948494952091,-7.578851951562913
1094,-8.731871412073412,-4.402075934588703,-10.411299596840621,-7.078595621459672
1095,-8.318500165106519,-3.246709291885041,-9.627985820124433,-6.6041041638899705
1096,-7.858148860603859,-2.1033438718262825,-8.843121989877973,-6.177018913909987
1097,-7.35808969467074,-1.0141639891547192,-8.057834803069323,-5.792628264322414
1098,-6.837530302396079,-0.012107906196328955,-7.274670308905794,-5.43683483638289
1099,-6.385073026677154,0.9058826314872845,-6.502661630846796,-5.114408821005824
1100,-6.085710248483578,1.7636554855161872,-5.75503727688215,-4.831257030792566
1101,-5.860494540837576,2.5799928459634707,-5.053519837485523,-4.578127091082118
1102,-5.600807276235968,3.3523078674050355,-4.414595459574023,-4.343506206150035
1103,-5.364045452347121,4.06474710317098,-3.827698408557968,-4.111094966067625
1104,-5.2331166734370935,4.723482034679214,-3.274844307685146,-3.871308914452775
1105,-5.170044627666765,5.360358449184469,-2.7340084488007377,-3.656961053717586
1106,-5.111360982314028,5.9939036905145295,-2.19809773572757,-3.5031334324292316
1107,-5.013026115294785,6.612388882139737,-1.6744473744945283,-3.3851543854118793
1108,-4.848515853548608,7.192828221699143,-1.1686669173901423,-3.2644115182730067
1109,-4.690068123764145,7.719042430080553,-0.6852933943405484,-3.141053841159948
1110,-4.625127364331372,8.18906304447928,-0.2271234651479031,-3.0295873911581364
1111,-4.590387533088366,8.605688756897742,0.19722778869142632,-2.9395690580445892
1112,-4.498460959393011,8.969929913181476,0.5799417369499444,-2.8846396290927734
1113,-4.405416650984581,9.286941692510823,0.9223633451393914,-2.8870919080036845
1114,-4.3851656602871465,9.561840790526507,1.2299108639476741,-2.954448267196828
1115,-4.429873777351893,9.799802852135645,1.5037389149684977,-3.057916579067763
1116,-4.4980285935527435,10.008184652876635,1.749929120047055,-3.152790056772671
1117,-4.4752965760603685,10.203008091804298,1.9753249100757977,-3.1895958511764917
1118,-4.258831040197018,10.400145055775946,2.194294316887075,-3.1354084122844617
1119,-3.958274111098759,10.600646245193994,2.412878897592835,-3.0162319652343013
1120,-3.724944429674125,10.803758186255736,2.624364799077859,-2.8781822955881564
1121,-3.4904545343932867,11.014065152751957,2.830260952631842,-2.7344660552579123
1122,-3.1495491723573616,11.24154839120328,3.0460764610618045,-2.582943622125251
1123,-2.7571813275092905,11.492489649792164,3.2793266610927123,-2.4120365345395056
1124,-2.394951779537504,11.764900492809003,3.5232675489199705,-2.205455098894008
1125,-2.103810777887117,12.046149774115007,3.783795561236282,-1.971171965445151
1126,-1.8971323272914533,12.317585993261362,4.064537437796621,-1.7225583591754663
1127,-1.658643114555567,12.58341873674595,4.36430231760277,-1.4451391475396418
1128,-1.265752477512954,12.874710960374415,4.678368498593794,-1.1206228185752298
1129,-0.827925358049414,13.196066835877247,4.994866583223586,-0.7534536776263719
1130,-0.4998460157046173,13.512826405565505,5.297608630246753,-0.3545746655718332
1131,-0.23711762417503238,13.79172627354989,5.57492341448218,0.06903881211084228
1132,0.048560075818125686,14.017370874208419,5.818085431972576,0.5059069983384359
1133,0.36435135832209764,14.19126164099322,6.012381468248079,0.9486210464902249
1134,0.6986005409441698,14.331025292759929,6.154646337566538,1.3844782827004152
1135,0.9871842242430632,14.455856645551437,6.273734230946286,1.7636452288520936
1136,1.1693743863077373,14.574455829606153,6.409031574757219,2.0454621952078287
1137,1.356043288778028,14.67636894919416,6.593619033825067,2.2578309090493978
1138,1.6812997851512437,14.735813680063526,6.842760602752635,2.4562477734076897
1139,2.066568905155902,14.735672096071008,7.129867467619396,2.692084301171179
1140,2.391195662970302,14.674628096700758,7.408594931297594,3.001141435092999
1141,2.6985377412823244,14.560350785315812,7.6471788157308085,3.358314652756875
1142,3.0515014605773434,14.407102018907823,7.825322443433173,3.714995820305859
1143,3.416290254154419,14.222848388068353,7.929489958704693,4.070205153758588
1144,3.7385903883046234,14.007804195589056,7.963015991810651,4.428667325240929
1145,3.941761585484254,13.754032644920775,7.954713350051168,4.753004012659372
1146,3.969792606001596,13.44885484682554,7.933297698036487,5.003092491389459
1147,3.9290221035724415,13.080600741579458,7.91764531027523,5.159529849462943
1148,3.953294210260641,12.645886561239951,7.901432218515498,5.220698725837416
1149,3.9905728759633194,12.14665771756832,7.872400445915254,5.221855816256188
1150,3.947857000094733,11.598563631207321,7.8161131112019175,5.209103636644659
1151,3.8520019424222807,11.031255583182965,7.739450669188139,5.192985558309125
1152,-13.514500531555152,-19.32638709683374,-21.92895508441501,-12.016471753684625
1153,-13.851744662616438,-19.91115408833264,-22.71946765981807,-12.41175389101383
1154,-14.070636989875782,-20.512315304533292,-23.503346691607504,-12.774639692459926
1155,-14.269537819732195,-21.093298599318892,-24.267088116622606,-13.125566935513419
1156,-14.53363674322738,-21.61830269332606,-24.991532980964347,-13.48807746247971
1157,-14.753912545666154,-22.077780831206052,-25.658214545697685,-13.86446462622075
1158,-14.811811008322685,-22.475977782066106,-26.257298534106486,-14.244665008919295
1159,-14.785616162586095,-22.81703057106037,-26.803005376556854,-14.58784417294024
1160,-14.781279893921024,-23.108815715344395,-27.313736345639008,-14.858334893871271
1161,-14.798458035947334,-23.363467446976657,-27.805966057625003,-15.084184337857568
1162,-14.818021216265963,-23.59014035361257,-28.278409163796766,-15.305611108781527
1163,-14.80854063629539,-23.78673053032622,-28.728279230471607,-15.515777630457386
1164,-14.745514661760003,-23.954522759387828,-29.149663395268007,-15.70055738610007
1165,-14.725619406989981,-24.094790807657795,-29.543582867036132,-15.8720158751289
1166,-14.833219718039958,-24.219321960481,-29.915409228819186,-16.03938421727907
1167,-14.93726518062343,-24.33751937753029,-30.269682828892602,-16.190156755548553
1168,-14.89850031087406,-24.43917436267295,-30.611027853286693,-16.312041900028195
1169,-14.789261560818549,-24.50854065232502,-30.947547757197814,-16.404902209399555
1170,-14.71498305487071,-24.530756923246635,-31.28349867234631,-16.47108949187529
1171,-14.692849893848159,-24.511595957335135,-31.605341270387118,-16.520616154755018
1172,-14.711104203606967,-24.465283672967747,-31.90333119978464,-16.5575240130987
1173,-14.684526803791199,-24.402511789711532,-32.181209551668246,-16.550274119001006
1174,-14.539867905774384,-24.329726076093195,-32.45163850732252,-16.47149469806569
1175,-14.397923102543981,-24.244515367609473,-32.71187764135653,-16.343016915857394
1176,-14.392178891030433,-24.138767915395615,-32.94062499203695,-16.200875990851966
1177,-14.442904437315068,-24.002375539227153,-33.12000475314588,-16.070947137993873
1178,-14.444848036451008,-23.829245376957672,-33.251254419600045,-15.971356387956966
1179,-14.431635274486831,-23.62750081978715,-33.3509852540138,-15.892301840492019
1180,-14.45145430767041,-23.409522961050858,-33.431173484096746,-15.818258647808582
1181,-14.520548821164702,-23.178878040663154,-33.48509825910448,-15.769675155717056
1182,-14.632168951771297,-22.938372330812,-33.487245717506624,-15.76377852621432
1183,-14.674233519494887,-22.695537045455712,-33.413302886484075,-15.77231432294341
1184,-14.546078210011522,-22.457899275822886,-33.2692122131689,-15.758444149864747
1185,-14.337019455788473,-22.23152119713638,-33.084423395124226,-15.703580549094637
1186,-14.166751343952118,-22.017583858018174,-32.87722790297653,-15.597547661839041
1187,-14.016135399236079,-21.811809036076237,-32.650536245557305,-15.446206957511995
1188,-13.8436238487912,-21.60132548185576,-32.39438237374253,-15.261997766751552
1189,-13.660019234653383,-21.356280095255602,-32.093892337163346,-15.03757540191705
1190,-13.476535916938273,-21.054717532426174,-31.738449728060647,-14.771296131217476
1191,-13.321615129326526,-20.686879143086053,-31.33617912156688,-14.494423455130345
1192,-13.214879255657946,-20.268039020605503,-30.901630824882666,-14.241421002767025
1193,-13.070954389349016,-19.826515602591314,-30.445848781037842,-14.033901351185778
1194,-12.81348000711132,-19.376315569184566,-29.9708869798127,-13.873103749425177
1195,-12.540650072504961,-18.913149306628352,-29.456292393196087,-13.714800209907475
1196,-12.353959144884499,-18.428629437105695,-28.876728614618926,-13.505503326656665
1197,-12.184033347600035,-17.921445543506678,-28.224892734590657,-13.233487501183651
1198,-11.935014481484435,-17.39728375158351,-27.501994907706354,-12.902451271141702
1199,-11.570900335013668,-16.8519837698457,-26.710755808806617,-12.498651553323308
1200,-11.099128095652842,-16.26175819967073,-25.8601528985031,-12.022036616619909
1201,-10.635276910020892,-15.602666678501086,-24.962549318827133,-11.513445118157174
1202,-10.297998359810162,-14.879590026913945,-24.032634578746247,-11.011047209670725
1203,-10.054824622611093,-14.119888150606581,-23.09139100123248,-10.519088352395118
1204,-9.82522709937891,-13.343128434132744,-22.155257062990753,-10.020213424778271
1205,-9.578322839370825,-12.558667218624297,-21.224957294394947,-9.468901692581174
1206,-9.29309629317824,-11.773684206859672,-20.29612374760092,-8.824643786832182
1207,-8.952769332634546,-10.982219419802705,-19.351113371206637,-8.103807456209866
1208,-8.559412958224932,-10.160083156203262,-18.384728116602716,-7.344074118812957
1209,-8.12087192881671,-9.293353838065014,-17.39708079457565,-6.562187626036003
1210,-7.635977485123164,-8.377310006499131,-16.392221029475106,-5.776468357660259
1211,-7.107551566829855,-7.430723588495544,-15.368025513149076,-5.018614073426201
1212,-6.527468501521222,-6.515254712531901,-14.373320312268671,-4.350600388331815
1213,-5.767062126459258,-5.72494860968501,-13.51638321230377,-3.867582516531832
1214,-4.754185043657231,-5.1095777476161395,-12.835032079817625,-3.587455109215228
1215,-3.673493949957863,-4.641004501691389,-12.263743759411437,-3.3885956197245575
1216,-2.7544710239382795,-4.278784419947072,-11.724186382734953,-3.1935411136960217
1217,-2.0398264740977914,-3.9877526935386225,-11.1629390213542,-2.9998072698908405
1218,-1.4881035115486672,-3.7557229454054055,-10.564913009838587,-2.8637211436400163
1219,-1.00322346696558,-3.5842794190265455,-9.95375098717716,-2.7938396437566593
1220,-0.5117226082984049,-3.3106162991488146,-9.290703229918737,-2.5517018446311135
1221,-0.08008769208063225,-3.0708905321312656,-8.660830598999643,-2.3086402566586552
1222,0.17056234816843951,-2.8561625414452196,-8.043969657841208,-2.0961495787640105
1223,0.3228159743415215,-2.6421357407716584,-7.42792925474105,-1.9465242669406446
1224,0.5108411546262784,-2.4161000207225505,-6.820119446352115,-1.8756050714089896
1225,0.75543050030102,-2.1776186897961716,-6.230440374065174,-1.8251261748074368
1226,1.0475600269238352,-1.9244063613261737,-5.654681790451042,-1.7253249449160004
1227,1.3688557231441678,-1.6623610062722818,-5.076355038162548,-1.5937437166810153
1228,1.6917129175205141,-1.4076105602051816,-4.494455573138182,-1.4728161534045192
1229,2.085100917191463,-1.169352537147494,-3.9292033817901406,-1.3602870423365732
1230,2.6123348314923067,-0.9450483659768532,-3.3946235378445806,-1.244543214696561
1231,3.126411315167731,-0.7310436828688255,-2.898206233772853,-1.1208058425813154
1232,3.4598568297709855,-0.5313576726569954,-2.451033317710702,-0.9829925991409472
1233,3.679363340232304,-0.3549987980461134,-2.0477476694271286,-0.8361737827793401
1234,3.90933498080055,-0.19539894407939457,-1.6567169710029,-0.6900330633517924
1235,4.159676341661143,-0.028410048080168133,-1.2493832658862982,-0.5444468209251915
1236,4.41348051522528,0.16915292369774448,-0.801897289636166,-0.39380412466707193
1237,4.634158954729001,0.4058097932404775,-0.3131699167852306,-0.2316929411449714
1238,4.78366559147253,0.6705678483090824,0.20138925969193883,-0.051084549018500715
1239,4.954581852324902,0.9382323227356102,0.7226865947365613,0.15682635823432103
1240,5.245096552508401,1.2018297615032576,1.2299831227176927,0.3920140211099348
1241,5.542421937571273,1.470104963052399,1.7057120499318146,0.6334833466817616
1242,5.698722622473005,1.75647665236963,2.139343247610884,0.8548342011397981
1243,5.74097052364249,2.051437915911136,2.529085532986617,1.0326396914961047
1244,5.743246295715335,2.331112133086227,2.8780247890828674,1.1567434270651424
1245,5.738788887057534,2.564684524151857,3.1882982947965997,1.2628464899528788
1246,5.749477025789225,2.7224860168706235,3.4639822418733526,1.3927004314662328
1247,5.718923238504732,2.7878869529538775,3.6967558388755912,1.5263459719768675
1248,5.58196708249271,2.7654383719650966,3.8860711161861894,1.6289512133643944
1249,5.4384909414506915,2.6860875376396582,4.037655885009799,1.711056657474023
1250,5.403736561717689,2.5927724735946125,4.150820790202649,1.7882460521286911
1251,5.390693352705044,2.531256137334993,4.236929877283718,1.8515926437428767
1252,5.275438809959486,2.523891351342545,4.3070455034064,1.8873187321073555
1253,5.067950896190096,2.5530076279696123,4.366964882811879,1.8670337255164493
1254,4.8138465901994625,2.571167889486202,4.415782126625983,1.7710188422885593
1255,4.561086450370237,2.537117571306368,4.439150842234073,1.6489268874043397
1256,4.347861517675641,2.4416693662161206,4.420783718190546,1.5602225164219818
1257,4.090364742051989,2.3204047578852895,4.356776463910767,1.485616626398595
1258,3.699476050484681,2.2190262880283,4.2531956089060134,1.3875038995248787
1259,3.2655167430237118,2.158822555257139,4.129197005325786,1.2721731262681777
1260,2.9297036170269326,2.127538381377386,4.0078240850133255,1.1573067771465633
1261,2.756694322996118,2.1149537494902457,3.8933093853342577,1.0644035796666307
1262,2.7661374499456683,2.1266861507435277,3.7850218474997974,1.0113377734148006
1263,2.910804186312406,2.1613141574912076,3.7038641844438533,0.9752658997368421
1264,3.1086441470982735,2.2010339386160167,3.6648477016514294,0.9231632953949508
1265,3.326234442649719,2.236910033800296,3.6614176147954405,0.8553698526644545
1266,3.556885193736254,2.2579575000759724,3.670809599322528,0.7846010232104842
1267,3.788208851876607,2.2521794094334053,3.6791806049269535,0.7258265160101387
1268,4.018481351613385,2.2156359888184616,3.6885348050287345,0.6920841179287548
1269,4.2638485632089385,2.157337613999688,3.7016074298665234,0.6645535465522091
1270,4.531594521214879,2.0967834842497557,3.7125158381161265,0.6186256928687761
1271,4.799700103010657,2.064331015766781,3.7225981496450182,0.5757436097863811
1272,5.038410391600812,2.0870417566829143,3.733312354256233,0.5640834895926593
1273,5.205347485907813,2.173750294448221,3.7548088611558352,0.5618065868443374
1274,5.275516058857132,2.315475064207321,3.7946133406316895,0.5427485162614667
1275,5.338549791562509,2.481026686712106,3.84216632133342,0.5264210040581463
1276,5.486104691500775,2.634134781632179,3.87867797318999,0.5391854265455764
1277,5.614104855849635,2.760772680120701,3.882819472493035,0.5886446425247996
1278,5.589571743320449,2.8598330520411133,3.839197031854481,0.6698225190952415
1279,5.471613074285966,2.9303499584108397,3.756388869269276,0.7429743848540962
1280,-12.394119123651162,-14.760911988040226,-17.524966467291375,-9.3869135041635
1281,-12.62844122368479,-15.198755377062241,-17.88505217004532,-9.501278082635228
1282,-12.819204727391272,-15.625259658527627,-18.250070969770338,-9.625100301535635
1283,-13.003030269276884,-16.03574036705116,-18.620896558914286,-9.747925624478707
1284,-13.214587211818962,-16.42945813192051,-18.99873517074996,-9.876906000571688
1285,-13.381390488852421,-16.813556836985118,-19.39138644196534,-10.013678209650243
1286,-13.440509414133812,-17.195667015722588,-19.820291786187752,-10.161260089390018
1287,-13.510698578059108,-17.57835322218226,-20.299516143513333,-10.327127648684087
1288,-13.717143183993672,-17.959037495357652,-20.805333881957367,-10.515714409862445
1289,-14.008654132418156,-18.327171437571806,-21.290353926075145,-10.722085585059908
1290,-14.30433261044363,-18.67480780294701,-21.736238110343816,-10.941569526583312
1291,-14.592845300310634,-19.004482991547327,-22.156686885504712,-11.180600942083174
1292,-14.883369012101749,-19.328719513955612,-22.576455702434156,-11.446145607641954
1293,-15.240744846200016,-19.676981707100424,-22.996384248849534,-11.740515177906312
1294,-15.720866122865903,-20.071967960602773,-23.40437804794789,-12.06339083019851
1295,-16.2278803002905,-20.50300969566402,-23.76855834555876,-12.400063387325627
1296,-16.657823569424536,-20.94366912672646,-24.069790301453665,-12.751312719560246
1297,-17.077568348003837,-21.364145626619703,-24.32112658424103,-13.122491157403152
1298,-17.573017356550704,-21.743160566601887,-24.5658287939333,-13.54337758656177
1299,-18.11156555623065,-22.085550494224172,-24.827528741931616,-14.037263890574128
1300,-18.638285379227383,-22.412322785071307,-25.101886345625157,-14.567981243192987
1301,-19.131300572828202,-22.749996429296818,-25.386878365080623,-15.076573146414729
1302,-19.571648426974814,-23.11495536031488,-25.667492004413607,-15.50226435302613
1303,-19.95119289973245,-23.498382359892673,-25.924313119997308,-15.840037770731442
1304,-20.275675471324625,-23.86844002142518,-26.137869326087046,-16.11070241810994
1305,-20.542032449413295,-24.17074067706951,-26.284318957212747,-16.331950708713315
1306,-20.746368784763714,-24.35833620560232,-26.348116270407576,-16.519480215966087
1307,-20.91129368706961,-24.417903913981355,-26.337839078124162,-16.671163260115478
1308,-21.040377777526125,-24.36933444754759,-26.269898478736224,-16.776103933720634
1309,-21.06669079729854,-24.279178276289482,-26.151255992314155,-16.83638320145013
1310,-20.92329838239863,-24.21402572718454,-25.986840939118515,-16.853889392712613
1311,-20.586995280564903,-24.17619901265732,-25.783156749984872,-16.817387675948627
1312,-20.078836477842312,-24.146705326606302,-25.544398568605466,-16.71881988064527
1313,-19.52548404178404,-24.099501853512212,-25.275575717292213,-16.560963753176203
1314,-19.04346962514663,-24.020936654623885,-24.98103923128921,-16.35355611774676
1315,-18.563073974132465,-23.89218000408207,-24.654205277411908,-16.12222130639112
1316,-17.99113333094652,-23.687839075338204,-24.293374001943004,-15.886601737123238
1317,-17.37925860905728,-23.41757478868784,-23.912267713007978,-15.62497945765107
1318,-16.803813874533887,-23.126908252732072,-23.526632691117012,-15.3082941248238
1319,-16.30860126156182,-22.84826413815485,-23.128358630942802,-14.946787467082668
1320,-15.909141128470358,-22.579939764226438,-22.688304771971413,-14.548309300908727
1321,-15.508114090278212,-22.325440024817578,-22.19447117980111,-14.125250548915869
1322,-15.00309564310516,-22.076496401984475,-21.65902818120076,-13.67565614331005
1323,-14.463440434964435,-21.82340276707507,-21.098050112566785,-13.225397588840961
1324,-13.976513301647651,-21.560447216097568,-20.52131148537779,-12.838909834658955
1325,-13.47541025168104,-21.284616094245898,-19.938317340701524,-12.55210760025791
1326,-12.888443099404698,-20.99789525856095,-19.353229676250677,-12.322738828104391
1327,-12.247278453058522,-20.70920826168238,-18.77282927473346,-12.066796033918003
1328,-11.60805142072872,-20.417574818312495,-18.20200954710611,-11.765509608224155
1329,-11.056223893114323,-20.14338557212249,-17.63549748595126,-11.4827164249869
1330,-10.652359472215403,-19.868131513393486,-17.069359996287822,-11.264936298012934
1331,-10.280048943450774,-19.55288195165963,-16.502197429694416,-11.10612767462775
1332,-9.81681193351276,-19.16276466397031,-15.936230245416214,-10.975798697525219
1333,-9.376099655173288,-18.72205293722156,-15.363549383586559,-10.86191777525644
1334,-9.083240734267926,-18.266769646086267,-14.762267655500679,-10.751796042119086
1335,-8.845824487684876,-17.789777081012538,-14.112282223363747,-10.636878674023695
1336,-8.542134457679042,-17.284366686228328,-13.39785374249647,-10.508752230091483
1337,-8.149246210089027,-16.739256956726255,-12.626817383025646,-10.331007698922642
1338,-7.6738934401077294,-16.163856870166082,-11.804534585947238,-10.08221461782982
1339,-7.178432405685126,-15.572340917772284,-10.934346408826919,-9.760870568994209
1340,-6.7250939799971965,-14.988835044725583,-10.052459574446473,-9.413307316337127
1341,-6.231929350947622,-14.482442872912916,-9.247285276633043,-9.074377683456849
1342,-5.622443539634055,-14.072118763656578,-8.571362279326852,-8.74284884620039
1343,-5.077435865916529,-13.745195293927098,-8.001564184018255,-8.415817051119472
1344,-4.793738886010961,-13.463217691172675,-7.471828287892646,-8.077638872085934
1345,-4.705780523099894,-13.155725728242382,-6.919693892243537,-7.729252181964277
1346,-4.668462454266378,-12.790462346145665,-6.329442682589274,-7.377517474485807
1347,-4.595812848568455,-12.388447531909334,-5.736528597549143,-7.0169831980214195
1348,-4.020527552201296,-11.607884534991737,-5.343506336644212,-6.670107393625469
1349,-3.484229723700332,-10.819461085854858,-4.965398648186015,-6.32033959403073
1350,-3.098526389819106,-10.063134201753325,-4.610428665711951,-5.981680182994897
1351,-2.7911469643789077,-9.345164632611649,-4.287290978422798,-5.653669545200829
1352,-2.4450182280968904,-8.6539571448257,-4.012798197372974,-5.33448521362148
1353,-2.098110994189422,-7.97722140251818,-3.789208083391982,-5.040977991677022
1354,-1.810875589396706,-7.302431634593474,-3.5997631719943657,-4.78920237563468
1355,-1.549556529310157,-6.626037711211413,-3.419435552628607,-4.5768687950681315
1356,-1.265796705538935,-5.953208895507839,-3.2278603929555763,-4.393921330833072
1357,-0.8978209327724204,-5.297141441311288,-3.0160775833372746,-4.2201300398588915
1358,-0.4080649517170585,-4.668910091469525,-2.802124025482363,-4.038310909460958
1359,0.06683430866569749,-4.059567306287424,-2.619418262981271,-3.870797152890939
1360,0.3756380826348072,-3.4551220299244245,-2.4986793760241066,-3.7359052390406715
1361,0.6125101643923826,-2.852962166427046,-2.4278316811095872,-3.637273956547278
1362,0.9210754823337501,-2.2585099073191754,-2.3805835320685325,-3.5459017471931507
1363,1.2710859583041856,-1.6910142561601513,-2.3321728856691823,-3.4463275728101608
1364,1.5876555582647713,-1.1704837159570385,-2.273462397573788,-3.359244053114742
1365,1.811580715095931,-0.6941520996618052,-2.2013153714367286,-3.3071497963128778
1366,1.901317206903148,-0.2496908511085599,-2.1077972513539054,-3.2719273164384495
1367,1.9613161078212902,0.16960859956885105,-1.9883506992545452,-3.2380385633217648
1368,2.1159786866375723,0.5675330521405962,-1.8356584464116341,-3.1851248987112126
1369,2.2634553526836916,0.9433275605467217,-1.6483700421154703,-3.1211115126374045
1370,2.2655796238668526,1.2929880662705746,-1.4295751560128362,-3.0644811167849637
1371,2.202203029858792,1.6096455672079768,-1.196487936427634,-3.016418871135257
1372,2.190671374423617,1.8921043712779804,-0.9835798474447338,-2.9722479594251774
1373,2.2145487668880883,2.1598416921427592,-0.8215502141728231,-2.9276443509805175
1374,2.2281283401281375,2.4288703326905865,-0.7153467330452343,-2.8744065889358503
1375,2.1916988845548593,2.7214451260890775,-0.6498637052815619,-2.810502351377832
1376,2.0777749735035353,3.0253374801732207,-0.593964546384656,-2.7318973296418827
1377,1.9715834825392071,3.3226060268832502,-0.5161638342142945,-2.6103157806599815
1378,1.9766947726790551,3.593695891377317,-0.3938828103642208,-2.421544090837542
1379,2.041930577901893,3.8434395572231197,-0.22619747415833172,-2.1797714647870245
1380,2.0845194191198932,4.090649612041977,-0.026772103136196074,-1.9137779991511068
1381,2.1467317642247226,4.3543726116241475,0.18893156646252096,-1.6525934965508209
1382,2.287738360199169,4.650494343261497,0.4064250519767251,-1.416149334484661
1383,2.4933489914301923,4.983997630638824,0.6139270576149239,-1.1793244547117878
1384,2.732616654936665,5.348445384397555,0.8068525595143262,-0.90717254600245
1385,2.957678725428545,5.725580777137381,0.9978253980532357,-0.6150951924978187
1386,3.1278388411940297,6.095164170698156,1.1954278132760225,-0.32020734453963756
1387,3.3100459480499174,6.451968775075573,1.3885083239028089,-0.03624018522831472
1388,3.580393418984039,6.795461433506933,1.5534631429659402,0.2618163290928073
1389,3.860727875320039,7.116063807359164,1.6687294922022637,0.5865398996863611
1390,4.045398749918975,7.401372326787186,1.736243113059261,0.947771575960073
1391,4.147513453784722,7.641314323059144,1.77810133635795,1.3241197793686925
1392,4.211479290950797,7.828029596520098,1.812477353065853,1.6776080268793594
1393,4.265431568159329,7.952821349766606,1.835004167381995,1.9990988041578337
1394,4.329501296718568,8.016391701789965,1.830406706222118,2.269019136804557
1395,4.3418926442262435,8.047397365758417,1.7932793840814047,2.4417658498288244
1396,4.236668864484794,8.07874608928408,1.7222631221489797,2.4641487183027366
1397,4.104741702184532,8.114959844602167,1.619299845778768,2.3545363708798606
1398,4.057381314040154,8.148697557636694,1.4903620179311694,2.2005646240683614
1399,4.043664537433712,8.178774928039507,1.3403977667292633,2.073603839024854
1400,3.97457830774931,8.201638115551592,1.1727670566519433,1.9829936949616975
1401,3.8366829006852634,8.209344453587251,0.992607571842794,1.897945687579335
1402,3.635353669242058,8.195297070982607,0.8020467308222203,1.7950399895629867
1403,3.4028848756497965,8.153939242338078,0.6038186756117114,1.6633441551727206
1404,3.175498560725599,8.083160002029468,0.4013932507226564,1.5092701277044396
1405,2.879166808552786,7.989218994601257,0.20587062316108246,1.3344818375015661
1406,2.4375704583348776,7.880121012563805,0.04487381854134753,1.1424987382695124
1407,1.959842097854104,7.759774182711743,-0.057683492164617434,0.942320972110015
1408,-5.4115218798976725,-14.029250547460267,-21.28662924765183,-10.737446455567289
1409,-6.168958922840605,-14.606889168991652,-21.335414150917213,-11.55861016735039
1410,-6.783747473960088,-15.381291727633144,-21.558166932554272,-12.232441555584824
1411,-7.298298769931914,-15.941436066056333,-21.982033587435662,-12.750561232025376
1412,-7.83436160921748,-16.189657251434078,-22.327673603486655,-13.3608854759278
1413,-8.447666325994101,-16.465865278163054,-22.414039598036137,-14.25582003026148
1414,-9.199047354316237,-16.870881653047174,-22.29132827645698,-15.465677808394235
1415,-10.27414116705994,-17.126774147408582,-22.062855221998774,-16.94650373131396
1416,-11.748260666908799,-17.12187839986453,-21.807990535819737,-18.558775081392227
1417,-13.329145145497128,-17.046057342511038,-21.590299429675234,-20.050981484543165
1418,-14.663931381362744,-17.09225663345106,-21.450910301803848,-21.190545569716583
1419,-15.59876279747705,-17.325880361610334,-21.39912683320219,-21.926034430286265
1420,-16.120864040244747,-17.678811881175395,-21.434723164902955,-22.374519827538265
1421,-16.419427448358274,-18.01101796278075,-21.56575748660534,-22.714325604882767
1422,-16.728408814599916,-18.2614313148945,-21.758395218334442,-23.094405002213318
1423,-17.056096553253816,-18.47090111455963,-21.936942631260603,-23.523862620044405
1424,-17.325662693949766,-18.679259946689804,-22.079213835718676,-23.885715872900047
1425,-17.551819799183594,-18.889981368630938,-22.230608915396463,-24.065649650578646
1426,-17.729944448795397,-19.09836262836089,-22.433367142764087,-24.02023900937912
1427,-17.734648526700017,-19.304096753618687,-22.705548180272764,-23.77325529261669
1428,-17.49266553538267,-19.500775671590244,-23.04853024848521,-23.408302636434858
1429,-17.13535280150237,-19.67487214214814,-23.44612913201465,-23.060877068197012
1430,-16.829366964272666,-19.835042710012733,-23.87680103682024,-22.81153470956807
1431,-16.670721678606235,-20.013245837375,-24.326349895622013,-22.653041360028517
1432,-16.67429312023172,-20.218653025367495,-24.79157739778293,-22.52163503564045
1433,-16.654465617616733,-20.43038007354657,-25.27129316798891,-22.341415744270375
1434,-16.419761780179243,-20.62297076580785,-25.760402649429384,-22.050064710188142
1435,-16.047570071944794,-20.76795752753073,-26.263493714155388,-21.641818917033987
1436,-15.680800073721388,-20.839546228478763,-26.796495894677392,-21.138417612448283
1437,-15.339581711730293,-20.841020500504484,-27.357234355577596,-20.594236258368777
1438,-15.014625898563942,-20.806126958705992,-27.92581040364397,-20.030459152694743
1439,-14.67770533209123,-20.778954760098422,-28.485941864598068,-19.435863982634235
1440,-14.29358943108951,-20.790723982950936,-29.024187181185553,-18.784766332860226
1441,-13.901318942541542,-20.829129200789193,-29.52702077327883,-18.077231279796475
1442,-13.552597993272881,-20.844693060947435,-29.986322777971555,-17.323557992479138
1443,-13.232434286411427,-20.79502144077253,-30.410443301439848,-16.538980522324472
1444,-12.91035726420906,-20.672463775434586,-30.816375581747295,-15.740352644716534
1445,-12.577413107760245,-20.493627157637043,-31.202718637992604,-14.925222201643079
1446,-12.226840104219576,-20.27420251604002,-31.547019460719806,-14.088896468086082
1447,-11.850846914935925,-20.018373206084238,-31.82502247773588,-13.255076306470956
1448,-11.449604833566356,-19.722607023004493,-32.02462289312431,-12.444120928310785
1449,-11.030021719608614,-19.377857168909696,-32.1529386083178,-11.636220649363857
1450,-10.590222651156347,-18.981272944963674,-32.22972680754508,-10.808970552486816
1451,-10.126311545072204,-18.535592613646205,-32.268248581005544,-9.970073904696454
1452,-9.618224000095301,-18.045313866154558,-32.26882179938795,-9.135289369267898
1453,-8.975093641438487,-17.51251239841719,-32.22443288880101,-8.317840783817712
1454,-8.137634897969487,-16.936005715982343,-32.12479191531045,-7.524519480038374
1455,-7.2103076583504695,-16.31978749953175,-31.959963064573913,-6.743731724210451
1456,-6.324158510827358,-15.673722157315668,-31.725162718695962,-5.952663322812963
1457,-5.515026649623473,-15.00426518797928,-31.420272257585925,-5.12532770336444
1458,-4.773751233593013,-14.312465812155287,-31.04815155580027,-4.243231650329825
1459,-4.02848953157672,-13.604784089755444,-30.610799415353682,-3.3078107225267734
1460,-3.2056810857071114,-12.894428826448499,-30.101735007122112,-2.335511874855232
1461,-2.3764974217527746,-12.176271996712812,-29.504908130866195,-1.3517678761360201
1462,-1.6223089629538714,-11.42551449678758,-28.811604444289472,-0.37970166658775983
1463,-0.8512894126078141,-10.629496193900815,-28.029693956835402,0.5677255853362159
1464,0.02775218086653483,-9.811778122826663,-27.169000906823477,1.4922150772695504
1465,0.9452827110955835,-9.016761913367809,-26.231744636971772,2.4258834228220256
1466,1.8034625133273696,-8.243574503182,-25.225363803135743,3.3968240042891407
1467,2.543014505723474,-7.4404825440979465,-24.168472991468672,4.381726823585163
1468,3.137976171955341,-6.591381226987398,-23.14973756165407,5.306408082374837
1469,3.6858499802334173,-5.759276758164542,-22.320609137369214,6.083927104401604
1470,4.294265978628872,-5.033758525457079,-21.75070411434346,6.682684676936537
1471,4.880915258025016,-4.469507313728251,-21.4009627610597,7.139347646396208
1472,5.351352103874205,-4.064914744636225,-21.17897460777116,7.490749773143785
1473,5.822665286301472,-3.769415343144148,-20.97987259858934,7.754885411127261
1474,6.405613626557986,-3.5113887832467325,-20.743441961477252,7.938830342514148
1475,7.017702572602055,-3.2334894145055153,-20.461899488055018,8.094158351369702
