,TP9,AF7,AF8,TP10
0,-9.076806419808245,-14.248821170348151,-14.400717452452984,-5.494553843014056
1,-9.268127196501402,-14.561855933529072,-14.826263758708173,-5.523650864808225
2,-9.546643085957045,-14.859464056222095,-15.247832941676933,-5.560790467157522
3,-9.825663959396659,-15.119301155548381,-15.659587187208068,-5.654831546618093
4,-10.01074181646614,-15.37400919794412,-16.057126182987595,-5.844008145696955
5,-10.182851039965392,-15.653628786059109,-16.427495736087472,-6.099698925667201
6,-10.440163933428526,-15.952149604654238,-16.764049553925346,-6.384198759138653
7,-10.72237162141898,-16.25952358628092,-17.074726476424463,-6.67631016547574
8,-10.951716200132156,-16.555148310761112,-17.370663808605062,-6.966366112586932
9,-11.139460810544163,-16.850040430356078,-17.66451990149182,-7.293760440272978
10,-11.308799237979084,-17.148223335725184,-17.961354154460093,-7.68985097720477
11,-11.485470187205202,-17.434800092089144,-18.237811002876878,-8.08407874967894
12,-11.690365882578831,-17.677173493128894,-18.472436380946775,-8.400915650404668
13,-11.846582549881632,-17.877434500326913,-18.680280416721995,-8.664098529797673
14,-11.893966974927073,-18.076497931388108,-18.888212836431936,-8.920886538636578
15,-11.980836964497088,-18.29594660795288,-19.11759837756181,-9.190664088055959
16,-12.252615161221046,-18.516018582882957,-19.382007039555887,-9.483895139347192
17,-12.604268280388217,-18.700299624880202,-19.672659606426162,-9.782125600845418
18,-12.897328903933602,-18.84264628807293,-19.97006231775339,-10.060030526564312
19,-13.148473143040754,-18.941348252774798,-20.263808578126667,-10.337201074115805
20,-13.40172572900363,-19.005928881050732,-20.545302089217817,-10.633971941792295
21,-13.691732809726105,-19.029698913690897,-20.801426800352687,-10.921900924918665
22,-14.038706170757683,-19.006646966240407,-21.026334095100488,-11.16968896462934
23,-14.330353126724834,-18.95582152064665,-21.222998115807723,-11.369917860863659
24,-14.465739077133692,-18.89631459052938,-21.39955532731693,-11.528624529714184
25,-14.578447779522715,-18.81690782243119,-21.58435087511483,-11.69167818252036
26,-14.817695740135443,-18.70256135769398,-21.792485375906857,-11.897444341919737
27,-15.118560509465953,-18.567380429388212,-21.97160408651533,-12.089703617877017
28,-15.376666506051802,-18.419634388861102,-22.067474199358152,-12.209188148350275
29,-15.565828777543713,-18.22843774123955,-22.09832513131128,-12.305992861303796
30,-15.682963255915665,-17.963228758625483,-22.101073070745663,-12.442357295741184
31,-15.781633160200428,-17.61937538295585,-22.088970758810024,-12.604941893700213
32,-15.918265796893095,-17.21698572877763,-22.07063854019583,-12.767616491285768
33,-16.028757022027932,-16.81311077821953,-22.043948397687732,-12.915832485815413
34,-16.03712568982498,-16.470043919789877,-22.00095563144288,-13.035734250130766
35,-15.986606179528433,-16.220733757953393,-21.956033603912385,-13.164538166670976
36,-15.933409373722792,-16.067204093707524,-21.919141615562598,-13.32783090367473
37,-15.865704161389148,-15.969530188536483,-21.857803180972862,-13.415518848504451
38,-15.763854090667246,-15.87286625181816,-21.738403993685985,-13.335172395135505
39,-15.601108965219069,-15.748049619299158,-21.567153822958968,-13.191717497288408
40,-15.370487923203859,-15.578864326574955,-21.3599216213118,-13.123282405820685
41,-15.177003254067694,-15.352199299717837,-21.121963369947615,-13.162811931375332
42,-15.118156438859293,-15.069444200688908,-20.855205734158385,-13.301353853606212
43,-15.127781324901378,-14.737167405509773,-20.551082694227258,-13.485416211300425
44,-15.111227359149412,-14.375995164625033,-20.198044314512128,-13.649055503720295
45,-15.065687971455736,-14.04651465001423,-19.8000923618497,-13.815100318813178
46,-15.010688180312815,-13.798422135329346,-19.363483212052373,-14.018098800088156
47,-14.981810943833537,-13.613750701896771,-18.87999972937668,-14.19166948558559
48,-15.008119353347045,-13.444685085263973,-18.34427904182717,-14.27485918037635
49,-15.010507024560573,-13.249572077967859,-17.766786756063297,-14.315906880888148
50,-14.91133558459926,-12.986567114807068,-17.16241227785471,-14.376188501882456
51,-14.798588402795898,-12.616971604087542,-16.549023961828212,-14.46266177191653
52,-14.762962900964364,-12.123393432038547,-15.938207906779779,-14.562238599700851
53,-14.728559786110146,-11.521232179160007,-15.313553881586975,-14.63072714448686
54,-14.590799983604878,-10.842380531001222,-14.65483624958354,-14.624469403564502
55,-14.31646854774094,-10.116219838373892,-13.971862436937439,-14.576228792492904
56,-13.895838070278426,-9.369561723354815,-13.277028687234303,-14.524484535065978
57,-13.359875963640556,-8.626729733745474,-12.556536790696812,-14.425722331855825
58,-12.755126871137602,-7.89799761913848,-11.795708914745488,-14.23177725091164
59,-12.048784817767748,-7.171861634188445,-10.998767629337076,-13.947795906672157
60,-11.264066391104237,-6.482682533542645,-10.214689545619175,-13.611258817045767
61,-10.534389560105527,-5.923940270722165,-9.507864800010793,-13.314146889762737
62,-10.01796796849407,-5.525512768094053,-8.952846545652935,-13.142297323543941
63,-9.635669671767442,-5.235916311264048,-8.538992461851995,-13.062182524098954
64,-9.261567409717742,-5.011073709399296,-8.208328514789436,-13.007107872951474
65,-8.963953774784402,-4.8102286971245105,-7.921248770715755,-13.003555996170228
66,-8.821882187413127,-4.605567929720323,-7.64431128008317,-13.074312461310479
67,-8.724150472111447,-4.386178498395101,-7.341734968875922,-13.127315964837647
68,-8.56303325831217,-4.088611802546112,-6.9054993699829526,-13.014741162279702
69,-8.3326246549117,-3.7647731978824632,-6.477420053807288,-12.875907666144494
70,-8.08078109665672,-3.4364612581916703,-6.0987776504129405,-12.791592398043683
71,-7.813396383334004,-3.093869525139621,-5.760789471667836,-12.696990271637087
72,-7.52856541875164,-2.722254075518895,-5.436172762297246,-12.499780466688517
73,-7.205751730070704,-2.319965037550945,-5.114250744709253,-12.207426032271956
74,-6.820857931745314,-1.8971612267932723,-4.790551087430326,-11.862043612675626
75,-6.392813327861726,-1.4937965641783115,-4.476205018469801,-11.520669362575743
76,-5.957788080449882,-1.152571777901123,-4.186208828895073,-11.235732149959253
77,-5.546339500658798,-0.8781379873237672,-3.901767541741595,-10.969119915872792
78,-5.179979711724191,-0.6535446764745523,-3.5986424463516764,-10.657838968450314
79,-4.835827113722904,-0.456949841157506,-3.2948240019968167,-10.319937741505992
80,-4.481155291051131,-0.26476854066496763,-3.012096072673434,-9.987841045777262
81,-4.149189415589317,-0.060311403784744345,-2.7287878893717625,-9.654917412925505
82,-3.8756990263156004,0.1584718190331303,-2.4178136647223756,-9.302552259370644
83,-3.6113225853306283,0.37072844062539156,-2.079531708048055,-8.870897938729728
84,-3.2966207100042215,0.5545396899374713,-1.7256044524759222,-8.312678008683486
85,-2.9227260647216764,0.7065278707148963,-1.3813853794371354,-7.717451758014954
86,-2.5047917133879802,0.850251822480357,-1.0698268485197848,-7.199058109224979
87,-2.1223824204972277,1.0103529868683552,-0.7756510757349822,-6.733667195724463
88,-1.8457245667954891,1.223755741941018,-0.47319333837112754,-6.267445220229289
89,-1.5580541832141044,1.5076777304485338,-0.15666389433780334,-5.819388666047394
90,-1.1252505444829255,1.8169639827955568,0.16693596834166238,-5.426024173229744
91,-0.6497090180254026,2.064253974934205,0.46528907559379323,-5.139770164041857
92,-0.2806697470133967,2.2319590658502397,0.7055925306786629,-5.001332077919424
93,-0.017038169948251445,2.392854027263948,0.9054045298183832,-4.9478138410928025
94,0.1877537897907642,2.5770976198159627,1.097149127937712,-4.8891816454933945
95,0.4006077523343124,2.73433989762274,1.2788064744036713,-4.826839788009844
96,0.6796784316460684,2.835679125368815,1.4409993536767376,-4.785158711941011
97,0.9252408586339236,2.899035479833567,1.5914073938550088,-4.739478625405553
98,1.0123816179207714,2.9642880895872272,1.7365465875662147,-4.665212456960804
99,1.0185369825696817,3.052704894147015,1.8742265169308536,-4.5594336099170345
100,1.0655190524702725,3.173723484488718,2.000813398469521,-4.426593296401326
101,1.1268009935669816,3.312390650486254,2.106741808792124,-4.30323926428489
102,1.1535387591890292,3.442254585682583,2.1866007494766406,-4.218414598348112
103,1.1781856552349885,3.5592876162309777,2.2598243954211075,-4.118838743380939
104,1.2420784762703345,3.6693082946799063,2.351312071964118,-3.9343494539448796
105,1.3764698875876926,3.7617055459865805,2.4651190734549067,-3.657977875943621
106,1.596927357789244,3.844540471371342,2.595649998167361,-3.3097137903918346
107,1.8414112534375822,3.931533017179706,2.7401892090537205,-2.9192937294082784
108,2.0335910033110656,4.065420668129309,2.8910892908845383,-2.5241807624763832
109,2.184787102734505,4.2717602307062466,3.0300531005071436,-2.120423152717854
110,2.3345958864818206,4.525545556077343,3.141948149220825,-1.6961779781284332
111,2.4887159325563535,4.790729939791644,3.2248818452669936,-1.3203353412869092
112,2.6506259838052544,5.01905805668142,3.2857490657843007,-1.0538833569727386
113,2.8155338576416518,5.191547752423889,3.3453433229922203,-0.8180273000228951
114,2.974667059567919,5.302371589289145,3.420343322409435,-0.5163160449897373
115,3.1842736840875765,5.322493578230817,3.492302368813095,-0.16430531362516215
116,3.4860421862784055,5.2355980005219,3.5339872584558236,0.1777079265065195
117,3.7589652135113543,5.071076956594342,3.5381109997608955,0.4272585191795226
118,3.8686792001447863,4.876536797515709,3.510366606093934,0.5147151830256731
119,3.8531832440484393,4.713985575773162,3.476047821039086,0.4932677169702557
120,3.806033689870376,4.62853626988044,3.4630474185881353,0.4575887314456809
121,3.7935712154893673,4.579167664344462,3.4671343987375507,0.40643731047953874
122,3.8573722200160203,4.514488106420965,3.470450362158034,0.3197901235073523
123,3.9186549529128176,4.409528411470205,3.4681969287406083,0.24900647137240645
124,3.8758524329292237,4.295001244809658,3.456240912347002,0.24269589613754666
125,3.801070043302623,4.204329891984041,3.4204368767549815,0.28442263303926085
126,3.7984641203494673,4.13729590799099,3.3511686649290757,0.34401634357212096
127,3.8175650302253596,4.08876883976816,3.2532923338690916,0.4033936676557349
128,-13.015797822403497,-11.872399699334194,-15.766445446675512,-13.811154927290596
129,-13.23912479744387,-11.934833248487633,-15.727665455734915,-14.049016930187747
130,-13.465969813245996,-11.955363222781228,-15.68955131141259,-14.234110495127583
131,-13.647175050109468,-11.990367229482462,-15.66743772595416,-14.386874999894847
132,-13.738437461085878,-12.088991498883177,-15.683735708802171,-14.526048972572003
133,-13.817669322204548,-12.282348521955456,-15.747734295260141,-14.660614362408262
134,-13.968247047117696,-12.56853375437818,-15.856796626381815,-14.79246945759491
135,-14.145842279416643,-12.873364383779005,-15.975283273692153,-14.88259389794331
136,-14.290413236332173,-13.1154973809676,-16.06428537379644,-14.901361199975234
137,-14.412679393331134,-13.294603507224412,-16.129888265076662,-14.910779631039874
138,-14.535852966515707,-13.43269523965437,-16.187153133931727,-14.975624728298024
139,-14.696176523096483,-13.50801342705497,-16.216872069195528,-15.065191517533327
140,-14.91232115041142,-13.508050743837808,-16.203970608482916,-15.134049750092261
141,-15.094836989439754,-13.471915290717503,-16.17083824909829,-15.174680211952888
142,-15.153646387070216,-13.440073514862652,-16.14324911788816,-15.195092114035601
143,-15.133601307357367,-13.418708626024406,-16.12983640635623,-15.253389287046474
144,-15.107302362386738,-13.40143872444702,-16.130927191757294,-15.395888209472831
145,-15.085829449488436,-13.375472996690396,-16.127436244157956,-15.541124379162465
146,-15.066998803128545,-13.327382864615267,-16.102779257079685,-15.600020133478953
147,-15.028064954814717,-13.264157653833406,-16.082938823800095,-15.61615677655754
148,-14.947610507336726,-13.197623396082708,-16.095773392072427,-15.653815604898842
149,-14.893267095887458,-13.123812426956235,-16.127821789668133,-15.710998190886915
150,-14.9258894028308,-13.038333786691304,-16.156506022089378,-15.770741871240288
151,-14.956668801974265,-12.940834567196198,-16.165471123552816,-15.797493296854228
152,-14.895130664454244,-12.833198984171588,-16.14603929891639,-15.76151852813181
153,-14.802180239744532,-12.74144306713661,-16.132514219267314,-15.71938621912646
154,-14.759609664831007,-12.68061493900088,-16.161206714475597,-15.731919824823569
155,-14.789621002271451,-12.595762153829538,-16.190514436184,-15.746660690493718
156,-14.883110703440337,-12.434098527059982,-16.20494129661441,-15.704409229151223
157,-14.935748485750656,-12.222769361458214,-16.230744332917897,-15.649258880364565
158,-14.852086304064605,-12.007694335623235,-16.357511649187902,-15.631933506456123
159,-14.742680977397683,-11.814637298961491,-16.615074506994606,-15.643651366587596
160,-14.726636580470613,-11.652916995747065,-16.939097441512196,-15.65765854873321
161,-14.690945171132329,-11.483371697049822,-17.27769266577612,-15.617221695408109
162,-14.503960663686385,-11.263495861147609,-17.569215110075966,-15.476570712453599
163,-14.200257127918322,-11.013138479839812,-17.78977967124172,-15.299512691388886
164,-13.852071473016231,-10.769184624623541,-17.942127479518486,-15.15815653102714
165,-13.52054523082336,-10.548130436618681,-18.02205472003689,-14.990694989882707
166,-13.253038346220606,-10.35807708829905,-18.02846425726122,-14.728565602830942
167,-12.989558662498382,-10.185973793833021,-17.982543351628223,-14.43242897596385
168,-12.659288528035361,-10.013203992939413,-17.886973990686,-14.169373945695522
169,-12.338964958083317,-9.85276939018718,-17.680995789508316,-13.918360200206731
170,-12.112805290786556,-9.718255399910355,-17.302385726988604,-13.644180710559313
171,-11.918964828041908,-9.584961906110316,-16.740039450147698,-13.312428297725162
172,-11.682130634757915,-9.42617790631716,-16.01899242490446,-12.911256377687623
173,-11.417831629049708,-9.246563542828401,-15.20981943153409,-12.534931687406498
174,-11.156504997890599,-9.05654077106519,-14.387406376644462,-12.274116303749528
175,-10.920135481571698,-8.854427262417744,-13.567885738966403,-12.07841517054523
176,-10.71799014317338,-8.63789243737615,-12.742688965358672,-11.859454753116001
177,-10.48984601182955,-8.40312294573622,-11.911061200801894,-11.571670287503071
178,-10.171046453896054,-8.142266959593897,-11.07106791053077,-11.185469825935513
179,-9.786665598098221,-7.8622718531142155,-10.229674540151647,-10.720836904982674
180,-9.376309086881212,-7.563653559890621,-9.397009783921858,-10.207790663702554
181,-8.92607264671454,-7.191031562594725,-8.568554130974437,-9.58446094192615
182,-8.41658519859587,-6.70509713013774,-7.737934665607201,-8.799449822829521
183,-7.8330131055602195,-6.173626037927677,-6.911247998295954,-7.947224964394077
184,-7.174358385407278,-5.678139052142289,-6.0983118830956915,-7.132022356266779
185,-6.507797868840384,-5.225594135793646,-5.301119316412585,-6.3370258234930725
186,-5.897675650242738,-4.795696023690955,-4.5250535089039525,-5.52530486946928
187,-5.303360193156438,-4.360702931691026,-3.7945108002203414,-4.690984876882415
188,-4.6951585640042754,-3.9234725209975383,-3.169731158111775,-3.9152618383932962
189,-4.195044794623506,-3.5440046559552996,-2.7244485697431893,-3.3302222205959295
190,-3.9230561291184487,-3.303958938516048,-2.4603490057830517,-3.0865905538001432
191,-3.804910144428898,-3.198134968217895,-2.330302822966233,-3.004339595346119
192,-3.724303466771093,-3.1766440078301774,-2.2380581830378574,-2.857530523933946
193,-3.70081194922304,-3.2144177360044086,-2.118965938279595,-2.786322004230947
194,-3.766764312483316,-3.281059703242442,-1.9476355691874294,-2.9679266247152825
195,-3.91217508988443,-3.30518735068328,-1.7305924072893821,-3.2809876777615172
196,-3.862968616569671,-3.2667233251255876,-1.5322039325061865,-3.220568014422646
197,-3.8375654381840083,-3.1203890499797153,-1.3303560955967662,-3.1663015606760925
198,-3.7466315713286202,-2.8992125865823697,-1.1433124439273097,-3.135541475493154
199,-3.619930465800033,-2.639971218280996,-0.9809863648181711,-3.1330759647216384
200,-3.5032628214756167,-2.3844797103524082,-0.8460556383962867,-3.15225874303186
201,-3.36847225345373,-2.1781042903201526,-0.7216306463612302,-3.1148257463280755
202,-3.1786905957748943,-2.0421608411129752,-0.5870620009231312,-2.9418494451368282
203,-2.899845798895185,-1.939659289353421,-0.4532754287225474,-2.693571018354792
204,-2.5187371230013733,-1.8189246038024034,-0.33645910153598274,-2.456971624258731
205,-2.1426747777824815,-1.6653548644513387,-0.21944927881734838,-2.184098485450085
206,-1.8896807188734854,-1.4865038439189855,-0.08251261761183816,-1.8122456244092366
207,-1.6921806524180536,-1.3119447795500878,0.06624555645437222,-1.3871125123409285
208,-1.4470201203985413,-1.1748537422075986,0.20879462074832614,-0.9778340976494526
209,-1.218354901433623,-1.0681013276051265,0.3252990780959944,-0.637689767720966
210,-1.0919669285881648,-0.9724816749235256,0.39805307484431685,-0.3979059228433566
211,-1.0381470574661018,-0.8857403122513329,0.42992409353154576,-0.18772505326473554
212,-1.0031020884498678,-0.8139257106894364,0.4334643557260962,0.07872837795983757
213,-0.9315977933318447,-0.7944069647122809,0.4086986384362564,0.35359213885636204
214,-0.7861012630950759,-0.8560069792048235,0.3574999905655013,0.5566252231248372
215,-0.6749817846038478,-0.9414062848358656,0.29980001153378283,0.6873270777803817
216,-0.7161463815330071,-0.9785846601010486,0.2572066405447378,0.7696884107666373
217,-0.7951822367565808,-0.9635543053370391,0.24118361093851556,0.8391170298667052
218,-0.757957366662414,-0.9238138612687932,0.2543823939024155,0.9332917891687177
219,-0.65167056363186,-0.9091986447455759,0.28290745479673285,1.0197777130254768
220,-0.5730451085143101,-0.9652928647959055,0.30715034789571705,1.0562459350100304
221,-0.5464167263936258,-1.0645725798565577,0.32331280554992015,1.0979759967954477
222,-0.5780529709340408,-1.1544871658603062,0.32997758796894566,1.2107785987361235
223,-0.6272891741957055,-1.221417460643532,0.3125370734248915,1.3747647038402653
224,-0.6432572881661713,-1.2684584474163905,0.2533548266275312,1.543932790162693
225,-0.6856450468189951,-1.3163346273951788,0.14323192948617136,1.671673088458426
226,-0.8258099753839725,-1.3894133729217335,-0.016367136598174983,1.7221372404888609
227,-1.0047411232348162,-1.4635065670775962,-0.22331482334235372,1.7494311519361951
228,-1.1327347134161174,-1.503949365706961,-0.43647207404788624,1.8212738659148564
229,-1.184474935030649,-1.5318421529923176,-0.609783474919305,1.8714301759520664
230,-1.1607828131447782,-1.5740076983557794,-0.6363337651905713,1.817095770473258
231,-1.0873921938503817,-1.6051002080612056,-0.5010510582542343,1.7169344120001888
232,-1.0069908026104564,-1.594401892349209,-0.22645398732720723,1.6533683495944078
233,-0.9266109466774698,-1.5361773782881931,0.14109093325495248,1.622030662963537
234,-0.8414303633719427,-1.4408620372666925,0.5450398855231698,1.5968833678320302
235,-0.7881845551195589,-1.3640153483104112,0.9640897603836326,1.5394522502009098
236,-0.7928152282894031,-1.3579935567082635,1.400280914730422,1.421803642963837
237,-0.8092907489655441,-1.3805370381216038,1.8483064771500477,1.3340513742225641
238,-0.77832994799435,-1.3645815074765137,2.306548834749339,1.379413483145685
239,-0.6682769544673195,-1.3104093413013678,2.789696886886477,1.4932928970671795
240,-0.47421279321536064,-1.2339259812837138,3.2989795373163853,1.5793235230822553
241,-0.273730038437705,-1.1301095585348626,3.7948107059228167,1.6764376906726177
242,-0.14947817387530493,-0.993583398804465,4.2218796752786965,1.846908346339902
243,-0.03401802875934007,-0.800525159443384,4.524352567704134,2.089888920848391
244,0.1650613754569032,-0.5374148148479233,4.6685824196547605,2.381522735259098
245,0.3872843791509775,-0.26454116113489706,4.684448222548008,2.656137338532803
246,0.5446309494876556,-0.059260108628995625,4.6299198820422935,2.844739558851912
247,0.648460295747439,0.060872340605161106,4.548516411369941,2.9709787148680378
248,0.7314859968493478,0.10522288708524202,4.468393069157545,3.086988782007281
249,0.8137841172240328,0.07479609576495908,4.381057693855252,3.1804357741385827
250,0.9104293362539345,-0.010086651040524995,4.266557333576729,3.2287046944592506
251,0.9707081825241146,-0.0955338738764827,4.1406682477616314,3.2468743347727846
252,0.9405151436396284,-0.12588559180041853,4.029628348423844,3.2512827021831536
253,0.8900553856318303,-0.05593887467346183,3.949702153215753,3.250736187412845
254,0.9083845947987876,0.13026973642036982,3.9064633019407773,3.247912395532152
255,0.9607703695141375,0.3713533189429874,3.8699082081736265,3.201434726421077
256,1.2167059430413958,-24.899762765706036,-23.55393763649681,-4.739687452744059
257,1.8970114348509906,-25.565489792198324,-24.66296733128137,-4.4208556394409335
258,2.423435992359773,-26.310220308077607,-25.728062111333468,-4.136166105434201
259,2.860582746847377,-27.111366133228266,-26.72714969640302,-3.845453494668027
260,3.3026598747929494,-27.91162220237378,-27.64200638075914,-3.5573796591615467
261,3.7647802624600493,-28.692977104350767,-28.45922996588456,-3.289899710758898
262,4.243547203752936,-29.446588075009924,-29.17921968819829,-3.0668096071341866
263,4.734436575606521,-30.134705494989053,-29.833107856250276,-2.829974286696578
264,5.2289009384999625,-30.745255319647836,-30.457244346069366,-2.5401452626312757
265,5.769967593211902,-31.359354668675223,-31.06847950702654,-2.20480485437902
266,6.391829037521542,-32.05113967960965,-31.66925807343244,-1.8877910164707852
267,7.012626637295432,-32.78209969797612,-32.24435230093454,-1.6192056751467845
268,7.548529611018799,-33.48901264394838,-32.775407405850295,-1.343543411323146
269,8.052116905852158,-34.139567035419994,-33.25953661642875,-0.9743590073057282
270,8.586325716010784,-34.72644290258403,-33.70110758016476,-0.5312359638060119
271,9.110462915445535,-35.32039584451826,-34.116997678551364,-0.09813028897529999
272,9.572642345683107,-35.98324222477571,-34.50843213861163,0.23160024946253646
273,9.94533346387071,-36.64765212281859,-34.85663059315109,0.5129975517464244
274,10.224729181417436,-37.21399037235912,-35.12163335863791,0.8137931342804242
275,10.514857633646022,-37.62826984702115,-35.29999978331412,1.1664580009719152
276,10.907924760174065,-37.87128283594598,-35.43181575845539,1.5307941608168796
277,11.289142526072531,-37.99625802323632,-35.54369913497997,1.861401114085968
278,11.532868251955481,-38.0768493489995,-35.62735264408248,2.162137296213577
279,11.724268843380267,-38.11700725271896,-35.67133218280463,2.448563187480915
280,11.976993197131339,-38.10361664821784,-35.658141986505896,2.747763220044029
281,12.287833120320188,-38.06238893892686,-35.597414411505184,3.031616698052261
282,12.625490995830795,-38.011995170094465,-35.50629095179194,3.278854429102193
283,12.942501726334363,-37.940222156870604,-35.38453527999105,3.497038880349503
284,13.18849697826538,-37.82899327489094,-35.2284962774613,3.7223040151934637
285,13.41012825232695,-37.6491439345679,-35.038141888327814,3.957362825981144
286,13.656240496356682,-37.38217042512729,-34.812115599226225,4.155156865165643
287,13.815843759544078,-37.073685202747185,-34.55474868563499,4.277290247841124
288,13.792997100415676,-36.76565408624027,-34.27022849575319,4.341090900264077
289,13.703214601356038,-36.41016149962538,-33.94178161201521,4.399951825381707
290,13.686113912406286,-35.945597749382344,-33.56322372488225,4.494220198728818
291,13.750720686288235,-35.36729367201655,-33.1468665034797,4.604017708424344
292,13.85939135573323,-34.689454565357956,-32.71973808019143,4.671233967300782
293,13.939532610654664,-33.929802157227044,-32.275785519394894,4.683907797392152
294,13.91737525966524,-33.11581678449904,-31.77211429729028,4.709482733633827
295,13.825921557485621,-32.26254696246142,-31.18429373712265,4.8242314687921715
296,13.718303416046531,-31.38061813555847,-30.520718540846918,4.999059132012216
297,13.552351879557493,-30.50847191809251,-29.79430746157865,5.116085994653919
298,13.289283033948324,-29.668247180969942,-29.02834841596571,5.124209142058206
299,12.95445619685606,-28.80234513119945,-28.233425713714336,5.09674126189578
300,12.596405882662616,-27.845206780084172,-27.418158551663964,5.118254193904822
301,12.328506107470725,-26.805849183045137,-26.57203799658575,5.2070300155557225
302,12.224521011778602,-25.698167223260718,-25.694289347447594,5.305768241660837
303,12.132104844190174,-24.4902740261425,-24.79872397012278,5.353948324175413
304,11.880058257779513,-23.143239463208218,-23.873153960426055,5.36468479545753
305,11.521899676455455,-21.603754691019578,-22.875880169330532,5.409696053168489
306,11.159353701118569,-19.851129669524372,-21.79008890163793,5.52554618772459
307,10.796447969943719,-17.985260730683137,-20.626814532998186,5.69682511770746
308,10.428620670101342,-16.127814582288345,-19.409435685721064,5.885473803724469
309,10.053418090097368,-14.307160284463977,-18.14358794590926,6.099289468923309
310,9.661027533314636,-12.52073057767682,-16.831689554516384,6.347711138601041
311,9.313243534392107,-10.78247306798605,-15.478779233605067,6.611524878654561
312,9.050980862977461,-9.09057251682302,-14.089075768478478,6.8675737839601325
313,8.733585997572598,-7.425460581611819,-12.678121870845967,7.083708789468518
314,8.22879097519069,-5.763675232685994,-11.251154444839335,7.239874576799951
315,7.625724368361826,-4.072171511389278,-9.799408179517986,7.3800615206264
316,7.0625308412567085,-2.323879885203554,-8.334959258756744,7.514435948525835
317,6.460995278209879,-0.5814580973257417,-6.930801722861709,7.557928201654264
318,5.706296446294857,1.0946518583488845,-5.6576187281865975,7.405247261652508
319,4.572109332056048,2.7004308514127215,-4.441133090933261,7.014366103427193
320,2.8785321534671766,4.254480727793971,-3.10593202921827,6.4237966843346594
321,0.7453257523329588,5.758459895003311,-1.587940526048178,5.6672405727189314
322,-1.5726873759640223,7.223395986534675,0.060074122833230534,4.772798134907841
323,-3.8463909064309405,8.683922763784361,1.7545733675367476,3.8362987686704515
324,-6.198717465795761,10.325151412222317,3.601345204772838,2.8334519229329582
325,-8.179923422364604,11.94662971372357,5.500087930218178,1.8173680335348086
326,-9.806208454900805,13.518194991687553,7.4700738433911535,0.567974309284125
327,-11.181982278573587,15.019066733014437,9.47807341516384,-1.063547146233859
328,-12.44631364487486,16.441480331747655,11.451897513228708,-3.0706956126944105
329,-13.675885591914685,17.799896022783024,13.26760372665089,-5.141544741382791
330,-14.900284621750794,19.109726279414446,14.758875851669291,-6.839331066976889
331,-16.132176569133605,20.360074501812324,15.907956898521906,-8.038735337687282
332,-17.36179011240094,21.528786172256137,16.872269313840107,-8.928558040179537
333,-18.584242267236778,22.575482978719887,17.75982152095452,-9.637978402329772
334,-19.802403200325564,23.470619828756597,18.559462784624962,-10.113160344852004
335,-20.9926936722872,24.276889980242018,19.30820342479545,-10.563581571434824
336,-22.153020635098763,25.062212966243585,20.142143681257924,-11.556176875914995
337,-23.35971230738413,25.761511595719828,21.008717584250324,-13.26355709674196
338,-24.675043596493374,26.286513728407456,21.61389722532265,-15.154179450436416
339,-26.12823083542656,26.650048312438443,21.85782517291609,-16.567728235793094
340,-27.656694502844893,26.901093000891386,21.940944393011073,-17.280130871311762
341,-28.866703963052796,27.08659214152852,21.971412876642848,-17.4615579282431
342,-29.38994643557466,27.25240145081945,21.84319787240141,-17.348332953469622
343,-29.443414965887396,27.403353804663602,21.480363990302802,-17.123558894845175
344,-29.405847415915208,27.519544135779913,20.944166267085258,-16.872770387616118
345,-29.348446470053105,27.59674014989368,20.33997903020355,-16.64422306694703
346,-29.239681875634297,27.632695351221287,19.815300293891188,-16.434595969181753
347,-28.950815206711685,27.607532779803886,19.558549814026723,-16.251910693283882
348,-28.36751477152715,27.509434740529247,19.54828345810757,-16.108223443489493
349,-27.7832180583153,27.36527822526274,19.522004901360617,-15.979103763162772
350,-27.547774618632516,27.20345123194113,19.324655392070387,-15.855745243489444
351,-27.575596475314708,27.020982984851567,19.007397238626993,-15.72390005314398
352,-27.626352065200717,26.80134285298573,18.64114182609305,-15.596967570824647
353,-27.52203102717156,26.494309032078984,18.243431382592142,-15.490735075463755
354,-27.141433935771715,26.065223524217945,17.802380362893043,-15.352203213120958
355,-26.579111835195786,25.60578962666185,17.32413936879073,-15.064681993490575
356,-26.028336922830107,25.21526574046697,16.801795924129298,-14.642316109016557
357,-25.564741305826175,24.854120579614197,16.237323363418696,-14.218057091505816
358,-25.190696358865836,24.438095985535323,15.635641085411516,-13.919468631759816
359,-24.864003527925064,23.878998841850443,15.042527409263144,-13.6899884766053
360,-24.503940495255446,23.13883550616124,14.53933334705685,-13.379163310270654
361,-24.024623679672356,22.387979018557093,14.143795530757844,-12.934244230658164
362,-23.39153592081407,21.83968547453136,13.794901844124286,-12.464529232034367
363,-22.710866577296365,21.50979751358558,13.43304008156829,-12.09769280611982
364,-22.12052409018508,21.321398245348668,13.05803513945114,-11.873592544186838
365,-21.644699951983256,21.20952787209319,12.72052024556298,-11.730765129911477
366,-21.252644437468067,21.090816513049443,12.431768447702913,-11.594509692128156
367,-20.882896781578726,20.870821133060765,12.141280506248105,-11.424570593142022
368,-20.472247399044306,20.500266087632063,11.808985417275329,-11.279427920183588
369,-20.072760829000526,20.015805729020624,11.420975069011888,-11.266230553634086
370,-19.759147719718165,19.487061110047314,10.969398475875328,-11.33940570335424
371,-19.46528927110688,18.97287993588135,10.473386051806822,-11.284379080635512
372,-19.104515215400628,18.497517029286712,9.989471061471823,-11.042099393456965
373,-18.705411764120264,17.988733268536595,9.567907170754921,-10.784037106199285
374,-18.318596414873493,17.35467248087337,9.211310167943553,-10.625446299800817
375,-17.962265854763807,16.590230377670714,8.91595157459067,-10.518201703419429
376,-17.632505321175998,15.739079972599882,8.660654268472795,-10.363655873050213
377,-17.243252656720053,14.877486732515809,8.432375982236637,-10.13087390048434
378,-16.704510508356634,14.081353762035612,8.219559603742722,-9.856768415042747
379,-16.06304755682276,13.343949853875113,8.000016157273745,-9.5796637524191
380,-15.407484955269682,12.61827289948248,7.751830981676072,-9.29162707459643
381,-14.756366989002375,11.890960561897677,7.454784932302536,-8.973172888825502
382,-14.111041979751374,11.155879387213718,7.100691159427074,-8.59520585760306
383,-13.471444942215157,10.374161155688977,6.714056295068855,-8.213086405401459
384,-15.305055759169111,-7.1701424013214625,-15.228368307102125,-18.14309643869037
385,-15.647313754852505,-7.4219227016544735,-15.725889467934397,-18.787211110358257
386,-16.056639659479984,-7.683814705591418,-16.229935640088808,-19.388531113803584
387,-16.465592829473433,-7.937512463563802,-16.73207271644031,-19.88943871273643
388,-16.795875769477725,-8.162908088279302,-17.222677496859102,-20.263454516144684
389,-17.10079999970652,-8.373719396933152,-17.71336427313688,-20.644167464803758
390,-17.4533870319621,-8.591961928020067,-18.213096456483335,-21.165244371681197
391,-17.913105572389348,-8.819079719108377,-18.703561813290992,-21.768293798483953
392,-18.504393513550763,-9.057181289664364,-19.16291991497352,-22.348617762335138
393,-19.10200615795164,-9.319896014140785,-19.57910659706765,-22.87561284110812
394,-19.57464381826304,-9.619187783880294,-19.948978674549753,-23.338068349936474
395,-19.99317264314677,-9.972030074615988,-20.295392783969046,-23.750377358412607
396,-20.454713703386023,-10.380828300751865,-20.639011481876636,-24.138111791712763
397,-20.903438442567534,-10.793218923655747,-20.95464339996129,-24.472742633866684
398,-21.26684989730759,-11.154943245836382,-21.21009999811155,-24.719659327323466
399,-21.541861560663307,-11.475298090717834,-21.409836924523603,-24.9061979243117
400,-21.745300679993413,-11.776542107216798,-21.564635383519718,-25.06231449255312
401,-21.92686962922629,-12.05009152026892,-21.66906124399035,-25.166164175787493
402,-22.138730235061736,-12.285852077227974,-21.721902375534,-25.1981722888609
403,-22.359311784140967,-12.474501608801406,-21.730485613890583,-25.16520964046724
404,-22.55109574241428,-12.615018861916193,-21.7102593070484,-25.09090158726585
405,-22.737500580587874,-12.753415103463395,-21.69780429477149,-25.056769839199248
406,-22.938841065136856,-12.932305051510465,-21.724555750072792,-25.123566035196426
407,-23.117537579841912,-13.120308915819146,-21.787197555266,-25.202071220045525
408,-23.234181297912514,-13.276194573921886,-21.86551149542187,-25.187661368446467
409,-23.270281933006043,-13.412900930444579,-21.93414356681788,-25.11778843673877
410,-23.226897752677697,-13.552181202986338,-21.97116696373606,-25.051852670338796
411,-23.17277976120708,-13.699088032633362,-21.97575021454578,-24.971312909231447
412,-23.165043856904976,-13.852120878181363,-21.958042291401757,-24.850902167072658
413,-23.128312039407977,-13.98950653041017,-21.92693406004344,-24.67662152141035
414,-22.977411660385133,-14.088385602469186,-21.887795442002062,-24.44019757676522
415,-22.739360779461535,-14.157766393261683,-21.836022011237905,-24.19761445805603
416,-22.471014634658903,-14.216487463234829,-21.761456854859013,-23.994929183019202
417,-22.227622916751756,-14.269471446404463,-21.652204593186937,-23.738908342952186
418,-22.046365044001078,-14.322124145392904,-21.499684139997335,-23.337165402217007
419,-21.855674564932933,-14.388063249530243,-21.311682907098692,-22.863016382189215
420,-21.576053335216198,-14.477402092427658,-21.095599961808606,-22.40921429945619
421,-21.27950277378061,-14.593893888826777,-20.837702086899633,-21.966446813710263
422,-21.045677154882892,-14.734353313197062,-20.523967280598573,-21.50342905816302
423,-20.802262404558554,-14.877086875865569,-20.14943736617644,-20.97825561216845
424,-20.46777745318906,-14.99753379518772,-19.719903080605427,-20.368198216527006
425,-20.061852624010058,-15.102179552287325,-19.27866587953463,-19.769757543925703
426,-19.624808028226514,-15.193874454932102,-18.861082504622846,-19.281303680512398
427,-19.206451418716426,-15.219608697529022,-18.42540391254684,-18.85815488443946
428,-18.836514371169542,-15.134518459662207,-17.923211812746462,-18.416851710785036
429,-18.41375194896434,-14.969767527740073,-17.374155427485206,-17.917168849183664
430,-17.833585787917297,-14.774433559780384,-16.81249048042694,-17.33346698006955
431,-17.179018790826365,-14.570621981539666,-16.253563709073788,-16.676037265519717
432,-16.549428648898424,-14.369367596221135,-15.704853392498352,-15.973097271909708
433,-15.868428274163323,-14.15829746562179,-15.145634855351688,-15.203286680243405
434,-15.053379706228043,-13.917360026693745,-14.55130383550781,-14.348786863012899
435,-14.15379664634347,-13.66416642088263,-13.941334075666141,-13.481281334726967
436,-13.237090694789105,-13.41132762084431,-13.335876998401247,-12.65806989475471
437,-12.34943032783105,-13.115095970728488,-12.710560566434905,-11.808185285572247
438,-11.509827124288242,-12.733426329156183,-12.03568314734201,-10.845507573071757
439,-10.611883474010225,-12.262075055035409,-11.296029784713173,-9.760027319462003
440,-9.558725555066273,-11.724552959060741,-10.491700850251283,-8.573171128836128
441,-8.461319992128963,-11.203502760710482,-9.666060549679122,-7.348101556070321
442,-7.454752498476044,-10.768628102742355,-8.863076108391454,-6.1468523723844
443,-6.519396270873719,-10.369897073519443,-8.065955639551984,-4.922455121063995
444,-5.618651845958411,-9.96032024451719,-7.285849800593683,-3.698316234974246
445,-4.781999707160081,-9.565394630588068,-6.576043520163898,-2.6175652290055753
446,-4.045052022342793,-9.240515368211312,-6.003750485318569,-1.8531109211443655
447,-3.484038577503838,-8.97289937093207,-5.543406069261962,-1.2954593463424242
448,-3.133934940227999,-8.732903532534829,-5.126565867449954,-0.7584682345850269
449,-2.8437583027832525,-8.524841241152876,-4.69634114714433,-0.21965054669966216
450,-2.45176797737753,-8.352436119706185,-4.219666094781354,0.2975614092963936
451,-2.0055266806120473,-8.206140491088414,-3.7225858843574997,0.7874669395897439
452,-1.4961537033379149,-7.98166214619723,-3.1579139233718867,1.3075031310864622
453,-1.038508875087925,-7.729044880826519,-2.627257606943567,1.852329535662808
454,-0.6091805632373689,-7.4054264168549855,-2.1168742662153734,2.49813811788665
455,-0.19726887709720486,-7.0485656705775614,-1.630794479874812,3.1855917533277065
456,0.21193358697964063,-6.715083752814855,-1.1720221430562918,3.821125404244164
457,0.5925732307424008,-6.398920173309293,-0.7236385701319576,4.40488384413004
458,0.9169443148345086,-6.08067445853587,-0.2717054679685416,4.958137159437306
459,1.2614326090057713,-5.773627116569245,0.17808874614934603,5.4709036168502045
460,1.705172219609134,-5.492269961426648,0.6101143017271309,5.937121305290656
461,2.168589814571551,-5.23808156158517,0.9935503552244827,6.333154248997947
462,2.548823546645971,-5.006512908250991,1.3056991965830236,6.6469052844189385
463,2.8860216269027195,-4.777359643979251,1.5749218934893807,6.978895977677409
464,3.2471083230128044,-4.526405172693127,1.8457843501928133,7.432206930453766
465,3.636827227527899,-4.24750380290435,2.132682622464876,7.932442137396081
466,4.038100724003123,-3.9416174710420555,2.4364038881812187,8.368379922453984
467,4.3648096785396415,-3.606931265935357,2.7573611732992838,8.77327541750328
468,4.538470967578875,-3.2438719247752523,3.0865689025162397,9.20528811267671
469,4.678688790054611,-2.84726037858018,3.404804163076068,9.638660300011779
470,4.931049159845925,-2.4182164854742583,3.69517447369089,10.033771475031854
471,5.209931756873194,-1.9914723643677714,3.9519245427310388,10.359335139659201
472,5.38629910014169,-1.6071575546778947,4.1777267436320615,10.595910102121758
473,5.482541827164463,-1.26947262577438,4.38648592965966,10.792472912864408
474,5.5596874523315245,-0.9693138532259582,4.591034905479663,11.012465696172203
475,5.681862316884618,-0.7152289604841531,4.781891591509548,11.245394033032905
476,5.895407570791293,-0.5102530611053133,4.943366062468822,11.455801987938004
477,6.091703050946188,-0.3257104776441424,5.070816565827407,11.634549400174848
478,6.1384550734011265,-0.1320813433100344,5.166673018481992,11.772720040337747
479,6.101775748078841,0.0721922529312217,5.246241939480842,11.862513231421026
480,6.0939064901968925,0.27855962066802226,5.325024446153328,11.899876052702306
481,6.099729992664401,0.46957653522192433,5.396669484611916,11.846248613349875
482,6.076525354389985,0.6340469144943743,5.4457549116112505,11.673333154160279
483,6.0075922043896295,0.8121330941107376,5.460398342808345,11.45107222601303
484,5.882415350126132,1.0455957799761695,5.435511162191737,11.259983162031801
485,5.750768889344344,1.3080087821226685,5.380737145461591,11.075091446486194
486,5.66799981571498,1.549759462277927,5.314902226138518,10.846348724554128
487,5.58343067832264,1.7363269117449884,5.262625677703599,10.564141940124289
488,5.429583578139413,1.8483071291510136,5.240554372746125,10.237978618689926
489,5.220364001954297,1.9081147178431774,5.2328922607204404,9.938163693241528
490,4.999456513182107,1.9568490880066203,5.213387196456977,9.733776434828481
491,4.833598674866061,2.008042762375765,5.174382375282944,9.551965528531111
492,4.776864566111054,2.0646427322492262,5.117549102849418,9.295147894889986
493,4.759837764043692,2.139096519831758,5.049363994814024,9.010257196340522
494,4.685209190589784,2.2362867552357546,4.978870002799688,8.771565941095794
495,4.589431475361435,2.34659029585741,4.909304980726444,8.564630380728733
496,4.535165338827223,2.456934967724834,4.83826609783987,8.35599406634096
497,4.472802533606532,2.5453575239040656,4.752788535251411,8.112000694314194
498,4.34571840589535,2.5970696041321624,4.641559534218406,7.809043213956445
499,4.19074286891017,2.6477572749204756,4.520591870481713,7.518048272609417
500,4.0571178747659635,2.735640863664836,4.410526595975898,7.321228665030132
501,3.963170307424164,2.823566834332916,4.303733432929602,7.161980363732123
502,3.9052034161200613,2.8608560360636046,4.186562737276009,6.956307943193154
503,3.7944115513506262,2.857736618263751,4.061416915857541,6.736532484112301
504,3.541321984755908,2.8401915249962597,3.9351592601835894,6.550155760181389
505,3.2296962479127505,2.8177027893810984,3.816789095762347,6.3793902848952415
506,2.9744580169739887,2.7938575701778037,3.7159642520706915,6.192339514896003
507,2.715436570784948,2.7507079883650807,3.6280148672393637,5.924316408726036
508,2.3696013946191052,2.665235498118557,3.5458450954496694,5.533842652503416
509,1.982987248362868,2.5474820969196115,3.483991103019981,5.147530583972714
510,1.6317370413220431,2.418622475202394,3.4563782790092974,4.91471983421659
511,1.390273482648237,2.2812756030075847,3.4492654304165407,4.80060046786593
512,-12.137361859509143,-7.799295023495653,-17.02492549692837,-14.189221567765916
513,-12.501962720335928,-8.183789466509667,-17.340011672597292,-14.520573093770118
514,-12.94527475135387,-8.596499020229006,-17.670073212757213,-14.847331879486477
515,-13.45451937955459,-9.043029461041854,-17.98113152205684,-15.135828551496148
516,-13.98861354487132,-9.522953641358873,-18.23460625788958,-15.354774101202366
517,-14.520487556474874,-10.041790576296941,-18.438677034491125,-15.56519562080387
518,-15.02364264186605,-10.594292283659419,-18.614185471229554,-15.827638972241397
519,-15.510378526547466,-11.140305026863885,-18.76395571624147,-16.11434750811976
520,-16.00068062120188,-11.641228678742642,-18.89199728642589,-16.38086977555752
521,-16.452514378521233,-12.094215651641436,-19.007209288390747,-16.596167194277072
522,-16.826868677055295,-12.514154839410512,-19.118589834354943,-16.7473582726277
523,-17.17011565524178,-12.929145807674534,-19.245856581519377,-16.913738384153763
524,-17.52672381807174,-13.365283293037587,-19.40263598893806,-17.166075715328027
525,-17.863613085719308,-13.813416033177218,-19.571083375728737,-17.401553036449894
526,-18.133781275066966,-14.256742299458134,-19.727643360697982,-17.51036262054521
527,-18.29481189517341,-14.70288663464488,-19.87116049670099,-17.564873826356322
528,-18.334919225420666,-15.160563467373104,-20.006845573167237,-17.660705007205323
529,-18.357658768970794,-15.629863078207277,-20.13340684294081,-17.790643429194187
530,-18.470543228973664,-16.098832232086544,-20.2540662927342,-17.92473860088428
531,-18.633260353854478,-16.524157823958735,-20.377797441591888,-18.01653358601277
532,-18.773817035714288,-16.85895355999123,-20.511034960731205,-18.027393720185373
533,-18.903175331841183,-17.0944131400471,-20.666420471590044,-18.032716878139794
534,-19.032183987349796,-17.23958085902668,-20.842249922504777,-18.10666519135397
535,-19.136048336444603,-17.287037280312685,-20.98305044510122,-18.154239737808627
536,-19.184930899325447,-17.252418742349224,-21.037142833913176,-18.07191367652327
537,-19.10980870161507,-17.21761030541093,-21.023216417339295,-17.91161856357067
538,-18.8762542564083,-17.261515202413314,-20.979038859962284,-17.75343225577681
539,-18.600730708711296,-17.400604588534037,-20.92122669432265,-17.61771050662613
540,-18.42205793096946,-17.609841855330227,-20.858247600576853,-17.509947668867966
541,-18.368714236504875,-17.826959044686426,-20.775824038962543,-17.405881286561247
542,-18.41996808380976,-17.98115757260972,-20.655809154908194,-17.274873206327705
543,-18.538156083629463,-18.037439464484603,-20.520549259180232,-17.154900798008256
544,-18.66741443775989,-17.992612661293983,-20.393090517611242,-17.08345918159576
545,-18.767001063748737,-17.8695368000894,-20.246714557406566,-17.004404087475965
546,-18.814929340463273,-17.707212173733627,-20.050984192043366,-16.856600235973566
547,-18.80173248235068,-17.542887126412086,-19.81431667076884,-16.658121789993924
548,-18.729344650277937,-17.400895986883707,-19.549550891571908,-16.440990745387413
549,-18.604689069546172,-17.283421797149888,-19.25661308858731,-16.214338968929287
550,-18.434704778993495,-17.178921470197142,-18.931879505269627,-15.980228995815388
551,-18.218734015059873,-17.067392492618783,-18.551084421219727,-15.705828504507977
552,-17.955221506772585,-16.933323425080474,-18.10006023735411,-15.363241062699931
553,-17.650789461745113,-16.79025736394509,-17.62573817873046,-15.007689923861705
554,-17.305808179932267,-16.651196363701608,-17.179280600034115,-14.694333183292835
555,-16.91497305153625,-16.49617697343638,-16.758846375338,-14.386840997600867
556,-16.460041372817162,-16.29631242168276,-16.343308610116548,-14.037529158402204
557,-15.875778663050525,-16.023759840533067,-15.906526378438254,-13.627285352284837
558,-15.116094749735854,-15.664339253403726,-15.426664033061062,-13.159890522446066
559,-14.240018897813007,-15.24961940202371,-14.91979318315253,-12.738725396941973
560,-13.331034949310496,-14.821689828741365,-14.411059384613372,-12.444245075827794
561,-12.419671727867833,-14.385568440415145,-13.89377075646805,-12.127734398793784
562,-11.51982512424954,-13.938706048572291,-13.354586081552684,-11.63052400282779
563,-10.629048375192252,-13.498043135236488,-12.79625823914983,-11.037023585697218
564,-9.73616509247461,-13.075976366308481,-12.21781488803512,-10.468415172448703
565,-8.88451567256905,-12.667904811773758,-11.604515377725527,-9.918025238719776
566,-8.102752697496692,-12.262265846043235,-10.940984954413342,-9.352240640471328
567,-7.290912552777546,-11.842227241500007,-10.21314261325367,-8.71633673964163
568,-6.356070949607002,-11.391954435525072,-9.415998236844658,-7.968394666982953
569,-5.356012401202962,-10.905993527599545,-8.570876723496776,-7.207018047079407
570,-4.376657076467765,-10.388372767852449,-7.703115026841772,-6.538178992430966
571,-3.4547729539293024,-9.850314617904424,-6.815632303566539,-5.8932449038936365
572,-2.5792271937948974,-9.30907938534113,-5.95004015679305,-5.20880407136433
573,-1.712110956479172,-8.828894509865645,-5.17869567759319,-4.599276672831868
574,-0.8031353375223076,-8.450358734843675,-4.5856484322865185,-4.187986771414121
575,-0.04472805052292596,-8.12860444064382,-4.164539174584888,-3.9222179693743247
576,0.386128681699556,-7.791264322639534,-3.859064796452239,-3.695767098235775
577,0.7022662224771473,-7.412007753205033,-3.62735939629932,-3.4724629671774383
578,1.1718302504559412,-6.991944118111948,-3.43381487920609,-3.2408426380007236
579,1.740471104734763,-6.565934905353911,-3.256379477346313,-3.0188251051515365
580,2.1742438074351256,-6.185413278477687,-3.07316932308589,-2.6193418330344844
581,2.623307990831352,-5.822154569759938,-2.8686109833946367,-2.213246652118583
582,3.121727697774164,-5.438569193995698,-2.6193781276540906,-1.7305733072047182
583,3.6905073469078262,-5.027479348496567,-2.3478948455077853,-1.2256828851877268
584,4.333381944943138,-4.5941009476216825,-2.0847964381580146,-0.775972773031746
585,4.924678787216197,-4.158135631462889,-1.8259106053380292,-0.35744986678429985
586,5.335760451698461,-3.7423760332384695,-1.556595154069227,0.0707300066801915
587,5.655670786341743,-3.335647997389335,-1.2658900901567047,0.5032790680561724
588,6.021164158717521,-2.918985456733796,-0.9492807735882263,0.9199950755599717
589,6.404251999823157,-2.505593416544117,-0.6302237309433585,1.2631878845806666
590,6.736691938602346,-2.1164910265482804,-0.33973494538954513,1.482423452848407
591,7.009405206963328,-1.7554392548497997,-0.08489566197446663,1.6357198833841082
592,7.220273955516366,-1.4243386444917663,0.1397902802054095,1.8065645531665167
593,7.385351338174585,-1.1331415522278538,0.3435935448824458,1.992645613888965
594,7.52732180125951,-0.8895683062680959,0.5391371635085207,2.1658590698167295
595,7.6038787134325645,-0.6935157682629784,0.7342998657433559,2.3168732128519127
596,7.568402138580839,-0.539064495179258,0.9309438907359331,2.438215622282015
597,7.470502175148001,-0.4145946485930253,1.1253592407687174,2.550960434533231
598,7.379366563872341,-0.3020785566024393,1.3120409615627824,2.679963759819487
599,7.288975826090446,-0.18083954709175695,1.4884026538946507,2.7851771078816867
600,7.1820575493544325,-0.030349264581099385,1.6536900639723788,2.8184632893685806
601,7.082161715944686,0.1728872810563814,1.8126844869891132,2.812154621868314
602,7.01467663752235,0.4390979343240373,1.965701706990415,2.8099076209044878
603,7.012821422528182,0.7471196673538039,2.093118197917191,2.787818374368877
604,7.089765085137441,1.0596229900454013,2.1715320056492593,2.7154248022094682
605,7.150540489029164,1.3343640292215333,2.186612984941671,2.5909634966331647
606,7.09578791704147,1.5400095408551617,2.1377796901068797,2.433764830421636
607,6.966899881391402,1.684419791122714,2.0553301009132214,2.334311075994303
608,6.8519428039386305,1.7979442964563377,1.9763067027270278,2.377120802940982
609,6.805866450814122,1.902810131810246,1.9085622096876937,2.4981595311455678
610,6.8605475674528975,2.0201277173846828,1.8450018294029094,2.594785355967345
611,6.959390363195601,2.1824026507149936,1.778166214421726,2.673713271132921
612,7.024874963339658,2.4067566105767044,1.698394560978532,2.7647650658786076
613,7.117291409330902,2.664893726042026,1.6004400473870863,2.8470865727776404
614,7.309237619735955,2.912583312831391,1.4884668988623735,2.8990836714979102
615,7.5053591838888964,3.1205548980558957,1.3724085030931952,2.899251584989518
616,7.585113083102686,3.270707844641225,1.2685073895630394,2.838098554845676
617,7.545923658416616,3.363614175324668,1.2099216065940226,2.7892271842042233
618,7.422884312261467,3.4092675257367087,1.2221955881228244,2.8314548836944855
619,7.2620057774404305,3.4041692606906064,1.2854186502815839,2.9179977504431633
620,7.106821009414066,3.3429100043521163,1.3675613269920572,2.9730445085422064
621,6.896986451265281,3.2287120440927857,1.4615151267644257,3.015235173350317
622,6.558236519182923,3.070427170249817,1.5709885398871162,3.0779585496571453
623,6.173140393794969,2.8914431998477075,1.7134682692947996,3.143818336962777
624,5.848291151658409,2.716165695024819,1.9039680495857352,3.1895884447530736
625,5.537175219544078,2.5418165721906774,2.1116686658935215,3.184631017610695
626,5.1688935689747515,2.3577187259534136,2.294043063716298,3.1124725339265344
627,4.774085979430849,2.177203738353688,2.4516917085972447,3.0487476243029823
628,4.400778973964965,2.0126566061231905,2.594886217278758,3.07749837552546
629,4.08020206199089,1.844329686161303,2.702725320135763,3.167128219347169
630,3.826684090869641,1.648768483023633,2.7578727874894553,3.250623184770964
631,3.5600599736606005,1.4279066251224406,2.7756887225369478,3.305687519716456
632,3.1956635429570945,1.1939890264973825,2.780278373484695,3.324081591337283
633,2.8018333814699887,0.9589927217943289,2.796540289650268,3.3227770625555273
634,2.4830385463370086,0.7382442412240589,2.838608202734841,3.328273995695387
635,2.2410892458491243,0.5432922078629561,2.87491393302041,3.305924701129621
636,2.0460810102991163,0.3806555832705112,2.863201720267978,3.2177385178208953
637,1.8771577791684564,0.26387235284345134,2.8050306173659516,3.1200606891120253
638,1.7098965486129614,0.19644898005240602,2.7165950228401035,3.078939543183664
639,1.5575942261047253,0.1438030762500827,2.597757966600576,3.075465480619773
640,-11.768262892276228,-10.876426809188906,-17.077899756078565,-12.42788363545552
641,-12.085127852115141,-11.077267740058735,-17.90896995345198,-12.814515720417463
642,-12.41620547984639,-11.383452132221876,-18.69966749191013,-13.335314166698529
643,-12.786896540492029,-11.766862523667427,-19.425447754173412,-13.90221554935939
644,-13.206906002028575,-12.168517721885332,-20.086902669802445,-14.406812202537726
645,-13.583482448894578,-12.569319292321852,-20.682758089759794,-14.856734146875715
646,-13.833896111437719,-12.962630302926186,-21.22033383328609,-15.281151801739544
647,-14.074260327683062,-13.373146201962838,-21.703542711826667,-15.663746596376393
648,-14.422583863768237,-13.823188522992563,-22.13494760295235,-15.994078432184056
649,-14.765359122045066,-14.249623488326307,-22.479794974293124,-16.256833271698405
650,-14.971586110507996,-14.604917800299788,-22.668996537637366,-16.455548576273
651,-15.075744937857934,-14.87114635769993,-22.69066409404198,-16.70154427418562
652,-15.151643170453916,-15.10251951169196,-22.60016547947037,-17.0878685594017
653,-15.273695688317938,-15.320935146441748,-22.450415642162103,-17.525703151788566
654,-15.494435604915807,-15.487069519214874,-22.266398012322863,-17.893620407446395
655,-15.724038354992697,-15.597362317974902,-22.05931886415388,-18.17977121197819
656,-15.860712999955188,-15.724241859084085,-21.83986257786065,-18.403659555344177
657,-15.97977681626032,-15.881954912372827,-21.614465096287436,-18.584349420691765
658,-16.180831393088077,-16.0822764223174,-21.39165558621824,-18.748212113004964
659,-16.433108518264845,-16.312009883079437,-21.179388336178512,-18.884664974621842
660,-16.69188561777527,-16.547678749045566,-20.980789870793657,-18.976023432163245
661,-16.97430481761617,-16.799095347760048,-20.790953045032843,-19.055948227789358
662,-17.296177476649262,-17.07441100250613,-20.5993723521239,-19.157132111499955
663,-17.670066884872863,-17.342664480206864,-20.386148411912348,-19.254277621849315
664,-18.09088411582039,-17.56478037274678,-20.140803275530615,-19.320801250235984
665,-18.460751292074747,-17.70986053013282,-19.87027513317028,-19.368787199638327
666,-18.69000580717262,-17.758953294730834,-19.594285522451596,-19.420118164541478
667,-18.839169762115073,-17.731664548510395,-19.337810862708743,-19.51623765755048
668,-18.988826216988596,-17.661795375461192,-19.1002661701833,-19.679689494582128
669,-19.10974405286404,-17.543517611632478,-18.854889734488196,-19.830300533187838
670,-19.157836327938924,-17.39552061134138,-18.58380463666995,-19.88438452556956
671,-19.118934303152663,-17.24824584446058,-18.28354135502214,-19.880856613481548
672,-18.996023319176818,-17.172100616186167,-17.96003021526797,-19.877946366114074
673,-18.870278637604358,-17.17265390197752,-17.613318137965294,-19.860786947874544
674,-18.811228741518935,-17.17547698741596,-17.245274495804306,-19.805456474343288
675,-18.732211074406433,-17.13019833156405,-16.864887248295243,-19.693831067530997
676,-18.531881997483556,-17.056223979385024,-16.47869595858866,-19.516077893998233
677,-18.239595929763425,-16.925731515660647,-16.085853959280616,-19.342575823384106
678,-17.91330151139861,-16.73224785242254,-15.68207828356491,-19.231993751094688
679,-17.589758359696436,-16.494555941465652,-15.256345988173749,-19.076454364724576
680,-17.288492750713036,-16.234649455629956,-14.804427800518436,-18.76927103351013
681,-16.942112009798542,-15.975275050811138,-14.333639468799142,-18.398386431824918
682,-16.488805308012598,-15.730120820516769,-13.858404981259552,-18.076167926039226
683,-16.00635233568353,-15.485628145742389,-13.389874090701817,-17.798403862972062
684,-15.597568588545103,-15.219205162371674,-12.91677920585587,-17.528878317956337
685,-15.284751368579043,-14.91885196012678,-12.410605627294004,-17.213512453159648
686,-15.05602303893602,-14.581234885273542,-11.867206471482842,-16.803282870620276
687,-14.876114305693472,-14.212553276593827,-11.31198114342003,-16.35117646179212
688,-14.69305437558954,-13.827390143722694,-10.753253603072675,-15.920646304773886
689,-14.473537127312454,-13.444689454675999,-10.176007167278907,-15.452180823050929
690,-14.200954494820417,-13.077390991617088,-9.56497812233341,-14.879383527422748
691,-13.869928077990114,-12.723457917510592,-8.926669407137155,-14.244476492742347
692,-13.484583176982584,-12.36965373309538,-8.284362278115994,-13.602667351369325
693,-13.047770343861878,-11.994590980344599,-7.65227260822017,-12.958688409640546
694,-12.561654510136334,-11.580819650547841,-7.037121183438132,-12.305948212024882
695,-12.030290809268138,-11.123758859404276,-6.414310209113566,-11.615611672545041
696,-11.455017684784654,-10.633015652613015,-5.76286568793126,-10.863492363595656
697,-10.830202375937825,-10.142427113767027,-5.082075124097273,-10.105176558562752
698,-10.144142386492456,-9.679518641313805,-4.393052726904449,-9.392281108706134
699,-9.391203964562019,-9.22894442639592,-3.6990215207827806,-8.668734604223255
700,-8.549645957489092,-8.779291541304442,-3.029217008248684,-7.86995984961107
701,-7.6036533147151175,-8.344134035436248,-2.476264877195443,-7.009307654296345
702,-6.547227439352959,-7.947131113477232,-2.0992807324918994,-6.125227219420346
703,-5.512100431387786,-7.576822108648249,-1.8808843968617508,-5.283555323433239
704,-4.63016181447572,-7.210153089072591,-1.7543472089328385,-4.5383851514689555
705,-3.8293828287552962,-6.846524348719844,-1.6528154798127983,-3.833923916958256
706,-2.997828996944551,-6.4952266625703,-1.5330988000646693,-3.1038211080160782
707,-2.1739886264257238,-6.175252281410804,-1.3887245930955288,-2.418713233588122
708,-1.5230575731360094,-5.77701200549272,-1.0743804014006644,-1.8627277666003041
709,-0.9694524677567855,-5.423631952655939,-0.7877855509398066,-1.3755254661394296
710,-0.5187066479534415,-5.084706831325391,-0.532236482373869,-0.8785997372377747
711,-0.09401968116707406,-4.7472594792530876,-0.29958296418523017,-0.3685353012581311
712,0.3919789803351821,-4.404969696507716,-0.07593926128759905,0.1314694824170691
713,0.880412417088688,-4.042543203137195,0.14122920125450586,0.5731871637101628
714,1.2851857307852057,-3.658586434101856,0.3494777492902016,0.9141643890996396
715,1.6490214440845294,-3.296483986451511,0.5507290588893842,1.2256448389088197
716,2.0437237711913023,-2.9991619428729157,0.7466201561499479,1.5981502032070072
717,2.495047954614733,-2.7626689601201644,0.9367042954477204,1.9775456457300558
718,3.00974074978563,-2.5569595717066855,1.1211410169795004,2.286902590757402
719,3.537375641936574,-2.324803849371943,1.300552320817835,2.5825006576318352
720,4.016506319727291,-2.018998560599271,1.4752837780863992,2.9373323802424838
721,4.493279847191326,-1.672272246290896,1.6470927117778213,3.333791078962526
722,5.029518266278018,-1.3433533405522118,1.8150843377672419,3.732371197249475
723,5.560621278885633,-1.058354295412794,1.9694472798440719,4.091150237038827
724,6.005473921583865,-0.8197759916900771,2.096846984321564,4.376751968324773
725,6.3904400024296395,-0.5786622824754469,2.189372603610574,4.652943485299625
726,6.761452470893882,-0.2807618722439837,2.2424999431173425,4.9928457842014655
727,7.125247943899212,0.043624781613743675,2.2483137705065883,5.314443591492325
728,7.475748860114612,0.33870656423737394,2.210540071067397,5.514844813547201
729,7.748865019350371,0.593766628205685,2.1419721067171733,5.646550381925953
730,7.8897151717096445,0.8133439776057615,2.070886568808902,5.7950295966519425
731,8.007325877681625,1.0108395895698015,2.0212405434469134,5.964473272463329
732,8.231005696783047,1.204724861324745,1.9949082478168187,6.139766805405493
733,8.507590669267804,1.3812796381081998,1.9827352532504108,6.2957532060585395
734,8.739038310049033,1.520744730294525,1.966505750563518,6.405580815211012
735,8.914030283612313,1.6450584074581591,1.937531774835607,6.520887121931507
736,9.045033889457013,1.780397416579187,1.8925098091711865,6.69682975934391
737,9.176939593456174,1.9168562873988864,1.8240565489306593,6.861470436379904
738,9.355111889380597,2.0367619476603602,1.731996440545709,6.9247754293566635
739,9.497626032152416,2.125753314280063,1.6151778665594951,6.900773825994057
740,9.509228419329357,2.1772009108282635,1.480201299734958,6.839482938826248
741,9.467143785370574,2.235445848468274,1.3408067778641306,6.7926266637051995
742,9.479489606198868,2.3469802316963557,1.1902396048831436,6.800977952991178
743,9.523451022241234,2.466872314397559,1.001644034490987,6.825628484465231
744,9.543599056387732,2.55735600991079,0.7523816228862057,6.800473133216276
745,9.517086818758376,2.606263962251288,0.45874068282902125,6.724505327948337
746,9.431440137190796,2.689355483263527,0.15884005579387334,6.6161839646068685
747,9.32711659425827,2.810436520654552,-0.12450303912204169,6.46509187212809
748,9.259545706284975,2.961069917220313,-0.3891576926760589,6.272308030365911
749,9.19437565761988,3.110349284044547,-0.6284707179469713,6.060683098775021
750,9.088674069057282,3.2206076438992377,-0.8447947070010182,5.865270348779518
751,9.015579711884246,3.306389605978818,-1.038126232506251,5.7717305177386
752,9.05322472322603,3.3978262851441476,-1.2180569024260943,5.842394285858717
753,9.170929234083589,3.4767025037163046,-1.4038743029028882,5.991690597960531
754,9.299945619743879,3.5172755911810696,-1.62482701114472,6.092234539251677
755,9.359518245067118,3.5379606740310487,-1.890584005854877,6.1095523819849165
756,9.288099798500713,3.5385591505985716,-2.1747339203498517,6.045286633046282
757,9.152082508489242,3.5392000058830906,-2.4164580526016626,5.8994658456188445
758,9.049323996424349,3.510741133501558,-2.5261157658761366,5.693476715395916
759,8.949559347934423,3.3839311978462137,-2.4693796962721435,5.4397120179204235
760,8.795903803950663,3.1761433135650607,-2.2824626533513372,5.155396522357798
761,8.61174772445629,2.962472551211996,-2.015449799893416,4.931124692372171
762,8.432685251800748,2.8341916639485,-1.7036746707984294,4.844820307133069
763,8.290232197925883,2.779073632898059,-1.3714145958139443,4.8266547933426684
764,8.203811573456237,2.747868800479127,-1.0199641092555922,4.7709529090633875
765,8.084022453424524,2.7252858592519185,-0.6527994043982785,4.679540814341067
766,7.8365253834078175,2.7065998359718795,-0.26455774682970434,4.57847334072282
767,7.5677345994850596,2.7201619827467027,0.14743652018214154,4.449161195881698
768,-10.10796873454164,-13.17194665149035,-14.83556987980416,-10.048748913525861
769,-10.488612799593719,-13.510465654900438,-15.16152296674101,-10.456294853637601
770,-10.842537672285541,-13.855719747713444,-15.50134704077765,-10.859049914554232
771,-11.19601016121248,-14.203162427254517,-15.848882700987206,-11.2212322604124
772,-11.570084225963466,-14.545019004809593,-16.191743239600655,-11.511472500872333
773,-11.893382423160986,-14.874563589649695,-16.51670242240497,-11.740789889234287
774,-12.10241871118302,-15.186630538379593,-16.81649666505777,-11.93707716684637
775,-12.300937065556543,-15.489606750732621,-17.115390927700595,-12.159729712313135
776,-12.600706366970833,-15.794169229728352,-17.43057500038779,-12.45525781037012
777,-12.955155042336179,-16.092594935144124,-17.751737654578832,-12.774516817167441
778,-13.285692217009117,-16.37726256365996,-18.049718179646625,-13.052524543705106
779,-13.566714302678182,-16.663719833042126,-18.323916249033502,-13.310910079655471
780,-13.788728594201505,-16.96330798955776,-18.60713579164348,-13.577455911667656
781,-13.986740731031713,-17.26139185965315,-18.90570056705019,-13.81288776919602
782,-14.200008017679192,-17.534414605387806,-19.189110669860682,-13.978992102652484
783,-14.380022405234191,-17.75130042115272,-19.44181685991335,-14.070630431276383
784,-14.47348967868639,-17.89116747057729,-19.68115437293408,-14.100910108744054
785,-14.518854955410516,-17.981087404039936,-19.929453669918143,-14.13983408968315
786,-14.565108029639333,-18.0562498485815,-20.187097380971803,-14.244960335711346
787,-14.61665813423182,-18.106353744702176,-20.44096712794563,-14.339853943121314
788,-14.664129447212161,-18.117879749647404,-20.671836496660614,-14.341459810740085
789,-14.662985500515855,-18.11328705470726,-20.885884392042854,-14.310513389156952
790,-14.581668546898667,-18.116948979435893,-21.090355391933528,-14.328403189827094
791,-14.503927197871995,-18.139168847256105,-21.297871443581876,-14.394590118729855
792,-14.519491525670503,-18.18151740657612,-21.50347014145876,-14.492521696176128
793,-14.58267123757134,-18.216116139589484,-21.689542469286817,-14.601417354503122
794,-14.63213126921418,-18.2162702414593,-21.851785937789423,-14.701601843926827
795,-14.701647980398594,-18.21366101122291,-22.003362457273283,-14.844180663655369
796,-14.82816370113399,-18.239037346630685,-22.138955444828273,-15.071992454533596
797,-15.01641033239709,-18.250158962665527,-22.242224329662875,-15.293477855257239
798,-15.247906750713094,-18.199585192969536,-22.295397529096793,-15.415514007991426
799,-15.404702551834502,-18.09284657382811,-22.296134590721785,-15.486566664045633
800,-15.390720821103521,-17.951322061521928,-22.254300790034424,-15.579819119382146
801,-15.33200962639288,-17.80131471991273,-22.179506915918342,-15.706274904776702
802,-15.371902424907828,-17.665522928554573,-22.085937127411594,-15.857297343553045
803,-15.431756964026395,-17.525770259222412,-21.970621649979737,-15.99160941544678
804,-15.40447877236134,-17.357790456461608,-21.811106508181282,-16.064303949617532
805,-15.317099580556485,-17.180301009446605,-21.639287270702418,-16.10833185529622
806,-15.215491219483619,-17.01480515776656,-21.544738219926955,-16.160565975673265
807,-15.12762596634726,-16.850841541280314,-21.55616081647624,-16.164250646552865
808,-15.069149427028844,-16.668962075298033,-21.623305781553537,-16.060818807294
809,-14.962328222233232,-16.450162606143934,-21.684328578318166,-15.869566251824084
810,-14.733029152895284,-16.177700026892207,-21.697244030441322,-15.62899113531094
811,-14.466610271723802,-15.849910077733853,-21.635489165218473,-15.37794958714918
812,-14.258088315399306,-15.474916699009956,-21.498450971668774,-15.143529318558768
813,-14.054238638285474,-15.058807764905637,-21.28463301539219,-14.880069145142068
814,-13.777709080450007,-14.60914302333019,-21.001040217833538,-14.541790524051708
815,-13.409745744356625,-14.140352217543105,-20.652034433263797,-14.181330859119752
816,-12.954032153071145,-13.657607201367997,-20.240706269767358,-13.86349517194978
817,-12.463696257307056,-13.14493400073521,-19.739120999024166,-13.592796643705142
818,-11.995309281165675,-12.578571210465705,-19.090586420174123,-13.346607391011947
819,-11.51441934150544,-11.929494756334602,-18.280672726967953,-13.071515787699472
820,-10.974714401539854,-11.182577461233231,-17.34715140902652,-12.71103486966021
821,-10.40788324197023,-10.372119388458225,-16.338031061712357,-12.269640524397381
822,-9.855271225855404,-9.544063273162346,-15.276252769865641,-11.771196762953837
823,-9.322464533401515,-8.70298829736669,-14.161764255079216,-11.195894158751775
824,-8.805659222808034,-7.85098211395934,-12.984831394205864,-10.534048355455322
825,-8.276915859419953,-7.025365713720757,-11.770578084473433,-9.843560575821698
826,-7.70767912640295,-6.255754488209289,-10.549532454237749,-9.178590297731564
827,-7.140702455846604,-5.541153358462989,-9.332495404023076,-8.53006152131569
828,-6.620808241753277,-4.885404415948639,-8.152491270036162,-7.878835485774295
829,-6.095177111758189,-4.284258999018975,-7.069152963532886,-7.243265286259706
830,-5.517311196468808,-3.739491329255629,-6.117410099681958,-6.645118608482505
831,-4.983400744671538,-3.2567532307587412,-5.305592729922641,-6.138367891684047
832,-4.591061623084728,-2.8262293037841855,-4.606912635246004,-5.751045260213634
833,-4.310054642651422,-2.3980962545837308,-3.9798972704799316,-5.385373480728867
834,-4.068562571821842,-1.9299569785623507,-3.3871066623698742,-4.943881300992275
835,-3.7885920063487886,-1.463078661395696,-2.8225427985127713,-4.496893185627048
836,-3.364595824430323,-1.0788921984371882,-2.335459324776939,-4.179730873927553
837,-2.9423756030100625,-0.7359728896620176,-1.8711471626914638,-3.885857230478291
838,-2.635379151693819,-0.3992012536631496,-1.4161776918862905,-3.5331631089812388
839,-2.3334829929575145,-0.07739026380090895,-0.964711572684172,-3.1150508403603476
840,-1.894542080846369,0.2164738363996711,-0.5114621661550935,-2.6531653754759876
841,-1.4069472904656277,0.4726300818118166,-0.053897137149398255,-2.1880569011409094
842,-1.0083858532808234,0.6872489589942342,0.4054954433366307,-1.7664454468428543
843,-0.7088219681886011,0.9058538384301285,0.8665806705703798,-1.36486128935796
844,-0.489627644400183,1.1720985512422677,1.3231123706629238,-0.9486858212507754
845,-0.3308391204129337,1.4461834025387932,1.7479063427667083,-0.5881842870938511
846,-0.2088083683747541,1.6655739310642101,2.1143704777931536,-0.3540363355129707
847,-0.1967085131982305,1.8124466426461485,2.4169624448470017,-0.18743389026734464
848,-0.36416771210054366,1.890233480314167,2.6673091111173655,0.002265690219419961
849,-0.5885793611700263,1.9175426085920975,2.9015137048686905,0.25606437110036034
850,-0.7146120547209328,1.9289740874249586,3.1582507188976376,0.5868792184394063
851,-0.758759454686513,1.9496397790918438,3.440057039035611,0.9434728731549762
852,-0.7833278123011423,1.999196608463371,3.736843829643021,1.2576766796806682
853,-0.783936099109379,2.11354324014545,4.034714010408248,1.5625710673503734
854,-0.7499783018105013,2.313746707825319,4.32915074342796,1.906641083479185
855,-0.6629203878949623,2.567343535514727,4.614639356357698,2.2270178577861706
856,-0.5026034006169495,2.826311795230057,4.879817982972282,2.4496701233033678
857,-0.3331347053945116,3.0613643158836537,5.128909207145269,2.584279621071265
858,-0.22038531940258999,3.2601525806648994,5.392291843062675,2.6703958441534157
859,-0.0762129589118122,3.4480716233484965,5.697738645250876,2.7652728898903023
860,0.20020416649552691,3.657870642515346,6.040103053933309,2.9173969865311618
861,0.5383828159559977,3.8737543906541707,6.391537246081514,3.0831506231768047
862,0.8278932291534131,4.065550289426919,6.711888313824529,3.1906839516155237
863,1.0378676994148728,4.225506555248119,6.993805816987724,3.24680178357321
864,1.1692523379123383,4.354884649466518,7.235710729361877,3.2774362158278034
865,1.2702011778854583,4.471505568900209,7.432102544301852,3.257761148347648
866,1.4016810941138522,4.597049866834123,7.569640477204641,3.1744590689359353
867,1.5280441704572723,4.715104404954291,7.645090680385158,3.0629692675235947
868,1.5953556435293286,4.803304446802047,7.681778671356258,2.973832781660158
869,1.6504773252280014,4.889593643249246,7.720268047216586,2.9997025081629585
870,1.7541591211900127,5.003893553753355,7.770746759634928,3.2011420054555106
871,1.9028936680071933,5.119807689085907,7.819881176417037,3.4447320357233537
872,2.071863284035514,5.199844344334037,7.844611559552674,3.567330637595128
873,2.207815535168497,5.2328663335706365,7.860612960870001,3.610020165498855
874,2.2633897908206047,5.223893434248585,7.890479201592518,3.671109427720723
875,2.3024303121214382,5.202719322903881,7.944408486796918,3.7630863753558796
876,2.4022703562148853,5.20519889706386,8.016635828950488,3.8762326411957417
877,2.501824658502196,5.239744352879843,8.101959730161695,3.9667838114668514
878,2.512027922669419,5.293122854264189,8.201790630968267,3.981810701594604
879,2.433144307380187,5.339672917428721,8.30607733394653,3.9807419521090437
880,2.2928997870973644,5.347587890189425,8.385855085499738,4.036099054266984
881,2.12902439655981,5.283004048279602,8.431968726509869,4.059037394707019
882,1.983979128801615,5.132128693804156,8.440849499639961,3.9480200895058037
883,1.8207988896930087,4.935471108193197,8.417993224018339,3.768458219412493
884,1.5979206714460235,4.7480249967349755,8.371948143450467,3.6266872440428592
885,1.426252280038986,4.589308670852078,8.298280519148058,3.5648535553017395
886,1.4226205303364843,4.45856447939445,8.189372703904901,3.595139133147718
887,1.506603987729553,4.338884090747613,8.04447890776955,3.673723337283617
888,1.5547811990597684,4.207907363575598,7.86797971006147,3.7343688075198496
889,1.5617596011032089,4.070414857465609,7.67596360188802,3.783077424088443
890,1.553216776549717,3.9407629613167687,7.484089272494939,3.843305839334666
891,1.5554688108195844,3.817304785200708,7.289262993265969,3.8782649988622437
892,1.5937430252949403,3.6943632508133044,7.080859683663254,3.849652648047223
893,1.5968247234000938,3.566245898135735,6.845380553527295,3.759192415087142
894,1.4896830523727562,3.427889115467524,6.573524160995081,3.628077742584301
895,1.367030068416855,3.288082915961801,6.288860508510419,3.516041202477162
896,-4.274235974709974,-6.676441396283616,-14.544667333807281,-7.028411119408439
897,-4.355382223483226,-6.91134013664499,-14.904181876453357,-7.174445096116664
898,-4.421249115923421,-7.212417357091864,-15.269547835395942,-7.402182994175459
899,-4.523610804891779,-7.560398529188959,-15.649967674664888,-7.682132354026942
900,-4.70682946633154,-7.915204327045686,-16.038432598980854,-7.966158207626193
901,-4.902119970761803,-8.226309248296355,-16.428304302609792,-8.215522684888128
902,-5.036733091311157,-8.457006413374668,-16.807312836638296,-8.407483543368205
903,-5.139432380691104,-8.63287708373284,-17.167765348664314,-8.60435760951521
904,-5.262525411805105,-8.800373737350156,-17.502903790596978,-8.86807187308882
905,-5.462287944684496,-8.974404381704687,-17.791681229065162,-9.10982098060262
906,-5.7675578394637945,-9.165267755232081,-18.030063583595197,-9.244166787995127
907,-6.059402335649316,-9.391745156104694,-18.234901272595607,-9.375676575449495
908,-6.221646078535434,-9.664422930366447,-18.447570012272408,-9.621182496355605
909,-6.363167218908474,-9.99906865845808,-18.704191500980023,-9.951418243094604
910,-6.611446048678171,-10.393054295096611,-19.005100346536846,-10.305150106827808
911,-6.892755613734455,-10.774745137528292,-19.324026880518367,-10.63599171633241
912,-7.108194609745808,-11.076668689086713,-19.63394603034885,-10.914511622927046
913,-7.261390209380553,-11.320720088999668,-19.919601708328432,-11.21489920892604
914,-7.38003379186282,-11.55333955870503,-20.178245551686143,-11.611283862388992
915,-7.513296634590413,-11.790672046769817,-20.408346848784568,-12.017887465632159
916,-7.706608487969793,-12.039944848768897,-20.61858818648396,-12.330143092576407
917,-7.911553284604995,-12.294293737566628,-20.82332257363572,-12.57033783345492
918,-8.064533363078993,-12.53810701890489,-21.03616532634898,-12.782591081517385
919,-8.201196490026295,-12.774994054856291,-21.247948235872812,-12.96581023725895
920,-8.363935713096605,-13.008768527732501,-21.42405678647624,-13.114201407893965
921,-8.50540606997693,-13.219387726116443,-21.54462920949661,-13.20602697367509
922,-8.584509730381596,-13.389053467668674,-21.600625883734804,-13.225736282079582
923,-8.638191991021715,-13.518778872992913,-21.611262489668018,-13.220373877136367
924,-8.7243603054969,-13.62120641861038,-21.60497840500881,-13.245060082086333
925,-8.902090257468954,-13.727544761340294,-21.591820126911518,-13.301594070829806
926,-9.208432449169775,-13.86413469640763,-21.574418926987047,-13.374838269785359
927,-9.604592245786003,-14.018481654505802,-21.542138037919035,-13.455153223727047
928,-10.023684889016922,-14.163433032212172,-21.486186613577345,-13.52870546876837
929,-10.428060803042001,-14.286162100840402,-21.40088923707651,-13.59462786204554
930,-10.794396258494908,-14.377663360303407,-21.27838730609053,-13.654736030241963
931,-11.11234224372461,-14.420174755328054,-21.11321220835195,-13.672532492600222
932,-11.386461386966415,-14.411549471995778,-20.92153407223857,-13.624623145789274
933,-11.61621561906074,-14.390202853728358,-20.73611978282439,-13.575345445982627
934,-11.798837491618329,-14.396348375102637,-20.56087484681509,-13.586048834927192
935,-11.954344391020534,-14.437803467808227,-20.3661313355156,-13.625297570441155
936,-12.086649820689127,-14.501538383464133,-20.13210526916095,-13.637836951599269
937,-12.124029963193314,-14.551394708690605,-19.8559426967484,-13.577290412874326
938,-12.003248350884471,-14.547031441294573,-19.54476326007312,-13.418796557514485
939,-11.757795797608647,-14.482432837982724,-19.207436541249365,-13.230078847951063
940,-11.45080334377095,-14.362408490898941,-18.844692796874877,-13.084833906666908
941,-11.136320442165356,-14.167279505910841,-18.448802918907795,-12.92851085272009
942,-10.85440206470565,-13.887829523473632,-18.00034723566351,-12.694319741277297
943,-10.565835619726515,-13.558679953202118,-17.497590183292008,-12.429948125081264
944,-10.224001208265076,-13.220867002833348,-16.960694317959565,-12.190687391207135
945,-9.914579869570131,-12.893690022003423,-16.401613811761738,-11.96100222674796
946,-9.71329396430583,-12.585457956234244,-15.81584958721457,-11.712706476015633
947,-9.503063502926654,-12.287389474642477,-15.198471750704227,-11.410650843688408
948,-9.165363579890805,-11.987049206488532,-14.5553331747251,-11.034765607808003
949,-8.7577197228618,-11.699775790451207,-13.89403244359144,-10.65462220321718
950,-8.372317234537922,-11.438342517362624,-13.222186895126256,-10.341401988857681
951,-8.072597390131252,-11.178239050560515,-12.534811492172384,-10.050770261822954
952,-7.881936520609769,-10.887946735961266,-11.821271623331969,-9.716363301180662
953,-7.660485064750035,-10.551181449770151,-11.069606694684625,-9.338731637513199
954,-7.26884673402235,-10.162808657889391,-10.271321108291815,-8.926179269161194
955,-6.815296400730647,-9.735870709578265,-9.432965707948759,-8.470217505704623
956,-6.465318507409543,-9.290337649669572,-8.608833750238064,-8.0037906565817
957,-6.178353068288681,-8.880815539663352,-7.900544093325035,-7.552799254523934
958,-5.902646856754003,-8.552165558365436,-7.365955246586738,-7.164077193240302
959,-5.678891470404642,-8.366544154824904,-7.0051264587012225,-6.8937552996446465
960,-5.542767118500651,-8.35508078047472,-6.776816058490381,-6.75422696219645
961,-5.477355977773975,-8.439155607834596,-6.657065138159209,-6.64983499934463
962,-5.45188683022669,-8.519206902766468,-6.6644077280801275,-6.484646489728573
963,-5.417296078766757,-8.581688049695448,-6.786195184113197,-6.300814969461107
964,-5.288392152141932,-8.535623599615745,-6.476862787345035,-6.191527152092949
965,-5.223485813830208,-8.510581199643214,-6.174410188110574,-6.105079673215886
966,-5.3157864392135705,-8.518797452619896,-5.875119715530779,-5.991429136451062
967,-5.445702233616233,-8.55120456983313,-5.57424423525097,-5.782776260683738
968,-5.451987314129156,-8.58344300607034,-5.26424320224728,-5.431443860535959
969,-5.359950608539176,-8.603387096906829,-4.945045908423638,-5.014966388044792
970,-5.251789200007594,-8.59935557975467,-4.621692416956339,-4.644204276233998
971,-5.161510954091066,-8.53255319225363,-4.295252660526016,-4.32515018497668
972,-5.113918305975756,-8.375661747794563,-3.9732776858304883,-4.032694711460839
973,-5.083383142032359,-8.165929257596048,-3.6603011927617946,-3.7731955029423827
974,-5.029966423383549,-7.954730476441951,-3.3694344832112,-3.552911448001132
975,-5.012183539645483,-7.754290904048496,-3.118483746530725,-3.402283355963502
976,-5.097334646935809,-7.558586159348325,-2.902397803599142,-3.346147306848944
977,-5.232081817292553,-7.341459741280786,-2.699464682542795,-3.3055602738192778
978,-5.339368704414444,-7.077658936384838,-2.4825200389989166,-3.1904659048174397
979,-5.4126899444959555,-6.798734216460363,-2.253667118700831,-3.0571154103948084
980,-5.464484233996667,-6.54896245931478,-2.0181299518201645,-2.9823472057828084
981,-5.517491432862904,-6.323212258405388,-1.777271371316773,-2.898369183643293
982,-5.587521134960647,-6.101493132507258,-1.5197017947364755,-2.721110967585715
983,-5.606919964114026,-5.872697713589954,-1.2394094696572884,-2.4693446585017007
984,-5.4983509591704784,-5.627589366799503,-0.9514243478703468,-2.1954311324260267
985,-5.288328407604406,-5.383807230088899,-0.6828324962180786,-1.9741270627435834
986,-5.036694952038936,-5.160906606661685,-0.4383021173932775,-1.8698353293901886
987,-4.762549154030388,-4.9188207115771805,-0.194628256942512,-1.817936997038789
988,-4.475024482272847,-4.614680095101641,0.06119180622825829,-1.7252788967668402
989,-4.18202499622379,-4.286128513596024,0.31870059004437784,-1.6431405749448609
990,-3.8807420629297362,-3.987258518508251,0.5604008724682392,-1.6420229462759701
991,-3.5673255736517153,-3.7171374473961887,0.7749459331216193,-1.6651133155798759
992,-3.238468194134159,-3.460465045878004,0.9636616567546192,-1.6334463614214623
993,-2.896082529003087,-3.212950139389332,1.1369215815953262,-1.519359945772483
994,-2.5457277038250914,-2.969503333692992,1.2969223638420535,-1.3218092707763132
995,-2.1721915144281576,-2.7414131654222937,1.4336476998024337,-1.1059467979997712
996,-1.7714982204521301,-2.5397680212065468,1.55046768030622,-0.9468966658292962
997,-1.4119804551841688,-2.3330201157569523,1.669819135271629,-0.8063208836346233
998,-1.1641914938013684,-2.0855840010697486,1.8030136354396138,-0.6179650142314527
999,-1.0137238582710604,-1.810963630683203,1.9354010382453921,-0.4116117333740166
1000,-0.9128014711690804,-1.5381543864960783,2.0511214224442202,-0.23119241790304235
1001,-0.8138945826493864,-1.2769136264587384,2.151018915093336,-0.05165165606418018
1002,-0.6739474411303986,-1.0366006650168038,2.2535891278679614,0.1579716027828073
1003,-0.5211927860030123,-0.8303539209563487,2.365092953089696,0.39372052958128767
1004,-0.395269614426579,-0.6678021865197422,2.4716216541424583,0.6387040685781142
1005,-0.2105162953462935,-0.5733181105304038,2.5644903001958808,0.8520809378922167
1006,0.11428852052849053,-0.5593294222576983,2.650731987872496,0.994216534655816
1007,0.47871386063195903,-0.572100187919304,2.7409800421676884,1.0848815277659931
1008,0.740877072341086,-0.5492807118207135,2.830530280130258,1.1602606239227171
1009,0.8579466274399435,-0.497135128235495,2.901913707173874,1.2131180796263195
1010,0.83631359241727,-0.4452930349586534,2.9350375108919993,1.2271415007084903
1011,0.7200462222307531,-0.4030367575212116,2.9343722399216983,1.2031985444698774
1012,0.5802471835597379,-0.37658218532931165,2.9144922511615947,1.145320625588381
1013,0.4662170325442461,-0.36340341790600883,2.8878252544074465,1.0729829468833532
1014,0.39763973810162534,-0.3535116971515776,2.8631665696941617,1.006766772374921
1015,0.36173626199745557,-0.35897314083262255,2.8309334800951063,0.9184895464331467
1016,0.3295770207551345,-0.38805545175294065,2.7779847341782578,0.7799861033426816
1017,0.2721724467515908,-0.4000220442854015,2.7136612256922628,0.6448589031749383
1018,0.17572179584402708,-0.3536241817105778,2.650660021578056,0.5737608820670089
1019,0.09236869696960633,-0.25805580867401723,2.6015741940943817,0.5483530687042848
1020,0.07528749073497713,-0.14757381771738107,2.5633057281179554,0.5259092886869354
1021,0.06319010315557215,-0.07423427096898225,2.53230995774205,0.46604501463728915
1022,-0.020795089023168498,-0.08397136770614938,2.498060634366378,0.33891213394665926
1023,-0.15617154980791337,-0.1621684482976505,2.453047145496691,0.20258172204309222
1024,-10.884370990134306,-11.012753096080129,-10.565399582772443,-9.393668806729181
1025,-11.238699713515077,-11.304577067129337,-10.912394734885698,-9.584734279851501
1026,-11.441973280831744,-11.557287804708944,-11.273094631315598,-9.784695016016588
1027,-11.649273525365237,-11.773975052139352,-11.668850761632546,-10.034142634509122
1028,-12.00816130236693,-11.96853339006684,-12.109021314967652,-10.348975170703723
1029,-12.3973146822131,-12.162511516732437,-12.571148177305759,-10.660942940574456
1030,-12.659449233576034,-12.373835691157131,-13.025795025671906,-10.8910577125317
1031,-12.79336316178476,-12.623406000111567,-13.47972430455625,-11.063679410079825
1032,-12.850134579457208,-12.91975872072476,-13.936004850920792,-11.233792683307758
1033,-12.923345901145318,-13.228918512044824,-14.397638485686057,-11.411502054162304
1034,-13.102700984469339,-13.515593722584466,-14.844369641729333,-11.607409975936815
1035,-13.340227424399853,-13.795472378320035,-15.275970798777186,-11.860678014369812
1036,-13.554446797598512,-14.090599851480464,-15.722643400291112,-12.191508735026574
1037,-13.772517651517813,-14.388585556362269,-16.18433888009809,-12.57918507428629
1038,-14.029590657506054,-14.67042446113124,-16.611939509742445,-12.98486220106605
1039,-14.279608480138833,-14.919280305680086,-16.98667499480853,-13.339133511281464
1040,-14.48290340315475,-15.124427025256141,-17.303369222843266,-13.595131568492002
1041,-14.657210872927854,-15.305930373361642,-17.605819872096667,-13.820888969630307
1042,-14.839373427609491,-15.486216673351956,-17.945045370974793,-14.093780593202244
1043,-15.086496050159356,-15.652853723875497,-18.326335647700105,-14.381777323399398
1044,-15.439608706758591,-15.787576963486092,-18.729786234217407,-14.629516434574356
1045,-15.859426040636412,-15.88509648336837,-19.117918053038014,-14.809003682765912
1046,-16.281089856172258,-15.94742113494723,-19.452950845314646,-14.911034627804003
1047,-16.674741673608512,-16.001163300392946,-19.733128717158237,-15.00389533455435
1048,-17.023773031446765,-16.067450954888148,-19.97202522555077,-15.155903612492025
1049,-17.31819777942631,-16.114052227979204,-20.172925039510837,-15.295885972577539
1050,-17.559918026018863,-16.103665508375826,-20.339162809910572,-15.347881117107802
1051,-17.752478730005702,-16.042552723498392,-20.477341371297864,-15.388721870186748
1052,-17.898923071802923,-15.953818204440529,-20.591651970284655,-15.504276184568665
1053,-18.00258011827433,-15.860315650371172,-20.6831359376703,-15.67556198963513
1054,-18.065955017401276,-15.783790594785916,-20.754515526100914,-15.852677748140337
1055,-18.08778910654686,-15.73914446245737,-20.81334829626231,-15.962814538991621
1056,-18.066392281088177,-15.720937663585412,-20.867727628928517,-15.949630461737435
1057,-18.00900194688128,-15.688143956857711,-20.926258448883818,-15.881767840089605
1058,-17.91365409633711,-15.597738261665139,-20.9919622604333,-15.847112471624168
1059,-17.75725646667713,-15.437742222085587,-21.049388752668808,-15.803772822589652
1060,-17.513698779791593,-15.219131630307343,-21.08141889951499,-15.696269584136877
1061,-17.13933550679519,-14.975869826189296,-21.09225715045673,-15.578266891096684
1062,-16.619076301504766,-14.745973250507468,-21.089325556433938,-15.49984032304587
1063,-16.064953033042062,-14.544442283539906,-21.0640539024827,-15.419747680445504
1064,-15.584931423366244,-14.369391063052484,-21.00899895580523,-15.28836745204717
1065,-15.10904170069307,-14.202467245420099,-20.928701280608426,-15.081145289594263
1066,-14.548046299762616,-14.019650322501231,-20.83065113447488,-14.800566012039006
1067,-13.9447816904001,-13.82099782693733,-20.72680668091149,-14.536550138730771
1068,-13.36301128198705,-13.607407039202307,-20.62344321215374,-14.372019594243037
1069,-12.844110224824867,-13.341605515273798,-20.501249275078255,-14.252133684282057
1070,-12.40389666196243,-12.994988174364156,-20.33755359637198,-14.09193272632228
1071,-11.934236885048982,-12.594429630500592,-20.132218687605874,-13.872333889912381
1072,-11.331720271026157,-12.176198021004735,-19.890519445975045,-13.594675641264944
1073,-10.701097574064457,-11.760742090744428,-19.61241891852097,-13.28881815928928
1074,-10.162935594066811,-11.350481741458694,-19.29726538287529,-12.983842130048307
1075,-9.644015139971627,-10.893888114554366,-18.93602973251978,-12.622581177473842
1076,-9.044805990717865,-10.34594937405986,-18.523139468453657,-12.147499587932014
1077,-8.362981096577741,-9.746530051798064,-18.077989237132073,-11.611442840580185
1078,-7.61983055076675,-9.155693724084173,-17.623067151392288,-11.08340948738445
1079,-6.86010614945151,-8.606253971902218,-17.158050515532825,-10.562980846062816
1080,-6.1257417931028275,-8.104875017205279,-16.67762479985717,-10.036312556554243
1081,-5.370536330086894,-7.596856095265871,-16.188103453989655,-9.501416316329115
1082,-4.539228967847764,-7.018340189100585,-15.692605359533175,-8.952947190974896
1083,-3.6619214663388515,-6.373271137449528,-15.182497311208198,-8.40684702232889
1084,-2.809135414033074,-5.710259043529563,-14.64772832027875,-7.869581435780528
1085,-2.0190060699531736,-5.10528040863253,-14.07829830461042,-7.325354848818344
1086,-1.3331064894681819,-4.632262476526095,-13.47089230334176,-6.758010067102259
1087,-0.7357145283275891,-4.320673106549815,-12.843291936595467,-6.290094883912806
1088,-0.19419791108229106,-4.141952762034586,-12.2129336407842,-6.0290028632885635
1089,0.25588846380753394,-4.006726935458103,-11.580868935657303,-5.860020955014537
1090,0.5887650371471074,-3.817544759542076,-10.933909643661288,-5.628737647826044
1091,0.8890095473429089,-3.52944967489108,-10.266960135487103,-5.324421916727477
1092,1.264625078559895,-3.1192249953872757,-9.529278317977228,-4.970511155290101
1093,1.6458924657420635,-2.6741127792358106,-8.812980866543768,-4.637730346529648
1094,1.9688279048541626,-2.2695991251982495,-8.212019133596645,-4.386265568459522
1095,2.2521333907682304,-1.91319934330219,-7.7625099022134725,-4.158810061662968
1096,2.534236143082048,-1.5879546005876917,-7.417661465214701,-3.875136060376108
1097,2.8237656455677427,-1.3273158640679585,-7.1167599080427415,-3.599733274316357
1098,3.1195205542978903,-1.1582033484191496,-6.822660976224752,-3.4143839945921544
1099,3.373253520155134,-1.0394970509172767,-6.514809501288194,-3.2666018262115157
1100,3.5395747691037176,-0.9181693665318182,-6.199402047363543,-3.078865796931002
1101,3.7048107558932912,-0.77412785789933,-5.879583004953433,-2.8305071963379045
1102,3.964830206612202,-0.604154771820825,-5.559544715428909,-2.52599784306877
1103,4.23775503468987,-0.43360219554970914,-5.251564483344077,-2.2283296989548544
1104,4.413085048065327,-0.2907508938519018,-4.962161910650634,-2.005829387438876
1105,4.5133267540663065,-0.14802606297378806,-4.67825902425723,-1.8067030176489778
1106,4.598264468714131,0.03405799761473983,-4.382911367199751,-1.5530723125315131
1107,4.726574958359889,0.24822677604149995,-4.072105269667465,-1.2769403731045346
1108,4.9398180730130825,0.4707441068050746,-3.7500928376091704,-1.0294945014530605
1109,5.143331439798458,0.6847327511249558,-3.4291947922578716,-0.7953652004922896
1110,5.221736237350382,0.8726724202500389,-3.1249912627039262,-0.547217771524357
1111,5.251222015557279,1.02400023869278,-2.843586002236743,-0.26209222942846055
1112,5.342680838366713,1.137670806898639,-2.5858287235098714,0.07065693959810032
1113,5.438178552620466,1.213040670759778,-2.3561981727500245,0.39613201561916567
1114,5.452619998117123,1.2538229970391805,-2.1563956531741897,0.6453011865971128
1115,5.401734638734964,1.2816540094568385,-1.9767572502831017,0.8185628310717276
1116,5.322722958992421,1.315769495181298,-1.8065345414043958,0.9422698600058897
1117,5.2530609147993355,1.3408218574261954,-1.647920607040801,1.0160016746012897
1118,5.22277956917293,1.338178916186533,-1.5050287754996523,1.0455487219060213
1119,5.171808674320692,1.3196606327947775,-1.3716176751934015,1.0666350862282012
1120,5.030725785896501,1.3077511137468965,-1.2409375963925633,1.111936085267087
1121,4.855949783392358,1.3353501003986168,-1.108960989577372,1.1957165071301339
1122,4.729945002075632,1.4244168745728252,-0.9769499697186296,1.314802398774656
1123,4.65927228534271,1.530500947796122,-0.868105807330214,1.4215659141601298
1124,4.622426092351988,1.5971248962832405,-0.8054343251631232,1.4693810824492952
1125,4.562887459603541,1.6358424161842056,-0.7746540159928743,1.493291138316742
1126,4.426590281004092,1.6776398870563036,-0.758729583030029,1.548850394713453
1127,4.2829148125876,1.7262265464131679,-0.7360138724639144,1.6322935919988983
1128,4.219273330446176,1.7780973550560333,-0.7164436533516835,1.7270411583098406
1129,4.167917252876961,1.8185497107991087,-0.6904695946964334,1.8330657470412144
1130,4.035742719395692,1.8302508611239512,-0.6497719476550031,1.9507162779127294
1131,3.854927405307062,1.8275279589744235,-0.5789151394796961,2.1135577641049372
1132,3.683227635098448,1.8330279433520478,-0.46506464799085284,2.3460797744914648
1133,3.536564405147171,1.8370771405655388,-0.3249566475131167,2.557185621975881
1134,3.4166077175092227,1.8256667832896718,-0.1824134678080156,2.648018025401267
1135,3.269151835909066,1.817932730799581,-0.03308433035696021,2.677272325455221
1136,3.040327779549183,1.8314777577062227,0.13171504580080784,2.734989824157498
1137,2.804957158283381,1.8490535857848256,0.29927986510812754,2.7979082370140773
1138,2.6601124348449616,1.8469316104503686,0.4606751445454962,2.8207548326173937
1139,2.5767383846034657,1.8020133377897465,0.5855800438452698,2.7852591703732466
1140,2.494244780683494,1.70630606039657,0.6737710558273655,2.6887145948854663
1141,2.409485973596615,1.6223117716141937,0.7328085271150863,2.618950189711243
1142,2.3248891808993695,1.6147524877593566,0.7743481363853331,2.6618187024794993
1143,2.2506201612109886,1.6423889127581361,0.7785475632649375,2.7231716055012627
1144,2.1959952118264217,1.6339080378450666,0.7249027285182977,2.677251895155266
1145,2.0695700902346124,1.5781258600222194,0.632910066787346,2.5501577027124616
1146,1.7892390404229248,1.48225076853565,0.5350152827402326,2.412807389691867
1147,1.4986721245677705,1.3442091962034697,0.45662962833489207,2.31058455689648
1148,1.3593717873322162,1.1737921216526683,0.41425023425172547,2.269549844794964
1149,1.2674698702102172,0.9912068317062441,0.3920865285875316,2.2279785358419817
1150,1.0604311192906202,0.8163928222678951,0.3634757289345379,2.101196701107026
1151,0.7175731654224863,0.6758503541124796,0.3362571531195466,1.902664313651823
1152,-12.509965432951915,-12.930832849009901,-14.954974488071331,-10.31623792733021
1153,-12.844625009320575,-13.349607484319058,-15.451027741105856,-10.766275608391004
1154,-13.034365705601122,-13.72016527043649,-15.95677693105637,-11.123552332710537
1155,-13.114857991134269,-14.049157971867057,-16.46379598700214,-11.41830976252785
1156,-13.150555141669004,-14.348224905848678,-16.959923186107368,-11.70230592543384
1157,-13.2037168840075,-14.62321683144991,-17.442774575568848,-11.983205313369766
1158,-13.315276530149182,-14.873231065747582,-17.90313296034095,-12.250805850150194
1159,-13.429839705595112,-15.127061094633207,-18.33682909721511,-12.508556965030392
1160,-13.482191768109674,-15.440304493698752,-18.721582996398094,-12.745460054760867
1161,-13.52876379870552,-15.808521956307816,-19.038343832632794,-12.907499534343227
1162,-13.635693492261142,-16.160638473975837,-19.27972979716957,-12.959484200014945
1163,-13.75686800553891,-16.464228547761408,-19.475028827094818,-12.933518530210787
1164,-13.834437061400918,-16.758807251280064,-19.656715314799428,-12.8886558507937
1165,-13.882075579437265,-17.08951782203235,-19.85821565321699,-12.91529347612358
1166,-13.917982756536782,-17.458313741316243,-20.078683887839713,-13.069592288731643
1167,-13.933055440670422,-17.82426255394882,-20.293737715863955,-13.24353378906304
1168,-13.919153737271605,-18.133275535282348,-20.47963495584174,-13.31646569651388
1169,-13.843928200768238,-18.360659178934803,-20.64605377343796,-13.345690436315012
1170,-13.693173339242355,-18.515729233533374,-20.817510315498318,-13.417283760534964
1171,-13.571393478273674,-18.615821754015535,-21.001370827523672,-13.516423220656627
1172,-13.568099826929286,-18.667989038187127,-21.178649446179367,-13.610106369873806
1173,-13.592297437595738,-18.670258351165806,-21.325109332272728,-13.668151628496647
1174,-13.525066221322186,-18.636443600474262,-21.44218097106076,-13.665765497195917
1175,-13.35425624524992,-18.604187466379294,-21.547027881930983,-13.650001624914207
1176,-13.106410658783167,-18.58808498482257,-21.659861788714377,-13.671111492729498
1177,-12.837926697312103,-18.554685290758705,-21.77079770700652,-13.67296639503611
1178,-12.610202669186053,-18.443831797519067,-21.86366663585568,-13.592533595596358
1179,-12.397565572529905,-18.24362828968975,-21.908579767569318,-13.471878634009002
1180,-12.157273911027406,-18.01207151433558,-21.90194472146755,-13.361319215208662
1181,-11.94517056072425,-17.81696705341413,-21.8618478513437,-13.24060808201423
1182,-11.807200673019592,-17.665246756704246,-21.815629031969483,-13.0872263505185
1183,-11.653672460891089,-17.492009450382238,-21.775964087562706,-12.887194800601911
1184,-11.39293408999733,-17.228742254095835,-21.7468153078724,-12.644090753650513
1185,-11.063219887398944,-16.876835580511205,-21.721782561576365,-12.475677865085274
1186,-10.73132955870038,-16.498345394965437,-21.697209454547686,-12.465162577204403
1187,-10.405901161169448,-16.143463302755176,-21.688038689531467,-12.438414165795344
1188,-10.097293075478614,-15.83135532938953,-21.724711024782604,-12.201996473608231
1189,-9.851603027979932,-15.567934754839477,-21.808329836318066,-11.799418808378077
1190,-9.702456813238962,-15.339726040723722,-21.935023519535605,-11.335140149977644
1191,-9.648798059557688,-15.106340878978795,-22.129381061888935,-10.844331075241078
1192,-9.667151131164905,-14.808752596169846,-22.329541957071832,-10.359823324637295
1193,-9.706233355551692,-14.407692844454054,-22.38313967421218,-9.89944210607176
1194,-9.713591504375072,-13.919150295985604,-22.205224924590485,-9.467173266433331
1195,-9.671727392472764,-13.426396495096816,-21.805136139597092,-9.109536299505448
1196,-9.579164788598511,-13.005924139828139,-21.235246071187827,-8.850652734323285
1197,-9.444587601379284,-12.6808572297097,-20.581757995617732,-8.648201330364943
1198,-9.277819442568111,-12.403286196090898,-19.933589655652426,-8.438393840579574
1199,-9.05733223395287,-12.1161259046396,-19.30931315940697,-8.096401570115322
1200,-8.789341246132373,-11.789380601917996,-18.60692107855618,-7.591078955521594
1201,-8.522746171102204,-11.388360158008068,-17.692507450141516,-7.186323368968448
1202,-8.326834471918247,-10.854739272808454,-16.549949749329162,-7.178389674519009
1203,-8.412349099348319,-10.12806145061038,-15.225245766211282,-7.70424091364955
1204,-8.858387337903812,-9.163432051358775,-13.732058595096646,-8.705417422903437
1205,-9.197516674326256,-7.96063578416365,-12.225375456785146,-9.760548563607662
1206,-8.935477016540943,-6.596583661656948,-11.001058695574377,-10.41681280049457
1207,-8.092075235456875,-5.280699869842273,-10.158360882862235,-10.58390229444825
1208,-6.892730735359532,-4.283504061532922,-9.49929255012075,-10.378372905335162
1209,-5.587266190965929,-3.5797302469747825,-8.753130613429333,-10.041595125964955
1210,-4.431312875713056,-2.834617701856262,-7.815357988379025,-9.838298144766997
1211,-3.4757044912199087,-1.8396258529756762,-6.7526223010655695,-9.82116052930839
1212,-2.7166157482195015,-0.6499257310263598,-5.681468586698305,-9.938864488377241
1213,-2.2457806990123474,0.5928970442246022,-4.7145463429415795,-10.186494091182752
1214,-2.137977234965698,1.7456193744792963,-3.927850366239897,-10.522231575768773
1215,-2.197532448850164,2.653775056780998,-3.3491862099698477,-10.832006342883517
1216,-2.1962801689715326,3.2089461706240963,-2.9952868766149368,-11.009771122425343
1217,-2.1377572902790543,3.4588407046785425,-2.8422743819801397,-10.970291737762562
1218,-2.082927244346764,3.5729155646477078,-2.8360106894006747,-10.679762363137693
1219,-1.95375801388242,3.7132590822147016,-2.9281135271156074,-10.215724288832625
1220,-1.076392867079897,3.3990865618699933,-3.077279382374204,-9.229168658998201
1221,-0.18800148836853303,3.028897447412146,-3.2260775051933,-8.308492091091026
1222,0.611125799216734,2.6453435070870692,-3.354255216309898,-7.5030545099021975
1223,1.3336187115572005,2.2893626907640168,-3.4516590914261362,-6.760042737480354
1224,2.0217550181186845,1.9919732217420716,-3.5284864603753845,-5.998953045127232
1225,2.720186421375569,1.731738740462584,-3.5967500272109962,-5.2345735405886655
1226,3.4623034695700174,1.4741832696297603,-3.65936795857471,-4.507841212538056
1227,4.159824984811697,1.1803611639053844,-3.7215061969049006,-3.8119919106291396
1228,4.712514603840422,0.8481027891216751,-3.7874597626393336,-3.137507456065926
1229,5.2102144783189095,0.5160454908941483,-3.874628004429049,-2.491015072821453
1230,5.777169985012032,0.21761632905681957,-3.9935789664167176,-1.8767020781773505
1231,6.366076441966517,-0.041758111020480534,-4.1546883990230015,-1.3162891140197535
1232,6.901453767880981,-0.2721251218782654,-4.339275766183237,-0.8220759948838361
1233,7.413198712489719,-0.4638212512257391,-4.511035555190315,-0.3257365968056503
1234,7.949861397112828,-0.6203097900440288,-4.6353094871370395,0.2443641543853763
1235,8.552677884591311,-0.7427170023460509,-4.729891651289022,0.849298154722657
1236,9.244421247149448,-0.8591883230545103,-4.820636995295556,1.4251939499166097
1237,9.935606346171665,-1.0167350381541358,-4.923334284325128,1.9694936401365861
1238,10.519755273158836,-1.2245014732280202,-5.026876245267472,2.4994598332143707
1239,11.036519231366418,-1.4572319179210633,-5.1172560355860295,3.0580054266653747
1240,11.557708584447708,-1.684265990473388,-5.203063747596695,3.6801544820961807
1241,12.057261576674803,-1.9083615201060842,-5.313001849736662,4.291589044368511
1242,12.490096017757864,-2.153374194492827,-5.46203310711949,4.800927088558048
1243,12.825397168623168,-2.4228212481018803,-5.644135685861347,5.2395132219237865
1244,13.046239560354348,-2.681906620024116,-5.839192689743829,5.670424688520832
1245,13.231752239096675,-2.89202426477685,-6.031516180883888,6.093766305923977
1246,13.466451594336299,-3.0696090094323347,-6.210093369369232,6.4973069026141514
1247,13.67051234611156,-3.272404938615538,-6.374102365600278,6.870712226428834
1248,13.73976572052803,-3.567652911581038,-6.529956948252514,7.201043450569427
1249,13.713930919851112,-3.9461774328832746,-6.68432027972832,7.523642572132662
1250,13.669320463045018,-4.371981508701675,-6.841339758541074,7.873847731125443
1251,13.663252249006787,-4.787613765565309,-6.997090630871198,8.184069810453618
1252,13.726024919206958,-5.163569039634528,-7.143307577204471,8.380233553682567
1253,13.741057106076425,-5.497515844481394,-7.275459008493703,8.513935340447137
1254,13.580538493431318,-5.783431881368245,-7.3904004923175695,8.6625649795905
1255,13.349484364126754,-6.015990648927795,-7.482982570790394,8.835489439533921
1256,13.201925413575362,-6.2038478388419005,-7.5515638590960386,9.018266123342373
1257,13.116822865141833,-6.38470739319245,-7.602790708749864,9.160825683908122
1258,13.028624890344132,-6.609495208622832,-7.6475443357450965,9.21758497050418
1259,12.916469238526117,-6.886454135244993,-7.6966309754892315,9.267202478060135
1260,12.77539152586709,-7.175674653787523,-7.758486234628815,9.407245865388159
1261,12.661566510922432,-7.457175066044978,-7.840484808431709,9.587023681139248
1262,12.6477488510147,-7.75062508747859,-7.94447619831915,9.72535398571022
1263,12.73128117318397,-8.048651971101119,-8.051118389230332,9.846445198672544
1264,12.875912668701979,-8.299307035509544,-8.147398245829326,9.991111455754888
1265,13.055139715486922,-8.47946301418967,-8.237745150729223,10.156487226982465
1266,13.24283266102604,-8.62307032869468,-8.345260668738518,10.331379199384045
1267,13.426959465728629,-8.777688010208257,-8.471418644609011,10.472771461482349
1268,13.61007216101424,-8.959898772529884,-8.586635787676597,10.547291538829004
1269,13.788727437262168,-9.149518542016517,-8.672515027309844,10.632278484780276
1270,13.957915686388418,-9.312707601510947,-8.734644373683887,10.819527848103995
1271,14.135946182261032,-9.432587642704695,-8.782382952354716,11.091278837904513
1272,14.328271659477325,-9.528765609050721,-8.809719130111915,11.38808093082434
1273,14.464200858975207,-9.623014123924802,-8.811794308749903,11.65676061136704
1274,14.471965641934796,-9.741793727840419,-8.780025552963979,11.855508237902079
1275,14.368785998325643,-9.883224925248314,-8.718618212864644,12.005037805504104
1276,14.207764492012117,-10.039256246344626,-8.63692912188984,12.153866073060247
1277,14.049854555852924,-10.206401834414685,-8.535555127178213,12.311291384503118
1278,13.943558240860973,-10.387686741653754,-8.42277922057836,12.468656515173619
1279,13.840459041509575,-10.554179010431398,-8.302920006275261,12.630490403738929
1280,0.1144750231662596,-38.03124821440753,-19.220887775475905,-2.774409691721595
1281,-0.08335880047660243,-38.44612526882421,-19.638784741316105,-3.0401944020301026
1282,-0.375294283152354,-38.884193077756684,-19.985155764870584,-3.248037484673366
1283,-0.6913422270010304,-39.361160674459896,-20.308788304731223,-3.4365223946016847
1284,-0.9557134023853069,-39.86217884690957,-20.650712377429812,-3.646183414844839
1285,-1.2372795557596867,-40.31537724331308,-20.99225579810296,-3.846887548803445
1286,-1.6102896982806791,-40.64846541135252,-21.297930625396226,-4.006856182435628
1287,-1.9857525473767224,-40.837685857829385,-21.55454565799058,-4.124213185672229
1288,-2.267255989609826,-40.88778612576583,-21.759899169441184,-4.2189829780946395
1289,-2.485952106436604,-40.83086343670924,-21.92975155360762,-4.3891411804837155
1290,-2.698345003941297,-40.70369941407157,-22.085217583486962,-4.717617077792563
1291,-2.9456941622150072,-40.495957065660065,-22.224712815184958,-5.1086323790552095
1292,-3.25389429808496,-40.20099214640864,-22.340188552781274,-5.481052404337788
1293,-3.549533776853367,-39.82072364484548,-22.435117876079882,-5.831762838209387
1294,-3.760866479470219,-39.387610875322466,-22.511557417864317,-6.253312875158717
1295,-3.991798902299109,-38.92308784408741,-22.56509946196144,-6.763474168208346
1296,-4.348531556134128,-38.39952056046642,-22.58969194385566,-7.257236607846295
1297,-4.737626753294064,-37.795566534845186,-22.573480160902946,-7.636689990798086
1298,-5.047269604095512,-37.09709426775438,-22.508908191332388,-7.943921648805312
1299,-5.300996762391024,-36.35258588433936,-22.408299311818265,-8.248538833401259
1300,-5.552393173896887,-35.614911205554336,-22.28821107991802,-8.636569102759923
1301,-5.848211648351587,-34.870940750792265,-22.154203154516864,-9.069736049373885
1302,-6.222141282636479,-34.09797220470373,-22.00799886950064,-9.478139990299567
1303,-6.61777866438568,-33.24680142817098,-21.84642254923734,-9.863096793929023
1304,-6.971863187202935,-32.31982404759444,-21.666384190071977,-10.241680380998993
1305,-7.325201368353578,-31.34179854706897,-21.480776488271044,-10.631872533302753
1306,-7.736634225446019,-30.352238797666477,-21.29955265339716,-11.04576424887952
1307,-8.226039167388459,-29.363078843708387,-21.10578160348755,-11.435957045243937
1308,-8.783865469548338,-28.369378528376707,-20.877576325293024,-11.75052087282268
1309,-9.324425757914264,-27.365108011279567,-20.608409783316937,-12.011069218989004
1310,-9.759124796759595,-26.328468711068457,-20.298295806676748,-12.250651775334799
1311,-10.117258999836446,-25.21120076187526,-19.94964263392199,-12.458255404869552
1312,-10.452940786957143,-23.971148665793056,-19.570763594872318,-12.621071500607894
1313,-10.736689409698629,-22.594137687518348,-19.174595259688537,-12.734912902510642
1314,-10.945673965305199,-21.093666591010315,-18.772965953108493,-12.80861989992537
1315,-11.129157574001459,-19.52367611326056,-18.372663022290322,-12.909589557091532
1316,-11.344192943664336,-17.939326859173857,-17.974527248367437,-13.099949938895325
1317,-11.644816330302548,-16.351392427263136,-17.572967197595784,-13.339222407418582
1318,-12.056388541144113,-14.747479677083248,-17.158780300510635,-13.575396654692922
1319,-12.48127614345993,-13.10071937039215,-16.72159948875031,-13.844804398515443
1320,-12.820884207575535,-11.389368442603837,-16.254329816311714,-14.189702279118075
1321,-13.159732914331508,-9.638069282732582,-15.758508428616658,-14.600381359455474
1322,-13.593747797822186,-7.883051521977798,-15.23965114873317,-15.051237597248821
1323,-14.03648434600917,-6.124972483080948,-14.70095271474059,-15.490090667522775
1324,-14.385822037332332,-4.354175558678395,-14.143208865927042,-15.870678727539659
1325,-14.66262164565173,-2.5813639131299206,-13.567582582718897,-16.235940800656955
1326,-14.908563048977403,-0.7981276352760589,-12.969925902273596,-16.630817468173557
1327,-15.146437026762765,1.0149615735257453,-12.330307438159052,-16.982851195302924
1328,-15.39074320664795,2.895301411960997,-11.631855037326028,-17.215767664808375
1329,-15.589529196886405,4.838112282225765,-10.88290931437176,-17.362167854864992
1330,-15.698466665584338,6.7901462407864415,-10.097725868903709,-17.476668127443716
1331,-15.796184672926204,8.724711651220098,-9.281163415910337,-17.577357051651255
1332,-15.978077903415906,10.66490633533338,-8.433233201265077,-17.675866100435424
1333,-16.246900220628227,12.622408917160291,-7.542761331194546,-17.760868521542328
1334,-16.577761292965338,14.61779038923839,-6.598857452470115,-17.81456890336962
1335,-16.962417925686555,16.657287243793693,-5.613701122865696,-17.87911880985644
1336,-17.380632573473886,18.737581862370213,-4.602967851092174,-17.980040773532526
1337,-17.795621798665497,20.860557827504515,-3.5625486671717725,-18.023925248202197
1338,-18.176479524436385,23.025415160513134,-2.496330432670734,-17.916743819199493
1339,-18.510048010815712,25.22317878129707,-1.3937751015221749,-17.664427737737704
1340,-18.81482812719219,27.36075948705348,-0.32421931680445587,-17.312646714859405
1341,-18.977393381266864,29.238828026343896,0.5595305028817065,-16.88882360173209
1342,-18.941563142043357,30.753545235504482,1.1432563560606273,-16.337072172817148
1343,-18.754533464532138,31.92650597573118,1.3993419540539977,-15.617106885412142
1344,-18.50963030371213,32.757649849437556,1.4291337765472258,-14.947220191088913
1345,-18.292817052596117,33.265437320183366,1.4286410617235599,-14.496519558763293
1346,-18.151720609041003,33.57502365681205,1.5484749728999834,-14.300599217254344
1347,-18.011328410058546,33.88197436693629,1.8144344516086597,-14.290131254803415
1348,-17.5191150297257,34.3919387818529,2.290330134970622,-14.148651504401695
1349,-16.894760820590882,35.00715354926345,2.7333925672146484,-13.946136017779041
1350,-16.15077465028309,35.654912340699525,3.046494951330314,-13.697167254373307
1351,-15.334864372187457,36.27789227609021,3.1954109781857207,-13.387716333034422
1352,-14.522403845113077,36.87375377206391,3.2168876094491443,-13.011389111360236
1353,-13.71916331969455,37.40135935232997,3.2097000006492085,-12.584354848064951
1354,-12.936784733996397,37.75342663499475,3.2961344866929436,-12.143020968711372
1355,-12.330635680724809,37.87912084708639,3.5796537743892496,-11.80670281280361
1356,-12.032089387618539,37.82324685292321,4.082856990952047,-11.630325627405325
1357,-12.029187556205299,37.65621620482253,4.761836423365556,-11.62625370231065
1358,-12.203846128676153,37.4206443469611,5.473160668456419,-11.659757470986653
1359,-12.177014991456726,37.13380200061854,5.996883345465837,-11.489466853012955
1360,-11.632641150476807,36.78823129014108,6.214617196278697,-11.07732220727155
1361,-10.894775004354972,36.39675442992214,6.180019336888892,-10.644684882607327
1362,-10.427903390679978,35.96334820945239,6.034088026654149,-10.317900471663918
1363,-10.23512951000022,35.53856859195419,5.8914834686584,-10.070989912717833
1364,-10.137038229741837,35.11955791333165,5.810124840602757,-9.790622200346226
1365,-9.878211322280249,34.64023510155618,5.805917615808563,-9.46674527167255
1366,-9.224641672409827,34.039600095873915,5.854714093148815,-9.114449795981724
1367,-8.369330425059262,33.32283945347309,5.95017930652855,-8.713314533900604
1368,-7.631482399164331,32.55642117700004,6.091127786441313,-8.26064332274235
1369,-6.945579089875446,31.82237669153757,6.271910389165501,-7.78996794129459
1370,-6.166661282182705,31.138011503670253,6.483226703608153,-7.33875328481844
1371,-5.402351382052279,30.490561792309723,6.6857840914431454,-6.945910303676581
1372,-4.782072787207755,29.838822103038098,6.845504969432893,-6.631333072102541
1373,-4.303597314330551,29.175917112899363,6.954265880755859,-6.340957261743403
1374,-3.9321373698936215,28.50477860797515,7.033936557337357,-6.011033732538731
1375,-3.6001745929783437,27.81429122306724,7.095700247845535,-5.662452478792756
1376,-3.231394981342466,27.094507748942885,7.1277080937849835,-5.343050868695728
1377,-2.8667672341932002,26.316078259758378,7.128951324215994,-5.069313406926548
1378,-2.5685370026880374,25.474213991340342,7.127067201641916,-4.845728821628669
1379,-2.2388224997572856,24.61347904685116,7.118551563048101,-4.657623251961273
1380,-1.7729432054540135,23.811282735026623,7.092985970865997,-4.4780015333504615
1381,-1.2564955033210485,23.07917673919309,7.022190448725584,-4.304404658179881
1382,-0.8118502386813073,22.349991974664647,6.879964495413575,-4.140487024253053
1383,-0.45377659987305863,21.5902215299015,6.67849548255082,-3.9567770252901946
1384,-0.1593424537762428,20.832170757488264,6.447858056364995,-3.7293105893385077
1385,0.12541042903187016,20.086409519038632,6.213026048720402,-3.491840999734245
1386,0.4578224663249548,19.31504205320509,5.992134275777682,-3.28611631765683
1387,0.7852639019521451,18.51139251473384,5.786688063492781,-3.109973159866714
1388,1.0342696870529766,17.73190425901717,5.585132263529012,-2.944988243932168
1389,1.2573026554626106,16.997865696301297,5.370265029914616,-2.7623718894844234
1390,1.5298842986479473,16.329444030821836,5.13135603766565,-2.536783973988636
1391,1.8392231227588378,15.712278501585413,4.878979039739895,-2.3029555493335554
1392,2.1529874019289292,15.119628568751796,4.638356930865593,-2.1026585017980333
1393,2.4540648577495916,14.569612744708564,4.444332348591989,-1.8923942293229707
1394,2.7283029143756212,14.067554489565794,4.326559229470947,-1.6178268850341067
1395,3.0138616658850816,13.610612245005585,4.283788886802651,-1.3006859911608148
1396,3.3473142481820846,13.13552853571297,4.296045612381625,-0.9838402530217224
1397,3.647830013955536,12.584306419881578,4.347025153508421,-0.6970251230957626
1398,3.8255428799255196,11.917329756469748,4.415064290884762,-0.46080313770914433
1399,3.919317096234882,11.18328340405694,4.4653475551365345,-0.2466253544093683
1400,4.0064354344039055,10.468660493524773,4.47001395943818,-0.016319119083529315
1401,4.137559608815618,9.818475987273503,4.418004183847917,0.19240627552486034
1402,4.342688983184775,9.257484592897145,4.316784342015391,0.32920959289726054
1403,4.5608662221798255,8.817525103959934,4.211305913309468,0.4250101174666415
1404,4.713482993676955,8.501234780677107,4.146232664913217,0.5189480767718437
1405,4.865784606732785,8.24806675839655,4.108776381311904,0.5803407969158122
1406,5.1005625145801075,7.985346284566681,4.065119527767717,0.5714932080734326
1407,5.336860830636186,7.680388617687413,3.9996354896277517,0.48124409415886815
1408,-12.929966275704407,-7.131302338726291,-7.164916818503057,-12.738629201664503
1409,-13.718188321781126,-7.603290806574945,-7.634682240199144,-13.112423044001304
1410,-14.475917675675648,-8.038743596418806,-8.07085075688722,-13.46458532929344
1411,-15.18228102120316,-8.42601285037742,-8.46966923999431,-13.806479145937857
1412,-15.828951698912002,-8.7729100064504,-8.841135816139486,-14.168009201395446
1413,-16.420211634357496,-9.118263709945914,-9.218135144458536,-14.58985977737852
1414,-16.964918191249907,-9.496078573694904,-9.635890665793882,-15.103955089485748
1415,-17.459768468983743,-9.881677272491078,-10.09814099778387,-15.673058420924274
1416,-17.90245598811418,-10.236197401823663,-10.597640557473689,-16.244895507980168
1417,-18.308237431501265,-10.548564234421276,-11.146838967270861,-16.827199553044565
1418,-18.686280591845218,-10.820798836009903,-11.74418679077838,-17.428354464184206
1419,-19.03325761220544,-11.072215221073364,-12.342801436964654,-18.007249748462954
1420,-19.331254041461193,-11.325060946011773,-12.890218689418594,-18.51697415331011
1421,-19.509409687616007,-11.574827114640064,-13.353687944459562,-18.917286046759983
1422,-19.516766519792725,-11.807036193837476,-13.720901198495811,-19.183062105408894
1423,-19.42908680969317,-12.017129897852133,-14.022565508078367,-19.355278682865805
1424,-19.33329660889494,-12.202711193653858,-14.29342992342781,-19.478058359835483
1425,-19.215820729135142,-12.356269583551175,-14.518011982601449,-19.49411808260347
1426,-19.035532039229434,-12.479526354810654,-14.669235218059681,-19.348903960112303
1427,-18.74038243273418,-12.594832027213943,-14.741998499884888,-19.114561508799465
1428,-18.304731346438228,-12.71230470897218,-14.742274840839693,-18.874157117146645
1429,-17.84146396529581,-12.874867807625453,-14.691750213216503,-18.620125959511576
1430,-17.471288593902866,-13.060937716372491,-14.61889093512467,-18.329665921467157
1431,-17.148243325980246,-13.222224431280583,-14.540313179903366,-17.991097082855916
1432,-16.796626584015904,-13.310387465056188,-14.463092289072907,-17.60550241729134
1433,-16.435809188882565,-13.342039839010395,-14.389093418485265,-17.257001112192366
1434,-16.094921035430986,-13.356653391199849,-14.314482423997962,-17.020367127402388
1435,-15.78931567486515,-13.371900552248855,-14.227881467941662,-16.81375647390039
1436,-15.527712502127292,-13.40196883733066,-14.125355702591671,-16.547476500954797
1437,-15.233385774222334,-13.463111157274954,-14.027850357653692,-16.28000241512819
1438,-14.846623020050329,-13.559129216083845,-13.961184694639169,-16.09355132464076
1439,-14.50624217074877,-13.684289637329274,-13.941124577413621,-16.020086477258765
1440,-14.34671879266976,-13.823215455548928,-13.97473855424382,-16.060575562341135
1441,-14.257501878958461,-13.935422754127558,-14.04373530379426,-16.124745416074177
1442,-14.097032589268373,-13.988495468230997,-14.13203895704649,-16.12398982643712
1443,-13.879102440019336,-14.004114744216364,-14.272793500226383,-16.123935597852327
1444,-13.653329869246136,-14.003921344805509,-14.498486242783482,-16.212747877252475
1445,-13.468794532992934,-14.014491837203064,-14.784008334165332,-16.35769267462058
1446,-13.36494247727629,-14.012253859030654,-15.089081595515767,-16.501078940649275
1447,-13.26705309078002,-14.008900432262363,-15.395618743730035,-16.63189940875224
1448,-13.093708127918267,-14.011586649961691,-15.685333821064665,-16.73351672210482
1449,-12.92482689162533,-14.021955256184588,-15.930705133297248,-16.76594314120128
1450,-12.847007740723019,-14.042842649051902,-16.11134284266731,-16.696552743902487
1451,-12.794471844459109,-14.064711529006237,-16.214918693988402,-16.501461952522
1452,-12.678621669690314,-14.083336586612266,-16.24153871994973,-16.174208326630584
1453,-12.47643310416358,-14.130904582600273,-16.21760406026384,-15.755393052900272
1454,-12.186896352669878,-14.23400706028948,-16.168920023180313,-15.286518928243883
1455,-11.846230795294375,-14.373473554664402,-16.093785009182543,-14.754014083217148
1456,-11.49414644018142,-14.507677785722061,-15.975877793688094,-14.13074073338108
1457,-11.09544196706818,-14.584736648392575,-15.787026313666518,-13.4074550051366
1458,-10.602383712945365,-14.55715736079666,-15.504047112615318,-12.58442271962418
1459,-10.030727425280155,-14.40965792100962,-15.140904481618499,-11.688767148249113
1460,-9.405425034921368,-14.151065347103339,-14.725098540812915,-10.750680791089295
1461,-8.716918459313707,-13.796860467169672,-14.262672211163405,-9.755543386066243
1462,-7.958907614198874,-13.372909129083986,-13.762390340488627,-8.68596330431174
1463,-7.140991905683752,-12.921883959027847,-13.261723934702403,-7.57556362536279
1464,-6.275497612666433,-12.47394517067029,-12.791125496616228,-6.459987552314432
1465,-5.401372777086964,-12.016144800724787,-12.343970063915817,-5.331333143546891
1466,-4.541557444237397,-11.521434564696095,-11.900759892401723,-4.180645751822383
1467,-3.6231964142253315,-10.97511862053097,-11.442581644120196,-3.0175838092845804
1468,-2.63883093463537,-10.384545824954643,-10.993199437856418,-1.9430669945862
1469,-1.7099699027012372,-9.780855995488057,-10.598072680989706,-1.0653071916306884
1470,-0.9920997335895425,-9.212290721513682,-10.322105997764679,-0.5115880904374782
1471,-0.4543147058421216,-8.66300636709118,-10.144485221631347,-0.13404886962506188
1472,0.019196576819056788,-8.12946508846071,-10.007122667312508,0.2724189170895602
1473,0.5465674753123535,-7.662830254103986,-9.886592697127158,0.6338596604671636
1474,1.2048183153643681,-7.322901005833135,-9.75202866197617,0.8388094462164717
1475,1.9004777659010657,-7.1171347473397075,-9.628186900515827,0.9974604259985723
