,TP9,AF7,AF8,TP10
0,-0.1217697218431418,-0.25452224111845856,-0.4773752783076772,-0.20951641267952525
1,0.03440350535225355,-0.5797148935786276,-1.0540366010440159,-0.15057500724650952
2,0.2510964009463702,-1.0500549106942656,-1.9050547809092815,-0.039182646528250466
3,0.5535105360615946,-1.6644670708279417,-3.052008861311743,0.16880921462897097
4,0.9115692983967171,-2.407473457286648,-4.4907946033405155,0.4641313130500952
5,1.238602170476633,-3.2512729688081947,-6.192365239208696,0.7780960782482739
6,1.4659712478473002,-4.1595206275489,-8.111073331081567,1.047189975272104
7,1.608232602035876,-5.091760867223507,-10.192529460382419,1.2704707689045198
8,1.7320755392040899,-6.00931125239198,-12.382450232603286,1.4831903929155839
9,1.8608869259291143,-6.884108738367763,-14.639382084070345,1.675437094413736
10,1.9600166698323849,-7.70997848079551,-16.952680482804404,1.7779790515929137
11,2.048523794417518,-8.47371667895052,-19.28777132255703,1.7748352783293084
12,2.223197548870895,-9.16584824082519,-21.60899616914913,1.739378749797756
13,2.550763098526577,-9.780555384276893,-23.883488152153408,1.7401313748878666
14,2.9663896918644537,-10.313922530311793,-26.085010637623416,1.7391185355653724
15,3.3371049997859044,-10.763815803900034,-28.195360200617934,1.6396487256748866
16,3.600781096801152,-11.131296529436312,-30.199906521539468,1.4007242716999462
17,3.8260775552721924,-11.419674184278511,-32.08361356962693,1.0906790103103692
18,4.102606844050682,-11.63220145029371,-33.831376897754254,0.7932719550465234
19,4.4230120285164425,-11.773620889857405,-35.430455287233016,0.501177026668799
20,4.713319764128894,-11.853463965902657,-36.87242177180657,0.14700225595434255
21,4.935512734585136,-11.88486728671077,-38.15258080795646,-0.29997741902146874
22,5.147756692293565,-11.881292572613646,-39.264101097934855,-0.7828887695733434
23,5.40892192503879,-11.853940006089367,-40.19061539469175,-1.2401927847189176
24,5.661354690994238,-11.810906342008757,-40.90968199226979,-1.7010661378120584
25,5.775328090066793,-11.757040843170598,-41.40150295329407,-2.245794090938891
26,5.683155590507811,-11.691620848308542,-41.65086543439793,-2.8956584733695077
27,5.440382458260709,-11.610003453768643,-41.65143662589907,-3.5680031852947804
28,5.1280397858019455,-11.510164905938115,-41.41458915564743,-4.1687250807072065
29,4.750833109708459,-11.395749851686288,-40.971014289228584,-4.689186411926092
30,4.265147201428828,-11.274156219039902,-40.363011613121635,-5.178067024693593
31,3.684944768606175,-11.153264938584988,-39.63274041581426,-5.63146959332831
32,3.122644049598695,-11.038661634714776,-38.81478168828758,-5.958677681605421
33,2.6774617485861394,-10.933047579616606,-37.93706302393967,-6.08296135393615
34,2.334868761456993,-10.838041376239989,-37.02214287023387,-6.0253150718994615
35,2.010432418826075,-10.756760751121622,-36.08337735752647,-5.878790712480285
36,1.6783829884769776,-10.693124268640409,-35.12165668410048,-5.6943886128191865
37,1.4135098973103555,-10.64771491865917,-34.12581615075793,-5.430148313867266
38,1.2901752906701702,-10.618326653270916,-33.076507127398706,-5.030006039354215
39,1.2913861181691457,-10.602862121151833,-31.954508019914723,-4.499055937570437
40,1.3239110017863611,-10.598604664545563,-30.750940013940156,-3.905979899099984
41,1.3385732905627417,-10.601426539447122,-29.47275163571468,-3.2947787510042574
42,1.3823550374861984,-10.60566109300702,-28.140154712149307,-2.6368867632989126
43,1.5158070816595421,-10.604199861233628,-26.780945839104024,-1.8878184791678698
44,1.7385504433517114,-10.589354362651111,-25.42196920068837,-1.0454530694852155
45,1.9780499194821473,-10.552733471902624,-24.078596675452914,-0.16799230045211422
46,2.180750613207924,-10.486263382058766,-22.752985057116135,0.6976772746419808
47,2.381266514353179,-10.385354007039332,-21.441268265475205,1.571047591417746
48,2.6591703596395098,-10.250325187371722,-20.13919201551788,2.4963201625762865
49,3.057345660302827,-10.086900205659118,-18.843189632380298,3.477650723148938
50,3.5320589002652563,-9.906822890003644,-17.549696428086754,4.446785821378383
51,4.01882210177504,-9.723852419402064,-16.257178452332248,5.3228631246302855
52,4.509921462792374,-9.547294383117316,-14.97009537059393,6.08551794917935
53,5.054345851152731,-9.378790712374158,-13.69965775205262,6.77674897598195
54,5.6875423754620735,-9.212770418750424,-12.459952019847412,7.425852340245446
55,6.362271093742755,-9.039637667321406,-11.260858050561282,7.988301179452506
56,6.995384885026136,-8.84871567003632,-10.105858939222689,8.393896920023215
57,7.548889092550985,-8.630778446830867,-8.995567985657717,8.624771704378334
58,8.058136309596012,-8.381620279613887,-7.930246243129869,8.750223772131866
59,8.561032180164926,-8.10525732521887,-6.910957236817665,8.853109499245354
60,9.012457579192079,-7.814947708143658,-5.939121963834178,8.935895778633013
61,9.32571249156911,-7.528835151991876,-5.014517567068958,8.947820864828794
62,9.47726077476198,-7.260457690254669,-4.132840105774258,8.878549950464505
63,9.554507575770064,-7.015546470368301,-3.2830349932428193,8.809892872610797
64,9.647861654687496,-6.799771544581108,-2.44534218075279,8.828649248827148
65,9.728986995950372,-6.624775735178126,-1.5939875332098827,8.92931102802922
66,9.694094670477519,-6.507087177265381,-0.7024887209986999,9.043340018251952
67,9.485477525836156,-6.465247620751089,0.25404079287025644,9.120920633518152
68,9.14743583288133,-6.519992755589261,1.2944247902542505,9.178560758500673
69,8.718672961660106,-6.696635904431951,2.4299209004629834,9.224722393358324
70,8.117093692063662,-7.024720941195948,3.67036882959005,9.171282243204057
71,7.192283039316204,-7.533940966028022,5.0190599694781755,8.875284100366407
72,5.86494765934088,-8.246345687786254,6.459690461974353,8.254116588769223
73,4.1945238048213085,-9.168809709674276,7.960296613910522,7.340586911761216
74,2.2807671803510505,-10.290705494152602,9.490219211853297,6.203273259147706
75,0.14803496567181718,-11.582743035063732,11.026792498858423,4.855069152428166
76,-2.229266639643976,-12.996262020473793,12.552616061603539,3.272369449006524
77,-4.80592621191165,-14.468200974384347,14.055014936683682,1.5003417168585031
78,-7.419805705548788,-15.932847205529917,15.52480373899294,-0.31054544931102956
79,-9.913693651403017,-17.335323063659438,16.953734442238375,-2.013357590208182
80,-12.251405583857753,-18.63681545048855,18.33195636195375,-3.5637670011566445
81,-14.476698195795247,-19.810497206749186,19.64743002475124,-4.994376392678927
82,-16.578637448306004,-20.83796790895848,20.888025900861553,-6.3063465364581965
83,-18.45415955284148,-21.710907020045315,22.045521355990058,-7.434038364040328
84,-20.01197025653433,-22.4309971243705,23.116012676066706,-8.32082069065988
85,-21.254385022287472,-23.003650301059068,24.091400038952955,-8.989248660382852
86,-22.257252519604464,-23.431252615685434,24.9511517495408,-9.535811106229179
87,-23.05227288909689,-23.70966619646201,25.65966635517676,-10.023427615469242
88,-23.5714055445676,-23.826896283277705,26.171982273087465,-10.418413169883559
89,-23.730578209200793,-23.766675894338704,26.448246961300935,-10.646948013406291
90,-23.515871453383053,-23.516393965042425,26.46485007077476,-10.666132579719752
91,-22.999286979769625,-23.072177106277493,26.219680360987255,-10.497351197733083
92,-22.239379562634156,-22.440812737327192,25.733966161155074,-10.160192270306252
93,-21.21386018485906,-21.640416218590307,25.04820195881623,-9.609209837707233
94,-19.87589343085524,-20.697927738379907,24.21454567306103,-8.768971421310159
95,-18.23111564890847,-19.64502173360874,23.289934079301084,-7.608891468412137
96,-16.37108694362161,-18.514372567023848,22.32764896802418,-6.188034187046419
97,-14.390005565264078,-17.33665348564141,21.372476889469088,-4.592356245109967
98,-12.30732508353589,-16.138215856907674,20.46421877564389,-2.8649280386542877
99,-10.088944158216428,-14.938037277566561,19.632814692334684,-1.0105644852918567
100,-7.717637345118719,-13.746851182183958,18.886200897903812,0.9518808529084906
101,-5.255016601081979,-12.568904189496985,18.207627730027262,2.9417969599024967
102,-2.7874710520136254,-11.40457152002155,17.565689431974977,4.86720398958053
103,-0.3284992737375937,-10.253331737661513,16.9276199907743,6.710550636413335
104,2.196549692122918,-9.114779690240146,16.265069591717804,8.541246675927018
105,4.851243408476166,-7.9891705847650965,15.558881289793703,10.423996726600334
106,7.5978909737479565,-6.878168165059811,14.804938044332093,12.335479569171703
107,10.345037778619735,-5.783394543957175,14.009967507785436,14.20410982718619
108,13.041598930357384,-4.703880585987865,13.185388519248672,16.000647173243493
109,15.716256344524462,-3.636689497952101,12.351134097331467,17.778931129682707
110,18.389219050311564,-2.5804597258209725,11.538957362304895,19.58450250900583
111,20.979540680250157,-1.5369482448349756,10.788315689151775,21.36055924715338
112,23.354669319860832,-0.5097032491327778,10.142117458928588,22.99405261867169
113,25.442192743466215,0.49823139969165153,9.6350198149182,24.420169659887858
114,27.29214770329266,1.4871452004096257,9.268177028893254,25.678715926514148
115,28.978444380494718,2.462617243365048,8.998179977645371,26.832817965448132
116,30.48176110824414,3.433820091723064,8.759313753810474,27.876526586927934
117,31.73064659021719,4.409277408392213,8.5017125958324,28.766962341902452
118,32.72551594717589,5.363898577891171,8.175889205448696,29.51524150999221
119,33.53489087986845,6.346167243747056,7.854897997356651,30.203261178474428
120,34.178889807102,7.3645198895416915,7.590613980570329,30.85283111927503
121,34.61149800538421,8.399619087525233,7.420055149045258,31.413721784292424
122,34.801235069075034,9.414729973969049,7.367727163564283,31.835352866054148
123,34.80578131228985,10.36564589397499,7.4434435324809405,32.13759118258301
124,34.7389845788841,11.209537128405573,7.641501334751026,32.387160989884464
125,34.665595820351534,11.911541214048498,7.939772173696517,32.608432143904366
126,34.57124445254514,12.449959123356777,8.297844623556045,32.761019412888324
127,34.427885675383,12.820662112895526,8.661680646427596,32.80176895380797
128,0.31723168711467553,-0.2723015432035867,-0.09682337633274453,0.31803927063633386
129,1.1203524682449975,-0.5511112487158537,-0.21923802455914537,1.0306349755281616
130,2.3421013615752093,-0.9237703365992243,-0.40233506954114345,2.0875192703000716
131,4.016075738076337,-1.37507657213964,-0.6582008881125166,3.5073362700168613
132,6.0626169454365115,-1.8865910020661965,-0.991232339439851,5.222157427891405
133,8.31469778310861,-2.4416104687270583,-1.3936826925866468,7.099001651382391
134,10.606965081908745,-3.030642040997171,-1.8458589142864523,9.00902408095413
135,12.812652706365139,-3.6549199168628346,-2.3206730088270473,10.857116688999003
136,14.819189715907104,-4.326894315861912,-2.7846431805369396,12.560424510609687
137,16.502495541145098,-5.071136408888803,-3.1979239945270708,14.0199121549756
138,17.775893426918675,-5.924743921878455,-3.5283645333272484,15.16083703450773
139,18.657322953048737,-6.897045963204993,-3.7621263917995926,15.994415926580595
140,19.23898186941653,-7.97240256317723,-3.9135450406199745,16.594597392556874
141,19.590388710256605,-9.116264313159613,-4.015782990729197,17.015165659678747
142,19.708532908734956,-10.283576763704655,-4.108751332269624,17.241321162084333
143,19.58453490279949,-11.421733308297455,-4.2309382020182715,17.245779003666655
144,19.274515592281883,-12.477187441022945,-4.411378892992302,17.057432052262897
145,18.89290424735786,-13.407840050839537,-4.661758807691825,16.762216447058133
146,18.527707914228007,-14.189920408908414,-4.973170369597588,16.432005127423103
147,18.16895069285914,-14.818652696010428,-5.318581844171482,16.060751062878275
148,17.770537274784257,-15.305303431614007,-5.661358077734092,15.611863439302157
149,17.338522379436778,-15.669741670980923,-5.963745658872832,15.093890546869437
150,16.944196297884133,-15.934083053365455,-6.1907879942453965,14.581177252130193
151,16.636839619816733,-16.11594992093113,-6.315855945479116,14.140772302135051
152,16.36663982576432,-16.2228944780322,-6.327522230304933,13.753674553321583
153,16.043632746708074,-16.252543701246417,-6.234653817925655,13.356031834045162
154,15.63118209276392,-16.19509501428668,-6.066396985753145,12.92552900895413
155,15.178588399185022,-16.03810785160092,-5.85771183677626,12.517705750843323
156,14.738346127793807,-15.773951318843668,-5.629033691111918,12.182730740935678
157,14.274335702901839,-15.40644752825465,-5.384390791368856,11.872846185097789
158,13.704852136724869,-14.951004745321878,-5.12733864354857,11.486067929243518
159,13.010421980694689,-14.425491764350541,-4.873896998406143,10.97063331180115
160,12.287836887500934,-13.843428200175499,-4.653476114214673,10.377826454887135
161,11.642601867403046,-13.215532853363039,-4.49958437518424,9.775766221360723
162,11.060860821848566,-12.550815987099092,-4.437599438388232,9.150259146342727
163,10.448756938213934,-11.855718050660453,-4.478467401424055,8.438133644261145
164,9.760105801082288,-11.133748803212573,-4.61658997048686,7.625909886310922
165,9.058589878913326,-10.384175570521554,-4.829570572770384,6.798030183347314
166,8.41669522275965,-9.604047754999678,-5.083337365413918,6.0452249435202265
167,7.803844466733088,-8.794048084164785,-5.3424230363260286,5.361481356714881
168,7.128934538659361,-7.96032083465727,-5.579359884438008,4.6773828026931925
169,6.366152116138224,-7.112342719030221,-5.776110056175156,3.9730180024319792
170,5.603638872372726,-6.260582588280182,-5.9225513677786985,3.3209011824121246
171,4.937359494592617,-5.415687999833049,-6.016297136305594,2.793361286636753
172,4.3685910675809545,-4.586955761801582,-6.06102870782706,2.378881643794028
173,3.835710817744011,-3.7795366820971257,-6.0638311367787034,2.0131581690359455
174,3.331185128129641,-2.9924612422099517,-6.0314263790154525,1.6885465183006543
175,2.942942191152787,-2.220256494752838,-5.963180814976032,1.4913577827816793
176,2.747496250762217,-1.4610836735083563,-5.844868488341376,1.5012039413833642
177,2.718643853286776,-0.7222914769233922,-5.652475071811031,1.7085184113896228
178,2.757642444609028,-0.01589081334170074,-5.365760719802319,2.037616443245861
179,2.8147220282126093,0.6469277169082046,-4.978751509705405,2.4459157788178425
180,2.9341761705985645,1.2551808687977055,-4.498927713901028,2.9584159302938366
181,3.1608082522040313,1.7978317484673831,-3.943011725402014,3.5980932947900786
182,3.4590105649758502,2.2676434299573165,-3.339505737302077,4.3263216217299725
183,3.719938542194976,2.664388590417242,-2.7294378328647695,5.039611386439096
184,3.871209902737343,2.9953859996163557,-2.154961639034443,5.66014765895447
185,3.933301773329635,3.2732231251153796,-1.64565603139888,6.192929333152084
186,3.955387968522687,3.5124941553503777,-1.2123983162942351,6.676623592204811
187,3.950083474161583,3.729755387586701,-0.8493421280578638,7.1196381915935305
188,3.870516336977893,3.9426961660565354,-0.5399565322688389,7.4694515237747625
189,3.685370561332803,4.16570757636355,-0.2624377831793222,7.677658697379327
190,3.4459886815396223,4.406823078314308,0.007417409615157286,7.764092805493398
191,3.252379837827151,4.6708051649594715,0.2913722351544372,7.791134735628981
192,3.1745776398340797,4.964242900417543,0.5994362157820251,7.7985976324959525
193,3.2017374199795574,5.294215455242226,0.9251215064487639,7.769757131149356
194,3.2963705397318153,5.66220928083403,1.2508479286549847,7.680049625076425
195,3.4646280002706957,6.05997819919912,1.5560585959931286,7.551502001130638
196,3.757376828280426,6.470445698844086,1.8202898307922912,7.457784171625531
197,4.194328724267138,6.87190649245096,2.025320705963377,7.458228562194524
198,4.696850751751869,7.241466134752074,2.162111624456345,7.524082592693968
199,5.143120687192575,7.55493451249514,2.2381873760192073,7.571948692177501
200,5.4599838978568185,7.786972189754572,2.281343643664285,7.551048516613111
201,5.65124290969712,7.912646002596698,2.335415314609797,7.484027252553085
202,5.719799380237418,7.906826787256415,2.4474980808221893,7.390543531465878
203,5.587511638936616,7.745311593186927,2.656885942973407,7.201413982853166
204,5.143182360437649,7.4098160526800205,2.988750402383854,6.802671216902236
205,4.352867738658106,6.893074389307544,3.4530848701456027,6.145364369195844
206,3.313116327076132,6.202103176452038,4.046872459677188,5.303023325551227
207,2.143208398578817,5.358312571406913,4.754111498024303,4.378094169856214
208,0.8616131496251045,4.393537330259467,5.548323700814853,3.3885454417886685
209,-0.5796682589456305,3.345035716611033,6.400052708718685,2.292028922550893
210,-2.1881298676261114,2.254842887283518,7.281450647502047,1.075479171014717
211,-3.877901427059694,1.1704344345948654,8.16524625921387,-0.19699292654145445
212,-5.559540933627354,0.1386916329829619,9.027589894268036,-1.4568645767525035
213,-7.242978747157089,-0.802072943485483,9.853176089568755,-2.723545090258641
214,-8.99761452753892,-1.6249780274473125,10.632259766804548,-4.0752709476515605
215,-10.836621372179717,-2.315567225145841,11.353381515218574,-5.542167685800479
216,-12.670710326735879,-2.871856698144987,12.00284214394407,-7.06107785624519
217,-14.406778846705118,-3.300200072688945,12.569810965153565,-8.562594019744648
218,-16.04315897878033,-3.6096351716165818,13.04619190148442,-10.050860992295743
219,-17.636181759628673,-3.808401926694561,13.42338158776829,-11.570866653520778
220,-19.19258178755623,-3.9046169257928875,13.69177352626492,-13.11057452338492
221,-20.629575186931948,-3.908664371063262,13.84170646203977,-14.569912381284674
222,-21.875332695567067,-3.8327241227751725,13.865519436003256,-15.86212989514199
223,-22.966849464337137,-3.690029363392546,13.757784107826565,-17.002646003843033
224,-24.023560143064746,-3.4950972988573694,13.513499911232612,-18.076316263357292
225,-25.11185753380722,-3.262400319993922,13.128429420668555,-19.11953193715157
226,-26.18019666271208,-3.0026716609773088,12.603519128191314,-20.082593225345057
227,-27.14562510133458,-2.7208554805976584,11.949888065575776,-20.91211867173251
228,-27.979349057651945,-2.417054149118703,11.188368675328906,-21.61296222837635
229,-28.71130739220578,-2.0862207065780423,10.345184053878715,-22.245125085885572
230,-29.338326828080966,-1.717112603999537,9.44870569691395,-22.84303806884556
231,-29.77842004673202,-1.2933289646972408,8.528116953822519,-23.3676872124816
232,-29.94339315667718,-0.7957831145906976,7.611867781457741,-23.754097578689418
233,-29.810911155305078,-0.20841803389172034,6.72400838630173,-23.9762853120581
234,-29.445981722002866,0.47287013316190596,5.879920913570073,-24.08343179973762
235,-28.923284960048246,1.2385811763761836,5.086487997529874,-24.136654836047438
236,-28.255660358570566,2.0728543736268383,4.34602305323907,-24.13715116908651
237,-27.418751800921548,2.956857669655841,3.6593603341326983,-24.036341514888967
238,-26.42155166674286,3.8671463201251317,3.0279940708028352,-23.8025476221536
239,-25.35478620138318,4.776672192224686,2.4537866478236134,-23.475332818465198
240,-24.31910897279138,5.658740050551108,1.939280881803812,-23.117452893400422
241,-23.338512825139993,6.491092467477778,1.4916555625157408,-22.748849424369176
242,-22.373954579383398,7.257878361943065,1.1225069386296915,-22.335274458720413
243,-21.41181138289672,7.949397462567554,0.8398726224126952,-21.849568138880883
244,-20.52357222456229,8.561580465676695,0.6401706219282519,-21.342176939060884
245,-19.793943209205878,9.095847221834603,0.5089308065868948,-20.894663001787865
246,-19.24717403046892,9.56048539589547,0.444677592307805,-20.56717083341158
247,-18.84442287236129,9.95402576647894,0.4005711950853018,-20.31579636392725
248,-18.580765072995714,10.274998129174211,0.3437710065860964,-20.133109546201535
249,-18.47586520382787,10.52326706996461,0.25521393832513145,-20.04477714819894
250,-18.51443306780683,10.702394295252457,0.12824268485863918,-20.052453536902245
251,-18.624640737814524,10.82240404294415,-0.03463457402882526,-20.101512012756988
252,-18.71907098149884,10.896947166683367,-0.22326047908735788,-20.115805311765868
253,-18.770229783141005,10.93585802807199,-0.4202091598955889,-20.07595189152845
254,-18.815403749020525,10.945285624524937,-0.6044971823500583,-20.027686893253886
255,-18.883081436258998,10.933982298300519,-0.7581134001479323,-20.011490508471212
256,0.4413798706643084,-0.010664559554802902,-0.1644205924661795,0.44153916810867855
257,0.6571711390787527,-0.03255650182025017,-0.3673007810678326,0.6348011265383893
258,0.8734723717437942,-0.052992275719557204,-0.6629371707920316,0.8119827253332141
259,1.0530129619156774,-0.05944013241029645,-1.0532685448644514,0.9447941135414162
260,1.0864555847317812,-0.03628337203172691,-1.525486533956814,0.9445282329903317
261,0.8594760962494916,0.030787482171970165,-2.0568329176281983,0.7149360919624042
262,0.3438469622763363,0.15282847314358794,-2.6241388186213332,0.22958085125608846
263,-0.40491713640542193,0.33741580984637176,-3.211424823553862,-0.4672717041412177
264,-1.337814741520576,0.5870909408514488,-3.8099158190448756,-1.3358044463522085
265,-2.457109495502871,0.8987721386892541,-4.416068533117307,-2.3781412018112826
266,-3.767075121870536,1.2655789948070941,-5.034876069729192,-3.5957286702724507
267,-5.20966864486977,1.6819173753826058,-5.663945246327553,-4.936150936665457
268,-6.697683127476741,2.1475661096173653,-6.293671224261802,-6.32685617390796
269,-8.189394170347063,2.6656794279752503,-6.904888863329182,-7.739865337245563
270,-9.69021184220062,3.236913327676744,-7.473580340131079,-9.1838024377179
271,-11.161566800531656,3.8553052427225594,-7.974718344641108,-10.613972714527787
272,-12.478546384131466,4.508640424533456,-8.384721715108556,-11.897492515084293
273,-13.526150623808368,5.178681317076924,-8.684966487509175,-12.90723328618057
274,-14.292475760314382,5.838591746982703,-8.861165213898818,-13.611480121051994
275,-14.861320557609655,6.45138192530895,-8.90231457692299,-14.074054722001144
276,-15.304116923876844,6.97363929162743,-8.80610984230477,-14.359354464951988
277,-15.62097392282873,7.362616640002629,-8.579895069173118,-14.479170864463821
278,-15.81079084485012,7.584615207940756,-8.233839242185265,-14.446714738287266
279,-15.941272927466974,7.621716368076122,-7.7783006055005774,-14.32917658352605
280,-16.144466753567475,7.472740919607979,-7.2289578703777595,-14.24753148386565
281,-16.509882093699602,7.152078280661373,-6.609165363490083,-14.289462775147149
282,-17.01655905019758,6.685635176356044,-5.943059081769058,-14.444091999679774
283,-17.589532211050606,6.102115617691068,-5.251124037779414,-14.63620208347249
284,-18.18713740974066,5.424438742405846,-4.555678012839805,-14.805942553581165
285,-18.842921918812273,4.666550956168435,-3.8891282130075044,-14.962995076927035
286,-19.598507853178063,3.837882011072089,-3.293218528387654,-15.139807642878115
287,-20.422515530238172,2.947867781012911,-2.8068814968760267,-15.32211621968724
288,-21.208557792299267,2.004978455315267,-2.4526983204424755,-15.437231695371082
289,-21.86233011130762,1.0134733028151701,-2.2310128070062967,-15.428247068066545
290,-22.37852471420359,-0.022601638457376616,-2.119543953468159,-15.327198275452105
291,-22.782705349945207,-1.0880354886431751,-2.076464912821717,-15.201070218997593
292,-23.0480024762793,-2.155306505498615,-2.0527842745538813,-15.066072559801482
293,-23.086730205303034,-3.194971410748635,-2.006819569594716,-14.871028205753934
294,-22.843420706950624,-4.185113442168245,-1.911492111434476,-14.5800081988571
295,-22.38269771278135,-5.113967344548753,-1.756174607891734,-14.250222240240351
296,-21.835151192627144,-5.977617785734717,-1.5464668367053964,-13.990230465352402
297,-21.287324496220123,-6.7756792730503275,-1.3048518395139224,-13.87069650221727
298,-20.72110304820113,-7.505683479157733,-1.071189507074693,-13.870867205707942
299,-20.09338946976809,-8.161205166225708,-0.90011332413697,-13.948864114917493
300,-19.44524238328597,-8.733461124816522,-0.847402999467672,-14.137952636200865
301,-18.868856876484216,-9.210967807156196,-0.9488657473735915,-14.510407821941447
302,-18.39629926430857,-9.57874493319037,-1.2093360555053474,-15.071193191188767
303,-17.941198162650952,-9.821256884965484,-1.6064666406942592,-15.713087130798355
304,-17.405041571329562,-9.927336054720687,-2.101078576461956,-16.31632293471302
305,-16.79953531502134,-9.887667609699022,-2.6467082731047675,-16.853631021364574
306,-16.212655903754108,-9.689125817602001,-3.198930273727097,-17.357355828020292
307,-15.69274511088816,-9.32434219154091,-3.7206977489934054,-17.81412363543151
308,-15.188126815921114,-8.808460420675738,-4.182327287432624,-18.123592516540874
309,-14.643208290803127,-8.184633794236992,-4.561982510180966,-18.20085624085017
310,-14.106664722259683,-7.508677462558261,-4.847954630285845,-18.074747640701094
311,-13.692657494046937,-6.818819909261441,-5.040876523980817,-17.850058329485876
312,-13.446133149339683,-6.1416617989479905,-5.153747463066975,-17.586478318315724
313,-13.288108507654066,-5.533736814999149,-5.198930416839832,-17.244995248603814
314,-13.111561322146185,-5.085665111024334,-5.167136459444039,-16.764137033443223
315,-12.865784863362729,-4.884913173488064,-5.031082204212511,-16.13931916871157
316,-12.550669428761456,-4.98178480487444,-4.767712366610226,-15.430891469684463
317,-12.128856549566628,-5.37268821772926,-4.371842098327305,-14.67864342449325
318,-11.496549986143387,-5.998695324534552,-3.86009512283146,-13.857665646844554
319,-10.596201469657487,-6.7590143096101984,-3.2690373287380883,-12.94911806547746
320,-9.509776015696238,-7.531120459599437,-2.6488042514939236,-11.998686666650588
321,-8.433183920709343,-8.190159940114256,-2.054627293870302,-11.11588764722039
322,-7.5350431545893715,-8.62781369736058,-1.5361266741920374,-10.392212603005836
323,-6.878005260503882,-8.77189380929863,-1.1248930280389233,-9.854697072053904
324,-6.476177479159803,-8.594455161792698,-0.829914219610166,-9.507491588215853
325,-6.354197710979222,-8.101800398209596,-0.6448694426064234,-9.369330886307559
326,-6.551098807458634,-7.330707075753891,-0.5550993485505784,-9.477938339836554
327,-7.025878077947859,-6.347331018960856,-0.540064941952284,-9.80952671013165
328,-7.604100167515551,-5.234856631986939,-0.5828313049131351,-10.226523492808916
329,-8.079278884282251,-4.067115354944434,-0.6698994060495801,-10.565464038504722
330,-8.34228194169017,-2.8729629604631515,-0.7773541661082112,-10.754870616422757
331,-8.422100269885357,-1.6430102886787372,-0.8802374437664711,-10.84031871916241
332,-8.404825463286517,-0.37026842017217154,-0.9636050487074509,-10.901785724064208
333,-8.330409945794813,0.93922986328646,-1.0115087781239052,-10.960267415718011
334,-8.161335381669968,2.275987519201214,-1.0054637042785324,-10.94714000467999
335,-7.869658006035122,3.6291238373777106,-0.930379221989869,-10.799544572175941
336,-7.527797851298933,4.9874876006615825,-0.7764555633801854,-10.571367976318651
337,-7.239081547462758,6.344233547898222,-0.5438199804134206,-10.382121302093271
338,-7.028391901341069,7.694754640781044,-0.24615068400824686,-10.289382428510901
339,-6.832534907368779,9.02980582391938,0.09069329859342462,-10.240213553320636
340,-6.589233276528698,10.336484504610127,0.4259479804528067,-10.149958466463284
341,-6.300985239414584,11.60610954012903,0.7010881542614475,-9.981865303301724
342,-6.0070595509724605,12.831501370578305,0.8607379566574026,-9.745947630270416
343,-5.725021279776198,13.99359206985674,0.8833789223059743,-9.452726085466454
344,-5.403035275838786,15.058969801911333,0.7905573675422355,-9.067406410069694
345,-4.992348854492052,15.986536550221645,0.6363059612073015,-8.576062430820711
346,-4.537511933608777,16.73586072379811,0.4860984585892576,-8.062123496226874
347,-4.122407475597121,17.275051476687356,0.3831406139109159,-7.639495389098084
348,-3.781882393535206,17.59109690166548,0.3303313219373222,-7.362252798636281
349,-3.476960398900173,17.698471077130858,0.317224955571209,-7.2143982274543434
350,-3.182709079800137,17.626400730146095,0.3455549816820013,-7.194732841040654
351,-2.979346483545566,17.401457070349203,0.42476261936464704,-7.407075435053959
352,-2.984867806080639,17.04416233465098,0.5640107876369473,-7.995269688231638
353,-3.211157924165235,16.56612633504192,0.7679356338136056,-8.981079974072813
354,-3.545931886149444,15.97104132239784,1.0321534388630698,-10.241558471634377
355,-3.881521691165243,15.266243023696276,1.3396963290656412,-11.645423827609847
356,-4.2069041765878925,14.464053677808598,1.6620240522873384,-13.146597247502594
357,-4.600340275751973,13.569897352054728,1.9734947625905843,-14.777866026094816
358,-5.142783922793931,12.575495311489663,2.2702710858709247,-16.57332252695398
359,-5.853399082509361,11.462595200279448,2.564416765885334,-18.50991163503157
360,-6.73409717751865,10.223451666350261,2.8532986705914034,-20.541137980423255
361,-7.824122908222199,8.877843466753404,3.099415916920378,-22.648677813061685
362,-9.180324877219611,7.459646441109055,3.246197672976781,-24.82757207410853
363,-10.784534468230174,5.9917623265828075,3.2456736752504742,-27.01367917728757
364,-12.527507207081221,4.4723576719461295,3.074295754625273,-29.10126951951319
365,-14.321826936653046,2.8737456041804172,2.7432383267631595,-31.05619294673402
366,-16.176928722137326,1.146733609933373,2.2892912838047397,-32.95346696883608
367,-18.16360559117144,-0.760900918226224,1.7370029033929224,-34.91150017823609
368,-20.307566298101822,-2.880870581482751,1.077225232327233,-36.98856389432806
369,-22.552650009908,-5.227865597622655,0.2838156366501361,-39.1536194208181
370,-24.83256131630991,-7.802701180709967,-0.6651156363560693,-41.357015563798896
371,-27.13611554178839,-10.576984277335514,-1.7673031302407274,-43.59364442474738
372,-29.519506061780575,-13.496311076756777,-2.985705716550894,-45.912521031920825
373,-32.035332782543264,-16.490314901585926,-4.259606459948818,-48.35208473014408
374,-34.65553524538986,-19.367018038018603,-5.50666119507339,-50.93551939486965
375,-37.3401923091443,-22.211972412842975,-6.785774562614921,-53.509121059505425
376,-40.027798270108704,-25.018759973286702,-8.113795209657226,-55.939575744696164
377,-42.65969406624657,-27.739402248064113,-9.46396675341352,-58.14347777086537
378,-45.14761603586136,-30.320789691090734,-10.773231022035695,-60.05753568667376
379,-47.38460222169493,-32.71145803500303,-11.966901539188054,-61.63549620490595
380,-49.28290506592981,-34.85122167897004,-12.991938989458163,-62.86357304913205
381,-50.80222372142336,-36.67667237244646,-13.827137346900631,-63.759052610721575
382,-51.942083544022864,-38.13958594480359,-14.474589735923697,-64.35094627720764
383,-52.70172474587699,-39.22118228697056,-14.952893868873808,-64.66112091740116
384,-0.7598415186942886,-1.055264246905746,0.017050642768714486,-0.5918043052529885
385,-1.9914840779548733,-2.0600461092644005,-0.8110385600461822,-1.7134907452919408
386,-3.7927383455380945,-3.4010594389865942,-2.287889539893156,-3.4159711857361645
387,-6.199638965233647,-5.035652215740083,-4.694093262160552,-5.7750568600573455
388,-9.260014144194027,-6.889716664046357,-8.517208592125971,-8.886432190178102
389,-12.97269593064355,-8.870738584575959,-14.4350462208049,-12.776863659584595
390,-17.239215259670416,-10.887968458744838,-23.237002243614633,-17.326358971633585
391,-21.899279247629657,-12.870063910836686,-35.714494445664215,-22.31757268105746
392,-26.834826112368333,-14.775083665817542,-52.547317538924844,-27.58155237177704
393,-32.008591077613225,-16.598121327927714,-74.2091957628869,-33.05203213597146
394,-37.42280787478372,-18.38666386386182,-100.91219739664284,-38.713844627909566
395,-42.9432690455003,-20.115333386406437,-132.5809874766818,-44.419062530236936
396,-48.37557131775488,-21.73838836247301,-168.81616451577872,-49.95356521065191
397,-53.57344552828329,-23.238118849623106,-208.87434268433586,-55.15278480623265
398,-58.44687131189936,-24.636157859235976,-251.74585093666616,-59.910426233140015
399,-62.88412073934691,-25.97344451886258,-296.30006968644494,-64.09566170755855
400,-66.71750588174288,-27.290307567375642,-341.419326736301,-67.53755140890708
401,-69.82750189230258,-28.611327319624813,-386.1262325322177,-70.14413369669298
402,-72.2616551464017,-29.944259478944858,-429.6890007706023,-71.99761155940939
403,-74.19219922979623,-31.28383924020869,-471.6034620318662,-73.30124913481268
404,-75.76399552588495,-32.60446187006229,-511.46910940725866,-74.2420714888896
405,-76.99943444664063,-33.85502747043796,-548.9247770873243,-74.89635713647898
406,-77.88821809996931,-34.968739429721964,-583.6686764017901,-75.31620504335527
407,-78.51007626082124,-35.87295836643244,-615.4714061945227,-75.65514596110397
408,-79.00027325892945,-36.501154555217866,-644.1696875293468,-76.11918195591227
409,-79.42386543142132,-36.81392514414753,-669.6596546978917,-76.78966199642036
410,-79.72323687998758,-36.81714586390917,-691.8904175690361,-77.54735038396697
411,-79.81204650358953,-36.56514556353853,-710.8577694391984,-78.19579755556461
412,-79.67537063385976,-36.14002476590296,-726.5981597109213,-78.59102361859922
413,-79.36359139697775,-35.61635605788053,-739.1829685375941,-78.66319368131191
414,-78.88754522831516,-35.0313399259507,-748.7131121415423,-78.3302826761771
415,-78.1605026157738,-34.389908739691016,-755.3139998397422,-77.44853247581284
416,-77.08123928521816,-33.700656347485136,-759.1308568885348,-75.89012941813377
417,-75.61747384224543,-32.990789099934915,-760.324421070452,-73.62311612303309
418,-73.80027251899327,-32.29529576908348,-759.066765557379,-70.72635134037897
419,-71.63657193557675,-31.64523626951352,-755.533198325087,-67.30395562696489
420,-69.08390039703853,-31.06127225432601,-749.889337402947,-63.424192008387955
421,-66.14241589929266,-30.554724220435702,-742.3019628767153,-59.16772916974467
422,-62.91979794160962,-30.124785956878803,-732.9694686208851,-54.68516432488917
423,-59.60175900901828,-29.749262280602824,-722.1123823629683,-50.188037485144115
424,-56.31807943898171,-29.386854795232434,-709.9649230314047,-45.8109714180677
425,-53.07780524441772,-28.98797493156196,-696.7906311906067,-41.53225486442137
426,-49.838622805195385,-28.502332564104737,-682.8198909794559,-37.253758522237135
427,-46.58304546601833,-27.888751666849036,-668.1422475739654,-32.909275102138764
428,-43.360686167851995,-27.12805563577439,-652.6454768733629,-28.518021526429234
429,-40.224880405611394,-26.230849650004586,-636.014473351549,-24.120544655961464
430,-37.15306920744362,-25.236076116823284,-617.7310572955853,-19.69804784736788
431,-34.06449059433911,-24.19713703386008,-596.9928742124165,-15.16817748554666
432,-30.91963254216898,-23.16058757031753,-572.648287082042,-10.484510774326248
433,-27.793682058989475,-22.15915117546341,-543.2603479343978,-5.726351733718655
434,-24.807520209613752,-21.220820530319738,-507.2771736040551,-1.0300724505306253
435,-22.01162773401385,-20.366019759908163,-463.2552732703337,3.53645163669323
436,-19.337594670453186,-19.593452844768212,-410.08276835852394,8.01784160848066
437,-16.686969305458987,-18.87775415707695,-347.15784576105347,12.460163455149694
438,-14.045060513347373,-18.17934644460955,-274.4858629236751,16.80266017412911
439,-11.46047524745158,-17.457952728910115,-192.68375075547254,20.91883447902443
440,-8.965275828139287,-16.682387218726017,-102.9256393908153,24.716797811611293
441,-6.534063856157742,-15.834255456328428,-6.83616977977778,28.196048052643114
442,-4.165881412766012,-14.90847851811903,93.69017599484904,31.361927171963814
443,-1.9771019761847763,-13.911370514016552,196.6584934112753,34.131832430683176
444,-0.14149779285809616,-12.856205392578234,300.0997832517333,36.37944973404366
445,1.24182694886985,-11.755538452634084,402.2394145936063,38.04092323231845
446,2.2147402063311206,-10.616041481593,501.64413190250536,39.16333433854938
447,2.8654006154589715,-9.438972508734226,597.247592228269,39.81094883657505
448,3.2217191590816676,-8.21906915972025,688.250841945689,39.97588793790893
449,3.2950268180544686,-6.940532335415845,773.9942084260246,39.62379106140922
450,3.188336422116617,-5.574638060589876,853.9294396122218,38.80287927771109
451,3.1178834813135956,-4.07876165682374,927.6400146929524,37.66689046094371
452,3.2743379227714406,-2.4088190809762176,994.8374591414058,36.3490698799671
453,3.704848280908349,-0.547039874674266,1055.3496856063452,34.86287038951415
454,4.363044338535001,1.4917363396604881,1109.107698487167,33.14632986830315
455,5.24014608981374,3.6751782776789645,1156.1329960275611,31.189581392736986
456,6.405974675876206,5.958290717369855,1196.5255381856489,29.081418270813586
457,7.898076855599194,8.282435713332744,1230.452349576754,26.90714089131963
458,9.627224373014116,10.582178474507991,1258.1368102026017,24.657872156915992
459,11.418263548233583,12.79932831041185,1279.8486716332493,22.261851532233557
460,13.142979650821125,14.893874115208112,1295.8948227741305,19.704061402914938
461,14.776450148503367,16.84708151687589,1306.6108172939405,17.07366719996072
462,16.30999547929453,18.65901020296427,1312.353164160394,14.484532059263719
463,17.673780349064295,20.34176710694678,1313.492373470441,11.990493701453413
464,18.75715126185167,21.913896949170642,1310.4067418010156,9.572749556174395
465,19.519772978558745,23.39586690257574,1303.476854571056,7.224969604364998
466,20.03616213212623,24.806986770265663,1293.0807147414557,5.008112270038273
467,20.4153049269879,26.165912093597992,1279.5896408017607,3.0087198836888978
468,20.725421350250922,27.48851516295977,1263.364811226842,1.2718677935843072
469,20.969441162264005,28.78117224801752,1244.750987734828,-0.2365167458918771
470,21.14901878087714,30.03866021626284,1224.0696304112244,-1.5664841189330954
471,21.313416309110337,31.249717292087507,1201.6275822815057,-2.7165567056128554
472,21.526059259548646,32.40194781055891,1177.7360983103554,-3.6471555808740246
473,21.8053352480692,33.48446478239414,1152.709556255741,-4.348867670258044
474,22.08643947364881,34.48853352463062,1126.84337675702,-4.89331606279442
475,22.2989806277696,35.402444429220836,1100.3885753348375,-5.369988780265085
476,22.44787880086023,36.206086137796106,1073.5246879753006,-5.809818661786592
477,22.597800344111263,36.87365423873695,1046.3434658939432,-6.1795478865581615
478,22.800233040027845,37.37974352500185,1018.853607120959,-6.445864827120934
479,23.027369954456717,37.70401455549777,990.9873983100317,-6.643142958668654
480,23.22436233108458,37.83385437372057,962.6193681764923,-6.832128252168404
481,23.39914613934981,37.76232902154366,933.6105184581477,-7.023919186651529
482,23.635923545129554,37.49034684330379,903.8342944061662,-7.160221647350695
483,24.010930195943466,37.03407698242551,873.1694015790437,-7.186722332480668
484,24.505710866423268,36.423542633784734,841.4915490199149,-7.130891825215718
485,25.044416022808722,35.695745624081475,808.6928602668047,-7.060851307519755
486,25.59332249004319,34.890589018562935,774.7235281409368,-6.989965552479589
487,26.208740726916204,34.046273924425755,739.613017321807,-6.83769601804879
488,26.946184969880296,33.194643449445586,703.4562375340148,-6.5220299792998455
489,27.757175117230826,32.35626964847525,666.3866525153154,-6.060438850339738
490,28.532750890964316,31.533263290866422,628.5642798776046,-5.539269402261504
491,29.219673335800756,30.708866661734117,590.1810659256258,-5.00983946348583
492,29.87786732915656,29.85765820291203,551.459229858199,-4.431505919206737
493,30.577400311474655,28.95808378359458,512.6382802217147,-3.758520461796432
494,31.29035489465126,28.001291291610954,473.9530128916635,-3.0312563958990104
495,31.93834155342495,26.99410963027374,435.60663149468326,-2.3291613847986845
496,32.51216054042302,25.9594032256788,397.7600067966071,-1.6560484224158722
497,33.12121675020735,24.93482656209042,360.53434331836036,-0.8956049625631399
498,33.876291386841395,23.96602801275682,324.00216459615694,0.07941487519874385
499,34.767862590889486,23.09262023683788,288.2013608535788,1.2889161047996174
500,35.693927275394465,22.33972109935396,253.19159838726438,2.6609880858943082
501,36.577851733651606,21.72525232232381,219.0756853532735,4.139526536824875
502,37.44754051309679,21.303697147138056,187.00617308568,5.6738802020263375
503,38.283882843487056,20.979605678196066,155.28712062415084,7.370331539819908
504,38.99855047973437,20.681007069437516,123.42949863472194,9.180357974674415
505,39.51060688075315,20.357286386847694,91.76662791992202,10.993177113025151
506,39.83627203961863,19.980706589109698,61.12350406215903,12.744260130743431
507,40.066088012258135,19.550454098744137,32.536686676687104,14.423052812026823
508,40.25403104863,19.090241896554858,7.033205996752866,15.995818598363927
509,40.380857707157105,18.634800454170417,-14.535979558680888,17.376230173550486
510,40.41311244652168,18.217263518461422,-31.60954789069667,18.473767451626845
511,40.38790722842647,17.864241362383673,-43.98001075075433,19.2743518735729
512,0.28657775477931047,0.042635121733921144,2.5406322222567734,0.2801947392377173
513,0.12487314864435789,0.075560675930695,5.409103702812784,0.08694843740831837
514,-0.19465828300192067,0.09212222242933576,9.403238509636532,-0.29689459183250266
515,-0.7144954707232223,0.07556540499687905,14.463222814433227,-0.9111603421712279
516,-1.505346178451295,0.009444774319790475,20.42637471847193,-1.8112595417477615
517,-2.597541101724969,-0.11705595099975111,27.046925573079353,-3.017035129791706
518,-3.9447372237682248,-0.3025855108511175,34.02409982843629,-4.485172393522145
519,-5.457142421656655,-0.5387789032101231,41.04467772169593,-6.132410716176273
520,-7.0800407657297235,-0.8266905130150746,47.84278745109815,-7.895589310322977
521,-8.799348380488464,-1.1829926804083195,54.27092060945061,-9.738556811597483
522,-10.57304260681935,-1.6316545198662575,60.382366407094416,-11.601503951067839
523,-12.303003708539322,-2.1919723485308378,66.14104755302529,-13.379958714676349
524,-13.907080199758076,-2.870356836869167,71.49819369924735,-14.98839546581895
525,-15.390082412215282,-3.6590172155722254,76.39348421035676,-16.421485380631452
526,-16.781635205423402,-4.538836652362301,80.76231901053775,-17.702118058937273
527,-18.050023403108547,-5.477538461412196,84.53709941324668,-18.8046481453309
528,-19.09892357550437,-6.423922920522296,87.64988388023731,-19.646446463420286
529,-19.85899155870392,-7.316200292371741,90.04823259620838,-20.17423677393466
530,-20.37533972164992,-8.100572044474983,91.71190591192033,-20.439330554362876
531,-20.758243899203805,-8.738953995570359,92.64716216872544,-20.55147681694341
532,-21.068312188566168,-9.209288289266286,92.86301091838739,-20.584380785265807
533,-21.263629468347272,-9.50835929833213,92.3601240605113,-20.522334633765528
534,-21.293539827290083,-9.653792452493725,91.14005545896173,-20.327545864600364
535,-21.205500724851884,-9.680859058420388,89.21854948565851,-20.02816909203081
536,-21.101544865028355,-9.631177256147465,86.63539761647964,-19.6946476662868
537,-21.02304076195398,-9.536185730547972,83.45668146039824,-19.35941753832214
538,-20.901511869019675,-9.410695962813488,79.7683741072084,-18.976468917409612
539,-20.67047003324672,-9.260306095969279,75.66838257974449,-18.503506906870093
540,-20.378070038427705,-9.089370345627229,71.25936550962656,-17.986248781751176
541,-20.137682512802233,-8.903456957929192,66.64093847560908,-17.520365686859016
542,-20.0072604388536,-8.707409971354517,61.898491623774774,-17.156892347223305
543,-19.932369101858065,-8.50514636785036,57.09570836766783,-16.854295944186944
544,-19.842469924053514,-8.303103298961569,52.27993431522556,-16.55678563834764
545,-19.754949318334596,-8.110653762702905,47.489002005134864,-16.282362214454427
546,-19.74149714565435,-7.937702882492296,42.745331753496146,-16.098238459139104
547,-19.813688647865913,-7.792161366214691,38.04760707053744,-16.023288589954152
548,-19.870251156048905,-7.679053098960991,33.38367501636461,-15.980299973472931
549,-19.808297441423914,-7.602058360807521,28.75525685705151,-15.888092661861707
550,-19.63357952919663,-7.5630041466937055,24.187289952202956,-15.76384291805476
551,-19.422425476730325,-7.559881682614662,19.71385906145303,-15.698769860551671
552,-19.19768426339025,-7.585931291531853,15.355729102736843,-15.7393708755904
553,-18.885028498733416,-7.6285119772361965,11.116644480785435,-15.834361615591833
554,-18.416148165462797,-7.669182225403132,6.993387861245927,-15.910539833580941
555,-17.817661696751255,-7.68933544625701,2.9876407006968138,-15.947994280701304
556,-17.187118550898624,-7.68005937591424,-0.8813672971829071,-15.976450648268065
557,-16.575406146473146,-7.646111492662788,-4.580859432558581,-15.99046073542999
558,-15.932680744098311,-7.6000159432244745,-8.081634799830221,-15.909814443131346
559,-15.199183077520075,-7.553659504735224,-11.366633970476922,-15.646742539651244
560,-14.388417359274412,-7.515320974894543,-14.431135756776456,-15.172462483127115
561,-13.574813529483961,-7.489756175166776,-17.281869215152966,-14.525365188933716
562,-12.793825151627411,-7.47745198485589,-19.92955458688483,-13.738596343694853
563,-11.995323059616183,-7.474440052466743,-22.37510621643909,-12.7945247099325
564,-11.104215116847604,-7.472173327080872,-24.60120643434465,-11.662226689821637
565,-10.102639579138419,-7.458736107071789,-26.58080899301088,-10.36133178827236
566,-9.068494443609822,-7.4222285181548004,-28.29870818918793,-8.993399679165012
567,-8.085571927948088,-7.354070925651667,-29.75832790191907,-7.661617976589813
568,-7.160520201108093,-7.249659723512612,-30.97056178017565,-6.399794198778738
569,-6.250231629588359,-7.106116624145218,-31.94456506216435,-5.1973350440776205
570,-5.338952863453593,-6.921013659025802,-32.69963655249654,-4.06607238621974
571,-4.49252233012761,-6.69284839653679,-33.29075332503752,-3.0835326941530887
572,-3.790925821210233,-6.419954714526411,-33.806571715259416,-2.337705990067425
573,-3.239755358942786,-6.098190504066899,-34.34320698998583,-1.8466665705257588
574,-2.7698006539234115,-5.7230144783597385,-34.97751941533684,-1.5364830725227674
575,-2.324890092553676,-5.297004167643965,-35.74630104901785,-1.3183567213668288
576,-1.9401837426122854,-4.836822252394419,-36.64334767186268,-1.1785736811737249
577,-1.6872612170108745,-4.368005306843802,-37.630816116559004,-1.151051890692009
578,-1.5786779920879022,-3.908994310269919,-38.65055278522601,-1.2385269692853915
579,-1.5356785337772756,-3.470460499886042,-39.63840299403738,-1.3719285743221155
580,-1.467027711792485,-3.0672497860239454,-40.54015273857879,-1.4792018148387045
581,-1.3707701935910488,-2.7183350320908133,-41.31837579213588,-1.5771075340500458
582,-1.3017492517844094,-2.439823944884694,-41.956163602395605,-1.73860751550212
583,-1.260891419850928,-2.2413038360959443,-42.45886937089803,-1.9888816224016237
584,-1.1563030934599736,-2.1246499606032048,-42.85188278206706,-2.2572697707920044
585,-0.9181831187742034,-2.084735258729016,-43.18079187919365,-2.471255976463981
586,-0.6011336126358552,-2.1118880719916553,-43.5050548010736,-2.655429875557959
587,-0.3295031987143845,-2.1938610794745856,-43.877034663634326,-2.894125229295267
588,-0.1766873273464034,-2.316987694842256,-44.317944635174925,-3.2246838584663142
589,-0.10532027611196222,-2.467314064321285,-44.817463171181736,-3.581991276210153
590,-0.0685597609765243,-2.632142979982409,-45.353230253755754,-3.8905395537576233
591,-0.11731778023299483,-2.802859404253819,-45.89684204162376,-4.171855715731622
592,-0.352654428167125,-2.974073509004641,-46.41212968190935,-4.510411153150531
593,-0.8095638911079541,-3.1398175208366164,-46.859732786282194,-4.937682854649051
594,-1.4151474182846806,-3.2933989284478087,-47.20962798537946,-5.391545961290718
595,-2.095257450319279,-3.4311631025262224,-47.45931198949412,-5.809560824736456
596,-2.872036737686345,-3.552146660239465,-47.63447689714074,-6.209605236907007
597,-3.819423596494871,-3.6528015291481504,-47.7714157501825,-6.659628806334635
598,-4.9391586693322544,-3.7303201358582867,-47.90166663045438,-7.175193079735321
599,-6.1143985806806604,-3.7898921001131245,-48.041342684877776,-7.681813796918098
600,-7.214147049132957,-3.842618425431397,-48.18531520850492,-8.100482637328108
601,-8.192214557353347,-3.8996330667870174,-48.30593609396874,-8.419878014217387
602,-9.072147100949108,-3.9692796007658924,-48.35487056182162,-8.67474682483268
603,-9.841717547726853,-4.056558809786727,-48.276867471611844,-8.85072142789574
604,-10.40441854885691,-4.161854650486228,-48.031455006778884,-8.853447078082388
605,-10.66373758823656,-4.277514418311577,-47.60424061915914,-8.593948205349035
606,-10.609678297307312,-4.386022176303521,-47.00522931244744,-8.069776279896207
607,-10.315599153202083,-4.46469546048312,-46.26678066350976,-7.371613315123841
608,-9.827943582077387,-4.489710929469205,-45.447760205307574,-6.5779292616974
609,-9.11361668055941,-4.436946033472336,-44.63321683595431,-5.685393612153945
610,-8.131214937648455,-4.292016529548452,-43.9150453294031,-4.662972308622126
611,-6.893890432166509,-4.062087871375871,-43.3633324164229,-3.5143681233995205
612,-5.482320571167234,-3.7757628545720254,-43.00722129566171,-2.2951569575251076
613,-3.968656853535425,-3.474559235264409,-42.83395451465746,-1.0523282955896804
614,-2.3521754671195225,-3.2017184100463303,-42.8040483245394,0.2332763346103085
615,-0.589804514210938,-2.9930161191137463,-42.86620114610095,1.6314569197165163
616,1.3270611831431185,-2.871994531621894,-42.96821466473293,3.192335064176909
617,3.3214070882744537,-2.8471405512334877,-43.06630475264825,4.886993395280411
618,5.301746623512026,-2.9103815611696167,-43.128326267074634,6.650241135513987
619,7.249184680296863,-3.0392165931515147,-43.13335304631089,8.448493929996417
620,9.209512724816857,-3.2017206089957404,-43.06475801303721,10.291282984230381
621,11.202445793266186,-3.363701473884821,-42.901280918003415,12.171430025753669
622,13.151553587130117,-3.496406614088094,-42.62013152970596,14.00644315435183
623,14.9435345064022,-3.5816760860227568,-42.21154332442107,15.690217946090835
624,16.52180898240374,-3.6126714709793237,-41.6886693760475,17.18443019259572
625,17.916357606534937,-3.5954654908248043,-41.08103598808838,18.53990544598978
626,19.16606440616706,-3.5548421372143326,-40.41887867250889,19.805692359748612
627,20.23172701034227,-3.5271244897585463,-39.723296265366685,20.95015389144406
628,21.038634520261212,-3.5405055909421117,-39.0134817538054,21.902860481862337
629,21.58045441246907,-3.606682744754839,-38.316386798028674,22.63874553508119
630,22.046959956580164,-3.7224479740127263,-37.66570967153241,23.312318958773282
631,22.402476344247397,-3.8817020897509593,-37.088332997439,23.839084777031935
632,22.586031693511455,-4.068929353547,-36.603727342506794,24.129052498992927
633,22.569974753959606,-4.264070988374495,-36.21893419305122,24.136149754209082
634,22.406269524704808,-4.447833794351188,-35.927128869235574,23.9032131657554
635,22.188693144356236,-4.60590746066749,-35.71274385162292,23.529480431116472
636,21.95900713343633,-4.729966049058074,-35.558839064575096,23.08481793880839
637,21.693141010032296,-4.816683495899942,-35.45291749266332,22.589272043929807
638,21.37445831363021,-4.8675544815799805,-35.38969042635265,22.065513567517396
639,21.056322754064478,-4.8890068270800375,-35.36713717068381,21.589363798120207
640,0.4590884405363367,-0.33378113495720146,-0.39885776984306803,0.13523996667210353
641,0.3385225750327124,-0.7989733169007243,-0.9682978786578752,-0.053087221032579734
642,0.059405512464754284,-1.4728439952771526,-1.824354531278345,-0.31664787117098403
643,-0.4559930970600437,-2.3566135420085885,-2.9933513736328585,-0.6947739907497759
644,-1.2734536303799462,-3.4283455630290103,-4.494372320223643,-1.244007740807984
645,-2.3750670031615,-4.644607325787142,-6.3244767249214355,-1.9748650780623196
646,-3.668569080554616,-5.948551681933665,-8.445640186201917,-2.8448865679674693
647,-5.067412631982171,-7.28174507565274,-10.778538780777529,-3.8137586350238157
648,-6.536886136026654,-8.594808080135852,-13.21373816588969,-4.88446196461786
649,-8.062792777223276,-9.854129770128532,-15.643908570629339,-6.074683028256598
650,-9.585308622754116,-11.05210821497289,-18.006595316456142,-7.3500144448531755
651,-11.039202833608266,-12.176320483918664,-20.23726270700503,-8.632956293742252
652,-12.420085652922541,-13.224344072976821,-22.274530609749032,-9.87292402873274
653,-13.794313157144273,-14.202561706302031,-24.065126340685687,-11.07462094688451
654,-15.187770058086254,-15.122138197175374,-25.581612197096174,-12.211599545686536
655,-16.528757543191844,-15.994843636967998,-26.816320903806677,-13.186497845722293
656,-17.718249292196184,-16.829501739884957,-27.755455577179717,-13.912567832244976
657,-18.70978198825639,-17.63166707761203,-28.383204237124406,-14.383768739503704
658,-19.533750024142943,-18.404888317110025,-28.712973977107826,-14.676972617023091
659,-20.204246821263364,-19.149292545779442,-28.79151913469866,-14.86440507082916
660,-20.658701779431663,-19.8595779704026,-28.66843378362079,-14.951117284413765
661,-20.821176726395,-20.5253768486934,-28.380983078112422,-14.902730339498286
662,-20.672794818954294,-21.131829939368487,-27.965236464034263,-14.703165048348394
663,-20.280653211176766,-21.658412128615915,-27.461882546888614,-14.396776496522174
664,-19.72384427127303,-22.082004998759665,-26.907229133926375,-14.03123951224409
665,-19.015490092152433,-22.38567031239494,-26.31522749527229,-13.582818059789863
666,-18.120008987630882,-22.56682120077252,-25.67166312863149,-12.967823137449372
667,-17.03040408516429,-22.63901798488525,-24.94685467826116,-12.131272946214944
668,-15.824925335510365,-22.621110211185695,-24.115900904024162,-11.114506522353174
669,-14.600731084800987,-22.521728219189015,-23.180161038901044,-9.997825539667195
670,-13.37529223121487,-22.336644133477535,-22.169400120848305,-8.812375566853628
671,-12.071919519357776,-22.057812245108988,-21.128727610462796,-7.520357283494135
672,-10.619144802190513,-21.681810047904875,-20.116276892202066,-6.095020078099503
673,-9.049068775275245,-21.2110147335258,-19.205487457375703,-4.597243590842909
674,-7.456949086811836,-20.649762505359647,-18.46678249370137,-3.134906173315402
675,-5.896166859591054,-20.00379454355092,-17.93582321517468,-1.7743202062352823
676,-4.330032040266429,-19.285012454829396,-17.601592268148803,-0.49247775436856234
677,-2.7292623388826507,-18.51490383033974,-17.420513195221833,0.7452903266852622
678,-1.1699498451815917,-17.7214175250859,-17.33794872218719,1.8910665985967139
679,0.22066658664180183,-16.93235557952372,-17.300960685364256,2.852526391109331
680,1.3758782612509062,-16.1710132513802,-17.26274428811102,3.595733103784852
681,2.3421615748986757,-15.45352705477502,-17.196354954269882,4.185879564567796
682,3.182778835672215,-14.785457373101885,-17.115395511629526,4.687203829890331
683,3.8782438531248675,-14.162030343728498,-17.06514163250982,5.068954020965546
684,4.366696982304696,-13.572970794025839,-17.09151730471909,5.251810117282982
685,4.6431062637655485,-13.007555051848144,-17.227574122924587,5.213637864027846
686,4.802478442163838,-12.460547071906113,-17.49466756098081,5.026940100120553
687,4.932166306317003,-11.935525415721916,-17.90319998995867,4.76643018361963
688,5.006241207856939,-11.442764345461173,-18.44992426718964,4.420174647200259
689,4.938448038255245,-10.995611338945643,-19.114088158773697,3.916505270001642
690,4.710007961983772,-10.605998383396523,-19.85537435554658,3.2303551106512023
691,4.4113112908266805,-10.280149071857025,-20.61509783788933,2.435740303556259
692,4.131792604606153,-10.0164548596522,-21.319034073637575,1.621465455436629
693,3.8613665275289915,-9.804667909972691,-21.893438361847593,0.8012258715796303
694,3.521264872295191,-9.62796699945279,-22.296208075288725,-0.06848805505204725
695,3.082897524164193,-9.467538122203097,-22.530747600873546,-0.9817762872524155
696,2.6168116357107127,-9.30616876490866,-22.633941605317304,-1.8434335201868672
697,2.201425966202045,-9.12941542613115,-22.65493415360385,-2.5540206343199117
698,1.8321253149068808,-8.925588934126399,-22.63312910805726,-3.080845045076099
699,1.4233910323842982,-8.687762912978545,-22.581086127212014,-3.4544222339546082
700,0.9214192900154502,-8.415998499149437,-22.48389247055365,-3.685732699691473
701,0.3718197349066066,-8.117198315354965,-22.313662048465932,-3.7240199443865003
702,-0.14581735598534531,-7.803078873993441,-22.036335307343066,-3.520555894590194
703,-0.5969004122307595,-7.487372340879725,-21.610372151718664,-3.0939242861307186
704,-1.009844257306274,-7.183023685352993,-20.98949729380046,-2.5412878078681147
705,-1.387111782839229,-6.898724544666983,-20.13528818250434,-1.9562287269257739
706,-1.6532458227123428,-6.638306596387305,-19.03684735116494,-1.3544830977392746
707,-1.717169041808299,-6.403211806086375,-17.720171805155704,-0.6971659403242058
708,-1.54245598376591,-6.192700615608244,-16.243986821647887,0.03469412281550696
709,-1.173387349177226,-6.002056712819774,-14.690714749013507,0.7973428271056408
710,-0.6674263241290156,-5.82194743570141,-13.149525044216308,1.547708877028525
711,-0.024856271761351967,-5.640046591866697,-11.68890958012649,2.30617773477024
712,0.8074664006135441,-5.4426190600645015,-10.346019354704476,3.1393762149707753
713,1.8579619508103344,-5.215824893467986,-9.144323321365462,4.084071155466573
714,3.056760068467698,-4.9465241909254685,-8.105185110358981,5.084226893952781
715,4.295370494980975,-4.622490577323074,-7.243326549316888,6.038639340524109
716,5.526350822535575,-4.234658261310045,-6.563741738404171,6.892776692376076
717,6.782647088720768,-3.781090179633574,-6.064044103815592,7.6726185568029575
718,8.08537632676546,-3.2732304579986047,-5.736162840455652,8.407179775420527
719,9.362181657274283,-2.7388540559021695,-5.563687159943806,9.04990218329021
720,10.5015624934607,-2.215717239380683,-5.5219833270630785,9.518604487370485
721,11.445639231884813,-1.7409560339559171,-5.583057607426644,9.776249628638878
722,12.22493807451362,-1.3428781548172937,-5.719530505089163,9.870177519182334
723,12.878099655722153,-1.0350911101294995,-5.9089635054471765,9.853287981421241
724,13.367486828770954,-0.812159790421837,-6.14209454293977,9.692691072417242
725,13.619426680973495,-0.6539091012362994,-6.427501683275792,9.308891863905211
726,13.617090246342215,-0.5357066566659725,-6.781944090765436,8.673540987982868
727,13.44904339570066,-0.4331326780164521,-7.213943242973074,7.856343020843579
728,13.214905076201767,-0.32269311049410415,-7.715607217887133,6.942941762537823
729,12.90732103019411,-0.18515971852474858,-8.264279296394735,5.94411747118445
730,12.449452415608906,-0.011960486956560767,-8.827547804739654,4.833707075661404
731,11.826721258618019,0.19241413696857593,-9.368092031568949,3.6476281456030715
732,11.143286546604271,0.41468063942929173,-9.847491462085566,2.5182639151521062
733,10.504590162241255,0.6389976630469497,-10.22756420891594,1.567407250636332
734,9.89987682534906,0.8541828682755794,-10.470946284838881,0.8008076862457819
735,9.24301751425815,1.0575379861291614,-10.545184938678577,0.14907177359340487
736,8.500290969993742,1.252295050132857,-10.429256423058074,-0.4147889702801057
737,7.745869017747549,1.4422863115900753,-10.119311202916013,-0.8345408073750491
738,7.06452174486714,1.6279736552048911,-9.632419406179025,-1.0515661739558757
739,6.456605443557293,1.805777012818956,-8.997774263081954,-1.077981088576983
740,5.865272876988608,1.9692432219922487,-8.235767707015455,-0.9801363048127603
741,5.281877699130077,2.111954388234114,-7.353860428371234,-0.780543941795627
742,4.788148650426237,2.2322240684426076,-6.361750480241918,-0.4117270591900599
743,4.465965943492163,2.3367692733623198,-5.281347681844582,0.1954887857624002
744,4.305259138574093,2.4387806899471864,-4.14551028810709,1.0262771686403573
745,4.212380940190367,2.5524043276559283,-2.990139341186119,1.9931227532325195
746,4.128697320045811,2.690520338406557,-1.8449586416309476,3.032508392118684
747,4.093352780898938,2.86498858548691,-0.7280985828547617,4.147202797036056
748,4.162223690452181,3.0839184887940494,0.35423073323036675,5.3402797580478065
749,4.321507776503527,3.3463360120817223,1.4040168201602365,6.558904448767496
750,4.480845271878843,3.6422496208173802,2.4262576381869216,7.700424086774134
751,4.576656594040681,3.958811895013701,3.425691935101697,8.699052261111053
752,4.637977830867303,4.285264197819085,4.404902079531442,9.572750885772294
753,4.735798692510774,4.615998406249599,5.365399689807083,10.370485883236732
754,4.909014365842304,4.951133866794318,6.311423721745521,11.110574828883234
755,5.127625784456735,5.295405233846625,7.248863046329727,11.74947277260448
756,5.359741885476752,5.654694448954084,8.171574346076934,12.234605717757375
757,5.629859725566537,6.029402758468543,9.040673960504874,12.573895563415974
758,5.9888081893363,6.383681172556928,9.817460496094725,12.8600854222044
759,6.447767652719662,6.754492683467354,10.38514565006786,13.098924986052397
760,6.96066408200731,7.155919997611097,10.692333015291329,13.265640173342033
761,7.503380844942724,7.585791195484677,10.73327484644175,13.371169964612035
762,8.092932081666564,8.030422744509112,10.533633881959252,13.467713013725573
763,8.733206907516003,8.469854303669697,10.143132224944504,13.595326310179592
764,9.364028432222486,8.882410070994593,9.628889101936414,13.744346648923749
765,9.889937196617817,9.248047255818951,9.066719719592108,13.873379244287845
766,10.262964885216585,9.551581984380833,8.529686531425615,13.961027217218838
767,10.510902124593771,9.784377841049372,8.078362688486374,14.024920741941205
768,1.0122663816150013,-0.1018470671061048,-0.5272094729263626,0.9240361873147472
769,1.5360571097183515,-0.27927079221043183,-1.1791125957338333,1.4797520451983428
770,2.175319583878674,-0.5594448196473673,-2.110441420639491,2.1912530024859365
771,2.828982830711508,-0.9527068439773262,-3.3365342658479773,2.964938250734905
772,3.40163994694654,-1.4559120356054607,-4.86788781791328,3.6999495118455616
773,3.8923880354600953,-2.051869906857328,-6.696251098985988,4.368632397082025
774,4.3672086852005885,-2.709365110531336,-8.780596240870345,4.996364115410381
775,4.854873589481803,-3.3879410559591085,-11.050477612303164,5.572488118729568
776,5.32241266381692,-4.048772967959175,-13.416866203537346,6.037287256587021
777,5.741623252277376,-4.666192105158113,-15.782287263046433,6.35068621703051
778,6.182929450451539,-5.234522673836131,-18.06557087224898,6.576620727825106
779,6.678103809918944,-5.752679310525792,-20.16989634870967,6.758226031072335
780,7.163119230748311,-6.222376005678617,-22.02446187163655,6.865200314554874
781,7.5122133250181955,-6.645941142306833,-23.593413073002584,6.819323370178257
782,7.664672938165367,-7.026476314809586,-24.877310594017604,6.606706044707498
783,7.679214830430259,-7.367485169408832,-25.9107673521134,6.318776069866015
784,7.629863677860132,-7.671558455715805,-26.750497510505014,6.053634951002703
785,7.512553096419739,-7.937237131429003,-27.460829876402798,5.8267017049735905
786,7.280779463210129,-8.156324730976928,-28.098984715154405,5.597643888026746
787,6.9467945910013675,-8.315880193972644,-28.69877420926481,5.368020313729961
788,6.619722279069348,-8.404488813326605,-29.255900613754818,5.214981220227824
789,6.398525084572233,-8.416207324470447,-29.726438445507274,5.195577042569347
790,6.275005725766289,-8.351582021295538,-30.045085197000414,5.269810648462286
791,6.166086387269538,-8.21890753792452,-30.15015743535432,5.331666406061946
792,6.033631113647819,-8.031153130690361,-29.999673753345988,5.316723019050571
793,5.933417192804141,-7.797855328757836,-29.580914993610055,5.24961426465276
794,5.9283946763089626,-7.5231907227067225,-28.918272528801445,5.169678968912807
795,6.0058920653208405,-7.213001576852507,-28.062331157507884,5.05989239800105
796,6.080688367901951,-6.879107101841922,-27.069261514754757,4.847351370268866
797,6.100472259026657,-6.5360374164445725,-25.993260765289914,4.490129062549845
798,6.103868673164495,-6.195898261689909,-24.886933561561875,4.028504792995413
799,6.155511252025602,-5.865163046469606,-23.797995721545455,3.536083198642732
800,6.267689049823548,-5.545596325909054,-22.753731226731528,3.056783221697345
801,6.368303930179704,-5.237711035130345,-21.754764380096503,2.574250585106832
802,6.388607213608501,-4.941034910897926,-20.788239577811126,2.0732335043261183
803,6.345054779710965,-4.652073512434971,-19.84055918950748,1.6033571618088904
804,6.30556769963994,-4.364031663171143,-18.899723101572302,1.2628406828854675
805,6.309161264509494,-4.069007832575815,-17.94913561614382,1.1217804578634116
806,6.319112418788427,-3.7625763917179738,-16.966905914549795,1.1555377469356398
807,6.290509865182502,-3.447629386070225,-15.936362175069242,1.2962425455901503
808,6.246338503626305,-3.1318614822544197,-14.852495170154441,1.5127245333273658
809,6.271540758022242,-2.821129414685934,-13.718992191975591,1.8242256343276102
810,6.430771482651593,-2.516108524219392,-12.549685614528565,2.237397854024373
811,6.69550759912963,-2.2123441743432406,-11.37305227000543,2.687590835491281
812,6.993461343338584,-1.9006192813215155,-10.230550656618028,3.0908302484727512
813,7.297103417317951,-1.5707321483743941,-9.165456091476532,3.427509170074633
814,7.6552392607349615,-1.2180955385067782,-8.203739983047033,3.7624468411183862
815,8.110622101893608,-0.8458067273816309,-7.353421847476138,4.159395351699461
816,8.608532874632305,-0.4625560020768175,-6.623490187438643,4.59511495523239
817,9.045760905487041,-0.0800156038753293,-6.029613247347337,4.994762665149359
818,9.37917948707468,0.2895775812508721,-5.584464374712114,5.322574970931907
819,9.665946848833107,0.6331822994483799,-5.28591691832564,5.622356758332243
820,9.956979253757563,0.9347086627375512,-5.112066908839276,5.9266295523522405
821,10.193975651618645,1.1773894195484433,-5.02689275518977,6.159025939519502
822,10.264043583653278,1.3511204196113533,-4.9924241013619115,6.191349821760164
823,10.119624090355883,1.4579387205086087,-4.975554891829838,5.976859228412075
824,9.831237192483544,1.5111371243475027,-4.945184259682793,5.5927452556216215
825,9.479839895189386,1.5279661400452986,-4.870545919906499,5.129665058069695
826,9.038097185785036,1.5212511920258383,-4.727977588731491,4.5902726445202395
827,8.412691179032233,1.4963211272770425,-4.509391791597108,3.918707085495684
828,7.571299143998757,1.453825258613607,-4.2222172393282165,3.098343297334705
829,6.597265027895998,1.3928833482623533,-3.8844017809291054,2.189460483622199
830,5.582107582823974,1.3120438225931719,-3.5205104170032806,1.2480552756448575
831,4.511813827729837,1.2097565099345922,-3.158751078825034,0.25382564673689534
832,3.30447513105363,1.0849947874931962,-2.8246574063616934,-0.8601383202390642
833,1.9415710367856973,0.9382950476890314,-2.5282957203700533,-2.106116214176146
834,0.5200875129654188,0.7730778414962699,-2.258204806487559,-3.3963982484864723
835,-0.8534313350412899,0.5952223686097854,-1.990283291055799,-4.628645827044888
836,-2.160694070857606,0.4112547360607478,-1.6988299982125015,-5.771104646491614
837,-3.44772173968279,0.2274849950969095,-1.3637794961309075,-6.851720485358702
838,-4.716814912366708,0.0496781664496185,-0.9773727267820973,-7.863865517336764
839,-5.88259080107003,-0.11770076811874622,-0.5479461806319301,-8.72681651062735
840,-6.868641085960165,-0.2736380446677945,-0.09587637994751867,-9.378178259159087
841,-7.693989955753564,-0.4223396066882815,0.35499626797029193,-9.85021685576381
842,-8.450213985785808,-0.5711541708057851,0.7814971546849487,-10.24341496938916
843,-9.183388251357183,-0.726006961473973,1.1621438701762041,-10.625131666077975
844,-9.843657009726126,-0.8879811104512713,1.4859400072526106,-10.978455891725478
845,-10.366790477963459,-1.0533220726986066,1.7612268743914221,-11.25380131752456
846,-10.746017637390008,-1.214808017791807,2.0123860652759835,-11.431380155374745
847,-11.0384749540458,-1.3617186600144362,2.271130535447197,-11.543669150301538
848,-11.277365280315422,-1.4808713811335392,2.5707390544511073,-11.616217502413893
849,-11.416679573459758,-1.5599486804749998,2.9436481919341646,-11.611863279901465
850,-11.388187893473567,-1.590946738589787,3.410715340525367,-11.45942097403878
851,-11.179355327341353,-1.5717250185083302,3.9669268212489195,-11.129501476103737
852,-10.870514537387741,-1.5054715345731977,4.58316828720776,-10.680199006035371
853,-10.55612874067575,-1.398744397481751,5.222362876653621,-10.191661380135459
854,-10.260919102546998,-1.2580400141802623,5.854640296781158,-9.685954766655291
855,-9.952621655929534,-1.0871991947078186,6.457984468093744,-9.12117885117302
856,-9.618592734779293,-0.8879228759974933,7.0114381622968125,-8.46584646966577
857,-9.32036391598571,-0.6612402917014231,7.492701981289569,-7.767777461117063
858,-9.13447036202852,-0.40880128321695886,7.882031032772713,-7.104141309572177
859,-9.069355680477852,-0.13472348189365907,8.174001995407833,-6.501880358581025
860,-9.04368623080448,0.15353943077030818,8.380048338706025,-5.917188585428072
861,-8.972496243049667,0.4447240850746141,8.512655810915442,-5.302519221251961
862,-8.86488756133783,0.7225902087357764,8.572161711952912,-4.677576203208905
863,-8.786982006809128,0.9670660311632484,8.551034525012488,-4.104926867057764
864,-8.765629912095651,1.1565769709902503,8.445322624893084,-3.621518848029178
865,-8.742285682512222,1.2699511079357484,8.258482255582953,-3.1913572541860797
866,-8.65853282036916,1.2907069605608723,7.99748282542657,-2.774406798186626
867,-8.551657572382096,1.2124895344062518,7.679464708613619,-2.4163151655290664
868,-8.512558174578325,1.0413043206376815,7.348398706845828,-2.2090547423903106
869,-8.581018018098339,0.7938837042236706,7.062801172756091,-2.18965086754328
870,-8.693497119547889,0.49461834329953375,6.86204189121241,-2.295192671492966
871,-8.78528981670692,0.16992817116869097,6.753314252102286,-2.459452902288298
872,-8.902991668663313,-0.1581901006464237,6.721095195443288,-2.715189993777013
873,-9.162824201985837,-0.47357769389322535,6.743147073183896,-3.1532833559075653
874,-9.635763516861793,-0.7651747724911582,6.795044752677381,-3.80903887930019
875,-10.29211104407112,-1.0287907171616404,6.843782916421639,-4.618879694464921
876,-11.084023647192499,-1.2679199623254784,6.848336583751948,-5.509031022738342
877,-12.037793935406292,-1.492968750376755,6.77119744711192,-6.479063425042418
878,-13.219849403514209,-1.7181359395382567,6.594144418329816,-7.576231979026075
879,-14.614119100231758,-1.955265650667743,6.322597338032198,-8.798880420838863
880,-16.07719944011846,-2.209428728403971,5.98129972705465,-10.05664067690333
881,-17.454968269218046,-2.476112878804176,5.615715260560955,-11.24990858333007
882,-18.687914725770362,-2.7408283422939514,5.287181785547088,-12.350441591035985
883,-19.787682622253644,-2.982844171945074,5.0574303050760685,-13.386784341240215
884,-20.7314553400095,-3.1826425246590233,4.972279206773035,-14.344632735131247
885,-21.427252355509623,-3.3296160691262235,5.04786325907283,-15.135822459635492
886,-21.83106716934123,-3.4436262142968723,5.242232761829708,-15.699710126770732
887,-21.952629511304828,-3.4955484296459014,5.579733240707682,-16.040756452333635
888,-21.870291315289226,-3.475775376241046,6.056399488803908,-16.21399468941506
889,-21.619103185463864,-3.3884774639979156,6.6393884816840325,-16.233925793965163
890,-21.188509787487178,-3.246675905498626,7.275956355653719,-16.07670441589132
891,-20.608631913391623,-3.0688609835387544,7.907142483722845,-15.756213771129119
892,-19.97731364062059,-2.875259181956551,8.47987300049201,-15.350781976522345
893,-19.409214738610896,-2.6846576383703113,8.95656379808073,-14.961421167268462
894,-18.954579096256815,-2.5126858534098253,9.318731011921852,-14.641135335595385
895,-18.594989884532847,-2.370105742024571,9.567000647447262,-14.385213189853419
896,0.39941920430889255,-0.12497787297476272,-0.274915308953933,0.26464831166448505
897,0.39614426058325763,-0.30309844328720614,-0.6324938595600368,0.18836804606992158
898,0.3411337261173045,-0.543501915511653,-1.118120582703104,0.0521019231556077
899,0.16968330702856566,-0.8335409215011551,-1.7141694546068231,-0.19416079924461258
900,-0.15121856653108742,-1.154923354538651,-2.3971796343802367,-0.5713942869009981
901,-0.5646408301089855,-1.4816341598993787,-3.139664575602064,-1.0217396498167681
902,-0.9651701057610999,-1.77921380264477,-3.9106606349062134,-1.4461912261695637
903,-1.3025856942520386,-2.0131281428507637,-4.678534519227373,-1.7951770493092876
904,-1.601424253372562,-2.1625072895009914,-5.417043150344162,-2.0853462980140978
905,-1.88786267599338,-2.230030481689901,-6.1124466299564775,-2.340264805343113
906,-2.1182484518973816,-2.24408226227119,-6.770881440117039,-2.5350320503780104
907,-2.2746735174801915,-2.2408410345892484,-7.390562270224441,-2.6684092605181036
908,-2.4272640754215056,-2.2546594126426487,-7.96864823755316,-2.820397300305166
909,-2.6823205116762665,-2.310876359413752,-8.501384650312312,-3.108770286349273
910,-3.0837307212088265,-2.424114566116614,-8.98088736102193,-3.5825146080296086
911,-3.5841424846724363,-2.5954072665920465,-9.394997139566325,-4.173102907199883
912,-4.131439062613184,-2.8135137214836203,-9.733454900050518,-4.786689238209555
913,-4.75564639997241,-3.061462895787178,-9.99102905544682,-5.4099004126294385
914,-5.527269117422863,-3.3200753726592414,-10.170149260367271,-6.079332612423932
915,-6.455267919342411,-3.568671135748994,-10.277276520383596,-6.7849466442960855
916,-7.437505346668327,-3.787141644044546,-10.310920652997112,-7.426785009291676
917,-8.365709984884099,-3.960627544780139,-10.261060143356667,-7.91264910623653
918,-9.244610791191679,-4.0845959872521584,-10.118641947828003,-8.261052692336301
919,-10.148423753681875,-4.165152511350263,-9.882081260199016,-8.561604083107504
920,-11.09339282631964,-4.211764792811779,-9.559130422571547,-8.86662573371375
921,-11.986145103195177,-4.231091144105365,-9.16774255647165,-9.144272586134198
922,-12.73679285706312,-4.229447139444355,-8.737265907966126,-9.363305583945708
923,-13.375080074215369,-4.217581379452163,-8.306334428294528,-9.575359952219546
924,-14.013382048742733,-4.2111217955608,-7.914182579748028,-9.878888215258836
925,-14.71754658718002,-4.228135756443715,-7.587513822281237,-10.316051550072002
926,-15.447023107566402,-4.287492837230969,-7.333186135750634,-10.830131696953947
927,-16.145725049393608,-4.40488552851261,-7.142888475826765,-11.359623832054453
928,-16.82766430087404,-4.586957899768247,-7.002199799057952,-11.923730744726646
929,-17.54938589895126,-4.829640463134606,-6.894708016487377,-12.584598167065622
930,-18.30718175676734,-5.118158010512797,-6.804102750248732,-13.339623579612395
931,-18.99064506411321,-5.4260403028269435,-6.717271785221609,-14.091698811488289
932,-19.483336588179686,-5.720736723222129,-6.626290367075497,-14.746271555965102
933,-19.770506965879115,-5.9748338129270095,-6.52925918780998,-15.292747647630387
934,-19.925870998473215,-6.170110686765067,-6.429228941246582,-15.785272790428852
935,-19.990407263690617,-6.2963637482457315,-6.33190908976439,-16.241310556200283
936,-19.9179366400629,-6.351602546246046,-6.243389098260523,-16.601924472651447
937,-19.65738955899859,-6.339740469453705,-6.166192494835725,-16.79891692238057
938,-19.230254055343327,-6.267295032713813,-6.0962180195944295,-16.81376749823434
939,-18.730448796768723,-6.142014603125179,-6.023061561348916,-16.686624710378656
940,-18.220703434968048,-5.972285162287123,-5.932842825553819,-16.44089672861926
941,-17.66596744675265,-5.766867019748784,-5.811244694557288,-16.03222018216717
942,-16.98921386889844,-5.533815368153699,-5.648599915650062,-15.398317734859804
943,-16.155999673926512,-5.279073243333199,-5.446845214426799,-14.529698140747971
944,-15.219286439389265,-5.007497039338177,-5.217841533763671,-13.503214869382658
945,-14.248124361810175,-4.7260925443996875,-4.974818237070628,-12.412956360592494
946,-13.251327451468017,-4.444515143298652,-4.725721415993616,-11.29459648604865
947,-12.197502331299477,-4.173225880452313,-4.469996408467222,-10.13363468917414
948,-11.089245748898547,-3.922872607478403,-4.199470471981943,-8.926321548773856
949,-10.008613479818855,-3.701790265309446,-3.900293640664302,-7.728668084975236
950,-9.043070648498018,-3.510112079785861,-3.553468183745117,-6.612832291214691
951,-8.201899236230634,-3.340309082966648,-3.134858351134034,-5.5986621717379705
952,-7.419607381753314,-3.185113432814233,-2.616282633511796,-4.640244804530753
953,-6.645042024221476,-3.039893434963116,-1.9719327556986674,-3.6965807820134424
954,-5.92191023335508,-2.9032108371606284,-1.184741246702314,-2.8068554547862488
955,-5.3377733859601,-2.7799673717290325,-0.24493785660320277,-2.0571237273933227
956,-4.9269835171938725,-2.679672176311139,0.8513640678397565,-1.4990012307064045
957,-4.63945474918587,-2.613149959417016,2.0979108672224123,-1.1092917950656078
958,-4.43284963067836,-2.5928539825108867,3.4739555821275,-0.8596701083271501
959,-4.365846713196353,-2.633152835212005,4.9465301890378175,-0.7949733157419947
960,-4.546842423899456,-2.7459429954809553,6.479071444836197,-0.9877457478084282
961,-5.01803335347227,-2.934680590179074,8.037926475891432,-1.4399229856236233
962,-5.695896502908643,-3.192745092389072,9.592892722568848,-2.04202857056765
963,-6.473050574567439,-3.504149000813721,11.116313198316934,-2.6746690881442166
964,-7.337107992199387,-3.846797529856927,12.581883997355089,-3.31614085494867
965,-8.331753329754617,-4.199896316608019,13.964403320170975,-4.007985082003514
966,-9.447318929270596,-4.546069374549449,15.24077305562269,-4.755864072447634
967,-10.573231117349527,-4.868067230023255,16.391064944873428,-5.482314329753334
968,-11.60027903969939,-5.1507590017873675,17.402527690326817,-6.113006012703612
969,-12.529577892819447,-5.385727535222767,18.274178294605687,-6.675225663914457
970,-13.426811932147983,-5.570912147728182,19.017579875088757,-7.261055621518081
971,-14.296067877261104,-5.706873083934276,19.6509563546102,-7.909425290545471
972,-15.035954280046282,-5.793233798756547,20.1900011387715,-8.560254805724202
973,-15.552782304362237,-5.828694261397618,20.64395733339786,-9.145564343489418
974,-15.870962625966236,-5.814653600070957,21.0164281695988,-9.681536294010597
975,-16.10559401133729,-5.756504479558463,21.308279941399597,-10.254805165626138
976,-16.33243792398748,-5.663824137326267,21.52103809744558,-10.916816073978946
977,-16.52286512354111,-5.5484141702596075,21.656489077853603,-11.63136183882244
978,-16.630077065749333,-5.4192316885441025,21.71088413057359,-12.351014483078123
979,-16.67281480993669,-5.283455140858809,21.668834245210572,-13.081332416352986
980,-16.72249574654764,-5.152898136823355,21.507432897842975,-13.866234826554034
981,-16.79241479127188,-5.046840182446801,21.21102652672709,-14.701605677609141
982,-16.783009938720394,-4.987752494121381,20.78280638411871,-15.497712617844268
983,-16.587208529024124,-4.9957244894705255,20.24287390852164,-16.1589777666148
984,-16.201800328937633,-5.087521614359132,19.620375113472477,-16.669954897352156
985,-15.740603316372567,-5.278122119788348,18.94671973111734,-17.121557247336508
986,-15.315304914268706,-5.573560478607912,18.24750063239775,-17.608964540165324
987,-14.93590770377333,-5.961035498306939,17.536535943641358,-18.130967894132482
988,-14.588847983931117,-6.41603927285263,16.82058650718901,-18.658514414528284
989,-14.33778565476223,-6.9147208140392955,16.102318025329453,-19.23391099655788
990,-14.283396901297852,-7.442656071122723,15.365366715164136,-19.937769766570902
991,-14.455068176606584,-7.998279704989594,14.584432214948528,-20.786494221757533
992,-14.78783145669671,-8.588101189415935,13.762982305132283,-21.70727187138356
993,-15.165429692027525,-9.228651822881348,12.930427501269069,-22.57466891578361
994,-15.516224499570598,-9.951499336517234,12.115026845634615,-23.308789389370368
995,-15.901912516486973,-10.801687019852992,11.33935346934152,-23.975140587573478
996,-16.444492239092376,-11.823307776639608,10.619795760567348,-24.721959703844373
997,-17.216625363903773,-13.046602781834604,9.950201623498991,-25.66442728497131
998,-18.25711203374545,-14.50245905896447,9.29701846343633,-26.878816590405755
999,-19.64207853616222,-16.21657859421109,8.624203300914592,-28.455285324135478
1000,-21.462407856394886,-18.172687368144288,7.912664299649055,-30.48156358846059
1001,-23.732039002399933,-20.312697050626152,7.153537036100451,-32.97091327630434
1002,-26.348828152436155,-22.569714402200816,6.322046839791905,-35.82132595264567
1003,-29.114104401339475,-24.886398403348938,5.367913242899258,-38.83661389402556
1004,-31.83636891962876,-27.211470160270263,4.26494143077772,-41.84285991939156
1005,-34.40785701285797,-29.488211764430506,3.0496179002008112,-44.763753360566554
1006,-36.768112707751605,-31.6685806874403,1.7474908253600356,-47.575047739233504
1007,-38.878356415857084,-33.75750408169777,0.29735889963655415,-50.27776950148684
1008,-40.712185220282635,-35.81636169038163,-1.3642555566784558,-52.89525495243622
1009,-42.270146171168825,-37.92646394006015,-3.2221785895298987,-55.479187671620394
1010,-43.63299433434424,-40.164152535008775,-5.279831396611879,-58.13971498745583
1011,-44.94055904329902,-42.588214157193654,-7.709102266257349,-61.00638872518389
1012,-46.263890137491266,-45.24219435175597,-10.941716409927732,-64.09270745856719
1013,-47.54959807839135,-48.14879114501416,-15.67471241908915,-67.24223664284432
1014,-48.723004449859374,-51.04019975506732,-20.75736543434196,-70.27742808940539
1015,-49.75531584949909,-54.27515725527537,-30.471645270260968,-72.99598816834137
1016,-50.60026048121499,-57.95509266643458,-46.83377959853402,-75.22595678942449
1017,-51.19513784041669,-62.02609373221626,-70.0612842814594,-76.84001666840354
1018,-51.50474185088292,-66.33845332838288,-99.00058234592804,-77.79447223938456
1019,-51.54791619190656,-70.66804726536246,-131.55237419583855,-78.14638404709956
1020,-51.41355486252763,-74.76566794503456,-165.1097692856009,-78.05082978463625
1021,-51.22409756354865,-78.4202059818595,-196.99158357777245,-77.70667672102039
1022,-51.04447934626606,-81.48701793179241,-224.81712856211132,-77.26602513865086
1023,-50.87118904889276,-83.87484583812231,-246.7669381877479,-76.81385846516756
1024,-1.3542755120872143,-2.7783704640714046,-12.69810160103576,-1.2689379972348112
1025,-2.8269053303791822,-5.703533646936437,-28.01261532899823,-2.790355914194066
1026,-4.788905403362746,-9.811458260473522,-50.09466725484589,-4.90177398862833
1027,-7.2336004838699495,-15.1125476830126,-79.09982699051213,-7.594512200201631
1028,-10.091248047328412,-21.527566332197527,-114.58629999366214,-10.75377413394589
1029,-13.234863145690683,-28.90003471423131,-155.54308373579897,-14.178155949001585
1030,-16.55384463466914,-37.02095046484878,-200.50546672488395,-17.680130811503634
1031,-20.026593849607927,-45.663467366084866,-247.76472277264065,-21.18930652188224
1032,-23.708026519287642,-54.62404324333961,-295.676498794599,-24.740387139722657
1033,-27.659363020983697,-63.775052585290865,-343.0702958803376,-28.381030628912292
1034,-31.94562109264578,-73.15417725548303,-389.7605920336612,-32.15527523277777
1035,-36.555380450358335,-82.65990316555855,-435.12655010253224,-36.03027686349451
1036,-41.462538515119384,-92.14128766335817,-478.6264182826221,-39.98322260691567
1037,-46.5991282447273,-101.4331197921224,-519.8124856328777,-43.96807077660792
1038,-51.83882278716466,-110.42085695671325,-558.3237819386163,-47.889873507494904
1039,-57.05323609622062,-119.05597347771882,-593.8753224481209,-51.644605099717495
1040,-62.17071843680329,-127.32294535609854,-626.233517079483,-55.16496193652431
1041,-67.19871471742113,-135.22179400453302,-655.2121425583163,-58.44739914323799
1042,-72.1774135685675,-142.77987826703534,-680.738154349956,-61.52684156193172
1043,-77.11330721460075,-150.0660790125083,-702.8951623380934,-64.44491218634397
1044,-81.96724054191847,-157.17836827160644,-721.8541883143724,-67.24790591638163
1045,-86.71097369230544,-164.2079513626329,-737.7711705092448,-70.01142621906038
1046,-91.37137132102082,-171.20622519970297,-750.7001272773849,-72.84164597878676
1047,-95.97744835993784,-178.17257433526373,-760.5135005170989,-75.80736799080528
1048,-100.49169318131047,-185.0624352077065,-766.8788699075047,-78.86187412018889
1049,-104.7875337146042,-191.79872892310468,-769.2783724472011,-81.81178991573297
1050,-108.75329194512496,-198.2969286752128,-767.0225988177383,-84.45993045342139
1051,-112.41696604695893,-204.489709582368,-759.319753749718,-86.77557738791619
1052,-115.88165361464736,-210.311590288921,-745.4004989361237,-88.83236645769452
1053,-119.18735405712538,-215.68586200343054,-724.6134458452366,-90.65803503003158
1054,-122.25475320096477,-220.52438759117285,-696.5080153651421,-92.18111740166219
1055,-124.96654183883994,-224.7083176596332,-660.9224544361222,-93.32062535604993
1056,-127.27279209407303,-228.08951728911,-618.0281234882747,-94.10179976845536
1057,-129.18099558415426,-230.520912591734,-568.3128896209998,-94.62829597836651
1058,-130.67020046015568,-231.87704158262542,-512.5173124017773,-94.95313008372196
1059,-131.61645861289523,-232.04971917043068,-451.5173852306544,-94.99842630447617
1060,-131.8825575124236,-230.94253700368898,-386.19393196597855,-94.64308483850391
1061,-131.46141989648387,-228.4924759441808,-317.3997426936875,-93.87283166613946
1062,-130.45719319060578,-224.69427200400324,-245.98788064752017,-92.78998792098561
1063,-128.96640696641515,-219.59901093029595,-172.78398045725106,-91.48208075105664
1064,-126.99814003862053,-213.2940608905304,-98.54351323358932,-89.92369888603517
1065,-124.5343292422032,-205.8738329777051,-23.932418844203546,-88.04238346308243
1066,-121.63511917157328,-197.42148127206048,50.47635022944449,-85.83799793935192
1067,-118.41470035639944,-188.00616907862286,124.16373463350777,-83.37123357641667
1068,-114.89339098631899,-177.67369595953815,196.63307191337998,-80.60082088348616
1069,-110.94554596713047,-166.4507419050826,267.4327862596063,-77.33015377081998
1070,-106.44443121459696,-154.36865668981767,336.16416680258243,-73.3773983243835
1071,-101.37412262702608,-141.46690004159177,402.4579835203573,-68.70434623395144
1072,-95.79131279591314,-127.79147857580588,465.9844268906168,-63.389392815684076
1073,-89.71287535666936,-113.40604355353415,526.4789118751178,-57.51366272550236
1074,-83.07319903279965,-98.39332966524915,583.7536666013359,-51.110320364195076
1075,-75.82531742725568,-82.85229514068673,637.7118861186447,-44.2488546445376
1076,-68.05446613414404,-66.9027222465085,688.3507739751968,-37.101284580880744
1077,-59.968204150751646,-50.68685500268101,735.7284869274007,-29.898571396171633
1078,-51.72890168256765,-34.35713530451414,779.9228886094036,-22.778829706720025
1079,-43.35894721301211,-18.064933336571965,821.0242942006829,-15.714702962431542
1080,-34.84275329353375,-1.9650235005103118,859.117502166477,-8.622667302447443
1081,-26.233890413484055,13.781560797028888,894.2276585624361,-1.4801053126420667
1082,-17.665611555140472,29.01602449678256,926.3022073098531,5.64815857412927
1083,-9.247286960665472,43.5926297073346,955.2431927638452,12.69711545366242
1084,-0.9959455770219339,57.39196497880751,980.9453318080089,19.6665217071304
1085,7.106223903199564,70.32813495696898,1003.3202091257226,26.571859058935836
1086,15.029678537245882,82.3404135769829,1022.309533374854,33.3600315360087
1087,22.66123760957769,93.39111630344004,1037.8950296291603,39.88203411096679
1088,29.888604416916245,103.4693876514998,1050.1085828218813,45.99517216660846
1089,36.686202611465404,112.5749743743617,1059.0434504509094,51.65083587875945
1090,43.08848552280898,120.7046855936344,1064.844904110967,56.86558213982732
1091,49.10598991540947,127.86541404108917,1067.6844462327354,61.63639403455216
1092,54.67304125512628,134.09460129298049,1067.7458242254802,65.89319312809927
1093,59.717157445249384,139.47037807407554,1065.2198366723348,69.56129787077934
1094,64.24410072243325,144.106837561812,1060.2988721328531,72.64469449586784
1095,68.33008731487449,148.1373114384721,1053.170960437671,75.23288694134277
1096,72.01770100228822,151.6892289735033,1044.0155208176113,77.39974062155675
1097,75.23603078637633,154.86337462681345,1033.007814745686,79.11249766540217
1098,77.87564966628973,157.73345395898,1020.3297964648463,80.28667356754704
1099,79.90055258557572,160.35290168675803,1006.1689676288541,80.89803282848597
1100,81.37658318724678,162.75602630348288,990.7071960555866,81.02110483251059
1101,82.3806031261422,164.95867746600715,974.1173705940423,80.73084716884918
1102,82.91083984127107,166.95521380279305,956.5645007953766,80.012441090261
1103,82.93553874882599,168.71524717019113,938.2049810420904,78.80769909516889
1104,82.49479662790137,170.19109223262893,919.1858620327372,77.1067115387801
1105,81.73111886366743,171.33367848684858,899.6443279209637,74.98849106116371
1106,80.77361560904762,172.11387725840103,879.7073585231465,72.5380167670838
1107,79.630071394975,172.53702439654677,859.4915564920739,69.75992045332387
1108,78.24485914936345,172.63033233732887,839.1031200133132,66.6230479731253
1109,76.62119194178314,172.41912364277428,818.637942385285,63.16178654380874
1110,74.86538140640343,171.9197169388366,798.181820765209,59.51124625899628
1111,73.08086629536102,171.14503905937286,777.810757374766,55.8075534159642
1112,71.26330155264502,170.1098219834938,757.5912749635091,52.090117053727305
1113,69.34877333346651,168.8322466991414,737.5809076009975,48.335546529066065
1114,67.3405253471505,167.33400023735868,717.8289542686196,44.56324630948111
1115,65.35081023971787,165.63147993317713,698.3769022296485,40.86996528716767
1116,63.479281816348674,163.72124371068998,679.2585542429454,37.32568553796474
1117,61.70780341738517,161.5844110918425,660.5005311470613,33.89362602644435
1118,59.94476404125264,159.205791271238,642.1230337646537,30.483185254222843
1119,58.14706871851539,156.58713070719472,624.1405586353958,27.065541875564076
1120,56.36986243366594,153.75472397007005,606.5625654461156,23.718181334383384
1121,54.677870189495756,150.7579760938992,589.3940948770821,20.544288491582694
1122,53.06304911953248,147.65657522986757,572.6363363379038,17.58585351825573
1123,51.460528417001825,144.50730365678552,556.2872081752128,14.818790161214887
1124,49.84943044905092,141.35564712633465,540.3415259333791,12.239345914114237
1125,48.30249531744438,138.2299465721047,524.791422919778,9.910161890359797
1126,46.89818014483996,135.1423833356528,509.6199590842891,7.892296274084465
1127,45.63752669729653,132.0956709847875,494.80760702354377,6.178246728276888
1128,44.45685664068797,129.0866261855455,480.35358511084263,4.6925967390238315
1129,43.327217431074885,126.10924208084244,466.2714511780274,3.380537214775101
1130,42.29869408991265,123.159423780858,452.56552280456395,2.262307853081878
1131,41.433699446163885,120.23899885524813,439.21545361649214,1.380828259155774
1132,40.74264158886132,117.35969554377456,426.1827934926131,0.7396469619988969
1133,40.17059790027185,114.54329018837348,413.41646525469054,0.28822538254153274
1134,39.67955288663813,111.82250813622758,400.8341578880944,-0.013389380761237829
1135,39.30866866399057,109.22549466819439,388.31150263178523,-0.145760806971984
1136,39.12679137429514,106.73813292440003,375.69934862957336,-0.0595687582331238
1137,39.15412453591132,104.30352015555155,362.84610048198647,0.2570204231856626
1138,39.31973156844288,101.86319662296127,349.6114579461063,0.7338658917634091
1139,39.53382760381235,99.3939608089471,335.8690072303773,1.2781049470386452
1140,39.775863486034716,96.9265060235447,321.50010739663173,1.8526741765177845
1141,40.08375334231988,94.54453158163058,306.405017465818,2.4850295711471646
1142,40.47747060740237,92.25572436006325,291.36268799118164,3.1935297070797506
1143,40.90219063391479,90.39441225829859,275.0713567659831,3.896103349050128
1144,41.32963079741304,89.170876934678,257.1973139702214,4.537647783960901
1145,41.7775632193835,88.6773229923289,238.07295418557007,5.115071002263028
1146,42.26173008057475,88.89916903358746,218.4455813581757,5.642896906131351
1147,42.74766359780481,89.73246357565976,199.2787012236747,6.101926156734026
1148,43.16676673999114,91.00511972170142,181.56686973026368,6.448410064913133
1149,43.477759750707776,92.50166781940155,166.17431863642574,6.668278291751071
1150,43.69718470170111,93.99237563240862,153.72296420751354,6.794317959152505
1151,43.86794078384647,95.26767136613269,144.53949000209104,6.875735986230753
1152,-0.08357760144629595,1.2876388481198653,8.774061923183144,-0.18381347236399154
1153,-0.4513906938086417,2.7508934183149933,19.729502897433658,-0.7541990973784979
1154,-1.0411601328784958,4.807896315470552,35.57360315545484,-1.651133766791806
1155,-1.9391683586075084,7.4453522721851595,56.354294582833774,-2.956326530937314
1156,-3.139439074351957,10.603811100228741,81.62549553825394,-4.653051259382349
1157,-4.551236812087322,14.18387143859022,110.50005195048949,-6.634005924933971
1158,-6.081575576046492,18.060258633480537,141.764954396137,-8.778374019652007
1159,-7.674385919524399,22.0990220180398,174.04608678660912,-10.994003578950345
1160,-9.287354551261396,26.179261485946625,206.03419762227725,-13.206444167217619
1161,-10.83932477963745,30.224289184802956,236.78091252093293,-15.318073031666199
1162,-12.235936640950968,34.243694241357545,266.0751631589591,-17.23941147953969
1163,-13.480354418278157,38.18638704518444,293.47911342875045,-18.98174874439923
1164,-14.677173175126539,41.989638193768585,318.6443402446838,-20.647428961389874
1165,-15.898837465451892,45.590700819335524,341.2819202313537,-22.305095852981058
1166,-17.116155680692817,48.93505083657457,361.1489307590078,-23.934584603605945
1167,-18.293345520614416,51.97392345104878,378.063724176901,-25.503685764684118
1168,-19.482628759374087,54.66068148198242,391.91026623259836,-27.03837500935396
1169,-20.79203612436425,56.95515726707102,402.61899277397526,-28.603374867341522
1170,-22.24480024605563,58.83542361704555,410.15649997515214,-30.189816356217463
1171,-23.72562929864757,60.29822290678193,414.5440551992886,-31.66590550150403
1172,-25.08965593112104,61.34476637470559,415.8791049745824,-32.8782340079604
1173,-26.264495847448927,61.97629158279808,414.3222280910982,-33.75262856172804
1174,-27.261120000165338,62.19908938212245,410.06470785296955,-34.305363109753294
1175,-28.08503040070795,62.025861492217444,403.31100900010654,-34.560932859816766
1176,-28.682981403834653,61.476365078802665,394.2802462374071,-34.49880019932968
1177,-28.99534449363167,60.57952561364495,383.20720151006316,-34.08916846169955
1178,-29.022262805461946,59.37260651980092,370.340069356664,-33.34936222993438
1179,-28.845877518104878,57.89974628951796,355.93082499456494,-32.36719301725031
1180,-28.541529169635588,56.21174022733264,340.21629846803273,-31.224566363846723
1181,-28.10322520998896,54.35955359537348,323.40985233074514,-29.937179487035085
1182,-27.484394827586186,52.38093204689743,305.6968439656813,-28.488144660580662
1183,-26.672091419066593,50.2961756014617,287.23203820048866,-26.886271534115032
1184,-25.716757463183367,48.12344189528636,268.1451255137838,-25.195549119761765
1185,-24.663281998190357,45.88826653679798,248.54688077350687,-23.48339609994127
1186,-23.489521258177348,43.60939811440541,228.54792715206216,-21.75809756566867
1187,-22.127692247668882,41.28898349864892,208.276793244182,-19.966748607694797
1188,-20.54774094652467,38.92184222002831,187.879890712975,-18.0745718355062
1189,-18.821464710894684,36.50871675017672,167.51897218638928,-16.13364771058456
1190,-17.059864684852176,34.06548189292622,147.36833154076686,-14.223406384399844
1191,-15.321580570074115,31.626115557889058,127.60007083409793,-12.366639201390667
1192,-13.595554872523877,29.23953042095625,108.36902476046517,-10.513887236294343
1193,-11.881716361178237,26.965146359398684,89.80510057941038,-8.621820535386211
1194,-10.2681377911429,24.86966493002893,71.998209798277,-6.735185202291982
1195,-8.878401886148039,23.02061746416601,54.982636835793905,-4.945806800579749
1196,-7.760067225595222,21.47469556501445,38.74020066242077,-3.2895144677128716
1197,-6.828275222062412,20.263451885274687,23.226762890990127,-1.696788279437806
1198,-5.966022223733712,19.383976167632245,8.40148386963588,-0.08265774295758377
1199,-5.144672617168855,18.801632498790045,-5.760269293650081,1.54759606429718
1200,-4.396317769527954,18.455365200405126,-19.270819936896235,3.121984922444286
1201,-3.722115021545251,18.26109765115191,-32.144857475854394,4.59239142445417
1202,-3.041805025322529,18.128986552149918,-44.39377910595343,5.9860521916442
1203,-2.2779699772338975,17.99228271447936,-56.00039642945504,7.334125267293956
1204,-1.4606997429811506,17.818749428968943,-66.91705692323212,8.585900656413418
1205,-0.6901635207580086,17.60044236467151,-77.09149424373265,9.643722896918971
1206,-0.01656710310429904,17.343097543892977,-86.49661756807818,10.472520227579258
1207,0.619598707335236,17.060503495259606,-95.14764809087733,11.143924520196087
1208,1.2903776232160336,16.768843939581632,-103.09491400093911,11.732978539856184
1209,1.9827720645589042,16.47928486838476,-110.4027696636955,12.224354188525105
1210,2.638103056775746,16.18923299559667,-117.1374759207988,12.551299551245048
1211,3.254401307487448,15.876325025615985,-123.35552323849322,12.696894240427456
1212,3.912668276428485,15.498226017256377,-129.09683597403944,12.721540416755078
1213,4.672279983813833,15.001853196335935,-134.3857231160923,12.67139765219904
1214,5.483125047042958,14.338643060819779,-139.2246898465866,12.502347271657316
1215,6.216193500427584,13.474700162547961,-143.6028033639776,12.10901991563459
1216,6.791634557825051,12.393453389469528,-147.51936264622597,11.44352529215425
1217,7.238114091150633,11.093176428726125,-150.99697831464624,10.575200517900019
1218,7.6010658079365205,9.584551426389885,-154.08059896073686,9.610083905008983
1219,7.857140368224725,7.889284153910964,-156.83518155755047,8.603922363983381
1220,7.925038757324236,6.0357702130275195,-159.3469380901505,7.552454875120719
1221,7.776941802364459,4.054464502147924,-161.71080227903317,6.47267625136626
1222,7.4951338141027515,1.9746989316323755,-163.99719295912007,5.446783852585027
1223,7.188832299541187,-0.1796474200041791,-166.22600095456613,4.560377536422168
1224,6.903633973240002,-2.3920727739575764,-168.3698927477405,3.8360406990702893
1225,6.6055439292205556,-4.6518051818588715,-170.37505902617653,3.217166117825771
1226,6.273466280082586,-6.950996559872618,-172.18176168458595,2.6484820416171577
1227,5.960121113392095,-9.278143248033166,-173.7397644786118,2.136995656393349
1228,5.747939073993117,-11.612846002131066,-175.01985168642443,1.7179942108923871
1229,5.6800251059219535,-13.928780861952914,-176.01858901277095,1.4018546421084392
1230,5.712253307965196,-16.20072753575069,-176.75605890372023,1.1421863628249262
1231,5.77715157319783,-18.407509796401538,-177.27630591298916,0.8898755052955628
1232,5.870657412803181,-20.531236591467103,-177.636239973302,0.6615348347667662
1233,6.0426364641871295,-22.55838941712122,-177.8762350720503,0.5290519360083811
1234,6.314630125690392,-24.48044705627227,-178.00905306482989,0.538231074791077
1235,6.624580539270041,-26.2915287928125,-178.02835068423653,0.6527686491079729
1236,6.892879584634093,-27.98417489873219,-177.91988148235825,0.8114955185950411
1237,7.1151421213812664,-29.542146487927923,-177.67260649014946,1.0080759220225608
1238,7.379689513222141,-30.937560122784774,-177.2828012401399,1.3116456312280937
1239,7.770880619935428,-32.13929988966974,-176.75528084946774,1.7853374912363507
1240,8.273408691973282,-33.121058497983825,-176.09922103223624,2.402337218123869
1241,8.815343113080266,-33.863238894220174,-175.32037529250164,3.0789175268850073
1242,9.357142569508792,-34.359726081551976,-174.41867022094283,3.7548730574212064
1243,9.92866953003569,-34.627753574993854,-173.3888599310532,4.442414707672177
1244,10.546892066824174,-34.70869381551239,-172.22094565342633,5.152884578020379
1245,11.123407832454385,-34.66062035876044,-170.9009597490032,5.808332182525527
1246,11.517039984725475,-34.549005716732495,-169.41942649645011,6.288072732990034
1247,11.656022434308069,-34.43713766142113,-167.7853192078499,6.531640998656476
1248,11.59495160900076,-34.37864752587019,-166.02780748419426,6.588439650208181
1249,11.412887570728044,-34.41139595269524,-164.18566705361138,6.537194154022995
1250,11.104295299690675,-34.55160872184642,-162.30443229854907,6.386947780455019
1251,10.611054125759344,-34.796047921349725,-160.44020177688384,6.092884339168637
1252,9.920762746951752,-35.13115846307045,-158.64705057068468,5.649417255085445
1253,9.118486369052754,-35.538980419696,-156.96013005879237,5.141896822998458
1254,8.291933973831338,-35.99939252101581,-155.38990053105871,4.661968062226658
1255,7.427462277744911,-36.48860352101772,-153.92173976700855,4.216881979692287
1256,6.456285818362554,-36.973865527053384,-152.52281288002922,3.7672374975846887
1257,5.382675812517476,-37.41421050523574,-151.14941762365018,3.3361508150696775
1258,4.328310871655443,-37.768821787801144,-149.75234542169903,3.041814871528409
1259,3.425053117665311,-38.00137922811827,-148.27828573344138,2.9985832791118456
1260,2.71241112630118,-38.07929482592168,-146.66831128953544,3.219710238544912
1261,2.152956970026932,-37.978566567431905,-144.87046804750685,3.628428818690396
1262,1.7432149635803786,-37.6934795171598,-142.8627495453725,4.17110394614979
1263,1.561596075496403,-37.23587406496836,-140.65369291025107,4.867627429946298
1264,1.6700400337090144,-36.62506000277212,-138.26272784186992,5.72879926168242
1265,2.0282995741973444,-35.884983433730625,-135.71689776944828,6.692413889560945
1266,2.5156336594561886,-35.04610056837038,-133.05719195760912,7.642828430993852
1267,3.052619541732221,-34.142802921921714,-130.33145984006816,8.509333481283425
1268,3.6674889201811176,-33.20666113010921,-127.58222917620269,9.31909748273787
1269,4.40937856921208,-32.26177090325051,-124.84930181105953,10.126851829496294
1270,5.266666416045842,-31.339153691947974,-122.22048229753545,10.960378750600855
1271,6.142927589563229,-30.435643503696035,-119.67531909580403,11.733280718624137
1272,6.990734034731845,-29.566555773736496,-117.23477475430246,12.411162247156295
1273,7.8162847074408734,-28.757307511757592,-114.94704306372975,13.007185007339917
1274,8.60525710367301,-28.033996433180285,-112.87124720733196,13.51719487602242
1275,9.291690098273422,-27.417165967780825,-111.06172174128646,13.896386925949155
1276,9.798304593252547,-26.91924798047428,-109.56163858712928,14.095630135670206
1277,10.113321977087978,-26.54323690926828,-108.39969651689565,14.126870941343828
1278,10.295819882663901,-26.281654615986668,-107.57915456445276,14.06593224034462
1279,10.405866546592863,-26.11690091302946,-107.06394625890395,13.987136756315163
1280,-0.2897790537136411,0.037300910870736344,0.0857043585557031,-0.3609190530612676
1281,-0.4829532243538246,0.1259189780086254,0.09751204521795276,-0.7132069837727566
1282,-0.73792114955832,0.26860145509536326,0.029628664364432372,-1.1690001252768667
1283,-1.094720008323635,0.46071289625569495,-0.1566583880350608,-1.7583321071277433
1284,-1.5098596713030938,0.6873241801147882,-0.4832884934592623,-2.447117050796509
1285,-1.8895320720493338,0.9286088234037717,-0.9547234490087245,-3.158805925499105
1286,-2.1938845275335237,1.1636876555354285,-1.5570894309095293,-3.856565018776002
1287,-2.4607945789933505,1.3719956041742216,-2.261958305630407,-4.564963477801864
1288,-2.7413928391803752,1.5349349161655859,-3.034367176547252,-5.3155077665678165
1289,-3.030933075097042,1.6386591399171702,-3.8419076565007315,-6.079845173673944
1290,-3.2974946696376977,1.6777854252032225,-4.660047363989882,-6.804178813209931
1291,-3.5678248918644946,1.6497203769762516,-5.475772880839889,-7.500344309877282
1292,-3.9205749211216894,1.5572042979653495,-6.28760703516788,-8.231772954408896
1293,-4.392718409057911,1.4084293813988051,-7.10271965806949,-9.01756895050683
1294,-4.9153608492555225,1.2179344240613064,-7.93788684638056,-9.783741023246717
1295,-5.4049204093445145,1.0114998087731288,-8.814274482204214,-10.456974647239807
1296,-5.88087577597294,0.8000527127584692,-9.741762552237164,-11.067258476136358
1297,-6.427223490202337,0.5371531233461284,-10.710282718209275,-11.705658975692868
1298,-7.07174335839107,0.1522848249204694,-11.693385515908298,-12.40794173158177
1299,-7.73713560313756,-0.37845591049180327,-12.663012168366723,-13.103283613205676
1300,-8.343224142210682,-1.001595059134828,-13.604334520191685,-13.704318016866509
1301,-8.907015289669635,-1.586987387909561,-14.514592442916447,-14.205148359569598
1302,-9.50723979627693,-1.948403871252831,-15.394107643692298,-14.659614161947196
1303,-10.16976188685068,-1.872962324891986,-16.242518778675247,-15.083230232355943
1304,-10.815485976125501,-1.1519835788020556,-17.056792174012227,-15.409259389672753
1305,-11.36122982379889,0.3852839082817361,-17.829689053454445,-15.570728559894892
1306,-11.820341455072546,2.8414421093542854,-18.546106856303332,-15.586698283468348
1307,-12.273292209753901,6.230916030003122,-19.18172534595655,-15.544220965973244
1308,-12.7497145052926,10.470180595365786,-19.715025527524887,-15.487282873985148
1309,-13.17506210186361,15.383412559258408,-20.13920427074193,-15.369186033496057
1310,-13.465463336735464,20.723949120559883,-20.466194566347347,-15.134196115854579
1311,-13.62625658172746,26.202131386847444,-20.732770078262252,-14.789762682551334
1312,-13.739009092066064,31.52447673212556,-21.00068061728672,-14.40567879507618
1313,-13.844275361097498,36.449230893853155,-21.339642818923735,-14.022300739838593
1314,-13.894616842690565,40.83570277974793,-21.803646675177227,-13.599526026161051
1315,-13.843066536233916,44.625185181049716,-22.413357347704842,-13.085575662464423
1316,-13.712590311255822,47.77349823382278,-23.150560755869478,-12.482126970690972
1317,-13.590742226646102,50.2377370259928,-23.96629688344167,-11.85244074157578
1318,-13.536503374908158,51.99276601428912,-24.79782900198522,-11.239878628035012
1319,-13.520408746079578,53.02943995901143,-25.586985638065137,-10.615410013973928
1320,-13.477653101061396,53.353299909541654,-26.293395823049078,-9.932560468584725
1321,-13.389551697442629,52.98389420793552,-26.89876383963674,-9.193794929709025
1322,-13.318389650642011,51.9536181437479,-27.40658551298523,-8.474214392858633
1323,-13.319199149909048,50.30877503029592,-27.845461247767105,-7.848156063775656
1324,-13.364923555692522,48.11029852622861,-28.26613391522521,-7.3149505451376315
1325,-13.384352083017067,45.4299077282877,-28.718316350879768,-6.819054374388552
1326,-13.34120118836748,42.342258402471515,-29.225310925120198,-6.329088037878967
1327,-13.279216327250632,38.91811658799387,-29.78319409964818,-5.891718806981582
1328,-13.248179552300444,35.22423819570902,-30.370812827718655,-5.572434415716938
1329,-13.215014428899174,31.32559456288871,-30.95124643076727,-5.365806166635352
1330,-13.067785246375514,27.283301052452284,-31.482259958778748,-5.184574657310774
1331,-12.7082185966615,23.154938014531858,-31.9380816347839,-4.9542654774134185
1332,-12.13589538560488,18.99816804083922,-32.318515698192385,-4.694295359929577
1333,-11.410025502308205,14.869617210135093,-32.64025372847926,-4.472372540201033
1334,-10.560431664376658,10.820673948052374,-32.921401440926786,-4.315390309910061
1335,-9.551120589879712,6.8939541018425015,-33.16885265444624,-4.170092132539378
1336,-8.363063326773721,3.121025835752337,-33.370968421762385,-3.9836654110774874
1337,-7.081660156565982,-0.4771370396325729,-33.495300075109434,-3.7924853157368843
1338,-5.846541740879855,-3.889814378699997,-33.494055690154816,-3.6804956379841585
1339,-4.743288889557166,-7.117179514783863,-33.313564908590095,-3.684235602646024
1340,-3.751488908900573,-10.168962373727782,-32.903878125271014,-3.7474714212908875
1341,-2.8399126985542122,-13.061990342826777,-32.2324974783999,-3.8054070773024447
1342,-2.068247420257911,-15.813435335287464,-31.296722167917196,-3.876894813624699
1343,-1.540194316730097,-18.43021079250397,-30.12242978677768,-4.033848761804961
1344,-1.294741468727202,-20.90667697445708,-28.75170721158142,-4.310144367636085
1345,-1.256261670598639,-23.230415737131544,-27.229399740817662,-4.648134216721656
1346,-1.3376392813528843,-25.386472126574397,-25.598065487681257,-4.983789854118073
1347,-1.549478249674579,-27.360566261529335,-23.897956846865387,-5.339863415653837
1348,-1.960285164876061,-29.144799387225813,-22.159258913655304,-5.785220427926595
1349,-2.583108545332126,-30.740521146477626,-20.396690685717722,-6.3322352858899835
1350,-3.3214904339778686,-32.153325940101276,-18.62066076748904,-6.896020193200753
1351,-4.070483870032819,-33.38786816507488,-16.855300135055728,-7.385888001954641
1352,-4.8275955134946775,-34.44801226559358,-15.147645860384134,-7.797836308995724
1353,-5.660455674362112,-35.33707454024754,-13.563148436261457,-8.190919687457539
1354,-6.584067022583966,-36.05733584337897,-12.17097763844644,-8.582888484030196
1355,-7.51084805537522,-36.61096246583481,-11.025093417082356,-8.909761016306195
1356,-8.346103973798492,-37.00057394568371,-10.149480801601136,-9.113250986577334
1357,-9.081633322519412,-37.231577525347156,-9.532904347579999,-9.216284967147525
1358,-9.781479147815837,-37.317538750579054,-9.130364806626007,-9.304115427567309
1359,-10.466109127318086,-37.28235079181378,-8.872099186747402,-9.417901400975836
1360,-11.056713063984304,-37.15586421000222,-8.679372782722835,-9.497874257653532
1361,-11.465449104947087,-36.96583847683165,-8.478571706447767,-9.456205643670616
1362,-11.68069518548323,-36.730696737438585,-8.21154276125696,-9.263038406477955
1363,-11.759295949770648,-36.45681242673944,-7.846170536185317,-8.958359407067995
1364,-11.724475215014959,-36.13945441189759,-7.38455489439178,-8.561714896367782
1365,-11.521677992921099,-35.764792489770436,-6.864159477258326,-8.026093896809307
1366,-11.091680578439494,-35.312920721747886,-6.344442086524337,-7.297862063664167
1367,-10.442738695837923,-34.763754586752725,-5.878348067576118,-6.381428158257751
1368,-9.666844574867318,-34.10390444054789,-5.490436378173956,-5.362867620089916
1369,-8.839595419155032,-33.33070888416926,-5.175767416848234,-4.3284572709654014
1370,-7.9440391043283505,-32.453241062683574,-4.914806777839957,-3.2878899450684576
1371,-6.92573543394045,-31.49124721553539,-4.692778014320937,-2.2028441727614347
1372,-5.775373018468041,-30.47197454990554,-4.509524334838368,-1.0581701259149452
1373,-4.5594905576652165,-29.425753676777074,-4.377818587672068,0.10121783832174014
1374,-3.3485044314516115,-28.380381678131272,-4.317214098582498,1.2244563395064196
1375,-2.143913924685914,-27.355215349304498,-4.3487037003771505,2.3220098394639823
1376,-0.892437370451072,-26.360244017473313,-4.487438593557576,3.4688936578366505
1377,0.4283951926567047,-25.401927685836185,-4.730549836260257,4.722290508741342
1378,1.7503275728828944,-24.48856540675266,-5.051890457196228,6.048787569559194
1379,2.978281447369332,-23.629358094739395,-5.408524968996927,7.374349675314975
1380,4.081198788413424,-22.832246300399383,-5.751119847329951,8.669749164493393
1381,5.115473468550922,-22.104631086529892,-6.032165374003444,9.973897359077748
1382,6.14174334734677,-21.452508328628284,-6.212036907514715,11.312577296310394
1383,7.135272333540497,-20.877399790077547,-6.267690913064758,12.617411422380552
1384,8.018251372794486,-20.37553878324554,-6.202507592514453,13.764261104554635
1385,8.754322804694462,-19.938172036702408,-6.0448807385894,14.66851216439474
1386,9.403239074959222,-19.55183152542847,-5.831757254290078,15.340953107405921
1387,10.028912184977411,-19.19999606134562,-5.593069804035932,15.809071844972118
1388,10.597278350054284,-18.86832020529405,-5.346605970098794,16.028927178938435
1389,11.017951254949628,-18.550674183933097,-5.101250764340753,15.925864062836444
1390,11.2378726762093,-18.249956158881634,-4.863369633459857,15.482112402578778
1391,11.2996889024006,-17.976126065782143,-4.63480608497927,14.784864104691595
1392,11.265113278308522,-17.743549852762083,-4.406945523563483,13.945641396562186
1393,11.11039492612998,-17.565439925360096,-4.165501893264684,12.993287773285553
1394,10.763222261320518,-17.44904264347921,-3.9009471390377777,11.900417935422466
1395,10.21586310921538,-17.3957499031229,-3.6150527883754484,10.689960920898617
1396,9.572783674738824,-17.40137260842184,-3.318822249098167,9.476571779825617
1397,8.945040573828843,-17.454196173365315,-3.024465513177898,8.36932167850162
1398,8.348203583027443,-17.555021808666275,-2.768470461202099,7.369800781263129
1399,7.718585803057542,-17.6526371519865,-2.5098426352678147,6.4737413180745556
1400,7.083500610267493,-17.711444402030626,-2.2273150726404345,5.7307077625992
1401,6.527554025735569,-17.711842813914377,-1.9149825658104596,5.21824548315228
1402,6.086721399173353,-17.648565634188937,-1.5789925310797421,4.95194157853433
1403,5.714285562246846,-17.52945133416411,-1.2342133866502305,4.860104810789073
1404,5.344856945561635,-17.372662873474706,-0.9007198001320194,4.844480068745287
1405,4.988369052907392,-17.20051527538346,-0.598617474930768,4.868872973701668
1406,4.713800783509524,-17.033085637875633,-0.34115910971861785,4.951555200113128
1407,4.5479825678121975,-16.886194424346005,-0.13296979832675324,5.081331931911947
1408,-0.481275857570685,-0.2100821299631906,-0.6506030301059595,-0.48077747656035397
1409,-0.8293694884704369,-0.5201637943037726,-1.4970343835900852,-0.7419918901990935
1410,-1.2426740406176893,-0.9869181358879395,-2.747644939472963,-0.9880987384585774
1411,-1.6848428130868123,-1.617854950633601,-4.430689699918889,-1.1772734624805705
1412,-2.063055759629645,-2.40662556608644,-6.533761936765281,-1.227952793624533
1413,-2.2795758262848795,-3.3340396704564874,-9.001355959706403,-1.065317643160212
1414,-2.2929879298629916,-4.3687522845117055,-11.738959303747624,-0.676743428310125
1415,-2.1155173836615813,-5.469729828827802,-14.627318129227838,-0.11082600982313412
1416,-1.7598475298886445,-6.593049498599546,-17.54475104997745,0.5795769374451609
1417,-1.2215154227842848,-7.704649366223431,-20.39003354640298,1.3795754202859005
1418,-0.5186568520938736,-8.796680747951985,-23.113394460213417,2.278748167295277
1419,0.2718635855331658,-9.864270427337607,-25.65454714240516,3.2158135521003093
1420,1.0738729753100444,-10.912363585922968,-27.96559250130046,4.121856155116324
1421,1.8810622271559443,-11.952077219685325,-30.018169766396664,4.990565041538518
1422,2.7388702015354034,-12.994728480163936,-31.819140004564805,5.871466975585356
1423,3.662642255754406,-14.045376643664756,-33.416195645667464,6.786627961280085
1424,4.580390369298828,-15.100584430146084,-34.884163801017976,7.6644736801430255
1425,5.397569877952686,-16.149991812945288,-36.29898524641462,8.397177673454946
1426,6.0882753221862185,-17.177836525756476,-37.71465113913774,8.937936365403084
1427,6.711129005152239,-18.164692639317245,-39.15102075511047,9.326899281990467
1428,7.323198628684896,-19.088915971076453,-40.592825563432534,9.609633426792168
1429,7.892895789161699,-19.927753706384486,-41.995572162483995,9.761164328082689
1430,8.343991984900732,-20.660734470101016,-43.300830346670864,9.730869717599132
1431,8.645885480917519,-21.276993637423125,-44.456349092614445,9.52553110010474
1432,8.851860484159259,-21.78195080936499,-45.425031458272635,9.239463896683972
1433,9.021926907594295,-22.194302667523125,-46.18692548480898,8.966538364439742
1434,9.135296292541907,-22.536575372637113,-46.73993647504548,8.697834341366452
1435,9.121901282770061,-22.827546743333063,-47.09406708425205,8.350309540303614
1436,8.951458618935732,-23.078995319793243,-47.26445377648626,7.872452045044632
1437,8.694681103665559,-23.295528310235305,-47.26908997320642,7.302413924316466
1438,8.440540402712298,-23.4752065357106,-47.127256657370076,6.689458751471107
1439,8.187628198014128,-23.611001154865214,-46.854027075589485,6.01141856553878
1440,7.87670087210606,-23.693500080226883,-46.4538858449732,5.213986848569772
1441,7.491827990466404,-23.714122988501487,-45.92003411630259,4.303597049601707
1442,7.106782689145392,-23.666883745690175,-45.24621251269292,3.3775122027131017
1443,6.785692832689589,-23.548298228744947,-44.44306751387325,2.5261831790275413
1444,6.481204577328873,-23.357759880501643,-43.54217727512112,1.7517400759458495
1445,6.082432614774215,-23.09907440886336,-42.58978343223315,1.00461728428485
1446,5.542251046078847,-22.780749724526554,-41.63304640493329,0.2740670519413219
1447,4.923384474907181,-22.412866785877863,-40.702333377498256,-0.3807034641508459
1448,4.302283635761374,-22.002024845585602,-39.802825092601644,-0.9147283813505388
1449,3.684639493860688,-21.54852625592623,-38.91955034884336,-1.370968261677763
1450,3.028328327165419,-21.049099072936947,-38.02975473394588,-1.8482513411067156
1451,2.3460719359703326,-20.500654828857108,-37.11095929030038,-2.38790683592209
1452,1.7503218120938653,-19.89912424179513,-36.14426953340639,-2.9224370619727407
1453,1.355468086477565,-19.24159852516902,-35.11467504994495,-3.3578443452917326
1454,1.1713798520271992,-18.532883375917578,-34.00891942221052,-3.6623869789960977
1455,1.1103033559435127,-17.787116462731408,-32.82079860860901,-3.8732455267653374
1456,1.1119676622536638,-17.02428655390011,-31.558073482807405,-4.0088824738666675
1457,1.201916063442468,-16.26518302268268,-30.243164180690997,-4.024213093987179
1458,1.4162868707147298,-15.526445810323182,-28.90991773881611,-3.8679519642680464
1459,1.733656341160366,-14.818390774628762,-27.593954004031378,-3.5425691573268128
1460,2.0738999810867758,-14.146337401384818,-26.31980315498435,-3.122051317192803
1461,2.3909532718791504,-13.511180998025827,-25.098018012387225,-2.6818843729634922
1462,2.727296223875152,-12.909893294033822,-23.93161755885707,-2.238555607863673
1463,3.1592038824437734,-12.337977274498463,-22.81727885478771,-1.7730802612291796
1464,3.721901768800883,-11.793994543662274,-21.7390648793508,-1.2878277072401767
1465,4.365914566752242,-11.284198697242262,-20.66346473247953,-0.841999324403692
1466,5.022211390446697,-10.819180588686136,-19.55272501238654,-0.49307074490399183
1467,5.682672976469754,-10.405135919881584,-18.38965605861237,-0.23036594321579615
1468,6.386626961011102,-10.042974442103874,-17.183162559062417,0.013435068691750415
1469,7.143439365391961,-9.734388939470591,-15.961698250200124,0.28566806743607676
1470,7.882730890641423,-9.48259205806023,-14.767664945424215,0.5517113765613009
1471,8.52361700077515,-9.283996751384844,-13.641074886599515,0.7510047055281269
1472,9.057242185455728,-9.122716505464982,-12.600365034486815,0.8825210641151275
1473,9.54717829423132,-8.97501385149119,-11.638105689762881,1.019075268873389
1474,10.04652947304381,-8.816687435665047,-10.727454405306403,1.2280696895193315
1475,10.523809169103234,-8.628620390996252,-9.830907926987104,1.4914629438682985
1476,10.903485488996067,-8.39904368398949,-8.910387817305322,1.7411846890548486
1477,11.148985489274581,-8.123933284102403,-7.935948284071899,1.9460833368971788
1478,11.30189013416314,-7.807528156904459,-6.89159932248042,2.157591755761353
1479,11.405985795520571,-7.459989325372707,-5.779146708076361,2.434338910251673
1480,11.414868125434896,-7.092878043235119,-4.617661196028359,2.748299495389108
1481,11.232065394804064,-6.7167833424252965,-3.4449620442712994,3.019139349596675
1482,10.820263856243328,-6.339737960047634,-2.3195776010704,3.213566650829327
1483,10.25864810698463,-5.966783715826631,-1.3034163814088358,3.3959800980051655
1484,9.641753689837252,-5.60116149671441,-0.43288486407272936,3.643233559248068
1485,8.968380901616039,-5.24203129210575,0.28866312245674225,3.948945205313252
1486,8.180066692201152,-4.880022524554033,0.878895185567391,4.254723090311529
1487,7.264573060381028,-4.498553364184437,1.3704189662482684,4.548050389814791
1488,6.314311300032176,-4.081320771461535,1.8023569701569497,4.910628331745417
1489,5.432252775993936,-3.6193274518266594,2.2039421328182742,5.418925515241723
1490,4.616985262971238,-3.112455222750353,2.5904375949328116,6.043152345220925
1491,3.7963226632560234,-2.567569566185631,2.9734083186837843,6.689319292286948
1492,2.942500777150452,-1.9973997014302332,3.3673229503010207,7.309261874849873
