,TP9,AF7,AF8,TP10
0,-0.49467223151843964,-0.18889935295446586,-0.1414249616682803,-0.21015537316864458
1,-1.0942068675681036,-0.425893483401903,-0.3030600584315976,-0.5475222143334413
2,-1.9598783493799228,-0.7467702438807335,-0.5365592918183684,-1.083273444999701
3,-3.0947996688527715,-1.1310200177045013,-0.8504744954940381,-1.8429459011677545
4,-4.4670266722831204,-1.5483440868569662,-1.254034930890576,-2.8331252407584255
5,-6.029399238339646,-1.9648804270801041,-1.7549341105720033,-4.046032827428092
6,-7.737451476490183,-2.3491126326121385,-2.3546727908621814,-5.461775108773149
7,-9.550130214808812,-2.677639949078756,-3.0473154640859206,-7.049248562926184
8,-11.421483978693136,-2.939711393957118,-3.8220278645318486,-8.770503973531993
9,-13.309735300241918,-3.1409292044920707,-4.667816817402158,-10.58942436575828
10,-15.21007958959401,-3.3087514917133087,-5.578977011027288,-12.486100320827443
11,-17.12386467450138,-3.4682325643554575,-6.538609460281608,-14.434828550813833
12,-19.052445885555134,-3.6385729632493318,-7.522900649528496,-16.417697174648012
13,-20.97008364026286,-3.8272482235635796,-8.502499956917694,-18.419159729931092
14,-22.831429568166254,-4.028073725574796,-9.448695330879666,-20.4183961004405
15,-24.59935026751623,-4.224525134978154,-10.342323823317018,-22.388367180901685
16,-26.249326700950615,-4.400214873016127,-11.176528867440627,-24.298115549326543
17,-27.750104282092696,-4.544786568539764,-11.951441158561357,-26.113477263235815
18,-29.060389134823268,-4.653829666438448,-12.670552923954233,-27.797133990609424
19,-30.139775267809753,-4.731376386824842,-13.340392997093936,-29.311144294944672
20,-30.968068996544094,-4.786784987909196,-13.96710057814639,-30.62697337570034
21,-31.55962641547808,-4.82498691124713,-14.55236370792121,-31.736360834296796
22,-31.945062845358,-4.842854104267584,-15.093814521253854,-32.650928036088644
23,-32.15091499800627,-4.830653884893667,-15.588481012732762,-33.39264723684619
24,-32.19795127261265,-4.775700819147523,-16.033724005392546,-33.98338354439609
25,-32.11529787496905,-4.667239405107192,-16.42427521957619,-34.43894676715606
26,-31.951414040281037,-4.499916501223406,-16.749372005325316,-34.76677311535837
27,-31.75191829399389,-4.274961594086826,-16.994048164490497,-34.9647930850256
28,-31.528467922479397,-4.000716312928602,-17.14557520577006,-35.01984591784627
29,-31.25338327549183,-3.695470606440048,-17.200006420239465,-34.90785719280767
30,-30.893445538988875,-3.3862093722895565,-17.16300420828013,-34.60680359231344
31,-30.442840699431994,-3.1010847009014064,-17.045077790659523,-34.11531446098423
32,-29.91539612065784,-2.8630120246112205,-16.856244106832687,-33.45333819884454
33,-29.321580529614707,-2.6850417365358563,-16.605969334131714,-32.65083950730135
34,-28.653753386380053,-2.5704112006514235,-16.306603707258333,-31.740823018424813
35,-27.897388359175714,-2.5181848751373916,-15.97290911753695,-30.755340374684245
36,-27.0540835136391,-2.523607242514249,-15.617910586020177,-29.72388716548857
37,-26.142210703393612,-2.576076958286011,-15.250891997343631,-28.67133996858385
38,-25.17539766276687,-2.6641910704179423,-14.878722399874734,-27.61212235779388
39,-24.149592897513955,-2.778830401729324,-14.5062959868711,-26.54880209405487
40,-23.064576063022603,-2.9097900443354963,-14.135987055584552,-25.480616122540678
41,-21.94850952911025,-3.0446396663018773,-13.76857263570558,-24.417330322609477
42,-20.853011578439745,-3.169854423764714,-13.406143523274652,-23.385836766870415
43,-19.820404089298897,-3.27242839262249,-13.055721016600453,-22.419996912618245
44,-18.859196385600022,-3.343844413768636,-12.726233840224273,-21.545376104744808
45,-17.964693252793445,-3.383594561810063,-12.419701045441345,-20.770434673457515
46,-17.145915192632874,-3.400151770455015,-12.127164916150788,-20.08842684008354
47,-16.41924465337792,-3.409386663067337,-11.8318253756027,-19.48311355254827
48,-15.777157659575089,-3.4309644638640417,-11.5140233157838,-18.924182878037918
49,-15.17808609013901,-3.4827552737113576,-11.154463413671058,-18.36741399270266
50,-14.579661342946567,-3.574313461927393,-10.737125398197941,-17.773626751519398
51,-13.967390389824413,-3.7040513014362286,-10.252480921311959,-17.125053681264102
52,-13.345572175012661,-3.859727762542889,-9.69902002463933,-16.424448003833607
53,-12.705439824043088,-4.022464044237562,-9.08313474950893,-15.680505381698522
54,-12.016603090958785,-4.174324232517971,-8.418373909723055,-14.89365803642081
55,-11.252108826940038,-4.302288186389856,-7.723141741669271,-14.059158430706477
56,-10.415941268111203,-4.39847355512972,-7.017218853838944,-13.179813904274328
57,-9.545985358950746,-4.461050217282971,-6.318899860364245,-12.272093634625469
58,-8.684251748602302,-4.494194643935024,-5.642983743988489,-11.360644058306933
59,-7.856594908447097,-4.5065406994203485,-4.999962740539681,-10.465475012983038
60,-7.0841535006108804,-4.510337416816943,-4.396876914119398,-9.599430999357272
61,-6.403830586704895,-4.519644258205886,-3.839116767879061,-8.780931588973557
62,-5.869786399932602,-4.546330483603562,-3.334429927035584,-8.04017118075884
63,-5.520355138668288,-4.599413525945229,-2.895773910747395,-7.407795251395158
64,-5.354668925537386,-4.688181138044802,-2.536828022370123,-6.898527599516885
65,-5.34595896663849,-4.823415044992422,-2.2656168839570143,-6.510508282727496
66,-5.468542312948379,-5.016443438582964,-2.0835293202656424,-6.238141441906428
67,-5.7120522764227335,-5.275920998137865,-1.9859657181391621,-6.0755108778640405
68,-6.066334992604741,-5.60257490052438,-1.961150294467613,-6.013138755155346
69,-6.503929059538717,-5.986252619163374,-1.9909144873572189,-6.045477063960546
70,-6.982714970239994,-6.407127071997741,-2.0552410883824277,-6.181440071559675
71,-7.463742222659604,-6.837783659257002,-2.1362740215566003,-6.439950516140023
72,-7.9237629563369945,-7.246465179155547,-2.2198458597370188,-6.834833151781747
73,-8.346228767084844,-7.602938308462296,-2.2970143364513085,-7.366029662481802
74,-8.708077061762927,-7.884076804655009,-2.3630536097658443,-8.015764175745307
75,-8.976484560428485,-8.077531265124335,-2.4117385377139517,-8.74521522859217
76,-9.130242683150547,-8.182347578222997,-2.4313547927167116,-9.50367499505236
77,-9.184678855667586,-8.20655566076116,-2.4068427341415224,-10.24432756937202
78,-9.180053047887846,-8.16411876278939,-2.3249011383295914,-10.927170239110493
79,-9.149794901652864,-8.071352406671188,-2.1791121512676184,-11.51315834016807
80,-9.10241661567854,-7.942559355046925,-1.971727810489454,-11.964205263077357
81,-9.035410896087882,-7.783780570263676,-1.7120978999097054,-12.254611910446657
82,-8.949708103752066,-7.589346556247816,-1.4156373487831442,-12.380146327052179
83,-8.840955027538172,-7.348496883425043,-1.1005066363054676,-12.351510682303552
84,-8.685782434721173,-7.054741982694607,-0.7823848481347818,-12.184545260081144
85,-8.440878296716715,-6.712238076939066,-0.4738433778675317,-11.894196955154273
86,-8.076562471625795,-6.337859421706501,-0.18518779692796788,-11.490128129965209
87,-7.6088417782152895,-5.956642273527889,0.07721309812933486,-10.97936124096301
88,-7.082758043462671,-5.593863926598498,0.3131564921273713,-10.374071634441012
89,-6.532038353513387,-5.268012256720773,0.5288795279326686,-9.691057680628862
90,-5.965648269550218,-4.9884515503545614,0.732655109284007,-8.942087967110112
91,-5.390537338889357,-4.7570620102282435,0.927865013271688,-8.137117832450453
92,-4.832882211413636,-4.5703747426411505,1.1076197192911585,-7.302085730407209
93,-4.331852059754241,-4.421130949221422,1.256250661430182,-6.478782757874716
94,-3.914302875005375,-4.3015310563146345,1.358585370662439,-5.705671297642216
95,-3.585032466872077,-4.20734104915402,1.4045494607597704,-5.011318190950181
96,-3.335880072143201,-4.138079830245689,1.3865327780263,-4.418206526781631
97,-3.1548378264858217,-4.0945300022813145,1.2999187388356235,-3.9389793791612275
98,-3.0301284332475795,-4.077947522679724,1.1444036047295425,-3.567886465449685
99,-2.9393582974842767,-4.090793824365626,0.9220816218116012,-3.273628185662702
100,-2.8451377858065032,-4.1345451004121925,0.636479379069285,-3.0049045380635926
101,-2.708858126021637,-4.205260504731127,0.294273858371157,-2.7092152444325066
102,-2.5117861841864535,-4.294945661001547,-0.0927936199087902,-2.3482936346591954
103,-2.2663142687265267,-4.39741406909864,-0.5073402094529943,-1.9072801035180766
104,-1.99422980601771,-4.512648537007022,-0.9264369085976843,-1.3982768590682597
105,-1.7143953668408167,-4.650044511598691,-1.3225420843233224,-0.8562038188369722
106,-1.456711899927039,-4.82774869530373,-1.6672286034912966,-0.3295201382656393
107,-1.265915771828699,-5.064644146322866,-1.9361975454018716,0.1291618197056244
108,-1.1920769575176373,-5.3714494628387035,-2.1115177923491295,0.4744302026389443
109,-1.2619118972134118,-5.747223034288029,-2.183296054555614,0.6855334984598445
110,-1.451861332523396,-6.178224891583853,-2.154322084179609,0.7767715140124827
111,-1.69477005187836,-6.638679175581899,-2.0427961090733704,0.7914668261411592
112,-1.9137144072438892,-7.0950729988393695,-1.8768221271042438,0.7889029316680543
113,-2.0595671604543835,-7.513441411960581,-1.6845619777797836,0.8294529850159653
114,-2.1148464687639223,-7.867413031898016,-1.4910063240477194,0.9591039371101202
115,-2.0697259794553706,-8.143627130471987,-1.3204494649272553,1.2016168283740267
116,-1.9122482370619478,-8.342883522932146,-1.1941609980173724,1.5597960474974868
117,-1.6435180994179077,-8.47640653001333,-1.124268444617072,2.0171294436594147
118,-1.33829480459222,-8.575653554524461,-1.120819625247853,2.508079986432071
119,-0.9621756358075177,-8.628558378437358,-1.1648156299376051,3.0427060611415566
120,-0.5015804836272656,-8.631971256414145,-1.2353060226792965,3.609460141877485
121,0.042812907093464525,-8.587699738004336,-1.3130149360027616,4.188106094167288
122,0.6475999733147024,-8.50145606015384,-1.3832878793281937,4.7571438747090085
123,1.2742617744224127,-8.381325820386419,-1.436448165986083,5.295749137005649
124,1.8861017904879316,-8.237380395385351,-1.4668483828902719,5.785169305412452
125,2.4566819544299725,-8.082718055204888,-1.4735389506975232,6.211883593115834
126,2.965158994956996,-7.932296927791879,-1.460988524341798,6.567464544811228
127,3.3813287813603563,-7.800637943183195,-1.4370409352688565,6.8443812925288245
128,-0.6860704715369543,-0.31115152981203875,-0.23313386868412,-0.431151317518171
129,-1.3740926866546586,-0.7085477883065094,-0.5336648175505823,-0.9374574002468764
130,-2.302536734623741,-1.2778245041764835,-0.9705754228664268,-1.6698156962948705
131,-3.4468105967234792,-2.0199431249892186,-1.5480489974005964,-2.628261922060286
132,-4.753701191882875,-2.926462736961454,-2.259511294489768,-3.7884783914824807
133,-6.1586670831125065,-3.97820840508268,-3.0865792715830094,-5.107810172891484
134,-7.599350422498052,-5.143235161645594,-4.00084082061046,-6.530541456694278
135,-9.018897311540744,-6.38131596534378,-4.968769797114046,-7.991568843889991
136,-10.36436782437157,-7.655020265145218,-5.958449024887882,-9.42555652632961
137,-11.60301262972962,-8.94047481947176,-6.947992301049537,-10.783826106925613
138,-12.757853691830535,-10.236268873912357,-7.933856023205064,-12.05719032364855
139,-13.852141111568546,-11.524840459740634,-8.900766490816393,-13.235208966542755
140,-14.906866279810814,-12.785345354517087,-9.832385933880433,-14.317666762543682
141,-15.920070804270027,-13.997865101127127,-10.714680359736423,-15.310394833072612
142,-16.880811560428796,-15.146533789984922,-11.535618673117936,-16.226877678967565
143,-17.793425354172342,-16.22043810348355,-12.281789504397565,-17.087860231616645
144,-18.681469235644734,-17.21363907453555,-12.93650968850643,-17.91084214112918
145,-19.56225937944912,-18.124899177662307,-13.48432829897854,-18.694691970861733
146,-20.426709534678036,-18.957651680201522,-13.91616131852825,-19.42289222756122
147,-21.249203016837786,-19.716248605844353,-14.230749109751015,-20.081209245318647
148,-22.004396113074975,-20.39821057436282,-14.434799125663844,-20.66143334387553
149,-22.674922844960758,-20.99271361887761,-14.543247456878525,-21.1566095247527
150,-23.242424136768296,-21.483596257393756,-14.578870891846936,-21.559071464169637
151,-23.67929831704221,-21.85127146747656,-14.568229615974065,-21.86009015377326
152,-23.956410207623378,-22.075835249092805,-14.536347034288957,-22.05399557144094
153,-24.0613155214314,-22.140465048736,-14.502216507658687,-22.14390101476891
154,-24.010585325906728,-22.035434908028414,-14.4747348765987,-22.14303708815401
155,-23.831704710131415,-21.764720599109335,-14.451624071553645,-22.06950537814925
156,-23.540645466475443,-21.34990876516035,-14.42298870818211,-21.935926278571472
157,-23.144696277725508,-20.8248039803316,-14.37520861233028,-21.742861854209035
158,-22.6648851151807,-20.224030887311326,-14.29099114068223,-21.48499811516901
159,-22.14846681232687,-19.573846045984755,-14.150664632177573,-21.160886750360827
160,-21.648456155455488,-18.890699595638278,-13.940212819068048,-20.776132704953966
161,-21.197250123860112,-18.1845493068669,-13.659771932135671,-20.34035144366746
162,-20.79558574736814,-17.459499342441383,-13.322579010976138,-19.861166062923836
163,-20.432775816552752,-16.714509029763047,-12.946245881550137,-19.344490863998193
164,-20.113085151749466,-15.947782474551536,-12.546724443868486,-18.802322039803226
165,-19.84562169269896,-15.16015319312863,-12.13736899355381,-18.257670812934826
166,-19.61832446739345,-14.356821825470865,-11.729295431599565,-17.737076776223898
167,-19.38528144968929,-13.549295042265054,-11.331620273677872,-17.25833775231623
168,-19.09243160170893,-12.754217975539747,-10.952928720012363,-16.831838373378968
169,-18.71401116704799,-11.987393781171962,-10.602565981994557,-16.46457786872986
170,-18.25037749067756,-11.25778160465991,-10.289644937321626,-16.15640012084979
171,-17.709405689482587,-10.567298992345814,-10.02039894118834,-15.901151889050963
172,-17.101984646946278,-9.911810598310188,-9.799489001912672,-15.694495908650936
173,-16.448954169547758,-9.278601522608055,-9.635742299522239,-15.538306705094302
174,-15.780126742502826,-8.649266770585285,-9.537630519115357,-15.433619679117621
175,-15.119285040592205,-8.007311509427106,-9.502926820620878,-15.369400603339848
176,-14.463778671585619,-7.342707117908185,-9.517663882904104,-15.320980881507905
177,-13.78456983662307,-6.654804293306663,-9.560057608583206,-15.259123264941755
178,-13.060906402119688,-5.953846500101559,-9.603202245173662,-15.161285545316945
179,-12.308005299263938,-5.25874419180553,-9.617595401676393,-15.016927653555056
180,-11.568579960565433,-4.590605276613329,-9.577635005768434,-14.824163423154946
181,-10.880997622718725,-3.9697489541522466,-9.468173181177017,-14.587002005811696
182,-10.272133900818678,-3.417991615150229,-9.282008825847663,-14.317673735012796
183,-9.783166977200638,-2.957539169855089,-9.0127621643188,-14.040649650926483
184,-9.483795683461798,-2.608316262976304,-8.65276101893982,-13.798964768326547
185,-9.45941357339643,-2.3899747271067078,-8.195739226253242,-13.650361235516044
186,-9.773953581031328,-2.324903844116116,-7.639222208226804,-13.650977479878142
187,-10.450631705759312,-2.4383079598771666,-6.984297176615231,-13.843741500964494
188,-11.485933709828664,-2.75562290042841,-6.234029999769983,-14.253696685122213
189,-12.859635357793035,-3.2982563413718253,-5.3904728862328675,-14.88824100851864
190,-14.538676137911516,-4.081195202670071,-4.449915735696838,-15.74248137494257
191,-16.47672915437867,-5.110988712582295,-3.4068566025686926,-16.80414412172574
192,-18.61174404923121,-6.384654691385446,-2.2662175077179403,-18.052476850249878
193,-20.877706275055157,-7.891450594120086,-1.0430630618268495,-19.453053143753692
194,-23.228613194847988,-9.61477602861947,0.24677551221619703,-20.958724125919524
195,-25.648210877924228,-11.534026247580888,1.590278500287194,-22.518725283544082
196,-28.124376425282666,-13.625235141967208,2.9760491729656593,-24.084146275257908
197,-30.623798263548295,-15.861661064367846,4.39213758789125,-25.604889362208368
198,-33.09559848870838,-18.21313866775933,5.826308045493016,-27.025105285228744
199,-35.49131893931757,-20.64242307282583,7.263928089309971,-28.28684706582004
200,-37.78041402191437,-23.106698305083757,8.683896781707148,-29.343129405589803
201,-39.93704126875496,-25.561972692563348,10.061408193991936,-30.162907855745377
202,-41.91543024681221,-27.96023738325297,11.374660388420434,-30.725427002511147
203,-43.64474535922504,-30.247115254731813,12.607983229267855,-31.016931617165085
204,-45.053555896109835,-32.366840035000465,13.749263115104268,-31.031805628185868
205,-46.095893704725505,-34.26775202439813,14.786695618523515,-30.77659468291759
206,-46.751469040055305,-35.90591379984383,15.709724405505531,-30.269766973966156
207,-47.01331089998146,-37.24859767425602,16.511778048839442,-29.532920439828736
208,-46.87294352705732,-38.27658221659334,17.19128389395578,-28.580965995511487
209,-46.32503511498812,-38.98207590073816,17.750479842901647,-27.421854559208835
210,-45.38415555605468,-39.364130858831636,18.19247371556037,-26.064499335021868
211,-44.076303211270684,-39.42672169878144,18.517638471035422,-24.522694719390962
212,-42.416465573640224,-39.17733127815996,18.723781449186788,-22.810338883616375
213,-40.408096179286694,-38.62738214618753,18.80980886423643,-20.937097901397372
214,-38.075795102134755,-37.794524787805564,18.7771862980744,-18.912902159774593
215,-35.48312906105742,-36.70035677277184,18.629845959692414,-16.75580963831186
216,-32.710789188706826,-35.36714869186411,18.373452304476768,-14.494584757749903
217,-29.82528892903295,-33.81773016390581,18.014645293283973,-12.16059381221126
218,-26.862116837382036,-32.07585201165227,17.56196508817973,-9.778469872603047
219,-23.845387027186057,-30.166373983556056,17.026029781149376,-7.369102404288056
220,-20.81224117913044,-28.114512795408277,16.41695532376297,-4.957286902358956
221,-17.807862720859227,-25.94336780371965,15.74041038010779,-2.574142992880629
222,-14.861626600508231,-23.673794297444484,14.996054405419835,-0.24966318840091878
223,-11.973066775126295,-21.327187466867738,14.179386862175456,1.9952907619646443
224,-9.135656930877406,-18.92662945879511,13.28451669351955,4.144207300932515
225,-6.366858814814958,-16.49494128486169,12.30778473917887,6.173930977683566
226,-3.7027926534817173,-14.053139799414929,11.2530989635452,8.053742340891002
227,-1.1659489044189817,-11.622916967545198,10.135133583687884,9.75911025267293
228,1.2470314259877948,-9.228473975229907,8.977077800771086,11.281882714895815
229,3.545090255999023,-6.893729888339879,7.806433090738911,12.628612024589364
230,5.725902970008982,-4.639479462980569,6.651819468021412,13.810240498919033
231,7.77622145413988,-2.4828165483206885,5.541688498691791,14.833337234934822
232,9.69363167550313,-0.4356324355972869,4.503696903729072,15.703873533118307
233,11.499721830306887,1.498102139660558,3.5590646142882996,16.431993029691
234,13.223451591227509,3.3223723297338785,2.713528579233033,17.030103632022456
235,14.878551561623302,5.046023082418189,1.9515865224843094,17.50620413163151
236,16.453280524119627,6.678618755357184,1.2423782668414596,17.8611298670917
237,17.93396051632611,8.22718375996967,0.5553041300305833,18.10047702122551
238,19.32475363114962,9.695059201638546,-0.1298272483075827,18.245957164628003
239,20.634655115939466,11.082119294933065,-0.8226322624550185,18.327484037668754
240,21.859325609030112,12.384360570054676,-1.5277824835269855,18.367511085042278
241,22.975024075604683,13.59585574453475,-2.2479120830022508,18.376983952154514
242,23.96252775556122,14.714562603873969,-2.9800174886270483,18.36260929249151
243,24.825629431375585,15.743072509211029,-3.7134806091805808,18.335875992301425
244,25.579841285837265,16.682993210587487,-4.432862202781582,18.31315023172165
245,26.23627878231512,17.533221068793075,-5.122517887592686,18.303186031413684
246,26.776858907425584,18.279913954820813,-5.758892635721419,18.31517912296301
247,27.223123183616828,18.940621708752417,-6.363031208949938,18.295343714314438
248,27.60456010367069,19.524009638428176,-6.9440099344973225,18.21576056827727
249,27.948224821124963,20.033697819515922,-7.5026937992020075,18.070443698009683
250,28.261288376535465,20.46877276395372,-8.03254518725542,17.864557325185515
251,28.532971557223753,20.826496214739617,-8.519785396580959,17.61099047881118
252,28.754466155792045,21.107101497788182,-8.946243204513626,17.331077245563844
253,28.93118316404692,21.315657352815062,-9.296667912569973,17.05257818100955
254,29.074922849736453,21.460916190376825,-9.565994600213639,16.80301765729172
255,29.18459607517574,21.55366250305816,-9.758580964834628,16.599465299915806
256,-0.4187038649334439,-0.24713757103340225,-0.27787802838085296,-0.4228901790144074
257,-0.8041981688554236,-0.5162041885926609,-0.5956369385343943,-0.8606765142427826
258,-1.3209376505966732,-0.8948881769623389,-1.0474567806358432,-1.4628783443863598
259,-1.9500336230782223,-1.387147073181416,-1.6314018365081089,-2.2147719529774603
260,-2.654463613036786,-1.9945763476791785,-2.324201998719149,-3.0850765359923735
261,-3.41451561221499,-2.718341658583239,-3.0835087186603864,-4.043167268531758
262,-4.236695292536032,-3.5548082740645923,-3.856947465062971,-5.07404724495778
263,-5.1273740830151295,-4.488333527073525,-4.596755797107582,-6.172101421199737
264,-6.064439994026066,-5.490482455273546,-5.276751775246059,-7.325703685404633
265,-7.012699778460572,-6.530554677531439,-5.89773648196469,-8.52093248144196
266,-7.970368502746905,-7.5914653155978415,-6.486173087420416,-9.759979909840013
267,-8.947717023835898,-8.647367675699678,-7.0583043176209,-11.024103088883946
268,-9.947421558297988,-9.674260039837923,-7.626407897831643,-12.282136429340945
269,-10.950377055380972,-10.65184848059203,-8.192067684052123,-13.494502630346794
270,-11.939689586283794,-11.564932540086815,-8.74432529914441,-14.628953976299405
271,-12.920126603434023,-12.406089809658178,-9.267657868732078,-15.668663772176192
272,-13.9107736171704,-13.176473190628775,-9.752050156456406,-16.61034827192828
273,-14.92261326595821,-13.88424290677845,-10.19085550550796,-17.461420144776376
274,-15.949969588972825,-14.541061180745466,-10.574939448970321,-18.236168293088074
275,-16.984483750477402,-15.155708779826178,-10.895787936182261,-18.949419955170068
276,-18.02649965517606,-15.729551783801758,-11.150814477514368,-19.621366536259174
277,-19.08051013096223,-16.25204842101559,-11.34658920064181,-20.289187948775613
278,-20.133163213673566,-16.701252579183294,-11.496741555745185,-20.99201171554956
279,-21.153067358349574,-17.05736131861395,-11.612694398326257,-21.745590049312803
280,-22.1310313856679,-17.317173894972928,-11.694712333574076,-22.549651886306588
281,-23.10717712299912,-17.49598801008971,-11.73105770540054,-23.411328247004686
282,-24.15287064335451,-17.61957577712064,-11.707020026292215,-24.349549818376182
283,-25.322753508018348,-17.716794513393097,-11.615180057522,-25.379428137322122
284,-26.630268436148793,-17.81705985145881,-11.458063306807157,-26.497205686412435
285,-28.068847712395904,-17.949645429910873,-11.244688391312291,-27.685704612072442
286,-29.635995046146387,-18.139150327473125,-10.989121847800545,-28.932367504058497
287,-31.32911485809357,-18.398188540867622,-10.717464616871261,-30.231991132078868
288,-33.13191812156447,-18.72251481549887,-10.474797447970584,-31.57584457879026
289,-35.007986460729015,-19.089803660437212,-10.309260870237496,-32.94694591662703
290,-36.88688187660438,-19.45976251129576,-10.245233986586635,-34.32141099197104
291,-38.6889510862924,-19.791812516999343,-10.284902484931653,-35.68024402201906
292,-40.38553744028247,-20.07854879189168,-10.427174899132401,-37.02976752637336
293,-41.994561521895974,-20.34823574293833,-10.689732810477638,-38.388252520258725
294,-43.523933151039046,-20.636459179329034,-11.145635737319065,-39.73727156309363
295,-44.9411393841352,-20.96305035797627,-11.938634904524005,-41.00955018536176
296,-46.20049627642422,-21.32805318268646,-13.249203605276753,-42.136139759124205
297,-47.28315250224716,-21.721017003764434,-15.275083052969963,-43.08290749629007
298,-48.188515503971544,-22.12601638837221,-18.254879682648422,-43.83811849662086
299,-48.916586831347374,-22.521941476185525,-22.480246353450006,-44.40576752818521
300,-49.47719330417918,-22.8878758292789,-28.272353830908983,-44.82935491112426
301,-49.89225853623483,-23.20771871873992,-35.935465475000484,-45.17990372946049
302,-50.17384575742024,-23.464808555338028,-45.72421239010183,-45.497153171664436
303,-50.30618330183909,-23.634496373083675,-57.842202263959734,-45.76684649806551
304,-50.257549084494755,-23.68881493947572,-72.4400870174286,-45.955249018555335
305,-50.006607033791305,-23.607353621236168,-89.59371703899626,-46.04509116262731
306,-49.5539174110145,-23.380682630103344,-109.28418003050645,-46.03804716973227
307,-48.92968903437707,-23.003855174305272,-131.41439578234656,-45.93999876356624
308,-48.18245609034579,-22.46503715581096,-155.84115001761594,-45.74883067675981
309,-47.334173430040956,-21.735007926901464,-182.3746788158474,-45.450905061733636
310,-46.380132527037205,-20.778160010863857,-210.75632191351966,-45.039082376471214
311,-45.33287011679683,-19.58462856519545,-240.62533529461788,-44.5374540209446
312,-44.23592378052652,-18.18455580877295,-271.5009265730578,-43.996514726519294
313,-43.1447497019483,-16.633529714350463,-302.8243760615779,-43.460068942533084
314,-42.08811775987908,-14.987531956870082,-333.9932174624857,-42.936073043780695
315,-41.05047048013094,-13.290502535965773,-364.35957303240656,-42.39889408799762
316,-40.000415669423184,-11.574337756444208,-393.28955519653726,-41.80586882942928
317,-38.92072914212789,-9.8489953424208,-420.2777198417668,-41.102797773284166
318,-37.825916389563254,-8.093172756032802,-445.02500879110835,-40.25508254904682
319,-36.755691999472084,-6.269985098820885,-467.44266092175894,-39.282196027250855
320,-35.73058350999835,-4.351462279488933,-487.59295892969976,-38.21785060389466
321,-34.735599427389594,-2.32795919833082,-505.61874723715175,-37.05825315950754
322,-33.74824253271999,-0.20487157123308297,-521.7125827999893,-35.78764539772299
323,-32.7540886366192,2.0005373962374557,-536.0961931197777,-34.42745163462801
324,-31.74062778869515,4.260074831049975,-548.9628920316244,-33.03032142603526
325,-30.67790657354685,6.537121197376706,-560.4142337065704,-31.63748353635455
326,-29.513086768637883,8.788272794793683,-570.4550962097787,-30.25956133266243
327,-28.2053739126189,10.963650987608379,-579.0479452649273,-28.885591892483003
328,-26.773372717047785,13.007180359672857,-586.1746042532328,-27.495751375066536
329,-25.282715122898782,14.867517913238391,-591.8779683261741,-26.066859275208106
330,-23.782860333520524,16.5140500889528,-596.2717732832313,-24.57374070723983
331,-22.295544950601492,17.935442254992,-599.5271781596883,-22.996127414461235
332,-20.85173758768316,19.128850782316572,-601.8555334112287,-21.337281518873766
333,-19.506014222283085,20.09303179393556,-603.4585336321961,-19.644280266256484
334,-18.31715649489932,20.82067955269933,-604.4677757597822,-18.007448089473158
335,-17.324140491379676,21.29466595017569,-604.9286046636173,-16.52521728699049
336,-16.545438687125216,21.50151512344033,-604.8160767199419,-15.271080525394003
337,-15.993016618219952,21.448661023392635,-604.0642226625954,-14.298514208841333
338,-15.661625097398746,21.163276534195703,-602.5992001017614,-13.629028501904841
339,-15.495817480196187,20.687037907410375,-600.3585746763096,-13.216006367751843
340,-15.394276747105277,20.052078889193844,-597.2954793887071,-12.948202792761446
341,-15.257377126474346,19.23816967521108,-593.3915292845824,-12.698824137564916
342,-15.024256220293823,18.18248743707248,-588.6628626269398,-12.38549233529006
343,-14.685958567792154,16.830147886899002,-583.1395837712013,-11.99043154649535
344,-14.27837099346855,15.156898372801152,-576.8519325437558,-11.540379451414797
345,-13.848454619393808,13.173042261874823,-569.833526414847,-11.09353391348139
346,-13.435624642764981,10.930740593259795,-562.1235957033133,-10.740255962746737
347,-13.103296085942507,8.505849211762136,-553.7658512419215,-10.596589072915116
348,-12.945597726299846,5.96552996117602,-544.8073826095276,-10.76118542619813
349,-13.035255162028811,3.3692775646830433,-535.2975345145924,-11.256354480827884
350,-13.383916055511976,0.7847311880928871,-525.2866731686325,-12.013391786508198
351,-13.936261355921749,-1.7148316588910757,-514.8200829847917,-12.908086413074967
352,-14.602273610316495,-4.065130248219811,-503.9367054911995,-13.811030100666441
353,-15.307504064089905,-6.230140968987439,-492.6827545705591,-14.624294000112192
354,-16.000291897320658,-8.215090034074926,-481.1205284514428,-15.280832993491746
355,-16.627061263077184,-10.051781605699365,-469.33391204408554,-15.725880649962754
356,-17.114239760226514,-11.776034556409995,-457.426814726714,-15.916903666003599
357,-17.387601722658538,-13.41652096720149,-445.48464950013715,-15.83045697933654
358,-17.411053251145784,-14.965198775185923,-433.5253255591489,-15.464925894633065
359,-17.18086331152541,-16.368943860136593,-421.471826026474,-14.830862230943493
360,-16.69384205846516,-17.57362767234232,-409.1358818979874,-13.932177421449133
361,-15.923750409456595,-18.5445793296406,-396.22051790577746,-12.760292923179799
362,-14.832540570136892,-19.261654614432064,-382.33362296590786,-11.304036349257014
363,-13.423427116777924,-19.726574216664115,-366.9995998618511,-9.563048213932587
364,-11.76035438244986,-19.95499241085981,-349.7006615242638,-7.553077505360935
365,-9.921502144217342,-19.951390066537268,-329.94444469789363,-5.31192337123265
366,-7.949456060162684,-19.71071726070687,-307.3181137087327,-2.902394153601756
367,-5.838061159498944,-19.24380111231934,-281.52590384321314,-0.3833828476315093
368,-3.551729003318736,-18.579735308936943,-252.42246629290753,2.225468459908705
369,-1.0590321981789756,-17.751888710126654,-220.0201032797307,4.935136203366392
370,1.655259564531102,-16.7915062690236,-184.44965450066397,7.755841928890956
371,4.5901197921403725,-15.723053022508168,-145.9132612207485,10.682267010850019
372,7.721973131980028,-14.560787011288593,-104.66245359785246,13.689697807942256
373,11.001203136577155,-13.308494814861378,-60.99448212586952,16.74078833292989
374,14.251024146797988,-12.021108866558123,-17.296295273490124,19.696372294190745
375,17.59431955705331,-10.58214308119371,29.476382489051154,22.70337750274104
376,21.04362010552695,-8.97340729511465,79.93761246206313,25.789236969856386
377,24.509909974050476,-7.249194433624021,133.03987100159765,28.892881598389415
378,27.83757263724969,-5.494995377086247,186.72901085518103,31.89990362018792
379,30.865667065921638,-3.800780625887493,238.49988618033655,34.68206240614318
380,33.484681437954556,-2.248730880342858,285.8462374606721,37.13266966426728
381,35.6560338035735,-0.9080403279134119,326.61998618639313,39.18446645815234
382,37.38007130812695,0.17043448462778132,359.3101144163665,40.806893012002604
383,38.655388316251866,0.9602801510121528,383.20483598108177,41.99731758077797
384,-0.41636536609316804,-0.27468936826035695,2.072740172626621,-0.37068863379934835
385,-0.7033744557663545,-0.5911550136358183,6.198497779595176,-0.66482069835449
386,-1.0392337294681806,-1.0385706578181422,13.295466711987629,-1.0040625602518691
387,-1.3701350149959108,-1.612718844019232,24.202154207674766,-1.3444665542456042
388,-1.622892902845131,-2.2941362933794593,39.618435705488075,-1.6289951555674644
389,-1.7372157665544097,-3.0490020262112427,59.99611095507643,-1.803731564471027
390,-1.6843695096937807,-3.8327671313782004,85.46275552105648,-1.8287402975564209
391,-1.4583887288402622,-4.598836206107737,115.7955778635221,-1.6781617793118981
392,-1.0558149874538083,-5.307302061809085,150.45888259952835,-1.3366179046707645
393,-0.4797324510847651,-5.931500334791686,188.71587663559842,-0.8050968094550708
394,0.23460300656337696,-6.465346298562834,229.82293866044753,-0.11614158989989115
395,1.05701344793656,-6.891307655224902,272.82392334139064,0.7010704561459484
396,1.9767585038124837,-7.189898801976702,316.71670781210594,1.6288279403233208
397,3.0120802682739845,-7.342671947923733,360.52080391893844,2.668759503801453
398,4.1820899552874025,-7.336635716234074,403.4097737211414,3.8301690998331295
399,5.479157707837771,-7.167320689156185,444.8008089085463,5.111620707774322
400,6.866654782439964,-6.841642795618519,484.28100443859637,6.491156853858846
401,8.303267305051937,-6.378355493366453,521.496349137382,7.931981820423649
402,9.761201806389261,-5.806109999681418,556.1396501530838,9.395524209622963
403,11.204303133605318,-5.163634877389408,587.9700180523977,10.844988108622449
404,12.570255649953165,-4.498880230025459,616.8118997978478,12.236887655888284
405,13.785659925295139,-3.8645728144013005,642.549460251854,13.515929852233622
406,14.799586597247345,-3.311694173241647,665.120119988915,14.629383142874099
407,15.603497246231381,-2.883054327905679,684.508365461407,15.543571962946285
408,16.212355052478596,-2.6081415890743918,700.7397435462257,16.238130640432352
409,16.63747915508176,-2.500050555277398,713.8752545109239,16.693718612686627
410,16.88243604851884,-2.55827105270404,724.0062742816849,16.896484106954873
411,16.96496065494581,-2.774111993449607,731.2494475763071,16.85108302021218
412,16.927528248679415,-3.134844685559032,735.7416124649302,16.582054145106905
413,16.815378176144275,-3.627952160558304,737.635447034378,16.12575219988434
414,16.651758085333547,-4.2431431488234,737.0957346371629,15.520176538199834
415,16.43269066599253,-4.9742039070302955,734.295948860124,14.79227241916574
416,16.143311531770156,-5.822723815468983,729.4151574947322,13.952605728846855
417,15.773832658654879,-6.794388044295291,722.6349286032253,13.007172693713386
418,15.323907961769141,-7.889152839527427,714.1348585489541,11.968585602172032
419,14.790196745491707,-9.098520460480367,704.0859036952714,10.849262790577223
420,14.158886393490263,-10.407100876037518,692.6580551269858,9.656982092236364
421,13.426387192227752,-11.79197841299814,680.0364533293312,8.40515679636591
422,12.61048908028503,-13.225275352416705,666.4144744656377,7.121768976430914
423,11.738253986789626,-14.680289540759677,651.9818263531675,5.845303351053547
424,10.826691038296888,-16.134530787826574,636.9093565095051,4.6089105561379
425,9.874596383982547,-17.567844022741276,621.3131293949375,3.4329807632182407
426,8.87554235599291,-18.96382654386469,605.2339446241315,2.333128012322274
427,7.833550326386561,-20.315710234934993,588.6429273598804,1.3222103641556746
428,6.7700231930897745,-21.62465278627221,571.4530353717989,0.4037584182359629
429,5.704900272424209,-22.89267850306218,553.5379135184583,-0.4293304995198989
430,4.638169594802147,-24.117800482598533,534.7575449995796,-1.1937170308946505
431,3.564160358578329,-25.291143276431942,514.98680144387,-1.9120123324301417
432,2.4927173899394837,-26.396479281599863,494.13753037198506,-2.595294324685826
433,1.4550741502690787,-27.41019041202316,472.16254793805666,-3.231715045957265
434,0.48246942802842613,-28.30496390624904,449.0616258192198,-3.799974097208142
435,-0.42242500592665055,-29.059483937527542,424.898401053312,-4.286579743954135
436,-1.288258615975366,-29.663857529179545,399.7933380864157,-4.6874851265764885
437,-2.1435137662626564,-30.117222663714145,373.88259882462603,-4.999672122008842
438,-2.987910298419129,-30.422057708508206,347.27819091345174,-5.2191716741710446
439,-3.802463886868231,-30.576383436665427,320.06370900267035,-5.347979524972004
440,-4.570242646273226,-30.572530288145067,292.3073948045491,-5.401018734725507
441,-5.2846860516061165,-30.405475657882054,264.070487694406,-5.405050543725234
442,-5.93775689213765,-30.078165210275223,235.43229427172304,-5.388971707246094
443,-6.505381415535946,-29.598125825044853,206.50461964973962,-5.376394316674055
444,-6.966652273033747,-28.97078928727465,177.414099658621,-5.384928752352252
445,-7.330726042295006,-28.201044137850204,148.2911020741125,-5.428525578671852
446,-7.630976408431021,-27.30146099151954,119.25784491705919,-5.515722051364772
447,-7.893306819662231,-26.289854213350132,90.40764707454899,-5.640147203872014
448,-8.118980534953062,-25.1802050527071,61.80156099534624,-5.7755429223624315
449,-8.305782737639277,-23.98006716103079,33.479311045567506,-5.88962118247311
450,-8.478095514859982,-22.692212588157375,5.475646312960042,-5.969025721237363
451,-8.686305442080753,-21.316951299915885,-22.171593109077506,-6.027256528245877
452,-8.97075944191622,-19.854450039132338,-49.43412967861096,-6.091153232722696
453,-9.335045394003126,-18.304609295939706,-76.28814655507338,-6.1882990468468435
454,-9.758685945902055,-16.66637961227073,-102.68376359287775,-6.344527441062792
455,-10.224517125589081,-14.941779253479737,-128.54197220124706,-6.583833024205722
456,-10.725077686253773,-13.14242188063831,-153.77937693701242,-6.922137809384371
457,-11.239145511454273,-11.290009185026408,-178.31994999209957,-7.356989817467055
458,-11.718371875106083,-9.4097571079806,-202.0909911713637,-7.864937011508431
459,-12.108259362774497,-7.527577100447909,-225.02720010094546,-8.41298189688138
460,-12.381080410798726,-5.67122710915872,-247.08003470361945,-8.97352956635495
461,-12.546099661779294,-3.8684359695088584,-268.21945826322116,-9.529643277128658
462,-12.62399937906128,-2.1436288758148407,-288.4342504731783,-10.072271794770176
463,-12.628264596590602,-0.5143195820587476,-307.7204996336141,-10.596962440209278
464,-12.574526579189552,1.0078554215822493,-326.0627891355987,-11.109447340470364
465,-12.493950653654968,2.411567817460325,-343.44015801850816,-11.630712183099867
466,-12.42964533198655,3.6870464681915673,-359.84345731216973,-12.184534946811235
467,-12.409273111079619,4.831877723216061,-375.2790297120468,-12.779997052504399
468,-12.42824154283231,5.852433958942623,-389.7632047606953,-13.404520567128072
469,-12.460283737569108,6.763358843960839,-403.31144849139076,-14.029712743624566
470,-12.481965944395528,7.582964832751074,-415.93365300258,-14.62315569903232
471,-12.488536414486175,8.323759777760298,-427.6394122850958,-15.154841875596148
472,-12.48310516068618,8.99128325593934,-438.43207022971694,-15.598339145569465
473,-12.464997034208718,9.591631145998884,-448.29839408264627,-15.932250006719158
474,-12.432750862782328,10.135296872067242,-457.2205591520131,-16.140655150123273
475,-12.392400294793443,10.635794877183885,-465.1983523018694,-16.215676408418656
476,-12.352885180311171,11.10739482738323,-472.25809125913617,-16.1611631082325
477,-12.309571087220199,11.563318352065247,-478.4457570804593,-15.98980386471863
478,-12.241414179314324,12.013540356384521,-483.81657175509736,-15.717262023288349
479,-12.12470594140665,12.463892419393153,-488.4309517904283,-15.359714809836365
480,-11.94951649475036,12.917657161913043,-492.3536619122959,-14.933503530183955
481,-11.717222894628335,13.373115749098552,-495.6525136080389,-14.454078095063885
482,-11.426930093445264,13.81625380337358,-498.38738618854876,-13.93210135641373
483,-11.068218199126028,14.218805061361472,-500.5938787958528,-13.373162795804975
484,-10.619786882400605,14.546112284859612,-502.28364652194546,-12.784223159667023
485,-10.067298633701323,14.768154608853072,-503.4582193845021,-12.179633526527894
486,-9.427767520433045,14.866928191426275,-504.1223436079978,-11.587284951266978
487,-8.750314001009446,14.840172366126566,-504.2912799067872,-11.04708178266694
488,-8.08664852915293,14.702859448999126,-503.99099013270256,-10.595889217118714
489,-7.468430451825759,14.485404609638847,-503.25765659838356,-10.252915713310792
490,-6.91212645984555,14.2280582577572,-502.1356054698626,-10.018229791088352
491,-6.42644287001412,13.973513391099909,-500.67210656889,-9.882352993465128
492,-6.021631961016041,13.759016636966392,-498.9133244124451,-9.834685397373535
493,-5.707093199173391,13.608273084692508,-496.90091723145275,-9.856123771240057
494,-5.473304051464826,13.527013675850194,-494.6683411837078,-9.908818566715158
495,-5.288840356155584,13.505595575397404,-492.23637131291196,-9.945872522003503
496,-5.120654126266131,13.52505847407261,-489.61158720709113,-9.930266759885088
497,-4.960328777310692,13.559770457286492,-486.7860422865151,-9.846007093897631
498,-4.820618948937068,13.578910998134711,-483.73350101144786,-9.692420685376158
499,-4.705206419258977,13.554642855489849,-480.41288106826363,-9.467093306477539
500,-4.597307058500365,13.469728577848468,-476.7858354133156,-9.160139002965
501,-4.479478105915945,13.316364258765567,-472.83378672440006,-8.761771571728902
502,-4.328303561201795,13.101360410604414,-468.81023250503875,-8.248297850427157
503,-4.168679881599157,12.816555772238685,-464.3236645867548,-7.650234671826948
504,-4.004566334307346,12.473493288529108,-459.2711410809735,-7.0033796450236805
505,-3.835484863004726,12.095908952772277,-453.75840067072426,-6.3493289359554455
506,-3.6731398364045207,11.711709839092569,-448.0269671439135,-5.736996777528719
507,-3.5374801239460747,11.34598293857404,-442.38746048786334,-5.213027289123375
508,-3.441012677880359,11.018789188793672,-437.15777116297204,-4.806664615528006
509,-3.383616192362332,10.746860853262568,-432.6097899322315,-4.5241274179757625
510,-3.3602575451354864,10.542314346059833,-428.93478739507316,-4.3565612135158505
511,-3.374485475355527,10.409199616372087,-426.2281485863367,-4.292212477404418
512,-0.5012562987421233,-0.1188827307606902,0.05194034123690411,-0.38477920883252614
513,-0.973269478079432,-0.2802945434170251,0.05087232668773137,-0.9020854278943404
514,-1.6359109201695632,-0.5287721221936125,0.04094867933070296,-1.6705746196783617
515,-2.4698134818789907,-0.8738164178689741,0.009492496339526556,-2.694033079113809
516,-3.423830222878179,-1.316913623665917,-0.058168437704931714,-3.94304031604775
517,-4.445780031600718,-1.8523002992560067,-0.17277531972727284,-5.362583122356857
518,-5.490236839863984,-2.4707877258281625,-0.3395523707537986,-6.882669009105611
519,-6.509231173103483,-3.1629967839982616,-0.5606036807899017,-8.424881092134365
520,-7.455613526570524,-3.9200432502345466,-0.8351264698080566,-9.90509009407619
521,-8.296815314867459,-4.734193125435469,-1.1536115167864813,-11.252699615576969
522,-9.032027394355845,-5.602341413351444,-1.4926627928730392,-12.445552861395383
523,-9.640315081173727,-6.5110969399919405,-1.8317866306564714,-13.472243899208275
524,-10.093143245988845,-7.444870974292012,-2.1716935247834708,-14.333137185141497
525,-10.362746465179931,-8.387219750043926,-2.537887499366474,-15.025738862069106
526,-10.443217893393983,-9.32001260989407,-2.961774917864049,-15.548011953812061
527,-10.353404394185295,-10.224180415644723,-3.4618475854723996,-15.90823283235014
528,-10.117434440605678,-11.080996332582261,-4.042136899947618,-16.119259274281784
529,-9.743571657318878,-11.875007991724612,-4.695000954273274,-16.188247301895444
530,-9.230310497267475,-12.598130816024472,-5.398409479921899,-16.115731369113778
531,-8.595425732035368,-13.250084626510734,-6.112966450022621,-15.901531431616057
532,-7.883018333011533,-13.835289954802828,-6.7858917870411375,-15.551589889373377
533,-7.1446757765937425,-14.361158753754975,-7.364208009567003,-15.079494312897575
534,-6.409485510831788,-14.83748278874267,-7.805405891518211,-14.50094409662695
535,-5.672408630221458,-15.272467848646048,-8.082012222128926,-13.832963614143972
536,-4.91678556657683,-15.668482082978768,-8.183624326285308,-13.096726280568037
537,-4.133572112771325,-16.02302202958875,-8.119409083667044,-12.321026640232338
538,-3.3288268390501097,-16.332492308866865,-7.921434577294128,-11.542803659335197
539,-2.517529251152174,-16.594162175158562,-7.642734278118994,-10.788691257682443
540,-1.7052392449108953,-16.80668482762413,-7.343444339954342,-10.061950710287713
541,-0.8812873947299623,-16.97066158561024,-7.066730178737652,-9.350075284530941
542,-0.030407061022574317,-17.08909017947028,-6.826712854289923,-8.635380852014832
543,0.8468717805805437,-17.169085344536335,-6.618595459730059,-7.8985805182621736
544,1.7345629399120592,-17.22315204900629,-6.430289836241579,-7.11069287196505
545,2.6197298642720086,-17.26598399264404,-6.249126901590371,-6.23509013350768
546,3.50107833698428,-17.309151119801932,-6.070078499158539,-5.243067169632879
547,4.3846117291336775,-17.354711082288496,-5.899496598046022,-4.121084648354736
548,5.274258184281662,-17.391632366248505,-5.751362209143217,-2.871408299084975
549,6.173196537285552,-17.40089071370615,-5.641696641116693,-1.511058371762849
550,7.09207369725709,-17.36267415352371,-5.581794492348249,-0.06559050258621463
551,8.044161419921629,-17.259480064990544,-5.572322456169173,1.4386911470111627
552,9.026800724720612,-17.07913313897535,-5.605464727234444,2.9746794195858985
553,10.012375243511782,-16.81860984959847,-5.6712207153918355,4.5107716464421985
554,10.96732396884456,-16.485008354660874,-5.761376959919212,6.015347628856153
555,11.874972392552944,-16.09375141783974,-5.869969573804158,7.469452070208577
556,12.736161083949279,-15.666253641592185,-5.994964333941435,8.868071489635435
557,13.544586815126051,-15.228677113363085,-6.141504462517741,10.202784579351318
558,14.270606736154793,-14.810473399185604,-6.322569718319554,11.45293770959771
559,14.87931052843459,-14.440597129785239,-6.5586879205583815,12.594154349332495
560,15.356666331963279,-14.142013518861352,-6.87400838880097,13.60909956954737
561,15.718124748031634,-13.926215361207381,-7.28935451757199,14.490552349902291
562,15.986636354536575,-13.79259637870685,-7.811753245602149,15.234270560098022
563,16.172943058204467,-13.734699521658051,-8.422606581085333,15.83394504740991
564,16.28211018851535,-13.746552886305809,-9.081653355685926,16.28516737972953
565,16.328194153666814,-13.823760877563403,-9.747954088489875,16.59280327896744
566,16.34154140930681,-13.959714109152243,-10.391705829332384,16.778009320597008
567,16.35486814045662,-14.143331683825284,-10.9894656042665,16.873754362762515
568,16.3907852522741,-14.362217417447777,-11.523491680431798,16.911765320779
569,16.464414013356834,-14.607050440847205,-11.98742388057179,16.918447926301617
570,16.585043938675724,-14.874545255611554,-12.388068378002096,16.914896522545774
571,16.747567512209585,-15.16776785234435,-12.744531638109281,16.919041868029062
572,16.91809282898919,-15.493017007645875,-13.081374885530366,16.95188776505492
573,17.037319339906762,-15.85678649633628,-13.416205164870998,17.034908851365042
574,17.044023171661493,-16.264452350165232,-13.755489164661839,17.18328487365602
575,16.89846775694498,-16.71853096814396,-14.105196277920752,17.40615790151783
576,16.582768725827755,-17.218570029238922,-14.484850406499051,17.70339865403754
577,16.084051462478687,-17.761681738691003,-14.923902591635215,18.058176140351648
578,15.395291328438741,-18.341009521471264,-15.444511251459145,18.440399627649136
579,14.524043943090025,-18.94605559224071,-16.054291610689283,18.817806396059336
580,13.49277644928495,-19.56512662031113,-16.749338637844915,19.16616077497828
581,12.33789916956837,-20.188137465005408,-17.51736245379653,19.472622869689552
582,11.100180242212828,-20.808370130664336,-18.33935329919175,19.729908079685952
583,9.809219420919485,-21.420971653500946,-19.191242037978935,19.931037397428575
584,8.484175818037512,-22.02130809211074,-20.05317395139352,20.072857174974395
585,7.155593542472569,-22.60575970988078,-20.91908026077076,20.166102024135416
586,5.881183230675268,-23.172492551003547,-21.792173272300907,20.23923629326914
587,4.742317285410684,-23.72064875041646,-22.675594507482916,20.33307152811086
588,3.8259244126336993,-24.250289295194058,-23.565585334029233,20.489974434273787
589,3.2006446487547304,-24.764328545450965,-24.44721261308007,20.73745808855783
590,2.9118792118953825,-25.26810941586553,-25.296379774549013,21.088200453142374
591,2.9971854043722974,-25.76563534211394,-26.083602849469212,21.55842530651103
592,3.4945078297679504,-26.258164302824834,-26.773503164050222,22.171239953986454
593,4.4237316819091,-26.74534152743805,-27.326816158109946,22.94176504411168
594,5.758198119806921,-27.225573956859776,-27.71060228759397,23.863490199247437
595,7.423433644753087,-27.696900878527053,-27.91100324965215,24.90768153883039
596,9.325370916209115,-28.15910944850392,-27.936894078110683,26.03277262925542
597,11.385605688064324,-28.61395290269282,-27.814433821732198,27.191963089231898
598,13.542291141794887,-29.0638072532028,-27.585033818821525,28.33177789163796
599,15.722183252530483,-29.51218870441502,-27.302802111335478,29.38895892140398
600,17.846227257908485,-29.965282775566923,-27.026729840219772,30.30053540531231
601,19.856262974525865,-30.431723567910637,-26.811383017967113,31.019686216317027
602,21.721772762836675,-30.92145220854434,-26.694767653516895,31.523046410416764
603,23.422905209854832,-31.445976638374354,-26.69112890546748,31.80729990141745
604,24.93351253610202,-32.018882074107246,-26.795632394218845,31.878501573556573
605,26.232340539972498,-32.65285255324905,-26.997949305397228,31.745381236239368
606,27.32051891167555,-33.35742107028779,-27.29567760318285,31.419819851522472
607,28.21674406558982,-34.140964648731675,-27.692703247399375,30.917750421803994
608,28.92974248224407,-35.00969158648851,-28.18497741527361,30.255639655462385
609,29.43852473309684,-35.9622650814373,-28.759400320957226,29.447146505812785
610,29.709507311833093,-36.98692586266182,-29.409186838065246,28.50895822211168
611,29.73318518749309,-38.06316403034439,-30.134066238243275,27.46897422633565
612,29.541593611213823,-39.163576265202295,-30.924523387508927,26.364773140745204
613,29.183161943669116,-40.25509623809278,-31.753636106073007,25.23535318588599
614,28.692359471696452,-41.30123532429197,-32.57497210294611,24.118777974474146
615,28.095534525368848,-42.2660299462052,-33.32450233237902,23.05519670666806
616,27.440030684704276,-43.117771903797674,-33.93424370543936,22.090101910630825
617,26.80501149502495,-43.83085640987952,-34.35271679228348,21.272401422091185
618,26.266917595500793,-44.3871134668894,-34.556952036371754,20.640892513379285
619,25.859407999692305,-44.773599968849496,-34.55201655254203,20.21205864026968
620,25.57321015020192,-44.9803529347559,-34.36566596089626,19.980528908153037
621,25.38747618882847,-45.002330771047845,-34.03926576438264,19.932052900048127
622,25.29081726923568,-44.83830749375487,-33.614696566120735,20.05721753612768
623,25.26660786308745,-44.48647563019035,-33.122730923846504,20.347737955130246
624,25.279832850324254,-43.9425007355696,-32.58334429960847,20.785178212520158
625,25.290578662705588,-43.20305284923914,-32.01252671431417,21.343236356319416
626,25.281035947843517,-42.27000950356357,-31.416868729665985,21.99953359520829
627,25.271024270288848,-41.14822511939325,-30.783234460868155,22.73818693906471
628,25.29791295548365,-39.842686747142054,-30.086838108977634,23.54429154522084
629,25.38263769481286,-38.36023300259113,-29.312937140355963,24.39675400763223
630,25.496637552295947,-36.81963493464422,-28.495361117723018,25.261231103615994
631,25.66966628606951,-35.06120980481172,-27.606526329128258,26.09240198270592
632,25.92300076467178,-33.045265163609415,-26.66491663628232,26.84971698440666
633,26.248611367291257,-30.818153705215718,-25.715485378797062,27.502059601295485
634,26.60579048878395,-28.48034542009728,-24.805515180113165,28.025254103940807
635,26.943881831457325,-26.158466784060856,-23.971363026957455,28.406119903581693
636,27.234993737843105,-23.98328065539731,-23.239385798534013,28.651131840106455
637,27.47797489577544,-22.071727056167457,-22.629508897268675,28.78546646585097
638,27.67471757101023,-20.51071679056055,-22.154744638107193,28.84129691236144
639,27.817005400905362,-19.347841819539486,-21.818729592129525,28.845746615315083
640,0.6759623149734952,-0.7946189519753782,-0.7509822548400151,0.8105801724763733
641,1.7905668023310097,-1.7931363712200623,-1.7915919493605168,1.8608093506357908
642,3.454524267066488,-3.2532698248776866,-3.3379616052368055,3.398998651673865
643,5.701128309343119,-5.198239235960914,-5.406246542190092,5.449142513941601
644,8.51266678386227,-7.608509902640449,-7.96519100872382,7.985281003255626
645,11.799898109243621,-10.42153205714728,-10.934244284125237,10.929835957488464
646,15.414083727484128,-13.54033022751193,-14.187700526023049,14.171476853693477
647,19.18882056916147,-16.848312481831474,-17.57125427681633,17.59115432877564
648,22.97556848534679,-20.230039596085106,-20.932142715554683,21.082391809337942
649,26.663985378630393,-23.596756766567125,-24.156655432800324,24.568283485674066
650,30.20073636765619,-26.92043169631067,-27.211517736688975,28.025029317801813
651,33.51706776451798,-30.148741215131686,-30.055896060553522,31.38516508150203
652,36.570039392185464,-33.237948216480916,-32.67654780573324,34.58412584686261
653,39.354864189821846,-36.149924441324075,-35.08932454014051,37.57898420185004
654,41.8856801880501,-38.85131316799553,-37.32741506325674,40.344250223212995
655,44.16479656936605,-41.31406481880693,-39.41766286859817,42.853319711404694
656,46.18899618016801,-43.51383934657991,-41.36961137693269,45.07971503091962
657,47.97308369913562,-45.4289912442489,-43.18307238174494,47.0123206033334
658,49.55636530765744,-47.040761694624415,-44.853706488542386,48.657037588024004
659,50.97568039072928,-48.333839593086104,-46.36929801637783,50.026486630956384
660,52.23842956197323,-49.29957340983731,-47.707314245484014,51.137993066775515
661,53.335912916276655,-49.93946829624011,-48.8420921210127,52.01876200883219
662,54.2731362480848,-50.26413260469293,-49.75510408082311,52.70254563204445
663,55.07541323217476,-50.29005285334301,-50.43871352678731,53.21995269320908
664,55.764301327340505,-50.03566210585286,-50.89377246501314,53.591944768942696
665,56.34485957136927,-49.51709333278254,-51.12329188760024,53.83115932165368
666,56.81199167721302,-48.747816027785774,-51.127808566158784,53.947676242600195
667,57.16716440871153,-47.7406216498859,-50.907626070503866,53.95377694102922
668,57.43335394879556,-46.50683387640176,-50.467541509537554,53.86474232234744
669,57.63064190861006,-45.058024810141006,-49.81685395662023,53.69042226576861
670,57.7458198254071,-43.41246507398346,-48.9649591697344,53.425446682915904
671,57.740034784999885,-41.596936575398026,-47.92117295066102,53.05254326454472
672,57.582615800664904,-39.64385646309955,-46.69992752958716,52.55819131435352
673,57.263914190432374,-37.58798838142353,-45.32569490473499,51.939799006333146
674,56.77761751658745,-35.46296229850926,-43.833371233563675,51.20234384591128
675,56.11266291931738,-33.29849838625963,-42.26174362839173,50.35314718664812
676,55.26050431527413,-31.1188341380382,-40.64566285947189,49.39328865182768
677,54.23636603559008,-28.941520893859327,-39.009694573089554,48.318404545258254
678,53.08704393250404,-26.776434185803538,-37.36305210799016,47.128689308457766
679,51.866883121419356,-24.625296594506253,-35.70221005578636,45.833096146879264
680,50.61311063209853,-22.482618907126835,-34.019626307434784,44.44205428592907
681,49.3357291437807,-20.341669433911434,-32.30942604524332,42.960556379338634
682,48.031477043900416,-18.20388403574788,-30.57006726570909,41.39545804981897
683,46.70608541786312,-16.082648006382275,-28.805164621753892,39.7652958711777
684,45.37450496442197,-14.000376736246364,-27.01963036321788,38.09599102001607
685,44.03734715317592,-11.984896609730065,-25.216225108588283,36.40798217865307
686,42.672474536596376,-10.06679331139345,-23.39917573224729,34.710926353744895
687,41.26282185941921,-8.276548283569381,-21.579787682117452,33.010029739452136
688,39.81409177254568,-6.639858253552907,-19.775068025288807,31.31346468971328
689,38.34658488319261,-5.174766194610182,-18.002454545890657,29.630695438635257
690,36.875428546799455,-3.891900766982742,-16.278802053370953,27.96424749991417
691,35.39327653676887,-2.793571346456799,-14.62160206689592,26.30484893137849
692,33.877382737529445,-1.871711409523013,-13.049549336778442,24.63731489906516
693,32.31138739451933,-1.1064946771201762,-11.580930381227992,22.956393350029256
694,30.700425891747937,-0.4677351867490763,-10.22826712811238,21.27573865269369
695,29.054450872420826,0.08000352777872574,-8.995972500217079,19.6131234340591
696,27.365268191484116,0.5718846842612637,-7.880870652804333,17.972353372833034
697,25.618508261508197,1.038029507044345,-6.870703050854869,16.349594760369556
698,23.82061299278838,1.4989029275320116,-5.946051740231128,14.75055934726617
699,22.008897557000687,1.9645642390131115,-5.085007545662734,13.192810920541739
700,20.227612324566774,2.4380460991506867,-4.2651264614224305,11.695494977368972
701,18.504891626896466,2.9183245438940184,-3.4674765580637117,10.27470850123149
702,16.860747167500055,3.4023855421373543,-2.6773475650140868,8.94943528824937
703,15.324708079396292,3.8881180525942,-1.8763281925110455,7.744766741635858
704,13.937715926525298,4.377459065214429,-1.0424767832728383,6.684356766220956
705,12.728499138567859,4.876951280371463,-0.16335927198619996,5.779967575961808
706,11.69578123262986,5.397378356687441,0.753664049591811,5.027931360352978
707,10.820417280619646,5.954996250508439,1.685423506131989,4.413528047829651
708,10.09030077709493,6.5693144810054935,2.6043280898335035,3.915676881076016
709,9.508010606017054,7.258070937613836,3.4849741493878286,3.5097585135577147
710,9.065027081689065,8.033681585104457,4.308038255122753,3.1680550342274976
711,8.71668423200674,8.900345049853494,5.0649590230838,2.8584427224850173
712,8.393052490649422,9.85395558138336,5.760160824288685,2.5512135803273783
713,8.040813794091898,10.885128205792494,6.4135180446653886,2.2318205423281112
714,7.647542828225807,11.98252956354747,7.060885779906743,1.9011765380971388
715,7.224256732588886,13.136721957637135,7.747610794335159,1.5667993796092519
716,6.779960546989813,14.34214017836526,8.516089874488644,1.2382224368062924
717,6.308819991631288,15.593863542717628,9.389349285069509,0.9240731447913024
718,5.805145049710148,16.88399007131699,10.362281760648331,0.628383804541171
719,5.277832789143937,18.201303433198756,11.403923439585306,0.34791127858501597
720,4.738110403279772,19.531980813881837,12.464592369203185,0.07107858360949418
721,4.185503750431303,20.860171193676397,13.491658912050687,-0.2192879787927341
722,3.602874781233522,22.16846993721462,14.449877265203835,-0.5407430365428182
723,2.9739683234606695,23.438490791792713,15.330536418468725,-0.9064772164368669
724,2.3025616382490233,24.6520245281758,16.14624346578467,-1.3198818942072146
725,1.6042350765974847,25.79425153905228,16.92051650426739,-1.7767606835204341
726,0.8885080182358953,26.855107134278388,17.67956629437912,-2.274492904195993
727,0.15045637520928073,27.82714384870763,18.44602904832569,-2.816544157358266
728,-0.6123418470431341,28.705830505308768,19.23339008006327,-3.4110404024073464
729,-1.3823455697941696,29.49028059364591,20.043159689350965,-4.064293561747571
730,-2.132601625056017,30.182085923445253,20.86525783833456,-4.774932446886148
731,-2.8521846500916865,30.785306301173595,21.680370576157273,-5.535591922307675
732,-3.558074014673859,31.30491528494365,22.46729041653871,-6.339073717448872
733,-4.27757490820575,31.74434927238701,23.213120348337767,-7.1773711682266015
734,-5.027296906665625,32.103442588258396,23.91894097602508,-8.034028736610225
735,-5.810790410994236,32.37608770517465,24.5969800148015,-8.885710673934996
736,-6.639290202576503,32.553226221048675,25.261479569548705,-9.710700602604158
737,-7.545529868110098,32.62883289750912,25.9225372320638,-10.494690284235023
738,-8.565478993976635,32.602366811257994,26.5827904446743,-11.233377163184956
739,-9.711477454952593,32.47972039295604,27.2359248714543,-11.930337494302721
740,-10.962376476512546,32.27405435208648,27.86884927124485,-12.592262398628664
741,-12.290383451002736,32.00335071175101,28.464107041973108,-13.232435209852238
742,-13.68530228926636,31.686095531840774,29.00277768018024,-13.876561540960727
743,-15.141073833518977,31.339706709310192,29.46903120738331,-14.553014817555239
744,-16.633882173654047,30.981113266400914,29.855577362234325,-15.276833416912892
745,-18.11462042060679,30.625548637500874,30.16638046385401,-16.041877788606396
746,-19.538631035793273,30.281744411388043,30.41285574980929,-16.827943896806968
747,-20.898225497756385,29.949154800764287,30.60718975574263,-17.617639649076803
748,-22.211120170462138,29.621253110184284,30.757586175793666,-18.400503359100828
749,-23.49040149938434,29.29145224832838,30.866180691086587,-19.1637460030505
750,-24.729283563473533,28.958660991848955,30.92946968707719,-19.889758241085268
751,-25.91496489730494,28.629454256085445,30.939615864587324,-20.563661814214697
752,-27.048951101991925,28.317692779378188,30.88693443102454,-21.18259949601511
753,-28.145766159609977,28.040680908800013,30.764400639245018,-21.762357612384847
754,-29.21090936944401,27.811599695895463,30.56890859982653,-22.331194155534014
755,-30.228689464826015,27.63709761861713,30.300368171994652,-22.913416424639117
756,-31.18126545125649,27.517415685701803,29.962675399846315,-23.522104051455848
757,-32.065992153697614,27.443617505839413,29.561841335486832,-24.164720287584608
758,-32.900239669232406,27.406228681698067,29.11495163173665,-24.81581979742121
759,-33.6534611701772,27.37775563616005,28.601504147939558,-25.530084847298827
760,-34.28526008119506,27.33935915516833,28.02686558941703,-26.310412390890942
761,-34.77481524018396,27.27921279298683,27.412003059440988,-27.135481574386624
762,-35.13137684251966,27.192586795963575,26.78561869416651,-27.97639281016264
763,-35.37869462504877,27.08269395023219,26.179404056104783,-28.798061406764035
764,-35.52998849190508,26.960315864600986,25.625332428287127,-29.55727028378906
765,-35.58979066621428,26.839897178076583,25.151468524450472,-30.211836210698763
766,-35.57634027113755,26.734108873101327,24.77734033031966,-30.73627853460792
767,-35.52633567022643,26.651502334696467,24.511877234879766,-31.125621684844287
768,0.03225996727719338,0.12381823770784357,-0.0698326229689997,0.12319923220853951
769,0.32525073019382467,0.21849834149479963,-0.19698031063148141,0.33116212442934456
770,0.7872343103998467,0.32869828329660816,-0.36741114369300576,0.6320541068806588
771,1.4354399032688294,0.44074527602488395,-0.5702209785423145,1.033393219019859
772,2.2678788581026534,0.539666378445067,-0.7903448941455566,1.5380448649657894
773,3.2476157191846156,0.6115679198010509,-1.0134643886152437,2.1342412406893327
774,4.309792927462072,0.6471924492153659,-1.23176632815267,2.792954108954999
775,5.389364042436311,0.6469427724694709,-1.4461100969669747,3.4753187201127074
776,6.439858869211775,0.6246132939471831,-1.662196544681021,4.142527216899211
777,7.43375018701902,0.6072239291822774,-1.8838913175573184,4.764330414536818
778,8.357773456951808,0.6330731367738988,-2.1154805135297536,5.32654198975016
779,9.207769839964241,0.7329198325671459,-2.3651194115744754,5.818420314775027
780,9.986495317273516,0.925029569163871,-2.6404329380507012,6.229209120992444
781,10.710041413528653,1.2140998410842188,-2.9364546394504663,6.550065207731071
782,11.39088049163471,1.594924331271643,-3.233313199753266,6.779737143955144
783,12.013357600761767,2.0536543548101234,-3.503705192107213,6.920675060193579
784,12.540655286647597,2.5676139621917056,-3.723001180020084,6.970830929099692
785,12.936717281535527,3.1081282621612103,-3.8810405858966166,6.922578480789563
786,13.183847731785361,3.6468696120740414,-3.9846390420100377,6.764812631607568
787,13.272073276080135,4.162621912068289,-4.050081033792298,6.4792667013485
788,13.183953027581722,4.643208930257652,-4.097086138203732,6.0377057104614185
789,12.904941981565878,5.083189534221239,-4.143213773030489,5.413492687777473
790,12.439871595180277,5.483044144762466,-4.199459485179074,4.598925952960576
791,11.818949900752976,5.848089744941021,-4.271431248945821,3.611124866575535
792,11.074873458707797,6.186083504280472,-4.365853696720272,2.4838049985425434
793,10.21947999520629,6.502914337441596,-4.495077319020917,1.2561630230597458
794,9.251602701891581,6.797782688804768,-4.6742519031563114,-0.02980296892915249
795,8.17821200656205,7.064813422683318,-4.912477943704645,-1.3273101157929534
796,7.02753888145859,7.297973415257631,-5.204351816247212,-2.5847908854867394
797,5.834113773745524,7.49531254961615,-5.533499516885531,-3.7521039108414764
798,4.614093907082125,7.660643953218975,-5.8818309873447925,-4.791661913642078
799,3.3689018685825776,7.800817308069318,-6.23113232096743,-5.686063931386256
800,2.1155244932980333,7.924672525341353,-6.560825935628717,-6.429963366858022
801,0.8989917427275111,8.044690947795052,-6.846563643158117,-7.013970900435536
802,-0.23394055040631187,8.174542951369556,-7.059862780211694,-7.428802197327161
803,-1.2638614310269436,8.32389656755573,-7.172730263964357,-7.680663500504567
804,-2.19925620800944,8.49600600434162,-7.165734386909127,-7.793439166952696
805,-3.047631779288124,8.687567709661442,-7.032036056304722,-7.8006125439782545
806,-3.797661843127033,8.88943886104308,-6.776541059332645,-7.739292357104622
807,-4.435056055155284,9.087206975092544,-6.414438249927859,-7.64855460538328
808,-4.966206129398446,9.261896165127691,-5.971794378101611,-7.570127683126237
809,-5.423936703171014,9.392639354110967,-5.483890801682538,-7.552018861719723
810,-5.838997207900566,9.462014243462638,-4.9895517909354705,-7.634112102168534
811,-6.2117821318591515,9.465646628368454,-4.525961052944481,-7.8247505466825595
812,-6.517570451934384,9.416070397951882,-4.121249257608996,-8.100935990973486
813,-6.734551250029237,9.333133487152226,-3.785984920502121,-8.425211792852757
814,-6.865132337176862,9.234046056767971,-3.5114064476854563,-8.762293231310945
815,-6.923315887860749,9.128437984053873,-3.274952687145691,-9.084797525953421
816,-6.92085252634398,9.015577734057743,-3.0478296347374503,-9.370539714452399
817,-6.872422851928345,8.885654867513585,-2.79970925759133,-9.600122529549965
818,-6.803710624521556,8.722446870846891,-2.5018734982294064,-9.764404754832352
819,-6.7505639572316465,8.506666251949834,-2.1312982098729223,-9.871721613612644
820,-6.740880936413412,8.221313031453054,-1.6762072620998751,-9.936365189084837
821,-6.778258445689264,7.853970343017767,-1.1425431138407751,-9.966690528566707
822,-6.8398837659351255,7.396115569870517,-0.553652760582082,-9.96905826211417
823,-6.903436484634558,6.84534431094397,0.058352873431827615,-9.954731516075592
824,-6.980585937304721,6.209179474872084,0.6594875370338599,-9.93643602548969
825,-7.099788140788571,5.504590194356457,1.2187001770573922,-9.919085482696344
826,-7.271668698102335,4.752558462190636,1.7121261892028334,-9.89434587711357
827,-7.490210057068039,3.971346515942613,2.121762497567993,-9.850235382452745
828,-7.761905819570839,3.171556156888628,2.4324909587531205,-9.79151159171831
829,-8.120480336022986,2.3558406429223897,2.6313369165808553,-9.73739042867669
830,-8.601305256591129,1.5243818338687753,2.7064442907967856,-9.700959529616918
831,-9.206161735140656,0.6794164338833024,2.648002453762387,-9.678141976305737
832,-9.898753153449872,-0.17728970250415477,2.4533556229030795,-9.65086774342501
833,-10.63432001675626,-1.0489406831109802,2.131008667782037,-9.60296685901557
834,-11.385565986823105,-1.9444715928459244,1.6997441700295006,-9.53527339627336
835,-12.146440865358672,-2.8764007024775595,1.1851469479035357,-9.466916314460166
836,-12.916151115347905,-3.857048283436191,0.6136540335026768,-9.421999495223487
837,-13.678965927366061,-4.893643266276907,0.006983631718077615,-9.42024912600427
838,-14.419851877482628,-5.984343419475467,-0.6164369267642121,-9.480749156917808
839,-15.150996322251178,-7.11740130573717,-1.2401040760374296,-9.618835911905556
840,-15.898126875710659,-8.274420101070703,-1.8541737820131332,-9.835789010813041
841,-16.661194915790546,-9.435434154868737,-2.460008038233849,-10.119911225380795
842,-17.406537445612695,-10.580829773031894,-3.071299913973424,-10.454270725335295
843,-18.108184096430694,-11.691750386201049,-3.7114167713410176,-10.820063208050268
844,-18.774834830359545,-12.753603361212038,-4.407298323714594,-11.201557713184533
845,-19.437356814775242,-13.758478760155585,-5.180763897415533,-11.592530907055307
846,-20.12223667821822,-14.704381141530611,-6.041125688346683,-11.99505873280949
847,-20.83342002132001,-15.593211453441306,-6.982995002985094,-12.411758966122024
848,-21.56265290170654,-16.4262316732814,-7.988782437469188,-12.846847730088163
849,-22.306896156389673,-17.199772858945483,-9.031301318858786,-13.315385579004525
850,-23.06854379468292,-17.904853285256596,-10.074752133120082,-13.836993560899513
851,-23.8357279077035,-18.530609676914196,-11.079184877704343,-14.413958278121205
852,-24.569220713037613,-19.06910921942444,-12.007145573848613,-15.01760545523105
853,-25.221728433229167,-19.515655451520068,-12.828173560108965,-15.60026581806866
854,-25.769158698161853,-19.86611092390448,-13.521795158537685,-16.120065796971577
855,-26.217182737708576,-20.116465940170663,-14.081533716193492,-16.55156360417718
856,-26.570597604407283,-20.262777051709175,-14.516574021068283,-16.8829173901254
857,-26.815945120699872,-20.301483381001486,-14.844487676912237,-17.11280187074977
858,-26.93677517058201,-20.231173695687545,-15.080821575075433,-17.249278086149946
859,-26.930576861975922,-20.052618913490022,-15.233101642575543,-17.308883970569696
860,-26.814028743091857,-19.767685546844202,-15.30211259083863,-17.314031762262278
861,-26.60248639259384,-19.37929840411167,-15.288132606482257,-17.284563894962332
862,-26.290324018693696,-18.89153533166138,-15.193343953090258,-17.22661338997469
863,-25.85969970619492,-18.309227527536336,-15.019726572213472,-17.131631114548764
864,-25.306141692836565,-17.636498222298027,-14.766643441779713,-16.987588508598584
865,-24.652505762745836,-16.876652158186015,-14.431321443598167,-16.784839669799428
866,-23.93274730817869,-16.034036679895006,-14.012917785744657,-16.51112981503362
867,-23.17306102518104,-15.115105873276173,-13.51794414676122,-16.155675717243053
868,-22.390567887521303,-14.126688476333815,-12.96172287706478,-15.723601616742798
869,-21.610070665509365,-13.073067450808495,-12.363990771255462,-15.240777344944359
870,-20.873078657250325,-11.959976633149445,-11.745964573848918,-14.743738032816848
871,-20.22119726750551,-10.803071045329984,-11.129929687536144,-14.263862943996788
872,-19.679423967364976,-9.62813778018275,-10.53491072688988,-13.821923335858443
873,-19.249664005767453,-8.463519678577105,-9.96913423779693,-13.43211001576452
874,-18.928512369818108,-7.334745006043517,-9.426873807232418,-13.103216444645456
875,-18.729038648836863,-6.2631297152586045,-8.896126215962383,-12.83918361842606
876,-18.665472574965893,-5.263949331252579,-8.370905843732242,-12.641997916434251
877,-18.72122401583464,-4.341903823320997,-7.8555404286901185,-12.507926384497287
878,-18.839198078791004,-3.4870690772278534,-7.361268602267709,-12.41938406100965
879,-18.95529003810638,-2.6793941223575053,-6.901526504661527,-12.353834599052622
880,-19.033609684919917,-1.8988722556647484,-6.4885142362672745,-12.300250907697345
881,-19.061236789472748,-1.131100121554024,-6.129356012301516,-12.258276526335974
882,-19.025598310952695,-0.3673666716472239,-5.822774026286858,-12.226906080707437
883,-18.90626284524485,0.3955122717774035,-5.558709371002932,-12.19920244504653
884,-18.69312101626199,1.1529773307449755,-5.318368944141237,-12.167175162387837
885,-18.405566475094584,1.8903601090788213,-5.074769530274959,-12.129833590369369
886,-18.111852161874427,2.571965293306617,-4.811793419193578,-12.091260813605599
887,-17.811039510320917,3.190317752309678,-4.4776274096772255,-12.089685341382058
888,-17.50401019149734,3.735111369967491,-4.052066929602766,-12.14701633581087
889,-17.202268573780604,4.199533044449696,-3.543307436646666,-12.271996805792787
890,-16.927444315604745,4.58044175153923,-2.9841629427843523,-12.461517554738613
891,-16.697041181124824,4.879565928969386,-2.423821174251402,-12.700595133450006
892,-16.504197269310676,5.105999993329985,-1.9124696730538902,-12.96346748600607
893,-16.32527017436142,5.274369616635241,-1.4860751003971855,-13.218019459275707
894,-16.153412246842475,5.398516745692871,-1.161585289542059,-13.435835238963225
895,-16.007527975030282,5.487169941773375,-0.9409967992946048,-13.60396614671451
896,-0.7755620481239914,-0.01080193619501331,-0.2356438413329722,-0.6371181481750772
897,-1.5279561622275768,0.015340346945310536,-0.5527223283547422,-1.4352945657827827
898,-2.6053997341524697,0.06817360486150661,-1.0190469233933528,-2.6007530500517095
899,-4.017265864339388,0.15207839457528938,-1.6435459536342587,-4.150474796242227
900,-5.7379702724218635,0.2685356675393861,-2.421641169463237,-6.072520081446763
901,-7.726285626810762,0.41643815090443864,-3.335051864253223,-8.327781824944012
902,-9.930898466731952,0.5919850056113183,-4.355426355884883,-10.85162865947243
903,-12.281850447758304,0.7869034656975431,-5.449442694308612,-13.556973151237157
904,-14.705250050396192,0.9878326811406599,-6.584744331571531,-16.352015163225612
905,-17.159230790819848,1.1796343065279,-7.737880695981108,-19.171228897881246
906,-19.664046657883056,1.3506137243606406,-8.9054140074331,-22.004082796387525
907,-22.20112582686612,1.4954196515892346,-10.077838411361135,-24.8210544350467
908,-24.72569661910772,1.6162258797793727,-11.246130138497486,-27.590845483550936
909,-27.181239290050023,1.7224686583021072,-12.39787701817955,-30.28024735301673
910,-29.532635863628364,1.8272345365682603,-13.513102953074354,-32.858915862616286
911,-31.777787094914498,1.9405063999468515,-14.564254894047602,-35.30644188964253
912,-33.92536815184337,2.067224047081229,-15.521818374235117,-37.60863820265229
913,-35.9683085858185,2.2082625937044824,-16.359786578498536,-39.742214962653776
914,-37.881207865325514,2.358930734924556,-17.059944792134605,-41.67523125609138
915,-39.644716013642004,2.5071892957685744,-17.61547926751881,-43.383397937907226
916,-41.268333208855466,2.6341405299975644,-18.030904408826803,-44.86156549824648
917,-42.77585584553746,2.717476235309549,-18.318997679698153,-46.12135019196175
918,-44.169517891417236,2.73582316208672,-18.494518739951094,-47.17934612721507
919,-45.43191723065808,2.672627035390256,-18.57356137551209,-48.056570364964124
920,-46.5633472466218,2.519322372553963,-18.583544336051812,-48.793439029073696
921,-47.57724958357781,2.277487592969233,-18.55314781456488,-49.434507938796884
922,-48.453854229162005,1.9585809187429788,-18.48073916016216,-49.986702968983295
923,-49.122866973686506,1.5829950212059258,-18.33062064641649,-50.408093178954175
924,-49.50366382418015,1.1725169958785153,-18.066145330371818,-50.63889065117948
925,-49.568768587295374,0.7352457487300931,-17.686057009194037,-50.6537396267722
926,-49.34570477375264,0.26844817287453854,-17.21263330630254,-50.46046084316772
927,-48.849934330471775,-0.22447157764405692,-16.637569984296633,-50.03851892212676
928,-48.04933118803536,-0.72707763724001,-15.910253170753116,-49.32404226624614
929,-46.89668117622814,-1.2177338913802185,-14.973203141509439,-48.2563166667473
930,-45.385525432133306,-1.6818664864583512,-13.792527346588809,-46.826351192581825
931,-43.58221054572358,-2.1092441174200047,-12.376262690205634,-45.091808873365736
932,-41.617413392785465,-2.4832344091856444,-10.7848739753109,-43.15940862051478
933,-39.65727093327805,-2.7763819291483336,-9.132205174759072,-41.17007442003586
934,-37.87745405662212,-2.957464877781537,-7.566438076484811,-39.29871530492769
935,-36.46235957163794,-3.0029563340121124,-6.231576612150142,-37.75301798437298
936,-35.60993886249841,-2.8984763256795993,-5.238184674459435,-36.75566191234119
937,-35.4816686839397,-2.6307755994547977,-4.660212975371343,-36.48662268700071
938,-36.144442513214464,-2.1793448826693353,-4.5581837818944555,-37.02518835062616
939,-37.578019986998875,-1.5203670965486185,-4.9883755797242975,-38.362053536572475
940,-39.69492256372526,-0.6382420724889086,-5.964335756279221,-40.422067821136025
941,-42.341039938407334,0.4747812658321106,-7.424578499781204,-43.05569355738384
942,-45.30623936266465,1.82676634538033,-9.24646046913622,-46.05024003762932
943,-48.36223412641061,3.4191804294941344,-11.29220715993688,-49.17145701874007
944,-51.32882637107174,5.228685441731354,-13.479883435315832,-52.23057938347598
945,-54.113789547970725,7.202012920523424,-15.800888241199477,-55.11775621393823
946,-56.69321422610859,9.265060643626427,-18.26212947547207,-57.774709453751555
947,-59.083018485013575,11.329160698532355,-20.87831126504987,-60.19012351136374
948,-61.33570960208374,13.286856596412612,-23.69665388281886,-62.41953561680407
949,-63.53114463542074,15.010348280992531,-26.783247984187522,-64.57123674585297
950,-65.7434782509568,16.373935399973483,-30.232256131830592,-66.75826239333573
951,-68.02800481897918,17.281975824798362,-34.19766404264595,-69.04909548638317
952,-70.42990738937239,17.675585325967695,-38.89627449313658,-71.45521534237862
953,-72.96942883056849,17.524550803984805,-44.59000263194231,-73.95844326026646
954,-75.64140783573731,16.8180047950337,-51.555299225680024,-76.5440397705628
955,-78.44924199453678,15.561364761197405,-60.048737170315995,-79.21851798710374
956,-81.40544670442321,13.774095346275129,-70.28524079908857,-81.988438001178
957,-84.50592801320217,11.48162609409504,-82.42446977490681,-84.81934260962507
958,-87.71465974822414,8.714632057258122,-96.55341633645875,-87.63213167107688
959,-90.95335311071321,5.515204840480863,-112.6403021022151,-90.32238293532777
960,-94.1167559428695,1.934993803691156,-130.46518281068848,-92.78277047483054
961,-97.10727890580611,-1.9682864456413658,-149.62176853740993,-94.93390990068387
962,-99.8423432498963,-6.127803405314223,-169.6218235127735,-96.72828328519178
963,-102.24532631448011,-10.465379381830301,-190.03155676960466,-98.12872646520938
964,-104.24827715402402,-14.899757447236214,-210.53845070107937,-99.10143471715831
965,-105.7959043739003,-19.354009548876512,-230.92936110640608,-99.61874853491005
966,-106.84641484922123,-23.75936108038761,-251.10376163533286,-99.66257216207093
967,-107.38693222339117,-28.06291888905971,-271.098403813938,-99.24905443303616
968,-107.44921639996835,-32.23097686360467,-291.0469750938622,-98.46342169765624
969,-107.06116254808289,-36.23665587637751,-311.1458120753035,-97.41329767225491
970,-106.18740783533526,-40.05259608150452,-331.62108096765076,-96.1277887695573
971,-104.75550690056437,-43.66248257779959,-352.6623200926883,-94.54916996773824
972,-102.71176199000374,-47.058032382641784,-374.3687277143562,-92.59648158298123
973,-100.03949344113084,-50.22024128508259,-396.7230305332745,-90.20068618347848
974,-96.74572446752508,-53.10816617559312,-419.58596520681914,-87.31280654092116
975,-92.85093292911453,-55.66448128141259,-442.71788539328116,-83.9097390273357
976,-88.40701228183694,-57.840455827230805,-465.8269750319366,-80.00598942987568
977,-83.51859762549122,-59.61155455021246,-488.64229120854327,-75.66787009987515
978,-78.33720938699999,-60.96540175272347,-510.9383839857278,-71.0046378813227
979,-73.0302960823447,-61.889775168607365,-532.4658979522166,-66.14775575250952
980,-67.73236252423507,-62.37414146864306,-552.9175143002544,-61.22089547353453
981,-62.50158791864579,-62.41382050790984,-571.983954173315,-56.29662779356608
982,-57.33185150854906,-62.01677525045085,-589.4202296716425,-51.39315420894072
983,-52.19674434820838,-61.21212720139674,-605.0632401155636,-46.50276564664226
984,-47.06538348287066,-60.04677300851664,-618.7995117212557,-41.595918055793824
985,-41.898457533158016,-58.56930622426563,-630.5528503938359,-36.61769318797099
986,-36.66760312763559,-56.82684223709831,-640.290705400187,-31.531498689580435
987,-31.40130552609573,-54.873764414779316,-648.0102446231741,-26.388086278173855
988,-26.176205784695867,-52.76306682061922,-653.7298316644266,-21.30537180137041
989,-21.054159203541218,-50.537017163227496,-657.489739978209,-16.379019134791974
990,-16.066779343360373,-48.232356729595665,-659.349505335302,-11.656961887011922
991,-11.24748494959276,-45.8810812031487,-659.3848390906485,-7.1670969372196245
992,-6.653143361315509,-43.50941122939213,-657.6846240826412,-2.934561426124171
993,-2.3502087293377083,-41.13474273289698,-654.3479577483333,1.017813894796548
994,1.628450353281322,-38.757994987691035,-649.4805836796045,4.685360392096043
995,5.31416108805761,-36.37116984380664,-643.1849089084515,8.086081923543212
996,8.784299257042411,-33.97320397753849,-635.5585650764957,11.250037312277508
997,12.107222995483164,-31.56574167216806,-626.7220523561954,14.219417641375113
998,15.301615393954751,-29.14304769156797,-616.8361957105861,17.039131614445278
999,18.35587346332216,-26.699774871085594,-606.0767957193573,19.744249091338975
1000,21.27653788169482,-24.245443202081468,-594.5962186265269,22.365748483288694
1001,24.09482246174136,-21.810088589250086,-582.497572221109,24.93040317774373
1002,26.834773927462074,-19.440932390991417,-569.8131433619375,27.456472495057607
1003,29.49155638629544,-17.18875159860784,-556.4788096017055,29.962313568172767
1004,32.03602105646531,-15.089241667312896,-542.319567268131,32.46595525864795
1005,34.432756987250315,-13.163657131528291,-527.0546695937527,34.9685717481848
1006,36.65895532489297,-11.42998932717857,-510.3237957387178,37.44618767008402
1007,38.707031333674486,-9.898546704384133,-491.7322684404608,39.85695783495958
1008,40.579353542459494,-8.565919539254756,-470.8975657516936,42.162032721818974
1009,42.2983093180506,-7.416996752240129,-447.4909558465426,44.3479751655554
1010,43.9122859200734,-6.430707780991906,-421.27569902754044,46.434963359349446
1011,45.48231249122782,-5.587736882050362,-392.13523596820636,48.46707856592016
1012,47.05344276894429,-4.873400236085977,-360.0896439340321,50.495501739113834
1013,48.630124727213655,-4.278900636355179,-325.29184701776484,52.55688635802075
1014,50.11359999469423,-3.8193288553195384,-290.1756783198403,54.58189025098969
1015,51.604987519765174,-3.472232828024876,-251.33435569791416,56.61570533928842
1016,53.14266188525027,-3.2170363532369306,-207.84199270374287,58.636775374547504
1017,54.70574830979064,-3.0297331048443827,-160.53762386145803,60.601718426390256
1018,56.23506583693173,-2.8862259024506374,-111.3694260427039,62.459685898150745
1019,57.664760838302534,-2.768064775592268,-62.83077555577765,64.1518227560189
1020,58.94559711627043,-2.6643030932301737,-17.504201756010588,65.62306551262105
1021,60.04781670399006,-2.569015860422685,22.30268703881654,66.8360350662823
1022,60.94716515492218,-2.4789184989521846,54.84098372086717,67.77219057859796
1023,61.621515073640445,-2.3940162085191035,79.11410365803275,68.43110245505568
1024,-0.6698204357457357,-0.20964879195611424,4.18208629183197,-0.28268970522130876
1025,-1.1765510860246569,-0.43643910817726694,12.506415694248231,-0.484784573606464
1026,-1.8345977127483917,-0.752911078253112,25.895570828349307,-0.7612420041949414
1027,-2.5950173999166286,-1.1479330858248424,45.04635433792005,-1.1173176653590569
1028,-3.397998505773032,-1.5991701328455714,70.23332127772527,-1.561299738275406
1029,-4.198599482055159,-2.07617437536903,101.24918143840563,-2.1050041289251045
1030,-4.966011549222887,-2.544263382620153,137.41153540773254,-2.7560904875214796
1031,-5.6665608170558865,-2.9718720402407257,177.64736481096736,-3.509218216036958
1032,-6.269770813572343,-3.3352246438130253,220.66325531921768,-4.345242476261872
1033,-6.774419687223915,-3.6200869555247186,265.2067391151651,-5.2425216156198315
1034,-7.229694120448957,-3.8276041419999576,310.4222919886731,-6.194251435596724
1035,-7.645127904268847,-3.9518792999363948,355.384204593268,-7.175261739794132
1036,-7.999090681441844,-3.9895306827837635,399.36024845120517,-8.149060063281869
1037,-8.261856574437585,-3.944655542486103,441.80233234807696,-9.080461856964687
1038,-8.430157354316625,-3.832030514052576,482.27789429670935,-9.953711161863518
1039,-8.536287019005453,-3.6749821214099643,520.4119993753409,-10.782595656272152
1040,-8.616084333341927,-3.4990763807869207,555.892046831623,-11.595992691302252
1041,-8.673846226956842,-3.3243468267760896,588.4779104367046,-12.409418817504923
1042,-8.686756577514815,-3.162758994784143,617.9959251413854,-13.214225580084655
1043,-8.641856830176614,-3.0227720518363443,644.3326899931768,-13.988143704070739
1044,-8.553734931133564,-2.9123106356693547,667.4284353912673,-14.705815335304724
1045,-8.439778836631708,-2.838252724260548,687.2708819744636,-15.338287729964824
1046,-8.302717692984023,-2.807788077113314,703.8892457810498,-15.857116147789675
1047,-8.133708121814434,-2.8294631328264495,717.3484902116461,-16.244411297654427
1048,-7.936138757380499,-2.9124907673159273,727.743861633678,-16.499381760321203
1049,-7.745900498386154,-3.069377056680627,735.195690419076,-16.64034398804899
1050,-7.612737993034828,-3.321105183754085,739.844461053063,-16.695847459232315
1051,-7.572001737053205,-3.693167295414669,741.8447616774735,-16.6898722457272
1052,-7.626050409843657,-4.202084143260442,741.3554050368319,-16.633889909055828
1053,-7.7547379388796545,-4.847120472400295,738.5377564112956,-16.531270825562512
1054,-7.938391924362627,-5.612394633219966,733.5838948453792,-16.380281060694433
1055,-8.155629789777928,-6.475444390693143,726.736973250469,-16.169208748286653
1056,-8.36843978180488,-7.41156994941367,718.2550423153402,-15.871291945881639
1057,-8.519898257592287,-8.392693939921806,708.3460555071262,-15.449516175773171
1058,-8.568272621004049,-9.393174961477863,697.1256384998918,-14.877770309654458
1059,-8.515230742025016,-10.398326417971553,684.6239167414376,-14.15503740839691
1060,-8.38952730366075,-11.406208131430347,670.8140855269673,-13.302109700608755
1061,-8.21724514081194,-12.423160182703853,655.6252548422143,-12.350978184084495
1062,-8.010221164839027,-13.455721924151241,638.9510086851847,-11.334272709242297
1063,-7.780556708541658,-14.506673959181576,620.6705882196103,-10.28585971054561
1064,-7.558628684516564,-15.574301747653621,600.6705307041822,-9.25005566137124
1065,-7.388891403208322,-16.649743835680294,578.8550351130863,-8.281052556557947
1066,-7.2961331104878875,-17.71512777090897,555.1598739005365,-7.426625118783099
1067,-7.270581376817625,-18.746470807399447,529.5836019115878,-6.71605856927047
1068,-7.296860576859277,-19.722170900048866,502.21060740597585,-6.163443927710186
1069,-7.375538595198779,-20.626426636368357,473.19792718564526,-5.768090586587686
1070,-7.510200260203341,-21.441420982195922,442.74463442373695,-5.504383682644378
1071,-7.6741851276607385,-22.14092440884523,411.05253538936313,-5.318892960776181
1072,-7.806274072193536,-22.69733063214303,378.2866338513927,-5.142232462960416
1073,-7.8441336825353405,-23.09587160637978,344.58803825943227,-4.907695381955902
1074,-7.7599691293975654,-23.34069270283533,310.1261432350865,-4.572432639522425
1075,-7.572104097815177,-23.447189884552742,275.11430707247064,-4.127689112854758
1076,-7.315093312722655,-23.42809206181902,239.7709425098065,-3.589007638057107
1077,-7.015023437658791,-23.2871656534515,204.28011089240965,-2.9846216763660323
1078,-6.693200227244556,-23.020730761394734,168.79509486598542,-2.353315790408352
1079,-6.378387334279521,-22.61956318103362,133.45454889943713,-1.7464406417892897
1080,-6.116998523113275,-22.070751078968513,98.3807080857731,-1.2237732991220394
1081,-5.946506169833942,-21.361847284551473,63.685229493765426,-0.831087077542958
1082,-5.860711218350264,-20.487522450788443,29.496154403489086,-0.5782601099220679
1083,-5.817680181254337,-19.450088713885357,-4.029741594307214,-0.44795743719884595
1084,-5.774164783654857,-18.25555676935185,-36.72561443791318,-0.41811217337508577
1085,-5.71055121235656,-16.915164696533402,-68.44059047525285,-0.4719930723174848
1086,-5.622563404815814,-15.450900151238612,-99.0513355628196,-0.5988448820565252
1087,-5.503791736428309,-13.897043901798702,-128.46322232806216,-0.7947452105140342
1088,-5.346093944050854,-12.289561851225809,-156.60930970842338,-1.0595833121476401
1089,-5.150292715909067,-10.650412351696763,-183.43564690667097,-1.3904156578789655
1090,-4.929293273789901,-8.980569108233029,-208.8906681502001,-1.78324938265329
1091,-4.698469326738819,-7.2658677267186675,-232.9424615368549,-2.235361667897413
1092,-4.460305340140742,-5.491167045235093,-255.59682761519943,-2.7393972371502224
1093,-4.197426229868813,-3.6507660679127314,-276.88698149928325,-3.277217475007747
1094,-3.8995352332935838,-1.753916500098191,-296.85054644661926,-3.8206675427197494
1095,-3.587393359957941,0.17339076283183613,-315.5217258478526,-4.341217795683535
1096,-3.301005308064044,2.0910610175074833,-332.9286742392212,-4.824970188292115
1097,-3.07102068919768,3.9490793960564696,-349.0876165568147,-5.271378249728639
1098,-2.897962456841852,5.695685253198255,-364.0091602242642,-5.67857883780494
1099,-2.7808704342516988,7.289208504300957,-377.71713760353936,-6.051070116080105
1100,-2.7481808125350806,8.704207219249742,-390.25837449278123,-6.411445399688491
1101,-2.837921619348333,9.93031055348742,-401.6916586856316,-6.7852537491943306
1102,-3.0621303379312614,10.970486450733496,-412.07304229747297,-7.184632704437804
1103,-3.393767111691071,11.83591941918978,-421.4449638402399,-7.611221019438433
1104,-3.7980736855211004,12.53899191622602,-429.82966013127015,-8.06488675623239
1105,-4.264140209413757,13.08811827870961,-437.23708029968554,-8.547151814374503
1106,-4.800636918527955,13.485212137949373,-443.68195807365277,-9.061697253426166
1107,-5.418774193836317,13.73108722623023,-449.19694189951633,-9.611443350057796
1108,-6.11879915154445,13.83326616919331,-453.8382012566169,-10.19378931210994
1109,-6.898473016074957,13.809391308630982,-457.6791261223914,-10.805447715903824
1110,-7.77555729145282,13.68790506539959,-460.7990483112054,-11.454730145825405
1111,-8.781313184099947,13.50350481212211,-463.27187832091414,-12.161088777757863
1112,-9.920294538939917,13.291306386841326,-465.15507272331797,-12.937283600894405
1113,-11.153156229622263,13.084255446864445,-466.48672541439873,-13.771793646204003
1114,-12.420041039664543,12.911109940094349,-467.29384020814604,-14.630163156170953
1115,-13.665827002566,12.792335231891203,-467.6065273665451,-15.474067250844666
1116,-14.843229528170458,12.733353441140387,-467.4559841975484,-16.263822512323603
1117,-15.88840678130149,12.72463885333744,-466.8589132206354,-16.942038667871564
1118,-16.718450753475125,12.751309538634576,-465.81512282296296,-17.439812242048284
1119,-17.272686086408143,12.801680042477777,-464.32028191632736,-17.704935233494766
1120,-17.545004238662816,12.871211066846676,-462.3809001783717,-17.717704719070035
1121,-17.578252634031937,12.960944343828377,-460.02404861748244,-17.48676202284505
1122,-17.427274617384317,13.073061334037224,-457.2939472836557,-17.043008622033458
1123,-17.134279984079903,13.211185289643263,-454.23544382906306,-16.430450237799526
1124,-16.73412850274201,13.37895807270341,-450.8835019527262,-15.690293815320674
1125,-16.265984946881353,13.572220435358313,-447.2661551907597,-14.860373229995606
1126,-15.779174055924395,13.776803703425303,-443.41257551422177,-13.98321509946678
1127,-15.308807713524905,13.97295361982593,-439.360194893153,-13.095535156295945
1128,-14.848317033478379,14.138891184824349,-435.1546718215275,-12.214340132809943
1129,-14.360330314094643,14.254000501246665,-430.85015963906596,-11.339976237883409
1130,-13.812566514889122,14.301450701786157,-426.5059424761988,-10.465453576013632
1131,-13.205757676293002,14.270363162800681,-422.1685192224432,-9.584366057515927
1132,-12.56844569692219,14.157831149784004,-417.85602290587053,-8.69622391582669
1133,-11.934490957359497,13.969189376884268,-413.5625844079689,-7.809789619367176
1134,-11.324229935596128,13.715569695004229,-409.2764112930371,-6.941219343342222
1135,-10.751335686170957,13.40887927409519,-404.98604515324377,-6.102401708925908
1136,-10.233140335265938,13.060440658310371,-400.6747556170395,-5.293906070509928
1137,-9.776238342325732,12.683578840577388,-396.32413508650103,-4.509768985452442
1138,-9.366956444605565,12.293484701028213,-391.9257734910716,-3.7401088725280736
1139,-8.975888471000058,11.904715458459016,-387.48806933517466,-2.970138411812539
1140,-8.579881256563786,11.52678444785779,-383.0328780040697,-2.1869845066107003
1141,-8.180021774573753,11.160800741156548,-378.5815783960649,-1.3920659449944812
1142,-7.812508492701104,10.831470780665914,-374.3559774810838,-0.6147499193204554
1143,-7.442472466665443,10.481091460847495,-369.9997017704378,0.13822679620399125
1144,-7.049224708223556,10.08324544756957,-365.39203920838077,0.8567764272350065
1145,-6.645986817999241,9.63545898861621,-360.57862698047404,1.5193080905714038
1146,-6.273207553240218,9.15113343875255,-355.70765112327405,2.0970339731540166
1147,-5.963920957130981,8.653125643716338,-350.97606099414963,2.567039134108832
1148,-5.719732138686172,8.16859074201897,-346.5905560337085,2.9205513374098913
1149,-5.519720790352649,7.724685011369179,-342.7421226454443,3.1646402816470944
1150,-5.349202472577531,7.345441127159255,-339.5836884266388,3.3181353910975746
1151,-5.211954436864959,7.048662675683203,-337.20992252760095,3.403931641144249
1152,-0.6419982927923222,-0.16676430582038093,-0.02743806399812921,-0.29191175540272296
1153,-1.2018439415177717,-0.32741050400609917,-0.046768089232327614,-0.7254127889771698
1154,-1.983773296538739,-0.5423115035939943,-0.04888987296221392,-1.3668399856370979
1155,-2.978629575461793,-0.8068707785304775,-0.021166537421417938,-2.2182232807437994
1156,-4.162775153171377,-1.1075583137476281,0.04118647477332736,-3.2624476973787417
1157,-5.505343723274803,-1.4228743640648662,0.13495368814788195,-4.4674303469803895
1158,-6.962275739770228,-1.7273998137237703,0.2516772859743722,-5.786791072608606
1159,-8.468571935119462,-1.99631028257092,0.3788832229677708,-7.159801330387
1160,-9.950706136306554,-2.209246235401403,0.5008861875330463,-8.52200209903562
1161,-11.359754946668822,-2.3542247199859245,0.6033853973235328,-9.82528837251395
1162,-12.703158537664503,-2.4333292427563027,0.6779150542900831,-11.058862041965263
1163,-13.96303546448195,-2.4465709981080344,0.7195376761113548,-12.219939897323957
1164,-15.110461104996778,-2.3968241537164876,0.7227175364918527,-13.317452582722565
1165,-16.119845818928948,-2.290318123971909,0.6843135732096463,-14.356871149006434
1166,-16.98904729801023,-2.1373552072877082,0.6045978826523131,-15.337725096211887
1167,-17.743601910300068,-1.9507341387047399,0.4737592522142325,-16.26338151803211
1168,-18.408719679021527,-1.744471180378183,0.26338330515450326,-17.138007012634002
1169,-18.977098524434346,-1.5339369086685972,-0.06268521218584214,-17.955887491912726
1170,-19.417168978507892,-1.3341175834342238,-0.529785557429867,-18.704745420114584
1171,-19.71298651059168,-1.1584059389746761,-1.1334102248748454,-19.377538812259488
1172,-19.882177784172047,-1.0183281946545515,-1.8311820611583216,-19.975861518127207
1173,-19.950567189541076,-0.921568860424989,-2.553807685130052,-20.502217228084945
1174,-19.930448927465363,-0.8701245049287042,-3.2241050136650165,-20.9539135646301
1175,-19.82417818983287,-0.8598529813262626,-3.772821580669117,-21.328115001026685
1176,-19.63980424352173,-0.8824549280207149,-4.147424014158967,-21.629920582861534
1177,-19.401673898380757,-0.9286756390793086,-4.317071034456501,-21.87162080887773
1178,-19.1369636256237,-0.9905634569790435,-4.279107725639828,-22.065351579329402
1179,-18.85484742218113,-1.062027451755775,-4.062786172886025,-22.21881872310228
1180,-18.54028795361499,-1.1382700954254188,-3.722247848349384,-22.33458777152139
1181,-18.177016978860845,-1.2154194256657214,-3.320390265067634,-22.41516879638923
1182,-17.776635331027578,-1.290492225893311,-2.9125260336004457,-22.47118265533388
1183,-17.374455165013437,-1.3633311927152496,-2.539755804677384,-22.520786906130276
1184,-17.004316064967433,-1.4385225352075546,-2.225817681467382,-22.58040597552594
1185,-16.683357705497254,-1.5245943102765476,-1.9746332287457382,-22.656981910530714
1186,-16.431314101630452,-1.6292133244711478,-1.7819097032834899,-22.748790011128712
1187,-16.285862174921604,-1.7536378977095008,-1.644196689423216,-22.848651491360453
1188,-16.281001528167412,-1.8951613853022722,-1.5556599036476966,-22.946041093181936
1189,-16.425250424914033,-2.0538959952794236,-1.5095442537546482,-23.028836418581577
1190,-16.70058296070642,-2.235173038025816,-1.501759928277236,-23.084913207176943
1191,-17.08575959002953,-2.4472256907453724,-1.5313894696250496,-23.11029335001162
1192,-17.574882265864307,-2.697759111295941,-1.6009635775851627,-23.114968776692567
1193,-18.16664112250385,-2.992118160877417,-1.7154834437718274,-23.116444383353898
1194,-18.84155516066103,-3.332053028834808,-1.8800027281257279,-23.132466159151953
1195,-19.552838542114067,-3.7147038207747007,-2.0971545700689833,-23.17643693757124
1196,-20.25201281032436,-4.132289957886024,-2.367669317696197,-23.255917311868647
1197,-20.917308688448433,-4.572761811349555,-2.6943109971150307,-23.377517659392293
1198,-21.541273754306697,-5.021955200716887,-3.0828466928644223,-23.5456050211593
1199,-22.100015695616637,-5.467132783535579,-3.5383855436690106,-23.751404837113036
1200,-22.55484636007425,-5.898438067853846,-4.057423702208131,-23.970435400989214
1201,-22.881974111764386,-6.30664994913594,-4.618751105027756,-24.170473618878724
1202,-23.092762805684302,-6.681769518713806,-5.189299917554672,-24.318684291477876
1203,-23.226564225128868,-7.014774808981774,-5.737667050183263,-24.384980287612482
1204,-23.313076195242054,-7.301226820250459,-6.235930201061093,-24.340965912827595
1205,-23.34791512383524,-7.540799032501415,-6.665178400600449,-24.15692570463333
1206,-23.3073421429514,-7.7310835761024554,-7.022111658760122,-23.801439272593033
1207,-23.16459255963154,-7.865194657342507,-7.310199218585802,-23.247489237061448
1208,-22.8909722688733,-7.9351350665237135,-7.532591934231523,-22.478233104464557
1209,-22.446465187777143,-7.933369224864185,-7.694277317298369,-21.48846975647674
1210,-21.781145303382235,-7.852631567977726,-7.8040824585937365,-20.29051789997074
1211,-20.85803517833359,-7.689202920787217,-7.869729976850837,-18.917457423625937
1212,-19.676842393095356,-7.447436071180561,-7.889540292222182,-17.415265666947416
1213,-18.278899874289003,-7.140428581991815,-7.851899508877434,-15.834132019558933
1214,-16.723570193127706,-6.786771544809345,-7.742087166423566,-14.220813309653607
1215,-15.069104733275223,-6.4059965316152265,-7.552389715443381,-12.61284038479588
1216,-13.372272273143611,-6.015571967768964,-7.288526294105559,-11.040840276075931
1217,-11.689214041080097,-5.630827940310077,-6.9679896681501425,-9.533965100623202
1218,-10.077543064310277,-5.2652762177957095,-6.614446948484219,-8.122777240138724
1219,-8.581763176327387,-4.928134003386789,-6.252043444727691,-6.832973115684536
1220,-7.209700582292211,-4.623894252584166,-5.9051338868341015,-5.67305527790697
1221,-5.936158803878953,-4.355259283606166,-5.601611771063615,-4.636617634797143
1222,-4.735725820057122,-4.124592336210312,-5.367218978635427,-3.717966624085994
1223,-3.606101419696134,-3.9348991427115525,-5.2121257634966405,-2.919028849156656
1224,-2.5579109476443533,-3.7900970861997196,-5.129528369865227,-2.2412978861694026
1225,-1.5983604294361902,-3.6926918302761518,-5.104961308220992,-1.673802166929176
1226,-0.7222899443173258,-3.6408687297311255,-5.120869760460568,-1.1909777899042315
1227,0.07837309715195102,-3.6290142219720125,-5.159972685677974,-0.7599951536150747
1228,0.7947743154586209,-3.648939573341352,-5.210393304983817,-0.3528976540874178
1229,1.4091544999635672,-3.6878479180645174,-5.26926914871772,0.04259291750554432
1230,1.9210434516554669,-3.7285539529736065,-5.343340507946694,0.42646790077098
1231,2.3603513007371517,-3.753241465569911,-5.445024562948037,0.7992515690486496
1232,2.763870772631278,-3.7457060333555083,-5.583807939864177,1.162348768171301
1233,3.1426430765602262,-3.6915738655405805,-5.757384517818546,1.5098398499261183
1234,3.48400040628089,-3.5789209964736384,-5.949862134461204,1.8320458771142136
1235,3.780930573787376,-3.4007161178457372,-6.135452890531643,2.128096139853321
1236,4.051448735715131,-3.15805075469554,-6.283145032269857,2.412170069514344
1237,4.32143145311957,-2.857136930903149,-6.360052217272336,2.7073243938967333
1238,4.6040436383592676,-2.500756376250745,-6.3339055678111045,3.0361354816392505
1239,4.9006384143755755,-2.087977126449889,-6.180486050015568,3.4156904646833803
1240,5.217146073525149,-1.6206357257260504,-5.891580728316975,3.8513096213974554
1241,5.570403514262587,-1.107194774255361,-5.476003436973707,4.328085582153549
1242,5.969211969160186,-0.564119367564421,-4.960141045115777,4.8113577349402785
1243,6.402109102649783,-0.013710061572315982,-4.3888428357148905,5.255618350360344
1244,6.842692916963251,0.5210031385903684,-3.820293645069537,5.614165267230445
1245,7.274213157816886,1.019739127953728,-3.3161338244977747,5.853665565318293
1246,7.706076031914709,1.4648534841357335,-2.9274202149954345,5.9675588806605475
1247,8.14721981340503,1.8415587247219976,-2.680545200149198,5.971670952981009
1248,8.58183669794027,2.140665748074429,-2.57381266973184,5.891725547176286
1249,8.982922420349237,2.3604066970681905,-2.5882487698023984,5.760045275742705
1250,9.344961893344426,2.5054969253638917,-2.7010996704010504,5.620452714699758
1251,9.692017029638407,2.5855807495494822,-2.893460943421326,5.526752530715843
1252,10.046888415161222,2.6140887500362444,-3.155655607830448,5.528027194411955
1253,10.401147200417764,2.6063033885872353,-3.485465378894028,5.649621556964391
1254,10.713043714066105,2.5768446753382,-3.8800075806406977,5.880538513509595
1255,10.939122888960588,2.5353519654601673,-4.3317085865847424,6.183584383270188
1256,11.06589542234983,2.484147814078005,-4.829283993847427,6.517710825488151
1257,11.103703897787486,2.421300371722278,-5.360346333362706,6.847134600834976
1258,11.059259462918067,2.3456581203793507,-5.913654172990776,7.144183468334644
1259,10.925930622794706,2.2602476942618455,-6.4781543920057825,7.390337388200211
1260,10.699160231648372,2.169813518436934,-7.039304002569846,7.5705558896725185
1261,10.390696044214833,2.076007330733733,-7.580257444119772,7.6764557886197355
1262,10.026127823530004,1.9745811432918141,-8.088415557200994,7.7132704203019955
1263,9.620869811320489,1.8543880806128699,-8.559471092691783,7.692935816659229
1264,9.165590727860364,1.6989184808780053,-8.997566163633474,7.629369760518913
1265,8.6497320120844,1.4897075101393316,-9.411949087423956,7.542492296842616
1266,8.078914858479719,1.211489646011579,-9.809595065814161,7.4567225864518925
1267,7.468945230373083,0.8560808290960032,-10.189232969120807,7.395180081393348
1268,6.834867635471454,0.4245807265123896,-10.539630117739309,7.373100777611676
1269,6.186740469725938,-0.07163434042257597,-10.839656262679435,7.392386563784222
1270,5.51993678469959,-0.5894616906153485,-11.081181278355729,7.429289196878278
1271,4.891352380990872,-1.148317868473409,-11.22502513546556,7.496422569015511
1272,4.35036726397324,-1.7419907126895962,-11.259565339515854,7.602700475794073
1273,3.919222677904592,-2.3466808399204884,-11.19120227560652,7.743120215086089
1274,3.596260390782354,-2.9306488667199937,-11.038172024563242,7.900469644099755
1275,3.3777423858733435,-3.465272425748203,-10.827048888318576,8.05582594961886
1276,3.263104055153263,-3.9322769712234336,-10.588508137807345,8.194568924442565
1277,3.2436340492074613,-4.323222367066782,-10.352671559994121,8.31049555125264
1278,3.2930773206326207,-4.634963707512478,-10.144658237216573,8.404028310079935
1279,3.3717431380873664,-4.867567797146748,-9.98156603509216,8.47397455368732
1280,-0.3658034391746647,-0.21992975572606058,-0.3867418608775711,-0.07258232298101064
1281,-0.7177504146969906,-0.5559636410613741,-0.8329627117957865,-0.23663414595823706
1282,-1.2562625818390274,-1.0679831339798835,-1.446405130026043,-0.5367186475695911
1283,-1.9948597710462703,-1.7694186995611614,-2.2142390784316874,-1.0153203001777453
1284,-2.940619512368234,-2.6577980848233222,-3.1110507176561377,-1.706073085929563
1285,-4.0953902856486,-3.7150963963515102,-4.101837703516031,-2.626305358742939
1286,-5.446118233741709,-4.909282115453068,-5.145267367870399,-3.7702131975765427
1287,-6.959015656926364,-6.196521509794046,-6.196561430825069,-5.1065993010880275
1288,-8.588612553598653,-7.52741505269819,-7.218439784790499,-6.584806582366163
1289,-10.30055619337238,-8.858803207902175,-8.199162242831957,-8.146334653027468
1290,-12.087265801895423,-10.169500944015347,-9.165811754172903,-9.739687652117134
1291,-13.902517450198747,-11.43633273586639,-10.135284545434768,-11.31252806925274
1292,-15.672180281051864,-12.645481761496923,-11.120511006131768,-12.819293735869914
1293,-17.330064446834122,-13.79165357645703,-12.128026823768419,-14.226571090787019
1294,-18.85621462293187,-14.872641232696033,-13.160951885235352,-15.523817693511113
1295,-20.264749829626652,-15.884904382506974,-14.223869104701729,-16.723253233056774
1296,-21.563807800996766,-16.82340105948929,-15.322642750791605,-17.845373073401955
1297,-22.74545171838877,-17.68210112416446,-16.45717966935682,-18.904521826428155
1298,-23.80273438332957,-18.45484411641017,-17.613492057426516,-19.902459596973372
1299,-24.742045107796457,-19.137215631217547,-18.761875897401282,-20.82909399669372
1300,-25.585708734874913,-19.72580675846278,-19.861571764398878,-21.668011730344986
1301,-26.35103839211484,-20.215936288218142,-20.870425832712165,-22.40041381234632
1302,-27.032965401347266,-20.60126971290893,-21.756597593178377,-23.004398691586466
1303,-27.61460523679874,-20.875992054450478,-22.50251386803407,-23.459033094296224
1304,-28.08041275708523,-21.038875072749953,-23.10236913365076,-23.75524877231744
1305,-28.425230196330514,-21.093652725349315,-23.5580919582827,-23.902807482923922
1306,-28.64476525635463,-21.04506500462767,-23.87288919398136,-23.9238833113248
1307,-28.72088235235788,-20.895715011354223,-24.051177104822592,-23.8412775519726
1308,-28.63773619103824,-20.64601867709173,-24.103953215480455,-23.675530245335324
1309,-28.405548254514667,-20.295904744609295,-24.048571827366114,-23.44806343812411
1310,-28.057106459241798,-19.84789489476716,-23.906467330480158,-23.17868556099733
1311,-27.61932415685539,-19.312853205900584,-23.701136276345753,-22.877447022530685
1312,-27.096322958339012,-18.709990594423488,-23.452736754022986,-22.539961547068025
1313,-26.474599077468277,-18.058258231225906,-23.1787935970928,-22.149405509057097
1314,-25.741608264821608,-17.371267097329888,-22.895318016664913,-21.690101274242384
1315,-24.90955137060295,-16.658965439639292,-22.608744349001924,-21.161799440543927
1316,-24.01067106111568,-15.928992316681208,-22.31528864129427,-20.577622272805556
1317,-23.06758992349501,-15.18695909862484,-22.010005361572937,-19.955563019183526
1318,-22.07751133226084,-14.436792491604267,-21.690764938395702,-19.314482098292036
1319,-21.035972616111557,-13.67957278295216,-21.356134647199603,-18.67535508285406
1320,-19.96211501270048,-12.915101196220562,-21.005232921125167,-18.059278073972955
1321,-18.890655933044084,-12.145522757737115,-20.641125476557622,-17.476987821480627
1322,-17.849837314704537,-11.374054979819876,-20.27261948729253,-16.92020176609031
1323,-16.843420573434212,-10.600990374523402,-19.913533157818183,-16.364552157642965
1324,-15.869923743701442,-9.821988125520269,-19.58111560057001,-15.785323006452066
1325,-14.94691408425943,-9.02871462175118,-19.29132208839164,-15.168833923641195
1326,-14.093222413832589,-8.209943827789834,-19.05454684686604,-14.511695116729948
1327,-13.307401450025825,-7.353236903593696,-18.87556589578867,-13.81802367989744
1328,-12.56942002769236,-6.447865649102115,-18.751422582249372,-13.096714864932927
1329,-11.863591285488521,-5.49050655059299,-18.670602251483146,-12.362863124916126
1330,-11.19773755469038,-4.492257352567078,-18.617942936618462,-11.64163312656357
1331,-10.591636016205971,-3.47750154513869,-18.579311368486433,-10.961518534042389
1332,-10.047707491072819,-2.476548881910156,-18.544762475148886,-10.339651243205072
1333,-9.542105918426891,-1.521614382368275,-18.504248392518388,-9.778973121142354
1334,-9.056800358567218,-0.6446819350094974,-18.43548461731577,-9.27578976396709
1335,-8.606576730356629,0.12600294771743636,-18.30440387165761,-8.823711149264634
1336,-8.223742503885198,0.771138085627886,-18.07922493609124,-8.412979903637769
1337,-7.9205321622320355,1.2862511372803127,-17.74049380994015,-8.02749771343794
1338,-7.673710680253856,1.6839079479324832,-17.286262763987313,-7.648380296902326
1339,-7.4513650504382065,1.9872998497792562,-16.735013421545524,-7.262959625245184
1340,-7.243636538270171,2.2186083770674534,-16.125135438011124,-6.872899274615434
1341,-7.0595244803445025,2.393058760463312,-15.505485381093653,-6.4965622778111625
1342,-6.894299065655795,2.5187763051442285,-14.918056250905451,-6.15919685092002
1343,-6.720785409426458,2.595765796300318,-14.386715146535204,-5.884631861115858
1344,-6.516450040714262,2.6162444776474234,-13.91311561531502,-5.69580111404385
1345,-6.282162936461256,2.5688688595583047,-13.479780480040773,-5.615180431649318
1346,-6.040393888094536,2.4434769290369056,-13.063357904674143,-5.660009306750364
1347,-5.813159509506041,2.2347306590438403,-12.646081130538889,-5.832997053646742
1348,-5.6013635069408805,1.9454473170614446,-12.21722603003082,-6.117908626222282
1349,-5.386725352093646,1.5886270187341534,-11.77035178095985,-6.482833822185975
1350,-5.15129493811836,1.186670822655647,-11.30290684244767,-6.886665398281046
1351,-4.893520856797025,0.7670347102515409,-10.819109268113738,-7.287256721674041
1352,-4.612472423815913,0.3561803440942936,-10.331752408115197,-7.647325539429682
1353,-4.29583667462356,-0.025616875522599586,-9.858467112926457,-7.939366689430368
1354,-3.9363803002924627,-0.36771027111914095,-9.413443577289474,-8.154359246941585
1355,-3.5480653558372164,-0.6687151208856709,-8.998513025118129,-8.303557985008887
1356,-3.1672328217712216,-0.9328142679895682,-8.60164355466657,-8.408275678715011
1357,-2.829878451712826,-1.1662156752249997,-8.210338304281931,-8.489748582097224
1358,-2.5518138094463425,-1.3748745271692768,-7.829215294371405,-8.558993097778
1359,-2.331075454012134,-1.5631346262217005,-7.482221564794152,-8.612296261277125
1360,-2.164197788699438,-1.7329658584552887,-7.195728561310606,-8.638831730608306
1361,-2.06020516611204,-1.88595181941474,-6.980843860928839,-8.626255872318787
1362,-2.030027468784396,-2.0264262513177833,-6.830632868982497,-8.563612430423076
1363,-2.0664417775453865,-2.160253017300125,-6.723618829121734,-8.442110182103416
1364,-2.13831475516814,-2.291173761551434,-6.623874353329438,-8.251734170292748
1365,-2.2169585053817285,-2.4194355200177817,-6.483078910148964,-7.987292432096807
1366,-2.3039406475858226,-2.542671279122361,-6.254387396118221,-7.659563479053316
1367,-2.4166949000100866,-2.6569782453986055,-5.910743636281604,-7.29451739217271
1368,-2.558015147910985,-2.7560824756281144,-5.449131548398468,-6.9235040139393025
1369,-2.7065706438687744,-2.829746118455297,-4.884384845082437,-6.5743758481415995
1370,-2.8388834151888034,-2.8646733007150864,-4.244797667967095,-6.266122034309041
1371,-2.94827849820021,-2.847277321371896,-3.5714046337305843,-6.006587103079671
1372,-3.035448558298189,-2.767198213645561,-2.917663939193488,-5.79496793265992
1373,-3.089596059550194,-2.620928194713095,-2.3383702907521156,-5.624570924604367
1374,-3.0815850517524903,-2.411864960978859,-1.8668265439521792,-5.4799280958306404
1375,-2.983584899832785,-2.1462227077104763,-1.5007445445479142,-5.336891972996545
1376,-2.7871940972627645,-1.8302621896933962,-1.213573858169166,-5.172711660694049
1377,-2.499182179252049,-1.4700083597660998,-0.9756685369284647,-4.9752621834943636
1378,-2.1245148126922153,-1.0701816899681489,-0.7618861372571664,-4.741776289269077
1379,-1.6575944504874751,-0.6339446001061846,-0.5502294212211787,-4.475030721937714
1380,-1.1019764972216093,-0.16633799922415293,-0.3220764888645152,-4.182342045818961
1381,-0.49388251902209634,0.32320725624035956,-0.06822248863633237,-3.8799842162290368
1382,0.10194819951313908,0.824070003266575,0.20511571203163342,-3.5954235724402968
1383,0.6276529795840159,1.3283935211796327,0.48309913439470253,-3.353960035250483
1384,1.0574292875298716,1.8316093587298115,0.7552226032234202,-3.166965946438499
1385,1.3931559779222806,2.3305652548540627,1.0159292032381262,-3.0329595547467383
1386,1.64861149112004,2.8209957908468204,1.2562869940310895,-2.9428375659721704
1387,1.8311805002042914,3.2974267079405197,1.4673507844956748,-2.8860871197177245
1388,1.9540551872847332,3.7538815337272577,1.6520115624226253,-2.852723415855199
1389,2.0536704701825697,4.183603752217683,1.8272467095916758,-2.830261405630464
1390,2.1686607952032317,4.579994337695018,2.0147648366331175,-2.8023887060686152
1391,2.3139323812487382,4.937765784574619,2.2308860449592833,-2.7561520498212726
1392,2.4804035091208894,5.25146842793611,2.482810555754009,-2.6887570958460865
1393,2.655168136711083,5.51387227376249,2.7715457197154296,-2.601011491072751
1394,2.833667837461096,5.719374414051899,3.099079696562275,-2.4878093164908366
1395,3.0151245985820223,5.868849493212073,3.466578827447852,-2.338533131097954
1396,3.1900587366741817,5.969373485544689,3.865427599265055,-2.14517930067959
1397,3.337325116367217,6.03064842248038,4.2775059803167155,-1.907012526050928
1398,3.410238491988427,6.058066883943113,4.674775861075196,-1.651713250239307
1399,3.480078201052361,6.06734419206766,5.0570125211897174,-1.3377722141388626
1400,3.599324371779562,6.0691178497949965,5.420316541935185,-0.9482458631702844
1401,3.784105916407638,6.070350478381038,5.757388490075362,-0.4931854071100168
1402,4.018483956233833,6.075748957652053,6.06048399498772,-0.0037436476103402117
1403,4.278768372010238,6.0879862034577235,6.324606284690114,0.4826913750807208
1404,4.554444032705044,6.107759143224485,6.5467051093022555,0.9351081733180117
1405,4.841582276696095,6.133730879441129,6.723250642652019,1.3326879292841534
1406,5.118569821132946,6.162923487824854,6.851927392539952,1.6607331566433887
1407,5.3510533508852385,6.191333634944374,6.936764087727713,1.9076970297529605
1408,-0.5337039344536347,-0.1716113872831611,-0.45788158692708825,-0.48390980241594594
1409,-0.9954982644456934,-0.36579854571663106,-1.0893755778014904,-0.9615597166673562
1410,-1.627714380379621,-0.6344652832206454,-1.9931441595683355,-1.6466819028898454
1411,-2.4138854444755924,-0.9800073985871114,-3.165386805277774,-2.5556389246212428
1412,-3.3382665347969707,-1.4011498405079976,-4.576901987430209,-3.6857410596650997
1413,-4.394347162646344,-1.891901767252847,-6.175946450996377,-5.015562176310084
1414,-5.575083781081714,-2.4412104835770863,-7.896664420659441,-6.506766334107587
1415,-6.856464637533831,-3.0334708270541566,-9.667678916255321,-8.107656321638594
1416,-8.204458923273583,-3.651660041909124,-11.421440541204326,-9.761620778875953
1417,-9.604481923257934,-4.282926604895952,-13.110125884405937,-11.42244262028683
1418,-11.078635386323752,-4.925136534347236,-14.727395893666245,-13.072036767061224
1419,-12.60114224855041,-5.570092638933363,-16.263857634695487,-14.661887131955808
1420,-14.112132268806716,-6.20899883968291,-17.71708131538927,-16.13839626365013
1421,-15.548787863190306,-6.831074540517827,-19.073554741108865,-17.46446231452088
1422,-16.870639789466544,-7.422835393117439,-20.30874651537016,-18.631964750524553
1423,-18.058792123976435,-7.9712425755162535,-21.40529143804342,-19.654326164578443
1424,-19.09882260260539,-8.468380285526258,-22.36136769249068,-20.549759235873417
1425,-19.971682217534966,-8.912458507232058,-23.187264746105267,-21.33294976904024
1426,-20.67239261477147,-9.304414121771764,-23.89814115473445,-22.011419577153156
1427,-21.220269954357132,-9.645594487732447,-24.508957388410266,-22.583388299221834
1428,-21.64693745826826,-9.938307336075388,-25.03486546604634,-23.044169131027022
1429,-21.974545053888413,-10.186934007093173,-25.491069387899522,-23.393721689933418
1430,-22.202377314249656,-10.399206522454042,-25.888514061692195,-23.63449530190367
1431,-22.320705532478772,-10.587146851650338,-26.22882822937721,-23.76349334265606
1432,-22.334523031537522,-10.764893324462715,-26.505614641327917,-23.776977493486513
1433,-22.2706899171531,-10.943807302341828,-26.711381767548506,-23.684974624050437
1434,-22.152854955819848,-11.128617778687415,-26.839464515708944,-23.509211512887656
1435,-21.981385114625194,-11.317347203931998,-26.88200559354407,-23.269189620543155
1436,-21.74426145287039,-11.503791450195646,-26.831999176374037,-22.97904616995004
1437,-21.43734658484475,-11.67858830831615,-26.68766263000482,-22.649040889527367
1438,-21.076508322372305,-11.829942630568851,-26.455784911738668,-22.282381678314646
1439,-20.68160358779645,-11.94577142739418,-26.14920110021588,-21.875986921467007
1440,-20.250984435452345,-12.01569790101947,-25.778522060111978,-21.425961094115756
1441,-19.759855241762356,-12.033074903831952,-25.350038326209198,-20.93027071156452
1442,-19.18552773105782,-11.994149829422753,-24.871000542987712,-20.390465814549156
1443,-18.525294375836694,-11.894055488955615,-24.353115526774072,-19.81287363171197
1444,-17.787773917158233,-11.727475094803186,-23.809662265628845,-19.208241684342397
1445,-16.981852112058824,-11.493164180413894,-23.249358082494634,-18.5856542471125
1446,-16.114333441013507,-11.19520257738234,-22.675543237755058,-17.94121820895024
1447,-15.20716840929536,-10.8416170407304,-22.09072293273314,-17.264301315955006
1448,-14.312421104733295,-10.443467302212982,-21.499647480641745,-16.558107114512843
1449,-13.490184713459822,-10.014317266127287,-20.907688033870162,-15.838539702213465
1450,-12.77859451284439,-9.570283653857532,-20.318111779143713,-15.11491911168611
1451,-12.188607071010724,-9.129077547036603,-19.733737597012194,-14.390673398037402
1452,-11.726531706850077,-8.705203317800585,-19.15887325247473,-13.681326193995867
1453,-11.409815939005432,-8.303015171348118,-18.59588358131334,-13.014167420344721
1454,-11.250602118564206,-7.915656087406749,-18.04188350828637,-12.414442449018798
1455,-11.226375990704312,-7.5312835730609065,-17.491139892901764,-11.897347514316232
1456,-11.27029674591531,-7.1382105748064495,-16.9388618228919,-11.463983179650466
1457,-11.308611161560464,-6.726598964345739,-16.38212240862371,-11.102422479695695
1458,-11.30552310464556,-6.291412899017319,-15.819400406963325,-10.79451106489626
1459,-11.267531275844602,-5.839023347804586,-15.252049756912866,-10.524782576625649
1460,-11.21538259465284,-5.391277319617226,-14.688288255207759,-10.283588996216464
1461,-11.160110015994357,-4.97867190150956,-14.147092063540384,-10.063321889691112
1462,-11.11084190433388,-4.627996326069363,-13.658048139090742,-9.861408812672419
1463,-11.08855871763473,-4.356452249900638,-13.252332749308783,-9.69048905631676
1464,-11.113287707086208,-4.170633601989033,-12.950029520684868,-9.57155727677932
1465,-11.176890718786753,-4.065343378660252,-12.754897463434794,-9.510850504260254
1466,-11.240631084388394,-4.024959252864216,-12.655822657314332,-9.49277829639958
1467,-11.266163056140485,-4.027590808101766,-12.627973352339978,-9.491622795234521
1468,-11.237632822729529,-4.048297587830513,-12.633343964969987,-9.478366906362162
1469,-11.156406312940117,-4.062816259949006,-12.629462206461055,-9.421219216520251
1470,-11.018912728055904,-4.05487328865021,-12.584482184699596,-9.292289551736763
1471,-10.805395235568774,-4.020634820441029,-12.483410158705,-9.07601157467763
1472,-10.50217742182044,-3.965505854283216,-12.324547395766995,-8.77178114516182
1473,-10.128157146310734,-3.8992635017677526,-12.116034157038728,-8.396433332237958
1474,-9.730480114598619,-3.8321588997194205,-11.87587300422488,-7.98645753739184
1475,-9.344793048373019,-3.7710561160557563,-11.628940043469184,-7.593147231115563
1476,-8.970454557951223,-3.7167880854308692,-11.397201579066776,-7.266813914022537
1477,-8.591663104374545,-3.665078877729474,-11.190883215347274,-7.040267027156899
1478,-8.20646679137169,-3.6107309914304295,-11.007735552260591,-6.9298367046091665
1479,-7.832545086311054,-3.5506813047266967,-10.840937568212949,-6.940561791651332
1480,-7.48472643675397,-3.4846069281312455,-10.687533575992624,-7.060385181507843
