,TP9,AF7,AF8,TP10
0,-0.3696883627779206,-0.2709611415493512,-0.30480836115576593,-0.5463398656666021
1,-0.9467179053905532,-0.6469341492833474,-0.7319554233527371,-1.1681758218271021
2,-1.8411164549348336,-1.2098884184546297,-1.3574539274021102,-2.03899657265126
3,-3.0796998861152836,-1.9732547525569104,-2.1799773901091637,-3.1480214433389047
4,-4.652958254174911,-2.933229238846383,-3.1788198125644143,-4.460498324158136
5,-6.526975486822006,-4.0693201293074,-4.317683888019744,-5.924610572533539
6,-8.645904804181452,-5.346429722086931,-5.550850105369983,-7.478437826788955
7,-10.926574408448285,-6.719616507664629,-6.8320213103090595,-9.060431013649703
8,-13.268146666821943,-8.14303376264687,-8.125079425676747,-10.624411317897508
9,-15.580670477342759,-9.581299745738757,-9.414057953115117,-12.154153572148115
10,-17.819639134850107,-11.0225545397294,-10.713549617287113,-13.678278645876494
11,-19.943892440628236,-12.446533633645023,-12.030947489987959,-15.203256810266378
12,-21.92278630387998,-13.831566753508568,-13.373077421918474,-16.72711426601031
13,-23.725307640813025,-15.15417008801701,-14.739811103706918,-18.237660940065677
14,-25.318041458044362,-16.392810490470694,-16.12028788602804,-19.710643577917118
15,-26.673169248326314,-17.5304990290408,-17.49514305900325,-21.110427977089902
16,-27.775536124546708,-18.555318922240904,-18.842069225225064,-22.3970940474328
17,-28.619021095365007,-19.459302645818422,-20.139005326772907,-23.53447456075591
18,-29.199236464544253,-20.237069429247974,-21.366305307688457,-24.49251024257597
19,-29.51744425535065,-20.886978843908768,-22.509960699281695,-25.248562793367487
20,-29.594307775002765,-21.412820240901834,-23.56190939585163,-25.79258998717037
21,-29.47329654320449,-21.82162970287084,-24.517356402395023,-26.129975144301792
22,-29.202569331143266,-22.119652159414777,-25.37287238456392,-26.27947570115394
23,-28.822284175736947,-22.31117895985127,-26.124197938126024,-26.26971419164999
24,-28.371264230030782,-22.398871451610933,-26.764941374591768,-26.131776664033893
25,-27.88477265935547,-22.38288122749659,-27.287078198820907,-25.887882211433464
26,-27.37908234180706,-22.260043648971333,-27.683283041940193,-25.549514606680876
27,-26.843892726190166,-22.02504039811657,-27.951999298744955,-25.126398504208737
28,-26.250961749111433,-21.67447833689409,-28.10031173956739,-24.631736326940107
29,-25.570417153168293,-21.210515071837587,-28.142346889939443,-24.07986615504992
30,-24.783920521037096,-20.639325833427346,-28.096158137014594,-23.48001512877206
31,-23.89375052873633,-19.969187891589083,-27.98033091214097,-22.834208306793
32,-22.917841383039747,-19.213698726587147,-27.809488569934906,-22.140247772070044
33,-21.876105512510144,-18.39416568941762,-27.590646118723114,-21.39594672278472
34,-20.786830467089825,-17.53704806646318,-27.323498764086697,-20.601462138306854
35,-19.67533178555924,-16.67049171010952,-27.002969364788246,-19.758057709123726
36,-18.582209242404844,-15.819147651178936,-26.621621465571028,-18.870088561555495
37,-17.54915221225616,-14.998388990335119,-26.172414099224785,-17.94814273452346
38,-16.591037461605467,-14.214192829631365,-25.65125420977614,-17.009894843280634
39,-15.689319634421475,-13.466412358100921,-25.059136789925237,-16.078944419403527
40,-14.815278800765006,-12.751199411670306,-24.404363146061275,-15.18234272195682
41,-13.952807480824642,-12.06279943145433,-23.701774450525775,-14.34982090328617
42,-13.098101381633644,-11.395831320322511,-22.968176262209095,-13.613313085397795
43,-12.253664134566474,-10.749255036850998,-22.218114769275132,-13.002373776245415
44,-11.429272577601296,-10.13099397353637,-21.461528008906008,-12.536710124427367
45,-10.64551393135585,-9.55619733813768,-20.70375248639766,-12.225341379072594
46,-9.935670933762118,-9.039981773434071,-19.948094346011068,-12.070949649493775
47,-9.336473308758581,-8.595152140697325,-19.199032830606544,-12.071686135863049
48,-8.869107465013553,-8.231312831596181,-18.463709955280276,-12.220321583102685
49,-8.528213142369934,-7.950565593403676,-17.75103210225242,-12.501793222403368
50,-8.296500964497582,-7.746644249960877,-17.069987912700473,-12.892538703066105
51,-8.163467830416506,-7.6093814661047325,-16.428594142476676,-13.36204955134438
52,-8.119077481319142,-7.527853326158272,-15.834279078551567,-13.876801965238
53,-8.136022608434057,-7.490741250775467,-15.292325216535643,-14.402519163712771
54,-8.168354145622502,-7.489950454661251,-14.801263407799663,-14.901763411071373
55,-8.179839688882428,-7.522970622261767,-14.351622780589958,-15.33580542563683
56,-8.167201098391715,-7.5895749512804045,-13.929724338132107,-15.668316747425198
57,-8.148273904904755,-7.689784093095333,-13.521407261217355,-15.871574454873798
58,-8.137355613681345,-7.823935915203821,-13.113741736771615,-15.935357233102868
59,-8.133684860079562,-7.991532011753128,-12.696850512507774,-15.864706141168277
60,-8.133223959367003,-8.189355550505596,-12.265987752296278,-15.671288531513545
61,-8.140815146021394,-8.410336914529916,-11.820366614503293,-15.366820553851406
62,-8.163029395546129,-8.645490072273951,-11.358850909137315,-14.957830215324858
63,-8.193351342266686,-8.888118387558903,-10.87768610772656,-14.445606416146873
64,-8.20656369207801,-9.1326150497373,-10.371419112910852,-13.830592188651403
65,-8.17343374673335,-9.369549479438172,-9.83380264456897,-13.115022824289023
66,-8.076900347874718,-9.585247350174408,-9.26104151479209,-12.303028902630608
67,-7.908482825684397,-9.76359504283565,-8.657446226401138,-11.40209252501539
68,-7.653786799959317,-9.886462171086396,-8.032720350942498,-10.424510606027322
69,-7.291666860123295,-9.93756633537022,-7.393060224330504,-9.383941886452382
70,-6.817681835391936,-9.910265052600721,-6.73859766301366,-8.295776245076647
71,-6.265139745062135,-9.807922820390372,-6.069540128750454,-7.1870858461646625
72,-5.684532166105663,-9.63633111413496,-5.391812125419725,-6.092104512259213
73,-5.097192289375315,-9.397337376732596,-4.712044935028677,-5.033629391287097
74,-4.484755206886314,-9.0875432180307,-4.029872768209287,-4.016686401431724
75,-3.8157748689579964,-8.701749360543996,-3.3379970056532264,-3.0287458014674753
76,-3.0685827965473287,-8.237602792445353,-2.627787367091546,-2.0453708731281943
77,-2.2383273381976143,-7.698907304195164,-1.8956023606472425,-1.0456058519813827
78,-1.3284014866308598,-7.096666172481078,-1.1447176998156037,-0.021966939502633953
79,-0.34675337845552134,-6.447943718509596,-0.3827589856483351,1.0169986345775994
80,0.6837371582460444,-5.774924652481486,0.38073498060969513,2.0474561930760715
81,1.717685100684547,-5.104930730145451,1.1353270916576261,3.0355099512923007
82,2.690048226676826,-4.467950784824641,1.8708934772374048,3.9407821552564704
83,3.533330613983112,-3.8924860980225024,2.5793499545055982,4.716710532066384
84,4.193399770896714,-3.402744987759063,3.2559196612146133,5.315615954163274
85,4.635230344496036,-3.0141369962255338,3.896966398127419,5.699394827473772
86,4.8434415952151175,-2.7276768947816117,4.4946525508838535,5.847458842749963
87,4.820036023618165,-2.527212777260965,5.037219598680751,5.7603337094751765
88,4.591548636614729,-2.383566266988508,5.5153982028209505,5.463572279616728
89,4.205975051626467,-2.265565000271379,5.927465102590082,5.000651047926528
90,3.7089331100279943,-2.1487183185286485,6.277742008158915,4.41422699293003
91,3.1324326598871592,-2.0180741620503713,6.5693003098625855,3.7434332591828094
92,2.5003607707228155,-1.8671578635394712,6.8030935771796655,3.0298202168389325
93,1.8372660892176969,-1.6956561812107114,6.984732956184761,2.3104934215561332
94,1.178131673517849,-1.5081084509045355,7.127497213188961,1.612181560777516
95,0.5693631873848312,-1.3122478519176048,7.246711095090992,0.9541785494944548
96,0.05185894364546961,-1.116556878795384,7.350358016575497,0.35099122323001697
97,-0.35587586830409085,-0.927588124185851,7.437113187607068,-0.18783940117168135
98,-0.6546053590053728,-0.7480976887219112,7.502372138716077,-0.6580888460949581
99,-0.8487472502353628,-0.5776882222812975,7.540825957056569,-1.0641397906159704
100,-0.9346032180895305,-0.4137617611302189,7.543578825092772,-1.4201756945416137
101,-0.9093124681738615,-0.250043389833578,7.497973592566475,-1.7459515519041895
102,-0.7848756472998009,-0.07781521418829672,7.391622156074791,-2.0605341864651656
103,-0.5857433793594442,0.1089131697980399,7.2170809543373835,-2.3726079389263495
104,-0.3329162714208717,0.31137037395492884,6.97546223649665,-2.6746511051728965
105,-0.03123545687613659,0.5276241396389976,6.676823983006306,-2.9463459042139184
106,0.32052215792972405,0.7539677576417394,6.338956276432865,-3.1622706899573263
107,0.7165617773199544,0.9867317938205289,5.986631631103128,-3.2967148795991044
108,1.1467911618265378,1.2242224265826778,5.647339640370928,-3.3261947613075846
109,1.6085268426125843,1.4670754976903277,5.345485874327397,-3.232575169105398
110,2.108423226750674,1.7173834966081436,5.0985350159248135,-3.004199329631322
111,2.644149942580543,1.976650459682731,4.914563666737832,-2.6380058755941143
112,3.195452619220522,2.244391150811757,4.791508122479473,-2.144321730390328
113,3.733312076688987,2.518374918978473,4.716476486875033,-1.5502341743150931
114,4.234486225557304,2.7931369734180014,4.668547967307328,-0.8957233467652497
115,4.690495798186918,3.0581072262810975,4.62597512313004,-0.22340240590785315
116,5.0957715220993265,3.299727260761391,4.570691665568663,0.43094699410399917
117,5.42812036423461,3.5045861852430504,4.490565982374123,1.0446694989705718
118,5.675329647913001,3.6565393973914184,4.3868297819601105,1.6100007493747537
119,5.754929558532153,3.7458249235282928,4.246119655750569,2.117760398298471
120,5.643426023338897,3.772821297263894,4.06909677730109,2.556996022531343
121,5.351886554356625,3.7467748569614576,3.866063016208844,2.9191927062462124
122,4.908274947651376,3.682296791470357,3.652639620333851,3.202914289912368
123,4.353870152601251,3.595829190950373,3.4453924292037015,3.414031248445342
124,3.747243765870007,3.5034209762233033,3.2575693523295244,3.562753388014954
125,3.1552509549925953,3.41900792326925,3.09770128732653,3.660300365218832
126,2.6345806536034737,3.3527780830617537,2.971005544114195,3.7175047321124595
127,2.2214983280411977,3.3101968459924773,2.878618346504745,3.745324251484732
128,-0.3200129152766552,-0.27660728601092344,-0.38771362009732335,-0.3534126293542466
129,-0.7398093713010688,-0.6369166900374994,-0.859407191678316,-0.8744284327082829
130,-1.3943217462924542,-1.1610931670593858,-1.5366647932118154,-1.6619806638164978
131,-2.3231090801064567,-1.8566288989110746,-2.4271169345143884,-2.7510256920232967
132,-3.54231753020252,-2.718432248216881,-3.527527507950973,-4.154800732860849
133,-5.041601087953323,-3.730500054567887,-4.8212945176271775,-5.855262820843167
134,-6.780899514438219,-4.868417563027055,-6.278530258648017,-7.797452490659172
135,-8.678479359157222,-6.097586829479372,-7.85958596522171,-9.88670147162012
136,-10.617116593078334,-7.376365167317749,-9.520068140991826,-12.003921286902546
137,-12.48127496258977,-8.67140316989655,-11.218727537354303,-14.037789483288263
138,-14.20014116645477,-9.975760759242744,-12.931518797431487,-15.917553543679801
139,-15.725402787853662,-11.28062855602725,-14.611781838926195,-17.58153233195336
140,-17.038670436767056,-12.583883507815388,-16.20982734419068,-18.999621165432405
141,-18.148685998234455,-13.889417961599959,-17.674508232663996,-20.17710570009043
142,-19.107252361646612,-15.209898292166786,-18.953937284826086,-21.154300861797378
143,-20.021733522380103,-16.569957092275573,-20.000467693655363,-22.00198795084592
144,-21.030664277357022,-18.004268761524095,-20.77888615521654,-22.809391413237353
145,-22.256036926990113,-19.550880455494465,-21.27022065764288,-23.66981818371597
146,-23.776449479547125,-21.244690763916022,-21.470629093646515,-24.667970682677755
147,-25.63077996374147,-23.111477067867106,-21.387101674335696,-25.85897540255475
148,-27.82573404540466,-25.163319433060202,-21.02842642815621,-27.251437845028857
149,-30.338961849591907,-27.396817413022102,-20.400482750051246,-28.814911086133108
150,-33.12650815539787,-29.793625616248143,-19.510421471210808,-30.498302733456732
151,-36.1321046702918,-32.32448411168258,-18.369974152745158,-32.24559128842659
152,-39.3005226789325,-34.95681290787007,-16.99580720521038,-34.006684171604775
153,-42.589555603815086,-37.65852257647317,-15.411335011246985,-35.73567398370431
154,-45.9613640125013,-40.39638128240401,-13.648857431364446,-37.38540334830631
155,-49.36390947911697,-43.13760080896218,-11.749380526879314,-38.914617274820905
156,-52.72335706537301,-45.85233544818952,-9.75841696258132,-40.29450715456705
157,-55.95555475948864,-48.51042465481645,-7.720451525550228,-41.50184648027892
158,-58.98548783403081,-51.07633611195282,-5.6783800005602725,-42.5130548813748
159,-61.74557752114503,-53.506285162255764,-3.675274766924103,-43.30846612190214
160,-64.16013311046686,-55.74850538181554,-1.7527154410795873,-43.87780471514586
161,-66.1496408572546,-57.74908937006855,0.05335499438965566,-44.221802703358605
162,-67.65260645523662,-59.459969097754986,1.7138643399347604,-44.342976719226584
163,-68.63810108450589,-60.841973195712264,3.2031398784867506,-44.2296748124214
164,-69.10243358478264,-61.86411547620117,4.497871805373913,-43.85919459817546
165,-69.05483407026895,-62.50555692690468,5.5808266329985745,-43.215915371234594
166,-68.50507768572959,-62.75827919695797,6.443126611018097,-42.29523768139233
167,-67.46396435562929,-62.627226273374646,7.083547538687865,-41.094856118028964
168,-65.95463362218354,-62.13042242802196,7.506293538934233,-39.61390968578119
169,-64.02278703421487,-61.29651653715227,7.717183071783476,-37.862242093975524
170,-61.727882178727356,-60.15781205975764,7.7214441238025415,-35.86657733017213
171,-59.12323008081977,-58.74371764023487,7.52740435531842,-33.66661662732012
172,-56.24792668116025,-57.07836224408221,7.15253984758437,-31.305811281771994
173,-53.13962855522661,-55.18306063798798,6.62201948203121,-28.826578703490014
174,-49.84334487448305,-53.08068471645091,5.960916506188793,-26.273566253747145
175,-46.39783013114439,-50.79674204438759,5.189120386987526,-23.692501312759116
176,-42.828687893711525,-48.35584672415309,4.32050865019625,-21.120116556676386
177,-39.15542226267154,-45.77457699220559,3.367355278595202,-18.577695595304228
178,-35.40066295708764,-43.0569936591611,2.3491133521417695,-16.075521583952668
179,-31.602168337267436,-40.199325738272144,1.2910311041841631,-13.62436492247003
180,-27.805436792973,-37.20311893593343,0.21225518042856784,-11.24393038050722
181,-24.04261344985051,-34.08902891938826,-0.8793304621906044,-8.956903639688916
182,-20.332538190612368,-30.895176611036604,-1.9835219370763524,-6.776849833003063
183,-16.69955350835961,-27.659653605529098,-3.101094262478713,-4.7078735477001565
184,-13.182650561924675,-24.41945241335187,-4.227979241059353,-2.7515529595796595
185,-9.818353787069283,-21.22696719474988,-5.3503437989304405,-0.9053468639599391
186,-6.613237881490361,-18.144799446803983,-6.438515635641402,0.8441855971323212
187,-3.539537066732995,-15.2260573572569,-7.44979632212595,2.516937484081576
188,-0.5642697166005594,-12.504367971245971,-8.345295442171842,4.126833325252121
189,2.318372248705245,-9.989267970356101,-9.107523396204055,5.673560935951741
190,5.08191698402619,-7.665452815812023,-9.743621816096816,7.139993798556562
191,7.690019859836136,-5.498220752544905,-10.2762504136383,8.495410313418493
192,10.115153180294307,-3.4430221613797727,-10.734924782503356,9.704955155550063
193,12.33099208298665,-1.4579196836936634,-11.154462396923122,10.737581575436682
194,14.301156955983195,0.48461053583960567,-11.580363236215158,11.5658415768658
195,15.986855891405558,2.3936577781401653,-12.068965848937223,12.166051187073045
196,17.368947710519116,4.265362027320395,-12.671501375268539,12.527642542368667
197,18.458011319803834,6.088696352878902,-13.41110603986591,12.66135111071072
198,19.278878315276707,7.845938086861013,-14.27487181497886,12.59797714436454
199,19.862048081996228,9.512455848040874,-15.224051369449908,12.384281944250327
200,20.249654534936845,11.057393824840336,-16.20496929373139,12.078083881727824
201,20.498818086610846,12.452896452060395,-17.158118172090592,11.739837188980685
202,20.674243250831918,13.69244495075323,-18.03026296435948,11.423497349131948
203,20.8275545578068,14.791090640663796,-18.78494988113325,11.171614757103553
204,20.980799594671943,15.76652495988058,-19.406294350094,11.010694057719638
205,21.12697679805461,16.63653738408571,-19.895084899289074,10.945390287263654
206,21.255333458594038,17.429466870633366,-20.25713294167597,10.960363351468459
207,21.3737641626028,18.178198119156722,-20.491409972374775,11.032813334194326
208,21.499692622801284,18.904312203586077,-20.58992632240617,11.14556817469016
209,21.64293738456457,19.615822077741356,-20.545274039887865,11.28925050477992
210,21.80285391487062,20.31600149723654,-20.354349883344373,11.457032548530314
211,21.982878806922784,21.008704273720397,-20.0158068964508,11.642574716316512
212,22.19678646413717,21.697713592436,-19.530286529319554,11.840845271228812
213,22.453148717468995,22.384123256758922,-18.90800522767351,12.043389442133115
214,22.74279417007072,23.064130331957898,-18.172726380015646,12.233156505195463
215,23.041433131190672,23.72912592758667,-17.36085797084639,12.388937509228743
216,23.322182157805326,24.36742193764865,-16.51947710699185,12.488990864806112
217,23.563655445889758,24.965735779572487,-15.698128798054512,12.507851486185395
218,23.74429799114732,25.51361221936285,-14.938778511344914,12.415587701674578
219,23.832934488369375,26.00853174391059,-14.26876458149483,12.183914600355306
220,23.795356621417902,26.453789616555873,-13.696234691617416,11.794750039547111
221,23.613635184718255,26.85192719461831,-13.210341941017179,11.246581467959249
222,23.300012095753203,27.202473628273783,-12.784430179331872,10.559464186750594
223,22.887956454907773,27.502316118235623,-12.38541894094175,9.770119208736666
224,22.400160598846195,27.747641508409785,-11.989922596203176,8.916550000149217
225,21.83850321796012,27.940085124062602,-11.588379986676985,8.029700393130566
226,21.20876457999861,28.08410817596671,-11.173207478357895,7.137844878224186
227,20.54068876602044,28.17458649042892,-10.732596513827422,6.273465200831916
228,19.881011194285282,28.194566656676578,-10.255819560601834,5.470948684214416
229,19.271486220417092,28.12589981447946,-9.739340952426252,4.7611907256362755
230,18.73873591000678,27.960809624795207,-9.188509093386953,4.169784838450234
231,18.300614311401404,27.7050480380123,-8.617178080205857,3.7128409154760544
232,17.976526755275845,27.37146746748756,-8.046185348561515,3.3925207197815666
233,17.791837531267305,26.97137902310378,-7.496972104669488,3.1991176194337636
234,17.767926112560335,26.511282620592848,-6.985435410146339,3.1203109173219
235,17.904709947529863,25.99413593344701,-6.522277002654188,3.1425737846816038
236,18.171370967144163,25.42204139031587,-6.114453261745354,3.2422972855440246
237,18.51741891628051,24.80135567176142,-5.764064941527472,3.386522846396821
238,18.89565848734127,24.14068456369654,-5.464509692466804,3.5458923122808086
239,19.26929416023437,23.440585682675597,-5.196084499003666,3.707538778582398
240,19.606750844663182,22.693103204610082,-4.929023946746655,3.8763409605935166
241,19.884354646167203,21.891275913219726,-4.6345809066602115,4.066170801211515
242,20.089601850190952,21.03718335281933,-4.295285515572114,4.293723828292346
243,20.216334333348826,20.146522694283483,-3.9085326499258555,4.576222412144347
244,20.260906709503672,19.24973698911863,-3.4852565207506285,4.930093927526136
245,20.22785517370631,18.3862154183843,-3.0434246103606006,5.365421595392016
246,20.123089224143325,17.588244968010965,-2.615023171393771,5.854493609912225
247,19.985126644278022,16.890859687676254,-2.1845074948576695,6.403234464132687
248,19.84850313555893,16.316183088816448,-1.752030647423601,6.992218012448053
249,19.731856141749923,15.87785046624295,-1.325271883863814,7.5887068007182314
250,19.635728149184825,15.581223007533904,-0.9149479452843696,8.155447873749669
251,19.55495509239632,15.419854493599988,-0.5336376175128249,8.65741695398457
252,19.494002710543228,15.372915683519924,-0.1925422866922032,9.069543993743892
253,19.466940841370143,15.406251034565368,0.10255208549612933,9.384395418846427
254,19.481751586537378,15.477566689397154,0.3499546075674823,9.610941735245522
255,19.525120756030713,15.547870008368076,0.5463246041948777,9.76355694696667
256,-0.44836356375907,-0.25790140056406374,-0.46981040118698414,-0.43559406755655666
257,-0.8781990022042432,-0.7380489015992098,-0.9148659265470632,-0.9611648436654445
258,-1.5064271481208342,-1.4931177326273648,-1.4981060934171728,-1.7200011486956341
259,-2.3434356254824293,-2.5444141943596486,-2.2060105424870637,-2.72400795774954
260,-3.3822765165368707,-3.8789518713659517,-3.022438651379054,-3.9587546397785287
261,-4.606942630298038,-5.452283049953849,-3.9282492608220383,-5.385182309526765
262,-5.995760864865106,-7.20287819860989,-4.8976090407877155,-6.9487079834267345
263,-7.519429891463423,-9.06559255302132,-5.8997922067937445,-8.582272177645438
264,-9.148567664386514,-10.98073709681028,-6.909866516277314,-10.223077409719977
265,-10.868090042224335,-12.904040934818962,-7.915527176074049,-11.850802768620188
266,-12.69042259167813,-14.819347568076006,-8.919683257439951,-13.497284325568547
267,-14.6055919418752,-16.69863100462282,-9.896423403322714,-15.163746267368623
268,-16.59777575215068,-18.520668123355566,-10.810986562530744,-16.827718037771184
269,-18.642737013862646,-20.28781783034372,-11.615632236085645,-18.456818752993915
270,-20.71081692188229,-22.01294827798777,-12.25748307012727,-20.019528942780564
271,-22.75877739584723,-23.68285386068001,-12.70221125323302,-21.48707055770309
272,-24.712864434495646,-25.258074717534434,-12.959122623751647,-22.833787641419825
273,-26.471423541097725,-26.70237205604049,-13.080746395829566,-24.04200172237048
274,-27.92689121201422,-27.991040486960667,-13.128573883550647,-25.10759075127807
275,-28.991642061113552,-29.104179261556176,-13.156632063485594,-26.04854127919183
276,-29.60899111174524,-30.027564248196835,-13.235876086613512,-26.90828761095489
277,-29.748169805616783,-30.759369226111783,-13.457777702944966,-27.746487300531108
278,-29.414205354562178,-31.30435594547882,-13.914707299462751,-28.62302512413019
279,-28.64334158101687,-31.65567764498981,-14.723684633740266,-29.581818753222443
280,-27.467831746585983,-31.79482994202977,-16.051682527188127,-30.641660920233306
281,-25.917159805040818,-31.710728190290613,-18.07902004571568,-31.785378075724886
282,-24.042870935631576,-31.407636722839115,-20.97120768488308,-32.95255582706729
283,-21.926262233421763,-30.891774602121455,-24.896287806420798,-34.07020247669736
284,-19.66782647515903,-30.176432506273308,-30.024752631151603,-35.10080697427459
285,-17.38568205264086,-29.3056383749722,-36.5487683623488,-36.051611553563475
286,-15.244793672981244,-28.34064135427021,-44.752543977762265,-36.96202078332557
287,-13.434045215068497,-27.33549059355968,-55.04204202068366,-37.88546386597075
288,-12.093251533839105,-26.347458657256215,-67.8975812034281,-38.85934243892135
289,-11.290315615731885,-25.437262674125826,-83.80226590015296,-39.896421253660996
290,-11.036512589405076,-24.63883057593334,-103.18237254837445,-40.99322248428784
291,-11.298426803706386,-23.95116128393731,-126.35665760338595,-42.12335735231573
292,-12.00576663895243,-23.35926799716145,-153.4551679740982,-43.22671945569903
293,-13.056845948243861,-22.83843410005011,-184.34073732622286,-44.22129984162788
294,-14.332889596679268,-22.340580700313296,-218.65899798365982,-45.03275717171681
295,-15.728545561892089,-21.80878911705035,-255.9371215841165,-45.61777294498294
296,-17.19127294714086,-21.215027118475188,-295.5544404305661,-45.97102213012106
297,-18.73712482655141,-20.565935301148947,-336.68757647385144,-46.1157123236851
298,-20.40192648372933,-19.88286367079781,-378.3534332997256,-46.08604318610084
299,-22.1891260185722,-19.19310464004368,-419.48131940828813,-45.929066879410975
300,-24.083505957591537,-18.529183412747102,-458.9814652452881,-45.71155722857606
301,-26.0708305441038,-17.91446361986498,-495.8380516705481,-45.50414088501705
302,-28.12837754467235,-17.337673313359165,-529.1887612061995,-45.36795441347811
303,-30.206300812269888,-16.762553285978647,-558.3332811752903,-45.34591933120969
304,-32.2402370259985,-16.163091233773766,-582.7414616182554,-45.466138544864386
305,-34.200290074916474,-15.518495581872516,-602.1131246487445,-45.74788783275954
306,-36.088213872385694,-14.780855173013997,-616.4262891005446,-46.17096636556773
307,-37.89249637461146,-13.893390435283077,-625.9174648029344,-46.65437432101981
308,-39.58771935050892,-12.848118513445291,-631.0173276878627,-47.08395365043109
309,-41.14349382762462,-11.687043302913803,-632.2942050776817,-47.351928608822675
310,-42.5050561448114,-10.460462798927008,-630.389929195791,-47.371876790421744
311,-43.601673574773855,-9.214866447392538,-625.9000763840485,-47.079091932862255
312,-44.382036552190065,-7.989604859112274,-619.2630599757757,-46.44108885851963
313,-44.822865906567856,-6.796505882807325,-610.8199759269792,-45.467797207862596
314,-44.92759363761716,-5.622369400322176,-600.9437702145341,-44.21388552681847
315,-44.742831155148245,-4.455231358827084,-590.0646823922102,-42.77092199568589
316,-44.34667237874667,-3.2901988650612086,-578.656254702101,-41.235809741039205
317,-43.80648768052363,-2.128111359987156,-567.19601000094,-39.6706772506728
318,-43.168850696498865,-0.9704448304905036,-556.102818015561,-38.09439508038629
319,-42.4613480337166,0.20076120657940644,-545.7193718754268,-36.497922849704544
320,-41.68551934771941,1.4143642369575975,-536.3034706226913,-34.85481560534621
321,-40.82467373934288,2.674091548666626,-527.9917525755736,-33.13194991343541
322,-39.85353411793767,3.943425895833431,-520.7746832512827,-31.302990097178764
323,-38.74476792007679,5.158976744248026,-514.5245901769878,-29.36533613202117
324,-37.47686500882692,6.259333337956475,-509.0447237653378,-27.336802483157076
325,-36.04515713060953,7.214997820949912,-504.0838685353266,-25.233282566500815
326,-34.47808569621989,8.024679102838501,-499.3186679706189,-23.063426882798876
327,-32.84456841194759,8.6837990854968,-494.36225219631575,-20.82966611205981
328,-31.22995026675094,9.187156770886784,-488.8175844507638,-18.526623654647054
329,-29.689730518178795,9.553805306744389,-482.3272514631089,-16.14702767923998
330,-28.242960423672937,9.825466957611049,-474.5885149351863,-13.695775815700165
331,-26.900960825674247,10.051896479662792,-465.3253616458708,-11.199303763825435
332,-25.670373817187983,10.280650176610157,-454.28653123876387,-8.698744202489046
333,-24.542068075668816,10.546306970724746,-441.27071428075755,-6.237650870554472
334,-23.491970580591943,10.860058573311665,-426.1235165336944,-3.855174714691172
335,-22.483689400841296,11.204963218191022,-408.72414464903585,-1.5820246880784434
336,-21.477706940273173,11.532644350799869,-388.96811174743266,0.568810447714071
337,-20.45490335659588,11.77776735600196,-366.7588643077836,2.601803183996477
338,-19.423302944115765,11.896060209054703,-342.0379317466554,4.519899377488418
339,-18.399254150578447,11.878035187840855,-314.80651110968876,6.317053824021549
340,-17.39249662216034,11.729476241971781,-285.0811885915614,7.990906115767972
341,-16.40095333652148,11.45789945793284,-252.86904662000754,9.554160043818229
342,-15.400258283126327,11.079009534059477,-218.23093690959774,11.035932285039214
343,-14.33203692873863,10.62417437516072,-181.32913184607202,12.473496442370218
344,-13.112424273768843,10.129853611316173,-142.40135698944619,13.904629559688667
345,-11.655658671269505,9.621915060928133,-101.7148575067551,15.37371609613239
346,-9.89807443885957,9.114419459724967,-59.55298809850994,16.933722297007677
347,-7.817669182882292,8.618717477560182,-16.227122799807383,18.636489891870674
348,-5.437449476749791,8.146969551192653,27.935758163232514,20.513662958037962
349,-2.81836513986753,7.700807888588119,72.61832238036419,22.54830626009154
350,-0.05771914963062014,7.254896837330748,117.53543501510816,24.66185284683111
351,2.7164619622789834,6.76449614835759,162.43579936719757,26.727894358928406
352,5.366567985424523,6.191045101631498,207.07011270952358,28.603051107786563
353,7.772929351300662,5.512647096936292,251.17332144598475,30.168005621504122
354,9.867163937860704,4.7213717164360025,294.4746703298914,31.367610671854923
355,11.658595072659331,3.821655523867519,336.7137981509855,32.227518311754075
356,13.21726688065471,2.829676795596214,377.65686668032015,32.833836151433324
357,14.631995764280708,1.7746339288879849,417.08954088492413,33.29347528357938
358,15.983801784980118,0.7036003603350782,454.80127782826213,33.71096284000563
359,17.334306332679496,-0.3240147098925808,490.6069792964875,34.17661110748572
360,18.722417662901318,-1.258536096172282,524.3712052387963,34.75343255379534
361,20.160340821883793,-2.0733659051433104,555.9991576259984,35.4629664560346
362,21.62464601213684,-2.759697406487627,585.4222842777223,36.26676613261267
363,23.06132958843232,-3.3208406722410784,612.5939301286336,37.077169449720806
364,24.41379290094048,-3.777854343492153,637.4958831717183,37.8002311035182
365,25.648599134759323,-4.1686806299372465,660.1167300614336,38.36689759562346
366,26.76108260206166,-4.524830328187688,680.3981169526659,38.75103471280928
367,27.77343144380115,-4.854132613746594,698.2566381818134,38.97395259612635
368,28.727068123225685,-5.152128021237163,713.6495237269395,39.08801342238393
369,29.67092582453664,-5.418805955846971,726.572502516072,39.15539937669396
370,30.65709902739416,-5.649979594544175,737.0556152247414,39.22930789518287
371,31.73588739695234,-5.823277469296767,745.2164717296389,39.34095289769353
372,32.93442053241961,-5.906319815446941,751.3219907782492,39.50333805615938
373,34.23843000225807,-5.869741104581225,755.8112409240844,39.726095899270675
374,35.56523079164089,-5.740551126074474,758.5068388486728,40.00411735315075
375,36.964210542893085,-5.428849788754998,761.3523172173248,40.357505691247134
376,38.42634821284042,-4.908189019656259,765.5403642568676,40.77863275417753
377,39.89889661590237,-4.200597515741219,771.6161035650096,41.243779744097075
378,41.31021371834074,-3.358233890640353,779.5815186626484,41.72478643319465
379,42.60048122402232,-2.450521861441058,789.0151157655,42.19934181772696
380,43.732009557612834,-1.5560008499571274,799.209026378735,42.64945371839007
381,44.67734645380001,-0.7489012096127657,809.3120097511655,43.05041752747438
382,45.41290837586033,-0.08243681659771704,818.4763026738367,43.37430423587192
383,45.92802555760884,0.4166870462335008,825.9962688410758,43.60368378672457
384,0.08547459665124457,-0.228136343363094,12.289749872713466,0.3458381461153249
385,0.3473465500060984,-0.4980081615673373,27.115027267037107,0.7345302483014494
386,0.7235470161988081,-0.8995200438040628,48.49244356697367,1.2185295380447265
387,1.2165837922391138,-1.4470623393521298,76.56629894873579,1.7520834633850644
388,1.809254649014776,-2.142292423607573,110.88873100877379,2.28039602115167
389,2.463893796052247,-2.972061187687693,150.47088837717916,2.746234705495212
390,3.1352842911320082,-3.909820734691597,193.9329721959242,3.096597106972923
391,3.785539144845841,-4.920111362546083,239.69867911508072,3.2929395780137196
392,4.3933951219292,-5.961807621007731,286.2367913075972,3.323642740000228
393,4.953368368207317,-6.992328016335744,332.4061864278004,3.209770183209941
394,5.470634177606793,-7.983045247199535,377.9276103254172,3.0076050904208294
395,5.9608667651622556,-8.903059031274418,422.0018609928942,2.770808840704793
396,6.443895696318055,-9.735298023163734,463.8187001613458,2.546256624460294
397,6.923473978283682,-10.478920083511166,502.61387257219246,2.359610732490208
398,7.380694105720397,-11.146817771726093,537.7108300500239,2.2048074082881985
399,7.781959973036607,-11.760105282083416,568.5489539041135,2.047248117388768
400,8.094333773175647,-12.344366611234634,594.7076834149137,1.842326965527321
401,8.299468925074,-12.922919859877439,615.9103837234251,1.553382548922523
402,8.387868054764226,-13.506463648394863,632.0117809668817,1.1606443283044598
403,8.349905532480381,-14.092093405004125,642.9982912871899,0.6596901798765606
404,8.178144591656459,-14.672278351351514,648.9959926979632,0.05376028638524341
405,7.8767746979459075,-15.242495368307226,650.247676761651,-0.6499649283028306
406,7.460790294406421,-15.80273581897885,647.0389410554006,-1.4377840652474532
407,6.945411421927529,-16.355265684333055,639.6224198089155,-2.285509737951335
408,6.338882096679626,-16.902961599448936,628.1994163088675,-3.158000722211165
409,5.6368523673187525,-17.450487863343962,612.9469557302702,-4.017544124308824
410,4.833617008941913,-18.005489353239913,594.0434811179077,-4.833661680652942
411,3.942707719525273,-18.572157369635455,571.6794645939677,-5.584068787155068
412,2.9974605645286077,-19.14071675911706,546.0575315929678,-6.253279862751724
413,2.033839410474307,-19.68719420242209,517.3845305069816,-6.831234403316266
414,1.0842181230830619,-20.18240998622586,485.8759862831759,-7.31231092148587
415,0.18681303493745638,-20.599494103562883,451.78632778219566,-7.694535206808947
416,-0.6113497524468414,-20.917657480229636,415.44508050380085,-7.978419121022289
417,-1.266660702470431,-21.12421442245771,377.2626968436371,-8.17346348020258
418,-1.7645893897436171,-21.217756221052152,337.71674091891146,-8.303986056914217
419,-2.1297476345293425,-21.212694482176623,297.3402028231431,-8.404042777760399
420,-2.4089701551089027,-21.13594688832479,256.68047088752746,-8.511178959938773
421,-2.651814262737949,-21.015106701574954,216.23233242974615,-8.652236146063176
422,-2.896224008785526,-20.87155495194189,176.396088444466,-8.82481344393538
423,-3.167150346885543,-20.717331409985864,137.4825076940806,-9.001699725294397
424,-3.4816847617676365,-20.551587988430995,99.73415649830193,-9.150169902438963
425,-3.8478642324457737,-20.361694523670998,63.342409427114305,-9.246928856697979
426,-4.258251602500727,-20.12628107932676,28.466840557184238,-9.282884038971217
427,-4.689254157600765,-19.818593499574977,-4.757399463066485,-9.257650654391576
428,-5.120486820954545,-19.41345847140014,-36.21791534158317,-9.177360231883661
429,-5.552784913932737,-18.89616288212876,-65.80554309282374,-9.058525988051208
430,-6.0058094765332815,-18.265032728656184,-93.4052625469438,-8.926714896912005
431,-6.502667362961764,-17.525834187501328,-118.92563729789605,-8.80855766621452
432,-7.051673931457684,-16.69015429420126,-142.33278696125063,-8.724566413475406
433,-7.645676144880496,-15.780548799672752,-163.64968299846558,-8.685891238752662
434,-8.27466525389522,-14.832772957482254,-182.93119635370238,-8.691014139595637
435,-8.925581082307833,-13.88998918271114,-200.24784933764386,-8.726945141970603
436,-9.567780113147144,-12.992627433065058,-215.6859571405698,-8.777037329374213
437,-10.148847175684319,-12.172648993356269,-229.34130651340863,-8.82201552003676
438,-10.617986670926948,-11.448263604580047,-241.3015481689455,-8.842077325858169
439,-10.953798117841268,-10.81602292444044,-251.63158243867483,-8.830572030446612
440,-11.16406131285335,-10.25558822741301,-260.373707143356,-8.79479375046812
441,-11.26759930876813,-9.745328263458735,-267.57148373257337,-8.740046166924056
442,-11.28629165093546,-9.270912993044705,-273.2958459457467,-8.662759173848244
443,-11.245471589500761,-8.82566472298625,-277.6530457477061,-8.554404230113192
444,-11.17345046900674,-8.406420201235495,-280.7765813095524,-8.405389013410673
445,-11.095346797644776,-8.006958139742702,-282.81600063085676,-8.205998781454733
446,-11.020753174367465,-7.6167895067795515,-283.9346403129562,-7.947865050373665
447,-10.940503938459472,-7.225642894524911,-284.299884559788,-7.627777063827716
448,-10.836355650159595,-6.826593511909669,-284.0578673093627,-7.249389239133679
449,-10.696157373245924,-6.41349457747486,-283.32007255915664,-6.819520340283555
450,-10.518401120636566,-5.976292320430496,-282.1695775953487,-6.348915108002096
451,-10.299206903304997,-5.50292419610746,-280.66169167829224,-5.861252808585626
452,-10.030781086754969,-4.986312338963772,-278.8183245950766,-5.3887127461744235
453,-9.720433663202213,-4.429120843241762,-276.635739608458,-4.9550596962163675
454,-9.400684753508834,-3.84337889544357,-274.10773300527035,-4.5719802727797
455,-9.115870372575152,-3.2491381769087635,-271.24955219473674,-4.247449349895853
456,-8.897209015874367,-2.6749343844619147,-268.1092506989014,-3.986765953292552
457,-8.751988640981345,-2.148557922054354,-264.77006869160687,-3.785465315030567
458,-8.67470308289875,-1.6814849683299555,-261.3342029867162,-3.631945221133349
459,-8.658782093116464,-1.264746599163915,-257.88741690465525,-3.5187518983258887
460,-8.70088447064028,-0.8714758650280368,-254.47636705130432,-3.445360528740923
461,-8.795813744536327,-0.4694734336185593,-251.11984963597897,-3.4133862326615505
462,-8.922757668180136,-0.042544602547143984,-247.83325465089595,-3.422695708525407
463,-9.042370760361836,0.4061082622363521,-244.62830277637977,-3.469046509643761
464,-9.113393896149523,0.8653606535023838,-241.4975137710259,-3.5430857682995502
465,-9.114245764366645,1.322140668962473,-238.4115848531506,-3.635281373010982
466,-9.046985940509867,1.7624440287698708,-235.3277985924847,-3.741964003868355
467,-8.92373783514981,2.172524572343202,-232.19864177560726,-3.8648275961154255
468,-8.759525754427063,2.5401935674957468,-228.98231008172039,-4.007457291430414
469,-8.577072560385657,2.856968849514608,-225.65720023136782,-4.174722914951787
470,-8.407306419224817,3.1203588770865376,-222.2258201670917,-4.374359067415153
471,-8.282864099605,3.33369900889745,-218.70216452299374,-4.612250501191186
472,-8.236932081794848,3.5041838859541907,-215.10033645381594,-4.887190934026512
473,-8.302072564093068,3.640219364638322,-211.43306045262526,-5.196308593385144
474,-8.501954631756032,3.7468471415945803,-207.71306632704147,-5.541200793055324
475,-8.839053536016666,3.8247906784931884,-203.95707463055263,-5.9239829509886635
476,-9.282490207926427,3.8744816849255335,-200.1968314053204,-6.338642245719373
477,-9.769669918648376,3.8964691069589565,-196.482288826638,-6.773906573274248
478,-10.224951940718563,3.892976506952886,-192.8611913336244,-7.22523217826793
479,-10.582490671753767,3.877024709245731,-189.34899550773736,-7.698266571290107
480,-10.795968853930132,3.8707751216482977,-185.92979367422683,-8.202840437903593
481,-10.831788138575815,3.8892711162342213,-182.5872623686397,-8.74422962697288
482,-10.66834316267193,3.931098553941838,-179.31939261524036,-9.317436324361772
483,-10.298514406872975,3.9793955821172764,-176.13531804456213,-9.90546838555554
484,-9.721723128239567,4.008037579657159,-173.05399195311014,-10.480715168550697
485,-8.948779197917148,3.9885388163506623,-170.0997145976582,-11.007777246837591
486,-8.015144253686028,3.8935991041839144,-167.29069315236703,-11.451343385386105
487,-6.973625488303135,3.7001488720891267,-164.63502449835346,-11.790085484351405
488,-5.877329712574102,3.394721379411923,-162.1389558493574,-12.021520412892384
489,-4.7769204866456265,2.977023762670741,-159.8139732337585,-12.154947937630375
490,-3.729072351892715,2.4587134386741027,-157.67301423249123,-12.20751331531406
491,-2.799441854743507,1.8614686267670681,-155.72094658294222,-12.206597599714408
492,-2.0539902927366342,1.2152193500874562,-153.94853751889738,-12.187987263212941
493,-1.5467541257631157,0.554321858358502,-152.33236299223918,-12.184965586864111
494,-1.3149892188947394,-0.08615429259119638,-150.84030831180579,-12.214892019568603
495,-1.3818548229005203,-0.6735184243882278,-149.4376197944155,-12.275864820860999
496,-1.7519618340779215,-1.1829606432747801,-148.09092640015612,-12.354527666505753
497,-2.4012187209415186,-1.6011514617459675,-146.7719305637094,-12.437285397342709
498,-3.276576644936568,-1.9223895725097233,-145.45867961088314,-12.518890839018066
499,-4.307723887654896,-2.1449681821660094,-144.136923556128,-12.60341907885471
500,-5.430747538752079,-2.274225768216481,-142.80503865545194,-12.700716448758051
501,-6.610878438148156,-2.323311465976643,-141.4752911604124,-12.82294230730689
502,-7.845529291473969,-2.331344945133361,-140.225826570683,-12.994165443238902
503,-9.106228316559397,-2.2854691281689896,-138.98728829045834,-13.218198254344532
504,-10.339776972844588,-2.1862903598515384,-137.74387864597026,-13.490756111988201
505,-11.496029005897931,-2.0441195596714117,-136.50827581872852,-13.79897771024499
506,-12.53577042097478,-1.8738002567220717,-135.30431046038763,-14.122336478318601
507,-13.425918526490573,-1.6894475587842899,-134.16250110762186,-14.433802840781993
508,-14.142637883936846,-1.5023794257200649,-133.12095484332104,-14.7027219297545
509,-14.678550189639683,-1.3229588635536582,-132.21986299912948,-14.901779247948891
510,-15.042450899341311,-1.1618697775983176,-131.4897952032461,-15.01789074250404
511,-15.254571847217548,-1.0284508870848548,-130.9439505165459,-15.058551833999008
512,-0.869213893825969,-0.36232055877903074,0.05562773644693514,-0.5926723902069
513,-1.6946483978128568,-0.7657614092004494,0.2969323362095385,-1.2912196122311346
514,-2.793941357078387,-1.3542488369974084,0.7047831608235424,-2.2821799501913125
515,-4.126616309681229,-2.1448983761683227,1.2975068212347032,-3.562664165176035
516,-5.636573275053679,-3.1375474064327045,2.078260598819963,-5.102196579106179
517,-7.2611392876683585,-4.3104835912955535,3.0328848994228723,-6.844167223847239
518,-8.933197157219507,-5.618376590589358,4.127260986946741,-8.71309203067398
519,-10.584506150709737,-6.999862587967936,5.310039236249996,-10.627935130353169
520,-12.161434298243368,-8.393210546632377,6.521178524983153,-12.518642742923193
521,-13.65227089440715,-9.754372956476512,7.704801796317668,-14.343486198340319
522,-15.11034873364548,-11.072074684442251,8.818848450858,-16.110425134336058
523,-16.543759691502125,-12.323822205684744,9.821271041001392,-17.815912309977538
524,-17.934641180810022,-13.489385491403901,10.675406020743221,-19.46186678990702
525,-19.252338057534658,-14.556308502836087,11.355077636501408,-21.049092969704603
526,-20.467760141025227,-15.52493853642242,11.844772457338305,-22.57328309612837
527,-21.561690596500625,-16.40909346964335,12.1385268081624,-24.02259154878478
528,-22.521787207007627,-17.23051865769753,12.243139633712168,-25.377376725752267
529,-23.333739825460015,-18.007504481040968,12.182399541392812,-26.61134195233641
530,-23.985694613997833,-18.745051769845727,11.995792036782236,-27.69445329703772
531,-24.47692868898403,-19.434496062964058,11.730928830804489,-28.596541865424467
532,-24.819562302135914,-20.06059800964179,11.43207755679999,-29.290855931379745
533,-25.02600015228282,-20.60854819065492,11.12702724962581,-29.75720868170776
534,-25.09512181083425,-21.068547973133494,10.822627832249792,-29.98524856633022
535,-25.024327347861544,-21.439887830399623,10.506832580175855,-29.976473537094144
536,-24.82959482613791,-21.730002931936927,10.153099023985602,-29.74225524967522
537,-24.54141489875255,-21.94829270442284,9.739008618961902,-29.300752691674262
538,-24.18216686330326,-22.102895468529052,9.242895283621737,-28.674805661245532
539,-23.754241113849293,-22.20183869848012,8.61781479618632,-27.89098304663176
540,-23.25246162915458,-22.254514374895102,7.804298092353893,-26.975452959741556
541,-22.68445262103417,-22.270294171270677,6.760116585695301,-25.949457206067233
542,-22.075488147630512,-22.25572588410287,5.473373652958783,-24.834994955343554
543,-21.448723805866525,-22.212490355171518,3.9704719629266894,-23.662796712932234
544,-20.80581093165601,-22.13560170433627,2.3144328659643563,-22.46855199121504
545,-20.132250977419325,-22.01289991598028,0.5911039783732696,-21.28266659035424
546,-19.415553702014588,-21.829056723356302,-1.1067751893366493,-20.12737423564823
547,-18.652355230416102,-21.57155462854338,-2.6950239440258033,-19.021162524740085
548,-17.83965243073571,-21.23180048599028,-4.1140796440986565,-17.981112425937628
549,-16.965191320364376,-20.803484081566044,-5.335267912006566,-17.02022681098825
550,-16.01466134124006,-20.28214288270399,-6.35235366316371,-16.14286903989433
551,-14.992920113914423,-19.664932098852134,-7.170070427060856,-15.344626652306106
552,-13.926676178813093,-18.951880039973435,-7.800264076339809,-14.616419164538632
553,-12.841109572608563,-18.14949131172007,-8.259812147119701,-13.946936724287381
554,-11.7517831057642,-17.27326759953184,-8.565859116453918,-13.324026288814958
555,-10.677009667029699,-16.34658172217921,-8.727601237455257,-12.735327382284757
556,-9.64291293624558,-15.396156745846291,-8.73310610505994,-12.167612894927618
557,-8.677129786026898,-14.44654745626442,-8.565652098250021,-11.611665185923583
558,-7.797577567493846,-13.515245744145597,-8.236763434693264,-11.069387081580407
559,-6.998423045730177,-12.60808528659495,-7.7863374373180845,-10.548942751769541
560,-6.240173566617441,-11.721456082044506,-7.2677402265411235,-10.048306821344847
561,-5.471097308373802,-10.850291673777166,-6.735484618650935,-9.545571522274674
562,-4.659224824600723,-9.99110348311714,-6.235987019210804,-9.008975975307795
563,-3.798006222958314,-9.14169553652891,-5.802302027069572,-8.409347346852472
564,-2.9007282305330824,-8.302290078938148,-5.446003821483448,-7.723647407497772
565,-1.9953590048707375,-7.4767481891306184,-5.149798898601711,-6.941358986580308
566,-1.1222476693351842,-6.673846290414306,-4.876389393190379,-6.0656227246136885
567,-0.3290950835253851,-5.908940579415892,-4.5936591853776045,-5.10521226352779
568,0.34661658031414805,-5.201618309906335,-4.293109421783284,-4.0712363471245725
569,0.8942727874206418,-4.567777566881348,-3.9927175930654495,-2.9781376398711776
570,1.3314282475460228,-4.012205477899048,-3.7321560689330258,-1.8456989254640537
571,1.6886574822953133,-3.5268380475405725,-3.5649879173789176,-0.6986381830261503
572,1.9942594104567455,-3.0942408182081254,-3.5419971138281947,0.43827071437393317
573,2.273411959167251,-2.694683695191285,-3.6890799933129697,1.54163942401933
574,2.556488028554212,-2.314090849070777,-3.9971759399880913,2.591743800467544
575,2.8823884667352884,-1.9473166914436186,-4.4296596475332946,3.578660689271977
576,3.2789413605927455,-1.5958772030440904,-4.9370407152400455,4.502506694480689
577,3.7351227862453933,-1.2629696651971432,-5.468604744389393,5.369192134043088
578,4.20908708564049,-0.9490281205003962,-5.983983134414151,6.185971134255474
579,4.668056439871889,-0.6533036093052743,-6.459273293356894,6.962384976896104
580,5.102519419214902,-0.3754301079206758,-6.884879425195506,7.715079698718415
581,5.5112680830958904,-0.11147120732143526,-7.269833866725652,8.467872136364619
582,5.893855806906357,0.1462949559583543,-7.638445123889269,9.249713873803028
583,6.251933451826392,0.40564215959589145,-8.009955399662442,10.084258225712993
584,6.592383841193009,0.672543410426029,-8.38798045193431,10.970731431788847
585,6.923145408258953,0.9482202600502684,-8.76912728202577,11.879293765257131
586,7.241802637298652,1.2253633885296538,-9.153165776323297,12.763665788397978
587,7.5314936228181075,1.4895165877595216,-9.539831598606458,13.571470854156695
588,7.767998474541693,1.7236735956351947,-9.920158055732584,14.249473806296804
589,7.933189796435073,1.9097613671371985,-10.278946038320836,14.750284846581655
590,8.018781319713264,2.0285555017828023,-10.606367361705308,15.041825853416602
591,8.016190443081829,2.0643470685773657,-10.901112321072883,15.114854603881753
592,7.909793369993875,2.011238141325105,-11.163999677588098,14.980868946808199
593,7.6851181672677695,1.8751475382248537,-11.397222276834857,14.663562663229586
594,7.347921324557876,1.6723201181801388,-11.606550314059126,14.190596729560768
595,6.928228556300774,1.4263909748409067,-11.798513016198413,13.58777629737829
596,6.464439881552296,1.1653932941279361,-11.97665153725858,12.87604639283274
597,5.9847030070764555,0.9179183804716116,-12.1414334151599,12.069425103586326
598,5.496680940746832,0.7060419629378072,-12.291838646861754,11.174275302174607
599,4.996605091826955,0.5405243786350907,-12.427947646777707,10.19082741218561
600,4.485098001334081,0.4253859628916311,-12.55785339671532,9.119704474532808
601,3.9743167717892023,0.36348068518184645,-12.696164072717226,7.970701604839328
602,3.48251721601075,0.35534326246513126,-12.851534541330508,6.765858094093978
603,3.021119473732282,0.3954363632847356,-13.025310482407107,5.537771947773705
604,2.5971254355069933,0.47049067399920597,-13.222375042656397,4.325259437107554
605,2.2292554775878513,0.5619080449196477,-13.458243739012584,3.1696454601598743
606,1.9510011199062718,0.6511638983460062,-13.749783618781143,2.1133129280450884
607,1.7970929322476512,0.7238889840880207,-14.097463970111388,1.1949098150473356
608,1.7873651309183378,0.771585826409743,-14.486108058530318,0.44233238350902804
609,1.9184411043761782,0.7928828654934245,-14.901221937335915,-0.13179573553114088
610,2.167894603910445,0.7892479730825877,-15.331030149184881,-0.5281205588102065
611,2.503049222172282,0.7572237022135467,-15.751593669870317,-0.751354167663338
612,2.8874246956195266,0.6884375435691874,-16.122859615123748,-0.8051167875930146
613,3.2892315227143323,0.5751565253095245,-16.40248462655793,-0.6936132227449109
614,3.6928071480445785,0.41438440855279934,-16.56227922228648,-0.4260175439811187
615,4.107072476171792,0.21032900857161752,-16.598554533427713,-0.02076454742764966
616,4.558286898428067,-0.02438450848965231,-16.53161990318023,0.49659645648690254
617,5.067468759860228,-0.2707655653258924,-16.39652084203282,1.0995508286712996
618,5.635350128790765,-0.5103232582713485,-16.22991596191336,1.7627439559614013
619,6.242944684693627,-0.7299017551299422,-16.06265340332887,2.458242863440429
620,6.866197414156267,-0.9190118990585774,-15.91951475200633,3.1543038138040584
621,7.487656584327916,-1.0665346188001656,-15.814319299197034,3.822396251885729
622,8.083173107696467,-1.160447897365053,-15.743922078434938,4.44556078081067
623,8.611575062152072,-1.189606615618235,-15.689443463592594,5.01916529472595
624,9.027355020071969,-1.1449845829905723,-15.623397499768613,5.5462063544955384
625,9.302091656460274,-1.018536664273123,-15.515608850178042,6.034898346646015
626,9.440156632251746,-0.8050673306115304,-15.336174875386163,6.4972043682792995
627,9.469943041563528,-0.5035402644040105,-15.063540750395182,6.943928815077285
628,9.421709667171541,-0.11362578530981987,-14.697263218243025,7.378461591989183
629,9.3232866837717,0.36245676154971296,-14.258125703169254,7.797622815643819
630,9.21884493984104,0.8954190627416352,-13.779990872478463,8.194182296462397
631,9.12346405605078,1.4930176637618913,-13.258169619988738,8.576508392184435
632,9.044220287310681,2.1371737328190084,-12.701294914970315,8.942700762975418
633,8.976537246763362,2.794895440567327,-12.128708601055447,9.282989543443522
634,8.911694941328532,3.427422654698087,-11.56932154260729,9.584255147692495
635,8.848407290459791,3.9984197111951554,-11.055100743938592,9.836191864434472
636,8.794004556006843,4.4817635913724265,-10.611785538206938,10.036557547139614
637,8.754136200256152,4.86509909497185,-10.25105788001383,10.190216958768064
638,8.722361390335644,5.147411572039931,-9.97153351850312,10.303162564868293
639,8.686146985253911,5.33637801674172,-9.767935086741293,10.379740868008362
640,-0.3720385940074927,-0.17548943474537684,-0.44550183807157556,-0.1460674913540198
641,-0.6984929779593461,-0.49373241559445485,-0.9203454820880276,-0.205498126082574
642,-1.1390973109177598,-0.9758148547660667,-1.6046565529435621,-0.27606643521799923
643,-1.68234547728794,-1.6273097047664833,-2.4989929635082238,-0.3788901344027754
644,-2.301476708988041,-2.437174787378001,-3.5827865289222496,-0.5449763456079154
645,-2.957321813566885,-3.376792674909483,-4.827651060063722,-0.805264642436013
646,-3.603484158607944,-4.403374706364211,-6.206113832164682,-1.1825073185511017
647,-4.193444823705629,-5.468972381622679,-7.693132806410222,-1.6895667649993598
648,-4.6892122311206315,-6.532553684211823,-9.269449812321964,-2.326446964093617
649,-5.071167955443748,-7.568117105724035,-10.930491966897272,-3.0745049766165007
650,-5.352290893048159,-8.569904602968045,-12.696722879354558,-3.900027283324144
651,-5.531093454752394,-9.528992337856717,-14.556447899615076,-4.750606562098356
652,-5.592278548876387,-10.440924666105383,-16.477497263240753,-5.568601257451006
653,-5.52257265083566,-11.303615365747763,-18.406518841743615,-6.301286484957283
654,-5.33714527247431,-12.11354791307592,-20.275159424338963,-6.913165004724589
655,-5.076391301975271,-12.861417495588908,-22.01484978738467,-7.402537442657093
656,-4.786590392794328,-13.535130845041223,-23.566851812786854,-7.794852784295087
657,-4.505640490986066,-14.130225616700711,-24.8810835237782,-8.113863059956506
658,-4.257123801866763,-14.650037174131613,-25.923681238352263,-8.374236623885938
659,-4.051897475029973,-15.099161712192648,-26.693677237825348,-8.587292470047553
660,-3.8911317469420634,-15.481508527711938,-27.224151983748065,-8.756656294200232
661,-3.7662243118972576,-15.799695829829943,-27.566013007418107,-8.875830491240158
662,-3.6570006286165215,-16.055996879288966,-27.76871168650917,-8.933382087644102
663,-3.537193539520038,-16.252831194907927,-27.86867975042758,-8.916457440407662
664,-3.3855187058529475,-16.390117613156008,-27.88866732558631,-8.810899159798502
665,-3.1915894784833645,-16.463148270756996,-27.840278759219075,-8.606853119185905
666,-2.954925962090957,-16.465567510945117,-27.725974606631905,-8.311755600841503
667,-2.6804089134243427,-16.396156778324258,-27.54376630813504,-7.953084910500087
668,-2.3808229839439954,-16.2617436953735,-27.291694792050272,-7.563986029252784
669,-2.0899724001722317,-16.074244876391393,-26.968940848195054,-7.170673682550351
670,-1.8582901253671538,-15.84763411652062,-26.58047050959732,-6.788118647140211
671,-1.719132116347872,-15.59647007976203,-26.140659649734978,-6.420088590687402
672,-1.6743952448722772,-15.333814688172405,-25.666078808585365,-6.062344626294646
673,-1.7102359437844585,-15.070043262978512,-25.16717710098875,-5.7057473648683175
674,-1.8045066803447811,-14.813167415807294,-24.648989997759813,-5.335993514213598
675,-1.930377422685157,-14.571120068331346,-24.116403134885942,-4.931327369058679
676,-2.0580174245095497,-14.353695665100204,-23.574572967479792,-4.469694043426392
677,-2.147898544213615,-14.170968311218916,-23.023344433268026,-3.9432374131650567
678,-2.160448055499452,-14.03215897153605,-22.452891890104766,-3.364393342928301
679,-2.0796699238126517,-13.94424561526239,-21.848469454887493,-2.7620875437044337
680,-1.9186818519345457,-13.908382400038883,-21.203938532506378,-2.175231230483004
681,-1.7049971078556174,-13.918965265958306,-20.529614407214776,-1.6470445639041393
682,-1.4695236261802076,-13.965961360428189,-19.844185983785547,-1.217834595051948
683,-1.24474385365026,-14.038873239190673,-19.1646674599526,-0.9127636054710515
684,-1.06217979562926,-14.12949405897094,-18.50624656441384,-0.7306016323971162
685,-0.9451354434141578,-14.230200247492283,-17.88235589178908,-0.6447072783107375
686,-0.8959374453147545,-14.331594128942973,-17.299357404689236,-0.6153687353470594
687,-0.8904770807691055,-14.422305338470737,-16.751146606581127,-0.6014839943720058
688,-0.8901673814361009,-14.489144605299119,-16.217868146329558,-0.5669920543743017
689,-0.8601559882334834,-14.517731112947892,-15.671893659049625,-0.4854500865814727
690,-0.779395689093891,-14.493368188939122,-15.085389625189388,-0.34305023071619184
691,-0.6401376820377991,-14.400679493321055,-14.435631063242768,-0.14024427158117259
692,-0.44333679723601466,-14.22260511167666,-13.710449173295027,0.10492150002088202
693,-0.1943737384034241,-13.94164727153583,-12.911930025567143,0.3600942560649751
694,0.09269212544705505,-13.54608293188854,-12.060139969800623,0.5941598078437054
695,0.39191704117744525,-13.035767478323066,-11.19096993346146,0.7913345330353747
696,0.681284395792634,-12.421864601764362,-10.341847817919271,0.9545833285819929
697,0.9540334437108345,-11.72501082511821,-9.5391958593884,1.0996871904496144
698,1.2087789985625506,-10.974628759100428,-8.794379695220476,1.2500752992829423
699,1.439654188296636,-10.203742352379978,-8.103552887310164,1.4345175733990734
700,1.6348107386692705,-9.439680250785695,-7.454810047590345,1.6770856295468874
701,1.7776173758958058,-8.698725435668274,-6.8382628565849695,1.9844624408942755
702,1.8541893024575486,-7.987845969278339,-6.254777787669881,2.3391604671578112
703,1.8633168759826733,-7.309171267601457,-5.72170981785997,2.7010155796161346
704,1.8076813208627733,-6.663031455153264,-5.2671319801125565,3.0174618762059633
705,1.6759346147757324,-6.051222973639529,-4.915060618444307,3.2331401875337047
706,1.4460956024047813,-5.477126698321627,-4.672170479658766,3.295502677776899
707,1.1017552287619492,-4.942497634787326,-4.5232297600836775,3.1618649937053886
708,0.6403018368875172,-4.448557983016709,-4.432619919272455,2.8081702967153004
709,0.06158607392223858,-3.9996960934532173,-4.3465858128424,2.2370090078006544
710,-0.6484168787032111,-3.603517448281843,-4.206795958576273,1.478832806863331
711,-1.5100769607455409,-3.2678716169003588,-3.9717035002138394,0.5806005572150039
712,-2.5250763981299875,-3.000407077655026,-3.625368112782656,-0.40874737694183993
713,-3.6621984445556426,-2.810107798486438,-3.1779328363024155,-1.4455504442112919
714,-4.870267612230489,-2.7040797892234543,-2.6628601126045797,-2.489432906235957
715,-6.097273937023676,-2.6807263516711473,-2.128195461681253,-3.4987738031159727
716,-7.297118516785703,-2.728430739535488,-1.6281264438662293,-4.438671312172615
717,-8.430663095967265,-2.83040301312398,-1.2118417203634932,-5.293656614769655
718,-9.464433214382122,-2.9678583056684134,-0.9073668263585315,-6.068200198703055
719,-10.378267956260899,-3.11944409819326,-0.7163473499407553,-6.775711655931148
720,-11.177880677788592,-3.260031618710669,-0.6254879827509279,-7.427177556506709
721,-11.88573803343627,-3.363464325995326,-0.6174151342303404,-8.029666328676015
722,-12.515295569094324,-3.4090731264193055,-0.6731036405192016,-8.587188499089322
723,-13.064057202550233,-3.3861376925685547,-0.7747551410539051,-9.09485098641547
724,-13.527213783386353,-3.2944894004534317,-0.9101567724273546,-9.53522916967801
725,-13.90242158383111,-3.140049589296142,-1.0698706221698648,-9.883899697990843
726,-14.183969705071652,-2.931243304905092,-1.2408600733612045,-10.11516450760715
727,-14.352994014952914,-2.680338113858791,-1.4032232013307657,-10.201271977589267
728,-14.378615541815755,-2.4017727862972484,-1.529274194154271,-10.115877891712831
729,-14.240443366734693,-2.1067562053092717,-1.5872213047253,-9.848648607353272
730,-13.946084135111072,-1.8003704232538047,-1.54738786053433,-9.417436884304465
731,-13.52420939000214,-1.4844543577924922,-1.386216040686026,-8.865266877940432
732,-13.001761876230926,-1.1617898032069924,-1.0906716641555438,-8.24737627847916
733,-12.394028711479768,-0.8363861745078794,-0.6645519199851367,-7.615853500230723
734,-11.71443999381387,-0.5114801930630377,-0.12988984682992802,-7.003777854286287
735,-10.985246346252925,-0.1880054076934271,0.479467570293754,-6.41707923197569
736,-10.237503857650323,0.13462557959305582,1.1261248775046462,-5.8457712905537305
737,-9.499917019692088,0.4558970759769244,1.778033129274046,-5.2822325738405596
738,-8.790623661912765,0.7734295373860021,2.41498875722192,-4.724617603573972
739,-8.117379993897085,1.0850722047933592,3.025940947322537,-4.1729050848633555
740,-7.485868570145416,1.388108823634838,3.604542760012126,-3.630210039653278
741,-6.9093524358887635,1.6744593870196154,4.1484721681118355,-3.1071800189489776
742,-6.405134598560201,1.929475675426829,4.656010466512184,-2.623323222861117
743,-5.984906923237208,2.1373977743262196,5.122210350449973,-2.206697576576704
744,-5.649931917650875,2.2887519877796083,5.542217325578423,-1.8965566408980135
745,-5.397937368530544,2.382241760039606,5.916057415405035,-1.7321552053240725
746,-5.23132763232758,2.4233238857047357,6.244970607885923,-1.7269657003091385
747,-5.151275845155497,2.4247439534919715,6.52159487971105,-1.86340655374844
748,-5.1520152514068975,2.4028024704052644,6.727862609939678,-2.1121411363016995
749,-5.222686838470167,2.370939876843516,6.843277548586892,-2.4499864104350313
750,-5.350268986327547,2.338116933512178,6.853499959362387,-2.8591695683542775
751,-5.520562277419868,2.309130430008902,6.755603514928964,-3.3121481046787387
752,-5.71741766232298,2.2835219721243933,6.560121614511018,-3.7738841583125344
753,-5.920443910997498,2.257283201339408,6.2908017068149285,-4.217813169871693
754,-6.101588168187385,2.2293662248126003,5.979909899527352,-4.6261668223131736
755,-6.236267436786823,2.2027677017554037,5.656359575057547,-4.988111192638258
756,-6.323328470423469,2.179687243046863,5.335933798198745,-5.304802926788528
757,-6.376662197588628,2.1612023061805603,5.024491025676884,-5.587390445067764
758,-6.436108933455769,2.138017816311399,4.72143474253919,-5.854421335604116
759,-6.427882032232649,2.1318364003610633,4.433772609679817,-6.1132534174132225
760,-6.316542885422281,2.1562537887108655,4.168887178293066,-6.362004706729782
761,-6.099777277038106,2.216178769945632,3.9293069038473436,-6.592677764436972
762,-5.794485916103086,2.3085608731106753,3.7119064412720846,-6.795662166107352
763,-5.422825581911133,2.4238151949749667,3.5134581875334407,-6.967763116087127
764,-5.009077841385592,2.547630601293526,3.3366651083026997,-7.110388894373358
765,-4.585369832607768,2.664793066702054,3.1907033644847087,-7.21857841735234
766,-4.190167702868114,2.764907438499372,3.085382617830066,-7.2823772315925765
767,-3.8589565816449096,2.843785417755515,3.025126503963976,-7.29984838989701
768,0.02213967242139589,-0.30653017390614096,-0.30315569592375147,-0.12905155872233523
769,-0.09594316384520962,-0.6829878519870993,-0.7262789798616711,-0.41909243118822925
770,-0.3273124032664957,-1.2265976102351166,-1.3589860507634361,-0.8669157430004629
771,-0.6910195017137586,-1.939463813876348,-2.2113125487841985,-1.466342144282095
772,-1.2028455635805306,-2.8075750999139806,-3.275982176110058,-2.191248472412292
773,-1.8723807969714317,-3.804658945957095,-4.5287356660617615,-3.0050105083504137
774,-2.69434091950353,-4.895193516665433,-5.9282378358947,-3.867260243541364
775,-3.645858576830827,-6.037416602325226,-7.421720596389998,-4.738491445571618
776,-4.693375120327228,-7.1899490836265345,-8.956609643384557,-5.585442126052911
777,-5.806203023425724,-8.321916664974811,-10.492733613904779,-6.387937359888659
778,-6.961599475134289,-9.425623347583215,-12.014910338705848,-7.1477990049662
779,-8.129946509384146,-10.483132351171085,-13.497727011237876,-7.872651634633088
780,-9.283783656769653,-11.477333582287631,-14.919000711258937,-8.573224988545915
781,-10.410944142864194,-12.393680553821035,-16.25970251626823,-9.260681074121447
782,-11.508185321814127,-13.224004172627264,-17.506181065411127,-9.944701623631993
783,-12.562584429503756,-13.967280983410731,-18.650917039266446,-10.626149062089073
784,-13.548971753152163,-14.62681078391123,-19.688545518069333,-11.291950396066794
785,-14.440020233122889,-15.20707717570783,-20.611804857889783,-11.918986424189358
786,-15.213949084277164,-15.712096493952059,-21.414638245545554,-12.485036469072913
787,-15.857407382614465,-16.144529312345192,-22.10004398956703,-12.976592134857565
788,-16.35733170649751,-16.503622729243865,-22.67878378244075,-13.392646970800165
789,-16.68957393449731,-16.785538787345274,-23.161192503760116,-13.744961742425444
790,-16.830815872370923,-16.986319378509883,-23.553860265462237,-14.050406753109382
791,-16.784328767726272,-17.103326859127428,-23.86267483970437,-14.322591901505671
792,-16.58379533170335,-17.13530589903657,-24.09463777487652,-14.571064458341402
793,-16.279820053276648,-17.083108153338546,-24.253250141563843,-14.80731029930628
794,-15.925202868269148,-16.95188976972241,-24.335282406562385,-15.049170570186156
795,-15.565235917696581,-16.753294189805022,-24.331209969801943,-15.316393369825182
796,-15.240114461762264,-16.502846159879795,-24.224541572409233,-15.620935337212574
797,-14.984702113598361,-16.21314525193924,-23.995167615581646,-15.956459776216903
798,-14.814926161957368,-15.891283905183787,-23.628956824342453,-16.295970953253544
799,-14.715576507977888,-15.539318456097448,-23.12445359640555,-16.597011046924532
800,-14.639743435946619,-15.156042576753084,-22.49305382164606,-16.804633698564857
801,-14.531858097609923,-14.741792952981474,-21.755904990942376,-16.869400400269434
802,-14.365553398683728,-14.302239471234685,-20.937148294763126,-16.778506794065216
803,-14.154371660295025,-13.851204513013728,-20.055742299779237,-16.555178006320375
804,-13.922777010933073,-13.409994603496639,-19.123056706470948,-16.235833908511836
805,-13.675659065203229,-12.999726757065112,-18.150677405980385,-15.859850275778435
806,-13.408577988000445,-12.632764628869095,-17.15625019621337,-15.456731095258391
807,-13.127575212783544,-12.315210091299482,-16.156418263008657,-15.039543382605684
808,-12.84847923735005,-12.059816599889823,-15.155377895478729,-14.623464146236932
809,-12.602174835346334,-11.890012755759761,-14.138895984588792,-14.243688371348856
810,-12.436730559417777,-11.829196403431466,-13.07947267685764,-13.948492563876128
811,-12.400998897427623,-11.892744369933894,-11.951628773585519,-13.77582625959246
812,-12.534216505209317,-12.09034102424444,-10.739173911369807,-13.748716861772387
813,-12.857588648494145,-12.428162818974803,-9.430855207927317,-13.884333506745724
814,-13.380616373121846,-12.907146098291927,-8.016158252255126,-14.21455403998211
815,-14.135433623678562,-13.522148197387136,-6.482239272813694,-14.818794409415634
816,-15.182160925533328,-14.25593488981482,-4.82744079130147,-15.81180179343273
817,-16.562338126878405,-15.06784736105,-3.088963227232892,-17.276665520600385
818,-18.242833737670075,-15.89436756574846,-1.3513679050898135,-19.19167389418746
819,-20.10526249845515,-16.67057245930467,0.2709098953246098,-21.42522534254415
820,-21.995461712136894,-17.36098223712054,1.6626021339336856,-23.802417037784966
821,-23.790381533430093,-17.967971427869497,2.759577420177828,-26.168326564815107
822,-25.430905164281473,-18.520243361191753,3.564688567469271,-28.406288047549303
823,-26.902135935746212,-19.060998227793377,4.043527113111096,-30.438237525472562
824,-28.191022938235328,-19.630247520913407,3.993905311382724,-32.22898529600757
825,-29.27336139365077,-20.253395674058744,3.0185564850738498,-33.7698924589111
826,-30.1420307356179,-20.954468719802108,0.5929785108812315,-35.074877371121055
827,-30.84504833340372,-21.776008998754023,-3.856860488674247,-36.19292288623186
828,-31.491942769312256,-22.77124360937309,-10.894960011489516,-37.196976307940545
829,-32.221410450621036,-23.977222597665357,-20.981091869041993,-38.18296508259416
830,-33.16117270651708,-25.39996230435818,-34.37078567504178,-39.27433931148266
831,-34.399508560562836,-27.018058082255223,-51.093316201887426,-40.58707210050072
832,-35.96458332578078,-28.79236282839586,-71.00011098061836,-42.177152193934276
833,-37.835926208871044,-30.67362460581604,-93.82357372219036,-44.03943597999201
834,-39.98734298472369,-32.615485126810576,-119.22217620493309,-46.16050597776222
835,-42.392349673329186,-34.58190974927929,-146.83401436456637,-48.539912387975235
836,-44.9917944765069,-36.531931111440976,-176.34250362072822,-51.154893340967924
837,-47.67938267293245,-38.40577978508518,-207.52486712285275,-53.91772413613035
838,-50.350192212847965,-40.13647786380003,-240.26178626687667,-56.70664579364543
839,-52.97340981135026,-41.678838560151256,-274.4891165179212,-59.43745116250615
840,-55.591695781592946,-43.01328428933002,-310.07066708768815,-62.074269873348875
841,-58.26293636133768,-44.11686272845054,-346.68453177033655,-64.6038764020297
842,-61.01763913749006,-44.96280850648141,-383.83943626304034,-67.02138526769646
843,-63.841994159027315,-45.544449363921714,-420.95475941292216,-69.32242217203893
844,-66.67269188161353,-45.86961529264079,-457.4142635885121,-71.49062847594496
845,-69.40864875484482,-45.9450174515331,-492.60669480986246,-73.49997572389229
846,-71.95384558024968,-45.782379838144614,-525.9979187992801,-75.32252250639367
847,-74.25915838841463,-45.40597474238898,-557.2068376323085,-76.91220031064277
848,-76.30531181099559,-44.84511283294346,-585.9961033694631,-78.19737010561757
849,-78.06529184151815,-44.12180911890953,-612.2009656752267,-79.09803540349179
850,-79.50449953640836,-43.2454775926586,-635.6906917719914,-79.53942654492819
851,-80.58987337827588,-42.21171615118307,-656.3696094121156,-79.4562628334532
852,-81.2804677731175,-40.998639863744906,-674.1872171700116,-78.79028847287044
853,-81.53930974770606,-39.57000477789229,-689.1460399268553,-77.51071574073258
854,-81.3511944744888,-37.89461654835022,-701.295133593776,-75.64355516541404
855,-80.69574917313112,-35.9642732103375,-710.7270574016494,-73.24735205999411
856,-79.51837462693913,-33.79282835780975,-717.5605424822772,-70.36729034795538
857,-77.75910717172042,-31.40796551787642,-721.899330717833,-67.03300460384229
858,-75.41656283574585,-28.847741347434052,-723.8383229223474,-63.28479778768621
859,-72.56172957206684,-26.152117067842283,-723.4668412802863,-59.18090382174805
860,-69.29756396839593,-23.343253419197374,-720.7995026648852,-54.79363040099409
861,-65.72559541956143,-20.427726955910654,-715.7152229679681,-50.198071849833184
862,-61.92870373179241,-17.415596317960237,-707.9413921434663,-45.44240529738213
863,-57.96340336935638,-14.322122362293715,-697.0806962992846,-40.53643732485179
864,-53.85474330364143,-11.167754356315259,-682.6836129840062,-35.47202536088406
865,-49.60197653616414,-7.975068041164064,-664.34278807403,-30.258753451293888
866,-45.199888639952306,-4.761835440818418,-641.796070205536,-24.94979869181119
867,-40.641353929773544,-1.5362009179605902,-614.9924123820542,-19.621344293775405
868,-35.91947985106969,1.7127184054018003,-584.082092288356,-14.340129723479869
869,-31.059401733996406,5.016556562939035,-549.3495763741289,-9.16539354767498
870,-26.130447918923075,8.41522095869811,-511.1286354883473,-4.156195995702705
871,-21.20012510715099,11.937641149827115,-469.74964621334254,0.644335294443621
872,-16.300137124128735,15.587122409407035,-425.5263416269012,5.2059314280679505
873,-11.453022576697641,19.33670557609623,-378.7368399638545,9.484112296011999
874,-6.702181757543218,23.131787141724118,-329.6150609807531,13.424805281622657
875,-2.1145305149241813,26.89879908271369,-278.36014567040354,16.977112011907916
876,2.243385655947648,30.562165704361824,-225.15657484770173,20.105754426809202
877,6.337959717141108,34.06370670384352,-170.2500468051415,22.82486584227905
878,10.170055152612568,37.36381425660891,-114.01483134538628,25.216630564891826
879,13.75780880298468,40.42911334121878,-56.94468661020444,27.396832930946605
880,17.135043501168905,43.23513911223305,0.38195572235212083,29.470659614188158
881,20.36031786078025,45.780927850788196,57.358563924545365,31.53236294109576
882,23.506268895655253,48.08286735087575,113.42140047030095,33.66465802570638
883,26.61765298095174,50.1509210918723,168.09780232793054,35.917543322656556
884,29.685359492305388,51.98209991733206,221.02917601641923,38.28875276646566
885,32.66885066201346,53.56186719526782,271.9468214699314,40.71775637958511
886,35.47247408585354,54.911525051079394,319.67959832189024,43.070002020773465
887,38.16383767204399,55.945034070059236,365.70756699591357,45.31973353914281
888,40.745434576859836,56.63143979289554,410.2424110969596,47.420172573687374
889,43.16174773123946,56.99224229067425,452.7130947203043,49.3230883877235
890,45.33241454452637,57.081728977627584,492.1555065183252,50.98789347707461
891,47.203756518744555,56.965100595494526,527.506060943608,52.39496853385348
892,48.76254615910511,56.710081684099514,557.8336219458182,53.55450979731211
893,50.01175151691957,56.38429718872099,582.5068725431943,54.494970600391866
894,50.953026384183765,56.045958979264064,601.2752505085945,55.23203651352965
895,51.59593799762816,55.73870206624595,614.2897684400175,55.75656145491334
896,0.10321593458685616,-0.0044895410550492565,3.6136180423412343,0.005263949885220956
897,0.2112733317872066,-0.09011688195156964,8.051258516043294,0.19938056447533842
898,0.33324864512728164,-0.24272932621270782,14.593980451028935,0.4810726136990492
899,0.45681362018050886,-0.4754825638389692,23.4352541896838,0.8204165599410996
900,0.566237314028526,-0.7971005753409115,34.64936461227932,1.1731080688199071
901,0.6461541481788092,-1.2114909274032342,48.187084772603285,1.4906421115943966
902,0.6928060930795648,-1.7138145375214986,63.85682807212375,1.7387667181739048
903,0.7125359002131774,-2.2920782008036484,81.33086515208385,1.9023066756585107
904,0.7043340078081651,-2.9338034144483554,100.20667448614158,1.9785757270164859
905,0.6559426008334545,-3.630483666408467,120.11188078051234,1.9780319764604883
906,0.5600672867307359,-4.381848748646911,140.89176725437255,1.9269627718310451
907,0.42651318671802285,-5.1952390740156345,162.2853965471331,1.861334084716955
908,0.2753974354082709,-6.078946672603831,184.14365490842238,1.8191225595415923
909,0.12778612829061817,-7.03395021484163,206.45890584251268,1.836261063210895
910,0.0005634763917735375,-8.047954719669132,229.3587248289409,1.9396345454022392
911,-0.08925718714818265,-9.092305130712106,253.0594490774469,2.141499961352731
912,-0.10860009757768282,-10.125715138152142,277.7981304600323,2.442555808078935
913,-0.012138897616908423,-11.100005108335914,303.77528107189505,2.8371346845751217
914,0.2356752377306786,-11.96513205011591,331.0932939784459,3.319469447920985
915,0.6519701043666131,-12.678080667498696,359.69514441354676,3.881964328812162
916,1.2368664669579414,-13.21552279830294,389.3370163215371,4.506177467227466
917,1.9751611050191096,-13.579743645280661,419.59731334786534,5.168206404223007
918,2.8451364081402812,-13.793241766742737,449.92066774629257,5.839406519219305
919,3.815703273999305,-13.892995554936672,479.7049999303549,6.471248339873795
920,4.833563213264378,-13.924070527688063,508.3980911808686,7.00638072388725
921,5.84583561618977,-13.924762639124484,535.5530694047827,7.413492445672479
922,6.8307625093841144,-13.91310763263295,560.8512733202422,7.697672810192837
923,7.7890416434086145,-13.884422612814891,584.0911067626738,7.888109881381757
924,8.723884915695491,-13.817326729654315,605.1327805076608,8.028655127271099
925,9.635149234811731,-13.683060414713779,623.8631601703939,8.165136387819205
926,10.524017306654669,-13.45372357139178,640.2030396754892,8.3256537285732
927,11.397574500521694,-13.110557248926805,654.1112003182307,8.514387424320779
928,12.262650726999414,-12.651410069766122,665.5704773719077,8.722442265522993
929,13.107054274505282,-12.09324964004434,674.5869009785205,8.932461446497786
930,13.88770362893632,-11.470427661227633,681.223583329655,9.116210399981671
931,14.548567113085355,-10.83203814973063,685.6118714541841,9.240501937574008
932,15.045445251107322,-10.231349968279261,687.9183696117423,9.273720556291037
933,15.34866629920751,-9.706286153204696,688.3052039838243,9.188533886515517
934,15.436005007750122,-9.274360133613305,686.8716077173435,8.969106011608147
935,15.289574143098642,-8.94391340170187,683.5975273279121,8.616269231197892
936,14.907713671742954,-8.718782741999563,678.3395383233028,8.148479738502047
937,14.328937886182704,-8.59562122638715,670.8765007808922,7.593568076382009
938,13.622644605403929,-8.566472921872798,660.9835147178757,6.970904702244419
939,12.842202331523591,-8.623441922806245,648.5011647234993,6.28899425733631
940,11.999934096729294,-8.754733550668254,633.3587448154813,5.554420586089636
941,11.086254057897053,-8.942615247671721,615.5598369350231,4.771366894284945
942,10.094034452073851,-9.171854951756183,595.1747595669628,3.937245134682798
943,9.024439219858909,-9.435258797632068,572.3461973010769,3.041937778922714
944,7.877109021673548,-9.73054965622691,547.2805510697349,2.0685747977830515
945,6.639286026595586,-10.054290294586199,520.2141666243269,0.9951689622995812
946,5.296331995974232,-10.398168978907592,491.3648757337866,-0.19955728007178541
947,3.852701043978851,-10.747273851044024,460.87885574874247,-1.5266737364687284
948,2.3363365921560773,-11.082112075387846,428.8152440744787,-2.983636945243823
949,0.7779245653343019,-11.384895677126963,395.19641503789654,-4.556813723219773
950,-0.8034047836614873,-11.646167689529879,360.05636366727504,-6.222585103468734
951,-2.388873481921765,-11.864719104872446,323.46669749904805,-7.950056531184619
952,-3.951840051363372,-12.03744374465063,285.56917599060154,-9.702875308281847
953,-5.460471172387253,-12.155267998868894,246.57620511547196,-11.439276546009388
954,-6.886026368020113,-12.20791781274258,206.73112819218034,-13.116487630629951
955,-8.205237822663122,-12.185884518873946,166.27389689926255,-14.692968578508074
956,-9.391033847400447,-12.082014801564828,125.43740928960615,-16.12718901749702
957,-10.409530035114841,-11.894970581275027,84.47137372068387,-17.383555465426273
958,-11.2332950806704,-11.628379610124727,43.664158536870374,-18.440884189333403
959,-11.859706099744166,-11.284906191849899,3.328906906714005,-19.29500727273823
960,-12.306345215657867,-10.86678922453647,-36.23696649227222,-19.956641132842552
961,-12.594744393915239,-10.382528549681092,-74.77664135837813,-20.44756677987501
962,-12.747488643818947,-9.84697067337829,-112.06995344893637,-20.79610609531467
963,-12.790375965828757,-9.276476901987191,-147.92963572446942,-21.03097660073767
964,-12.753184425540264,-8.687436366344523,-182.20284846706517,-21.175867347676892
965,-12.666693147571758,-8.097066366566679,-214.76283432473005,-21.246599009688584
966,-12.558553015964227,-7.522212235251615,-245.50306404140662,-21.24813109405075
967,-12.440373470886595,-6.977572150408889,-274.33536901263227,-21.170940881204185
968,-12.298176868926628,-6.476565228498659,-301.1837033789341,-20.992804816749338
969,-12.110928390737248,-6.034479784295348,-325.98281932362516,-20.687535296243556
970,-11.872590579104472,-5.669094384805856,-348.6864956202013,-20.23573332257886
971,-11.597564497907394,-5.394964516269541,-369.2769501295035,-19.63285741211777
972,-11.31031312887802,-5.216835545913642,-387.7681648756951,-18.892839033187904
973,-11.029801726223402,-5.12831553942467,-404.20885157029755,-18.047395877457653
974,-10.76566699791101,-5.114626841623274,-418.6794782294831,-17.139013126583723
975,-10.530258638451242,-5.1560865137683365,-431.276416438007,-16.21044801063682
976,-10.356321537376903,-5.230024529654375,-442.0972934730087,-15.302293224740906
977,-10.291779000703755,-5.313265796615003,-451.23816519888504,-14.450953028008865
978,-10.368103442560928,-5.387881605303379,-458.79701664759915,-13.677618223596912
979,-10.574650206347567,-5.447700426926063,-464.87524571738624,-12.983995056776635
980,-10.870209933992951,-5.502665940927729,-469.57992689164814,-12.358801647563196
981,-11.216606780850602,-5.577006181549699,-473.021752261183,-11.785619636112171
982,-11.58969808159441,-5.699411631214721,-475.31151547519556,-11.24952790404525
983,-11.970198157418483,-5.892284503485935,-476.5556275933654,-10.738462065281277
984,-12.342454875259765,-6.165940484535024,-476.84764281755827,-10.237312473301271
985,-12.704240712312478,-6.516000469635398,-476.2698289967151,-9.729650311249584
986,-13.065472044344004,-6.923466661531472,-474.8977994631519,-9.211487653067701
987,-13.434207894147269,-7.36093661206304,-472.8024395095041,-8.699037896825182
988,-13.80983394807704,-7.8017774665086925,-470.05336861059743,-8.22412156261471
989,-14.181085128587755,-8.226258401312577,-466.7207192544331,-7.823818360015419
990,-14.535962722896157,-8.623474177305773,-462.87419190258163,-7.525189317906054
991,-14.872780510818055,-8.989994247275584,-458.58059438364035,-7.332288418686439
992,-15.185941232333736,-9.327212562925139,-453.90200357367524,-7.2278203391603375
993,-15.448013034599414,-9.641192038195147,-448.888051443217,-7.185135272106802
994,-15.621391376104894,-9.944842468095112,-443.5659864643769,-7.1810649489140195
995,-15.69008808648968,-10.25221297531252,-437.9410369610804,-7.203808155413416
996,-15.673249701124204,-10.56604311857717,-432.01002483975697,-7.252164727741497
997,-15.612439534634538,-10.87262672357766,-425.77895039331975,-7.330923485343089
998,-15.546663076264966,-11.147992415814066,-419.27484433201204,-7.44859170565485
999,-15.496531347144554,-11.37047050499996,-412.55558865782274,-7.616972499131881
1000,-15.472120076931542,-11.52999979000461,-405.70281718786845,-7.852470837018549
1001,-15.484083977746158,-11.628167893519006,-398.7957235127623,-8.1767530557463
1002,-15.544462176482748,-11.671716149012724,-391.89389691138257,-8.60520378681605
1003,-15.658088466506344,-11.66569941005667,-385.0366609215847,-9.130125769806384
1004,-15.812373409562868,-11.611824770903619,-378.2466563109663,-9.722677087162237
1005,-15.985667713821048,-11.510239498987305,-371.53300505684666,-10.347425877741982
1006,-16.166684585200244,-11.358831079577747,-364.9012780971373,-10.969667713976081
1007,-16.35493046619638,-11.150753985119934,-358.3671011950832,-11.55845298798754
1008,-16.542935083764007,-10.874575404491123,-351.9596370441106,-12.095186701490679
1009,-16.711610440167625,-10.516612462195345,-345.7128688023521,-12.578563530496709
1010,-16.84684618733714,-10.06352597656729,-339.65850070964206,-13.014749593208533
1011,-16.95419910657713,-9.504455857263865,-333.8271511168411,-13.406271877867912
1012,-17.05532470440369,-8.836203982430874,-328.2433512374021,-13.751250068731858
1013,-17.17048679949043,-8.07144297246714,-322.91385864185526,-14.04531793667156
1014,-17.358315902296813,-7.26371981191828,-317.98728357130454,-14.274109810366
1015,-17.524782815674058,-6.408172526179966,-313.1700917808263,-14.440429780278162
1016,-17.614156490691595,-5.5240287238272066,-308.3486340866891,-14.55168087180242
1017,-17.60247670346195,-4.640695777517791,-303.5358790210563,-14.620258731917206
1018,-17.48090639402953,-3.792010170748288,-298.83561277860593,-14.659548497677305
1019,-17.251393996619893,-3.0134047765326044,-294.4059723848853,-14.681283636403746
1020,-16.932286354464186,-2.337311585603715,-290.41903090862525,-14.694189275729615
1021,-16.56033556804692,-1.7871141041127823,-287.0288539068839,-14.702232168875513
1022,-16.18161741878458,-1.371652210369474,-284.3455643265869,-14.706227586676965
1023,-15.834937516962826,-1.0854588500023654,-282.41246381597557,-14.709068121146862
1024,-0.039811867506835505,-0.5205261823234977,-0.027455401955349318,-0.5295572990479092
1025,-0.043250490966633436,-1.0344761543922978,0.08744190664774407,-1.06119973459269
1026,-0.007696166941748475,-1.7400134690344353,0.270723598608333,-1.7764222645210492
1027,0.06285756427567557,-2.6467222448476697,0.517064515316471,-2.6607372604031423
1028,0.1342056440764357,-3.753929435997644,0.8153742200822653,-3.6857373703807577
1029,0.15875600820223235,-5.0467019980370695,1.15048660061464,-4.815738344005809
1030,0.09241650491418849,-6.49476559871876,1.5053495468085336,-6.017477780982049
1031,-0.101461912671371,-8.05492407943286,1.8661184174780983,-7.267834119633483
1032,-0.46061185439462204,-9.67912142425288,2.222489716194536,-8.560301251726905
1033,-1.0296031607172176,-11.328534972304421,2.5657557991674733,-9.909014638407891
1034,-1.847217190737365,-12.99007137783666,2.8912444372200836,-11.356054159176525
1035,-2.933471086283266,-14.619208581760795,3.206810977887535,-12.91323262505453
1036,-4.288406335638008,-16.161966367614564,3.5273082367342035,-14.573526626205329
1037,-5.886456053751102,-17.566871358321784,3.8543602625759035,-16.304341828844976
1038,-7.670652563172669,-18.79534867898244,4.165059222156353,-18.05006615288406
1039,-9.557118172085325,-19.82781550060243,4.412388701299149,-19.745962958421437
1040,-11.448295310537137,-20.66377923746598,4.536408926277262,-21.32727802634666
1041,-13.25347039659098,-21.317257358552187,4.4865545574205274,-22.73644541735996
1042,-14.898200322150595,-21.810521616927133,4.23626681611583,-23.93250523873536
1043,-16.312656241663035,-22.165825302805164,3.7846154823815965,-24.900817453524432
1044,-17.42480931437969,-22.40139682165839,3.1520626728359358,-25.660937436234494
1045,-18.175985493404905,-22.534774562351018,2.3741991478045295,-26.25861144392579
1046,-18.544806951616394,-22.58441909482322,1.4944765904030157,-26.74754334791437
1047,-18.554685515119864,-22.56653972580248,0.5573541002063097,-27.172093689806967
1048,-18.256165501595486,-22.49433048362856,-0.3947326644617238,-27.558709000530477
1049,-17.69701159753792,-22.380454027314624,-1.3181866944183305,-27.917434429685894
1050,-16.906735729823186,-22.235811606016203,-2.1709821030115966,-28.24220267361442
1051,-15.90955465007404,-22.06472801049167,-2.9264433612447824,-28.509384246891912
1052,-14.745645135926514,-21.863829990549956,-3.5800456381023857,-28.679089334542244
1053,-13.476673192216198,-21.6253553196892,-4.145158772252985,-28.70508337476311
1054,-12.176387884727088,-21.340429515705516,-4.647743829840335,-28.552220279271495
1055,-10.916896875689165,-21.002556152889916,-5.116907497999915,-28.205412226697742
1056,-9.758824409581257,-20.61140490535741,-5.570259054268749,-27.666403751801315
1057,-8.74994386248151,-20.174355430943482,-6.011392561451066,-26.95105091743827
1058,-7.930263131567486,-19.704330153556025,-6.440307864210808,-26.090177468451696
1059,-7.335521520206331,-19.21656987896655,-6.852336122120361,-25.126897062388295
1060,-6.991422600725147,-18.72790691651678,-7.228565319568283,-24.107733678253677
1061,-6.90503047786125,-18.2550307085224,-7.535741905740753,-23.07223367108876
1062,-7.061963133717131,-17.80979901477455,-7.735394207465317,-22.0472358608524
1063,-7.431002942513797,-17.3954922733627,-7.795304958362507,-21.044934927429992
1064,-7.970105895229866,-17.006271841316238,-7.696782367509747,-20.063669133013406
1065,-8.628951789939066,-16.62929399545836,-7.437548972255257,-19.093152242578
1066,-9.356583125541645,-16.24612145777398,-7.034176075021017,-18.12120222424083
1067,-10.114030844487711,-15.835731870439698,-6.5195265750509295,-17.13956993782737
1068,-10.879704861743566,-15.383933901208882,-5.932898632547559,-16.152373341409774
1069,-11.645495180628172,-14.88996606886989,-5.3159137239214855,-15.182637438262065
1070,-12.407921879045656,-14.362380792821073,-4.711639604921497,-14.266000575809
1071,-13.163152274480376,-13.811899571972603,-4.152634067962907,-13.438055519205129
1072,-13.91778530637683,-13.249444565142902,-3.6488067700694824,-12.7261716929484
1073,-14.693910794128797,-12.687505155427575,-3.1928496409765263,-12.14749694537086
1074,-15.513526732826353,-12.13998990516394,-2.7766094702801003,-11.70532484714325
1075,-16.381292296711155,-11.619542265956884,-2.4074769710453077,-11.37965609531788
1076,-17.273999797798893,-11.133912637542188,-2.1153607539027166,-11.12509819664311
1077,-18.147267524885642,-10.684171186529614,-1.9434401768561589,-10.883268148893514
1078,-18.951206127468385,-10.266265459116706,-1.9309517531259246,-10.60082260043033
1079,-19.636864450835272,-9.874910805120777,-2.095485379357274,-10.243201099746813
1080,-20.16147804142755,-9.506652382019558,-2.424579682685745,-9.805547473061262
1081,-20.499136434185484,-9.161849990912726,-2.8842036574481904,-9.314524230807939
1082,-20.657521058015995,-8.84578712216042,-3.4301367307785404,-8.81238254711032
1083,-20.6855007612919,-8.56722839199888,-4.010000374088476,-8.340507486892784
1084,-20.645102728983037,-8.335982589899011,-4.565573431373726,-7.9281531374010585
1085,-20.570122268510104,-8.158372468025231,-5.03999035608895,-7.580972501711712
1086,-20.45795618492341,-8.031964889711526,-5.386022268291735,-7.281417049808019
1087,-20.2934270730334,-7.945836983572125,-5.578171021395635,-7.003464337963115
1088,-20.072345672920886,-7.884070513950955,-5.62670540916682,-6.7259709208994805
1089,-19.800642359858813,-7.827223262289664,-5.581246449369812,-6.437412391422005
1090,-19.47509060558072,-7.7526563634831245,-5.515959555781058,-6.139619937626294
1091,-19.07561917828308,-7.636558177291656,-5.503455449946567,-5.848210055556339
1092,-18.578476619909264,-7.457995525475812,-5.590744914140426,-5.587036416578624
1093,-17.971218800951764,-7.20290192416054,-5.789629968575272,-5.381403955239675
1094,-17.25472627804723,-6.865371807780357,-6.085079291993846,-5.248976081884983
1095,-16.435725995851765,-6.446396142604317,-6.446183750078758,-5.1921217984727415
1096,-15.522700849892914,-5.9525999432346035,-6.832563525623502,-5.1957088157790405
1097,-14.52647745366443,-5.394707215160519,-7.20095858639353,-5.2240204757831865
1098,-13.460204728968206,-4.784914564820944,-7.51303301860525,-5.21841648836366
1099,-12.337689858160951,-4.1331283085777155,-7.746032645806342,-5.115181750096226
1100,-11.168892884209866,-3.44506209912534,-7.8992987717837915,-4.876363635917531
1101,-9.960668174947424,-2.7254252001902617,-7.991923536011529,-4.499105795231817
1102,-8.726446558149043,-1.9808992604266837,-8.056382113144444,-4.006762720264979
1103,-7.488775539034299,-1.2199839913955142,-8.130090212853338,-3.4354305982266986
1104,-6.272158562862173,-0.4534886524119346,-8.242839443634672,-2.82007436601689
1105,-5.097467222833903,0.3040664171660345,-8.404489091413335,-2.195044435181042
1106,-3.9785195450312285,1.0348073434152438,-8.603711174950872,-1.5931397852628433
1107,-2.921585630425836,1.7182877183591891,-8.815520550972286,-1.0299597583048798
1108,-1.9319781641349663,2.33170990928278,-9.005966292297762,-0.4994735325646087
1109,-1.0213918508884714,2.852687688250418,-9.134243544339235,0.015391357458602845
1110,-0.20798803674354271,3.2626478623847452,-9.156747120497387,0.5355772015096825
1111,0.4901670079567911,3.549078291689313,-9.039073206768807,1.0811751303695487
1112,1.0655725784337402,3.7087516317862326,-8.776139959743094,1.665687738353936
1113,1.5208804625869774,3.7503863126839696,-8.40155651192155,2.292401701611145
1114,1.8600504395174944,3.6926848654203153,-7.969946734323168,2.94889835267053
1115,2.090560975837414,3.5582341707342735,-7.5288633035264985,3.6014778413940527
1116,2.2309409556946482,3.3683415174651956,-7.109545987447876,4.206481229512538
1117,2.3095625976337795,3.1410024022769014,-6.735366214407787,4.733723806054967
1118,2.3529262894058363,2.8909893552724095,-6.427496719440797,5.169554162608517
1119,2.3678505299404806,2.6298889820548075,-6.198726933009977,5.502798310786016
1120,2.335486256526902,2.3633250943372413,-6.048083718328376,5.722009328418794
1121,2.230596034564119,2.0898562849900375,-5.963654863503079,5.823217290205153
1122,2.0379669893582864,1.8049315646424062,-5.9260082855867,5.81786180370316
1123,1.7518334526336632,1.5048161553612098,-5.910404398843933,5.726757680440956
1124,1.377380711480052,1.190053360124745,-5.889388479205519,5.561547227528742
1125,0.9391916937513487,0.8687871770107052,-5.839795389072631,5.323661016078706
1126,0.4891843818155728,0.5548679003084181,-5.751727774137512,5.015925366760496
1127,0.10040243965126136,0.2621472498210045,-5.630413819763445,4.642294737959482
1128,-0.1520527164258583,0.001962504077048061,-5.48843538463666,4.209691494431409
1129,-0.2078425450892309,-0.21740721942774316,-5.332673201299494,3.7393672340591317
1130,-0.02902946019285485,-0.3915717955925338,-5.161675310861129,3.267559355580675
1131,0.40906983793826,-0.5186488205072145,-4.98032259099592,2.8334243548411053
1132,1.1252268736597042,-0.5967583764277428,-4.811098804522125,2.467020894557577
1133,2.1152865413054593,-0.6248404752411407,-4.683785802212236,2.1834475435786844
1134,3.337435949182484,-0.6051973660710473,-4.616342158601226,1.981993158458126
1135,4.719728398593766,-0.5426238261473824,-4.608920633861724,1.849640512561299
1136,6.1792047535811285,-0.44084893369654776,-4.646990242123312,1.764773501292213
1137,7.64175523567256,-0.30163027566172473,-4.703167112976214,1.6992051576467626
1138,9.045746414153548,-0.12773629928119085,-4.739208306836356,1.6249455156048638
1139,10.330317371333042,0.07623147414811136,-4.710455803343542,1.5243055114574067
1140,11.43291855078282,0.3056570187676834,-4.571667667033831,1.3998123772171924
1141,12.301860321928622,0.5566065457885767,-4.292181620631101,1.2784694651856463
1142,12.93996339503923,0.8079241293286487,-3.9242781795884967,1.1581691734174149
1143,13.305116662124567,1.076619716453862,-3.420751106007202,1.1352857469062227
1144,13.4013859876778,1.3669519373325676,-2.7805237475343505,1.2649868454567748
1145,13.269621458622153,1.6744929186774293,-2.034824008011712,1.5642983054534105
1146,12.975613798862339,1.9884959918850722,-1.235167575753972,2.011009227351464
1147,12.595984517930233,2.2948709773591203,-0.44166392628646267,2.5524057748431104
1148,12.20200356606315,2.579201018574976,0.28990167453297616,3.1259687183241747
1149,11.841533955315917,2.8287145809274326,0.9176855594434579,3.675591769289294
1150,11.536611608654058,3.0336619695532767,1.4160528957675873,4.155797437102062
1151,11.298909240843885,3.188111491469218,1.7765536314441743,4.531131409980739
1152,-0.06700603431314697,-0.269498873004528,0.5201512318359818,-0.43864390165520434
1153,-0.3295417409609931,-0.6098117151609878,1.0368628094595558,-0.9377890097186798
1154,-0.7450321650388487,-1.0970877117761568,1.7294395791254156,-1.6380409003283383
1155,-1.3219582990572212,-1.7329208205186406,2.5739165037371596,-2.5270701363661185
1156,-2.0609918141629775,-2.5088012145547594,3.523788323025746,-3.576970614834913
1157,-2.9536443982015537,-3.4071489372235257,4.5161737034569684,-4.75131277512144
1158,-3.980399727109113,-4.403093687401882,5.481950238871218,-6.0094993975293685
1159,-5.116027117740648,-5.467932330083659,6.357211465993276,-7.309071671082756
1160,-6.340643336170908,-6.5746124042618295,7.092930198909787,-8.61385697242344
1161,-7.644121009511788,-7.705660791458049,7.6649136432870195,-9.907617436460917
1162,-9.025777772183757,-8.863777846657783,8.088025878514072,-11.208175149863107
1163,-10.477509542166514,-10.042077321243777,8.35852923136453,-12.514645626501773
1164,-11.987323634581822,-11.23224197613476,8.467304974476274,-13.819511098068363
1165,-13.53671778289142,-12.424323982063019,8.400710721886128,-15.114141106801902
1166,-15.090696537654134,-13.606816694914368,8.143954052878986,-16.395051964176563
1167,-16.59868046879474,-14.767419919604777,7.685876297589067,-17.65585194724643
1168,-18.006361308510993,-15.893355902506258,7.021820212081432,-18.87418996474473
1169,-19.271674256875812,-16.971290328423017,6.154570429172268,-20.016378335699503
1170,-20.379470199275755,-17.988443999919742,5.099000318940263,-21.05629840017428
1171,-21.33606689012434,-18.93248201930668,3.8890375777511847,-21.979152993069984
1172,-22.1516180520705,-19.78920163087247,2.5785425015868673,-22.775473006702292
1173,-22.83567035838754,-20.54249961618613,1.2344805168781439,-23.44771633268787
1174,-23.40244631077669,-21.177307448698187,-0.07001892680116839,-24.00917559154616
1175,-23.871835703731247,-21.681968837966323,-1.2606180530766184,-24.472671201549737
1176,-24.26484588202748,-22.049539927237905,-2.273683585062504,-24.850092763280294
1177,-24.595979640607165,-22.27884520077303,-3.071514282289243,-25.15351886161155
1178,-24.87128337111339,-22.377792304038064,-3.6448235017814725,-25.391660247072796
1179,-25.09696816646331,-22.366832238592984,-4.005300065380226,-25.569971134142556
1180,-25.29040132357197,-22.276826743960914,-4.183036469571769,-25.69252851618392
1181,-25.48409348329632,-22.14231496228252,-4.225731126591503,-25.76153692454886
1182,-25.711347988176048,-21.993617047938958,-4.193348105137278,-25.775790067401996
1183,-25.984857293351286,-21.852422678195985,-4.145418529381684,-25.734000140191238
1184,-26.29544624012082,-21.73115996197117,-4.124549438065774,-25.64177625793735
1185,-26.624609985910173,-21.63303242689592,-4.152953177476514,-25.510535341861885
1186,-26.94923119991058,-21.553735373080837,-4.240706150084521,-25.352239213135814
1187,-27.236725096279457,-21.484357052110923,-4.3935795705589875,-25.1795682182304
1188,-27.44669524105277,-21.41464494979555,-4.615993416544684,-25.007004492376538
1189,-27.54604908233094,-21.3348261332733,-4.909683338842493,-24.848353797187933
1190,-27.519282845244433,-21.235517996000507,-5.272996979505116,-24.710241622375502
1191,-27.371344444655644,-21.10998980219621,-5.699946107730316,-24.592442300956858
1192,-27.12942449684825,-20.957523894240264,-6.178057962211401,-24.498467705938044
1193,-26.83190157921226,-20.78314328450087,-6.689726757320853,-24.43522780153859
1194,-26.51114833913965,-20.59665008221064,-7.217403233362544,-24.400965894189238
1195,-26.182781055122273,-20.41188880444249,-7.75090515038237,-24.38024253830177
1196,-25.837558326828763,-20.241255159452635,-8.29041301915354,-24.349543369624772
1197,-25.434833301351198,-20.093106586552764,-8.837667119117468,-24.286132885449923
1198,-24.906964876876266,-19.97477133960822,-9.385785233010031,-24.173665416430538
1199,-24.1802975912369,-19.89137393009704,-9.920672631524614,-24.003729965282538
1200,-23.199064387450107,-19.84114962175595,-10.427729031923672,-23.775357703349563
1201,-21.930516520815697,-19.81246948144628,-10.895928057366953,-23.494904033755006
1202,-20.361329587824084,-19.78511771584106,-11.320202878548232,-23.17504442211898
1203,-18.49784568895895,-19.733800407133423,-11.700998456165701,-22.83035463342991
1204,-16.3594411805696,-19.631511567209678,-12.041658671205342,-22.46831982841495
1205,-13.983072617943911,-19.45342441612601,-12.346291769577833,-22.07897665902813
1206,-11.435205331321608,-19.181765840884438,-12.618754159399986,-21.633214689237363
1207,-8.799542706976531,-18.810111129011617,-12.86724987411685,-21.09238379646416
1208,-6.154576971443413,-18.34387304354687,-13.104267721024888,-20.420372546340598
1209,-3.563869067947931,-17.797708763970146,-13.333394544185175,-19.59076137198272
1210,-1.080353304742937,-17.192367865957234,-13.545547725312481,-18.591747525522745
1211,1.241919346357733,-16.548860682695533,-13.730147283661427,-17.431468368684577
1212,3.3422935366854767,-15.880543410232566,-13.88745522902167,-16.139047869904967
1213,5.166277683143917,-15.191350631974556,-14.028759960723141,-14.756806892946397
1214,6.68864007310411,-14.480771016273783,-14.163521203037007,-13.327675994310669
1215,7.915151681028841,-13.747478832449694,-14.294304187855767,-11.888268308694046
1216,8.864937853400354,-12.990889349234758,-14.421763208913667,-10.468228349472406
1217,9.565671457700336,-12.213676375095377,-14.550895990067138,-9.090332966953772
1218,10.056952112459475,-11.422780536093917,-14.69207865954116,-7.7684413810897865
1219,10.387464655997281,-10.62645740200309,-14.853698569711115,-6.507099667799362
1220,10.606854093686087,-9.830819889161235,-15.03248411340651,-5.307369317112821
1221,10.753194369359926,-9.0388510011996,-15.210282714971749,-4.169829439859087
1222,10.85443017500784,-8.250235770257339,-15.36024250893244,-3.0926052041419716
1223,10.94557150827987,-7.462198305255192,-15.457685839770804,-2.072148201739271
1224,11.065718123963572,-6.671174153208976,-15.49042984808481,-1.1040729453492266
1225,11.24052866672628,-5.872996081315073,-15.464697672994593,-0.18158016413759245
1226,11.480092007578847,-5.063952002967667,-15.40913563022935,0.7043114134844275
1227,11.784063894695057,-4.244631218830347,-15.363597628168566,1.561708991334601
1228,12.150233939527102,-3.4219136230781646,-15.35151443915622,2.396080249095925
1229,12.5878182067276,-2.6072510045641186,-15.370837173819568,3.2110166881249818
1230,13.107560428832798,-1.8134004369204615,-15.409267618436974,4.008129464015076
1231,13.693758212570856,-1.0505451121495377,-15.460206834827494,4.786853146007198
1232,14.303088060404592,-0.322214111829326,-15.524620205348855,5.5466222817422
1233,14.89181277333183,0.37565806665326407,-15.602238491507423,6.287321281464099
1234,15.428940678563183,1.0512985354070405,-15.6869355338684,7.0069254073147675
1235,15.887118312561526,1.7147785388112837,-15.766928941858245,7.701785486586502
1236,16.237387750837794,2.375324557824752,-15.82536986839076,8.369152173431695
1237,16.448985307584426,3.0361809130657003,-15.843071505393578,9.009351490901452
1238,16.496062395606497,3.692313751412607,-15.805837699007705,9.623382458353552
1239,16.372042936772573,4.331937297744956,-15.711495652218453,10.206831115886155
1240,16.09214367677073,4.940076674939437,-15.566521946828583,10.750346947904674
1241,15.681859612440123,5.5021933508372705,-15.37667231997391,11.245153381034399
1242,15.166872605375266,6.005617190043408,-15.141097908857093,11.686760323697463
1243,14.572672557966737,6.440681852798093,-14.849772022778268,12.077703543053738
1244,13.930457848511733,6.802781671517896,-14.487534255014449,12.426059757349087
1245,13.277408522068361,7.091351460834868,-14.045978376255805,12.738219392664218
1246,12.644186799110885,7.30771809931524,-13.535170673026524,13.01543983563585
1247,12.04979344546123,7.456933255368874,-12.985623573890738,13.257934872167086
1248,11.51232891755134,7.548666039433769,-12.439080845401117,13.469863814520224
1249,11.04986999637625,7.593615041315708,-11.937170599412553,13.657812034634441
1250,10.672856742602313,7.600234975708627,-11.513387690255987,13.826701871349018
1251,10.375110522737602,7.573666806033944,-11.188620050443161,13.981289786585128
1252,10.124601945234653,7.515061898636521,-10.967832227301137,14.126634201124158
1253,9.879225821617535,7.422590272837416,-10.838537056521476,14.2644235548472
1254,9.615070583213585,7.295346840030355,-10.777344573328266,14.39344303425919
1255,9.334126205013233,7.135982406818515,-10.760866298565965,14.514284843721029
1256,9.047465233073384,6.94827120547446,-10.764581600150729,14.634889202141942
1257,8.758295475045644,6.7334995435184135,-10.754723889746792,14.76630486521816
1258,8.471644645180529,6.490494276160194,-10.696018032839273,14.907320183588588
1259,8.208861665099567,6.218032737937325,-10.570851228239201,15.04410166278061
1260,8.00197535728774,5.917074271989126,-10.390623581213069,15.16698576841875
1261,7.875818448241054,5.591778438592722,-10.191024921936549,15.282942489747636
1262,7.8353826158307,5.250411913088929,-10.01136995487026,15.413268666296815
1263,7.870090012881886,4.9047926881449815,-9.873479829499876,15.577897762735322
1264,7.964003615826612,4.563888304940632,-9.77636124690617,15.782155765751765
1265,8.099064250934992,4.226946295581285,-9.701911166269328,16.017580879480676
1266,8.256004996972672,3.884880599388237,-9.621567334777849,16.271952753895413
1267,8.419489474427287,3.525325681081844,-9.502405227223836,16.53462697335184
1268,8.58533440405331,3.1354583981526356,-9.314788408213026,16.791248864546226
1269,8.766569859339256,2.7054130258199156,-9.04099101556387,17.021578655591586
1270,8.96544825890737,2.2358864283650846,-8.677436516444041,17.19549376605485
1271,9.220518264381866,1.7162058165264082,-8.23120270520865,17.31305993868571
1272,9.53013632570292,1.1542567021164563,-7.723376308207487,17.3765610097654
1273,9.87878184290869,0.5716891142889395,-7.1862236967006226,17.391954237066095
1274,10.256068899229271,4.618205919022789e-06,-6.665342149852522,17.372019441131435
1275,10.654136528698096,-0.5258867433942863,-6.209662675022204,17.34091490813541
1276,11.052429358464208,-0.9752916052478996,-5.851048260727455,17.32639228619539
1277,11.418385802772054,-1.327612532114077,-5.597005470447152,17.33970555342482
1278,11.722391288296805,-1.5756552990991666,-5.437045019265247,17.371893691573224
1279,11.948291737237454,-1.7259347127986537,-5.3515419202108365,17.408956666855467
1280,0.009184511228724945,-0.4971752550777605,-0.42212095441850833,-0.19157533546109828
1281,0.01620325173271637,-1.1337569890849286,-0.9782065329681195,-0.36094974324926077
1282,0.021856837614904978,-2.0695438296007636,-1.8003017313228427,-0.5954708783376845
1283,0.011892081470236987,-3.3208487538718034,-2.913583422953619,-0.8992232762526495
1284,-0.03467105875698798,-4.879624867447621,-4.32755119926973,-1.2689086760861854
1285,-0.1349268033409655,-6.712460741425915,-6.033832560413907,-1.6972215504794872
1286,-0.29779264514080217,-8.763050825558537,-8.008388500029453,-2.1735423093864594
1287,-0.5275051704095717,-10.959606778995154,-10.213681969352399,-2.683367050583103
1288,-0.8253510864095652,-13.227671700067779,-12.604185850626099,-3.210886081429496
1289,-1.1881906359842986,-15.507514406957135,-15.139480976784606,-3.7411744532301268
1290,-1.6036462982127815,-17.77675782730528,-17.79659170736168,-4.261593569518673
1291,-2.0415352953347536,-19.995058688434927,-20.513541176201958,-4.7433123605781
1292,-2.4600471855923356,-22.123150117606585,-23.207694980730704,-5.156560705848931
1293,-2.8262416906443564,-24.127252896365338,-25.79126496039668,-5.478276876008207
1294,-3.122248190463125,-25.986563069685005,-28.189257108413095,-5.694616089510378
1295,-3.3334489479031078,-27.692349649942557,-30.352115145823824,-5.806526042803822
1296,-3.4386704008365827,-29.242286129393804,-32.25692048985987,-5.838405460110393
1297,-3.421569838209916,-30.638426327417367,-33.90242274046156,-5.827254264939448
1298,-3.289259629327741,-31.887427921383278,-35.30368167857342,-5.797783778732271
1299,-3.0634333269162,-32.99836498906418,-36.483768224846784,-5.757162156449556
1300,-2.7589125388639384,-33.97813237040025,-37.46585990463123,-5.705028654481358
1301,-2.3854063869057,-34.83040154065375,-38.27175772239437,-5.635442499477326
1302,-1.9627016716051873,-35.55867508906113,-38.92044073878576,-5.531609602987252
1303,-1.521173985030027,-36.16755631618726,-39.42258026736389,-5.370936240440082
1304,-1.090105400528489,-36.66170113231359,-39.779859853844734,-5.141632285231624
1305,-0.6884727083396501,-37.04539343281117,-39.988124773189554,-4.844396803808292
1306,-0.32149113107872784,-37.32248712902723,-40.039679994743466,-4.48091766153361
1307,0.015729682836640113,-37.495831015187484,-39.93183439830776,-4.053966541733263
1308,0.3244631630009877,-37.56880997604297,-39.67879779520505,-3.5767828347417154
1309,0.5918084608854706,-37.54889556493445,-39.30919208499836,-3.078163926021759
1310,0.8082520299561136,-37.44617650837839,-38.851774786135564,-2.5938834962254163
1311,0.9847829134221306,-37.266188245881104,-38.329614668612464,-2.151276689531394
1312,1.1390774663439933,-37.00845182977353,-37.76035571981086,-1.757284619110741
1313,1.2820155427389341,-36.672515027269476,-37.158132178224946,-1.388705146611896
1314,1.42304514529145,-36.25977133761574,-36.53650545235043,-1.0063274509105615
1315,1.5803971044208271,-35.77119577529613,-35.90715656726498,-0.5899242086664576
1316,1.7736665305759116,-35.209046971312134,-35.27950457347709,-0.1484126891577931
1317,2.003913392506783,-34.58003340906297,-34.66190650923617,0.29521921692801273
1318,2.255712189324892,-33.89283646382507,-34.058256850444195,0.7220249896249242
1319,2.5152832850476314,-33.15325452329455,-33.462689966184776,1.1310938377061772
1320,2.773867013084752,-32.36581053689016,-32.85890420250487,1.5339726951543597
1321,3.019666367771093,-31.53838097424322,-32.22478209679602,1.9386512534522968
1322,3.2344862381263906,-30.683476137242668,-31.541995200135904,2.340368338625802
1323,3.3954909353917766,-29.817924557616383,-30.80594118736569,2.7175968889385618
1324,3.4821009105864458,-28.962362696148336,-30.026112425281035,3.0383229697188407
1325,3.4862312564195035,-28.13932244984468,-29.216882633276565,3.2675460719763834
1326,3.420155434427459,-27.367251790418557,-28.38816709945526,3.381955708957711
1327,3.3102555385568704,-26.656912919772992,-27.543980124863907,3.389801862637608
1328,3.1766551674590393,-26.013492687799868,-26.687052692664817,3.31301840433327
1329,3.030537890356211,-25.436327964506493,-25.824695111338222,3.157373705978001
1330,2.883668470117471,-24.91928297741224,-24.97078355871411,2.9130155412969345
1331,2.7443497120201656,-24.454982648106032,-24.138796045112475,2.5669565231027773
1332,2.6133061889401605,-24.038501191643867,-23.333927780602743,2.114048431435203
1333,2.4847331700316473,-23.669107403684187,-22.554006211907755,1.5624394594945747
1334,2.3459766541666616,-23.35071886838267,-21.78530122486207,0.9291220305321382
1335,2.1782861973565764,-23.092186806795446,-20.994426913264526,0.2281343249209595
1336,1.9560050950489505,-22.907589903999636,-20.146351557542253,-0.5391132627627497
1337,1.6521180569299472,-22.81344341142084,-19.21890073731,-1.3730638493509082
1338,1.2464091546991884,-22.82406123994057,-18.190638347428802,-2.257228816624907
1339,0.7227497308082349,-22.94842765207765,-17.047078604535542,-3.1602279701928033
1340,0.06998522476041014,-23.188787084155294,-15.795046014263907,-4.043327679867301
1341,-0.7104027131727617,-23.541236141592076,-14.466764327310681,-4.869898734445188
1342,-1.608387688319757,-23.997838605265258,-13.130993771000846,-5.6249643223184
1343,-2.623785728534437,-24.543536452098206,-11.889243374919289,-6.323788666997546
1344,-3.7685246923827256,-25.150413641104453,-10.854662578271984,-7.0094645459661145
1345,-5.047509157190237,-25.783620541823545,-10.129858601122342,-7.738561410081539
1346,-6.449386976651123,-26.412761164534725,-9.78542012203349,-8.556311797587844
1347,-7.943595134442457,-27.016703729217678,-9.857101415079203,-9.488233498716928
1348,-9.473832952871417,-27.581282112270372,-10.37056254283171,-10.540675827032883
1349,-10.975599193321946,-28.103866899210477,-11.376194996248199,-11.694984641616966
1350,-12.408990772631507,-28.604093184449283,-12.988249527234117,-12.914404564701464
1351,-13.764659471265384,-29.11733291670202,-15.436946693739063,-14.167799877598444
1352,-15.049676506392691,-29.676856293972172,-19.085591402061535,-15.432173342981066
1353,-16.27651392670076,-30.3037248606122,-24.36139832984263,-16.673814521916725
1354,-17.462221584500877,-31.003729390162718,-31.641272568332667,-17.85401385050484
1355,-18.62966815146486,-31.76376525545303,-41.148846842516434,-18.95307289394455
1356,-19.79158456596462,-32.54694741092605,-52.88301635584725,-19.976135889610003
1357,-20.946335429557475,-33.295946613538,-66.60546237466414,-20.93782967853551
1358,-22.10364890359039,-33.94466933736673,-81.89203957368629,-21.8550386685155
1359,-23.289251412594005,-34.4268220609811,-98.2217673602528,-22.755477192152785
1360,-24.521036813990808,-34.68382790475388,-115.04776989594592,-23.687156242324225
1361,-25.79543189729938,-34.67554819106876,-131.8283018311649,-24.70629949236515
1362,-27.086823367793297,-34.38204448631009,-148.09808798497207,-25.83259052961066
1363,-28.355398517170066,-33.798472076411926,-163.5627926845918,-27.021206299130327
1364,-29.570133831614985,-32.928129180697944,-178.13766379597945,-28.191131543920502
1365,-30.709963631764772,-31.763914690246725,-191.95922874704956,-29.2699775208674
1366,-31.728206208190667,-30.29449103782297,-205.3510393956075,-30.201056407209386
1367,-32.53309815382546,-28.538323447998458,-218.71194087604817,-30.92507126143387
1368,-33.012897121335556,-26.55456128785576,-232.39316693966197,-31.36971529326624
1369,-33.07779968013483,-24.42641194672793,-246.63637222569352,-31.458785944055037
1370,-32.680797419817594,-22.22978440177712,-261.60142670447595,-31.13364291948726
1371,-31.817664684891547,-20.01613251409991,-277.4250607248814,-30.36999006647129
1372,-30.526540848217063,-17.819845259203333,-294.243482455873,-29.19250409958295
1373,-28.889827005192252,-15.664785336575278,-312.1797229941707,-27.66624339150154
1374,-27.012597318306934,-13.561243184199705,-331.29475956370857,-25.854523439648062
1375,-24.985744972259504,-11.500583339277371,-351.54108782191975,-23.80569433921633
1376,-22.884264549299054,-9.45722684966879,-372.7603876192825,-21.56904979411398
1377,-20.774522739146885,-7.396885316348428,-394.7118422240223,-19.196031462345484
1378,-18.689259417066026,-5.286236900108701,-417.1327126597169,-16.746764835400228
1379,-16.630611584324576,-3.1099316804066843,-439.76548586845854,-14.296891136709291
1380,-14.603113866239148,-0.8868948333760365,-462.3108152609101,-11.917833127468832
1381,-12.60731628563266,1.328011750745402,-484.42035057191265,-9.648687433693604
1382,-10.629891162663677,3.4570985056958525,-505.7423736673465,-7.4819449416779875
1383,-8.660073506344968,5.438227320136532,-525.9502970202496,-5.369034191086342
1384,-6.70030796014547,7.270564244373102,-544.7671567938705,-3.2530497417363535
1385,-4.772945696457187,9.009223354922977,-561.9690721828657,-1.1057025574284545
1386,-2.916101652789845,10.712021692019428,-577.3577438799035,1.069308126007929
1387,-1.1633891053823644,12.402737700663312,-590.7481431328649,3.2640503965835803
1388,0.4702082478720071,14.078204327037447,-601.9631023796036,5.4741641584794065
1389,1.9904446765233905,15.735042983169443,-610.8237615600946,7.6808670695667915
1390,3.4232751065059865,17.381375173846973,-617.1546517970768,9.842072234314223
1391,4.808819528737144,19.030410806201118,-620.7908517370373,11.889599499701228
1392,6.18969328772508,20.692482943129153,-621.5864577014995,13.75088114978668
1393,7.605972098287276,22.367405112820933,-619.4332268439366,15.390794230191775
1394,9.082644164002705,24.038207408193394,-614.2768790208573,16.813625745285783
1395,10.603092503759289,25.68227112322121,-606.1389410996425,18.036696671473493
1396,12.122103978453353,27.297087918835356,-595.1424755398508,19.08449160649064
1397,13.610998314142295,28.903174770987178,-581.4946815594972,19.989586338500622
1398,15.006569997181076,30.48449241909799,-566.78753803218,20.78783361272612
1399,16.341751293642524,32.09685910690128,-549.0838648445342,21.51696055462129
1400,17.598188416298466,33.73016749914859,-527.8539072516568,22.18819950346484
1401,18.743260554687236,35.32826635631493,-503.5905678698494,22.79342263294698
1402,19.76325754666182,36.81693265401792,-477.476894355815,23.32665618868041
1403,20.663989918852053,38.13081441860862,-451.0538520434123,23.785017723012356
1404,21.44453947775731,39.23242861532518,-425.9205817625911,24.1545752474791
1405,22.09346801706104,40.112785769049985,-403.50688831396,24.41880209306036
1406,22.602840413173528,40.77524510457218,-384.9204719396981,24.583666301797276
1407,22.974087182126176,41.2291577283307,-370.84507106187476,24.674743938893407
1408,0.11589211621669264,-0.31960074436936453,-5.290283047394663,0.4869124717903551
1409,0.25862689436479536,-0.7226410103667446,-11.48615953511926,1.153938910678456
1410,0.4532033051190596,-1.315223849335036,-20.201166394330535,2.072915330531773
1411,0.7079215730689473,-2.1035662151730143,-31.345004343330327,3.219776222200097
1412,1.0376528131729723,-3.0761133696863605,-44.56655149195069,4.551941001844167
1413,1.4649044493731522,-4.209496609327706,-59.29532484981994,6.016313930370717
1414,2.0151365361251594,-5.474518085615665,-74.81175926997737,7.5556450417189716
1415,2.707414717302681,-6.839934840752523,-90.33014642767942,9.108028966524532
1416,3.5497761437092725,-8.276616119432674,-105.12122974785291,10.610384063087041
1417,4.5444144610158155,-9.764790593136858,-118.66610011052317,12.023346806485979
1418,5.69894446182468,-11.304318702514106,-130.81964835758043,13.366351105258852
1419,7.022440165454579,-12.877228807345565,-141.21432383606643,14.678429779757726
1420,8.502710403689642,-14.465335812917633,-149.47554658835853,15.9977047297812
1421,10.093317472847215,-16.052945914901553,-155.23068633333892,17.350045966541018
1422,11.735148254198215,-17.62332282719569,-158.11820177737138,18.75881731441648
1423,13.400863244952665,-19.15312451050248,-157.84600215976397,20.242901061927565
1424,15.105168388501433,-20.613091777861236,-154.19972094741289,21.811940037786545
1425,16.87416124969225,-21.973686018731854,-146.9673603145181,23.46857553111583
1426,18.723916487969966,-23.20811639443561,-135.88628600759372,25.206147587226123
1427,20.658968439594965,-24.29234179313042,-120.645376093354,27.00294189752232
1428,22.673340029042606,-25.20582685300778,-100.9195691130293,28.81777375137332
1429,24.744257132806897,-25.929608989425777,-76.42517491041646,30.586237126673737
1430,26.829700457040214,-26.441255938246766,-46.97072673098271,32.22721237573515
1431,28.875807578772537,-26.716671794542872,-12.504966495749114,33.662479750466936
1432,30.826298397661443,-26.73796843644978,26.82419755566375,34.84015446955725
1433,32.6293068798469,-26.500546019922947,70.63110755387994,35.746175409003705
1434,34.24130170160725,-26.015600694352322,118.28898861550717,36.38703704522919
1435,35.622409645398015,-25.30950992538048,168.94354544453347,36.76240453122149
1436,36.72847183861418,-24.4223569798991,221.56750463883031,36.86519105254574
1437,37.526739110408116,-23.40051771739072,275.07405458636737,36.697267256757144
1438,38.017359559375144,-22.28945433574572,328.43083214686715,36.27111210876231
1439,38.22269430920941,-21.132332378939527,380.733663997702,35.60411860363495
1440,38.1580214531544,-19.965164897697367,431.25949270301913,34.721256368255105
1441,37.82172673965932,-18.80906371665488,479.4662379628449,33.654318917846915
1442,37.21763607968744,-17.667083796062936,524.9293184951962,32.42792750603247
1443,36.37781998921435,-16.527652259627825,567.3124566576788,31.055288114031985
1444,35.36213815403721,-15.37232241041805,606.3750478445705,29.548559956188612
1445,34.24621357608244,-14.181429654205196,641.9470088281986,27.931937655861486
1446,33.10730567924764,-12.936466598692068,673.8962185953505,26.25350661564033
1447,32.0094076309716,-11.627102207381146,702.117012312109,24.581120495892762
1448,30.993486308210162,-10.25966714019625,726.5345250991782,22.97805125255649
1449,30.076388890093835,-8.855773674831624,747.1137944026307,21.475740427268583
1450,29.25217386704771,-7.4454590027946,763.8629619201599,20.063806945512493
1451,28.49159866845208,-6.061450285638014,776.8300738083364,18.703744379234625
1452,27.747350527804276,-4.733361909612214,786.0806911912712,17.349501434707854
1453,26.97153408140762,-3.482012896589545,791.6619989570961,15.958030518172912
1454,26.12483657336249,-2.318977086490235,793.5803430256814,14.491933103387888
1455,25.166700808622046,-1.251187427003318,791.820249592294,12.923397897309862
1456,24.055327715573863,-0.28174767134242096,786.3971990161368,11.237934351068628
1457,22.769799595453133,0.5898291291763587,777.3803324687274,9.43551749820148
1458,21.332301503949733,1.365216979069236,764.8755435692534,7.536261645846032
1459,19.804024079706956,2.0479987598803193,749.0128109150899,5.589561049255245
1460,18.25493931908206,2.644019891996559,729.9405696969695,3.6663191640203556
1461,16.73849654099625,3.1584443786593446,707.830561984494,1.8325402600005987
1462,15.279924932261219,3.590443944408026,682.9018536034936,0.12705466238881358
1463,13.881016398342686,3.932834439621528,655.4227782273045,-1.4464838368526047
1464,12.539595072456477,4.182395435718021,625.6774751327939,-2.911111031885018
1465,11.248982580492033,4.348666102840225,593.9353831714662,-4.299326770610853
1466,9.981050493805926,4.447501912899834,560.4282631228729,-5.640588752528245
1467,8.68041393819524,4.487618109805235,525.336333735785,-6.957441111921707
1468,7.279194095107955,4.467060414798817,488.80219781270387,-8.268693396714022
1469,5.729163943612449,4.376504710969988,450.9750089023692,-9.592953840522206
1470,4.018661949298191,4.201613243109946,412.05814485558113,-10.944205824361017
1471,2.1569123307006137,3.9277879035680967,372.30515416809345,-12.328954454139566
1472,0.15446805782792428,3.5478024370464656,331.9692234913582,-13.75333314538755
1473,-1.980807470028347,3.0664418584701862,291.26353624047755,-15.228413034777024
1474,-4.247961199145132,2.498392425558273,250.37750628956718,-16.77277273092605
1475,-6.6654528041401,1.8617570213677026,209.53730482975834,-18.41751768847964
1476,-9.274700093450186,1.1717259127720485,169.02653833164183,-20.205711669977724
1477,-12.123607627415138,0.44009433380824037,129.15353769246107,-22.185982731511448
1478,-15.243702859551377,-0.3243944117668365,90.22531309450295,-24.40476994539029
1479,-18.64138455522878,-1.1200039414856375,52.535132780270395,-26.899414666261116
1480,-22.30117756203077,-1.951496434569985,16.33498900624211,-29.696264394271623
1481,-26.19471897500165,-2.826796514630066,-18.196633829981803,-32.8037880029025
1482,-30.279400737634543,-3.752348041111496,-50.96895749459367,-36.19588941930928
1483,-34.480259194699066,-4.724022455457033,-81.96244713681283,-39.803949451422945
