,TP9,AF7,AF8,TP10
0,-0.9600611902685593,0.07539157043657892,-0.32965603065369276,-0.7463461799376964
1,-1.5611115045855686,0.1520181218700007,-0.6825594010738673,-1.2824671184022352
2,-2.285530978675125,0.2495165226257099,-1.1727283282201735,-1.9298234999567199
3,-3.055611151081509,0.36689941535351284,-1.8010768276887674,-2.6272936456142846
4,-3.681203451447629,0.5059823691292105,-2.5606744337481953,-3.242643681015282
5,-4.008897064069864,0.6702530431476336,-3.4399475920020204,-3.674105808946251
6,-4.019657271213791,0.8612216770903363,-4.424731987233277,-3.9214074049825465
7,-3.778839715958699,1.0752459265296865,-5.498610303244235,-4.046273090733025
8,-3.3037495616588703,1.3050549792232262,-6.64636245867844,-4.070502729244047
9,-2.560373033594709,1.5439328719649077,-7.858211503272728,-3.967949775218498
10,-1.589113592450146,1.7895780153384695,-9.13403046432719,-3.756970996479958
11,-0.5334358647205836,2.038736011510413,-10.4505776408493,-3.53309061652845
12,0.5306271679407499,2.287817655983602,-11.777471375203788,-3.3411296777258204
13,1.6900861459035568,2.53148170201987,-13.084132802913686,-3.094635673724624
14,3.0563935055374225,2.7635006367208588,-14.34848205594245,-2.673586094789853
15,4.618305506629168,2.9821560682444272,-15.562462255843968,-2.0329273270369157
16,6.231113436811686,3.192879515565769,-16.730880345515722,-1.2297094163757665
17,7.79253246360246,3.404125553513687,-17.861789293069176,-0.3182059769474833
18,9.364563802096903,3.621999881945233,-18.954111189171716,0.7309632401753595
19,11.06693219579008,3.8466036628486364,-19.99671117835262,1.9686989064016807
20,12.916900138266623,4.068046156752043,-20.974304680276067,3.3738001122653154
21,14.77834430990428,4.263582433081098,-21.868142543016884,4.817339114840094
22,16.524655302957935,4.402699145836471,-22.65430074814304,6.169430839843399
23,18.18011777366065,4.457231823075277,-23.303472700128975,7.405525578310016
24,19.859156736899426,4.4079156489958935,-23.78556687322303,8.580435451533942
25,21.607243930465405,4.246000069515326,-24.079096514822286,9.71566353615918
26,23.309938399180844,3.97222023501509,-24.17752281091371,10.729157889098236
27,24.827158569492315,3.5947380200842374,-24.0906039711706,11.528870162136108
28,26.14503273351763,3.126514603868536,-23.841054476387082,12.127096849508472
29,27.360364056410493,2.5828410009523006,-23.458840023674767,12.64307829179511
30,28.529864471810416,1.978968823238714,-22.979992434718998,13.175153031234064
31,29.54847689885531,1.3270513384502616,-22.443010845404327,13.69026494698357
32,30.254526799557674,0.6327109401878024,-21.879409776860886,14.091485559075783
33,30.602128891715232,-0.10453450291981453,-21.3089397819579,14.339562899922402
34,30.69636239148644,-0.8878840837940587,-20.742687385936424,14.496802900769415
35,30.631797492753062,-1.7230343337431233,-20.19066154250321,14.616475494780587
36,30.34640247215864,-2.615948625954149,-19.66519731272879,14.632931925723001
37,29.71286857371405,-3.5665594417696505,-19.1748386017642,14.424329084693143
38,28.708039914528047,-4.563732018134721,-18.71770689219641,13.937231141739806
39,27.476371990702805,-5.586766193053024,-18.277596556102147,13.254739364237013
40,26.160695138518857,-6.608813918807783,-17.830816250385435,12.480137207461807
41,24.723589324251876,-7.595386591900798,-17.36087978940225,11.588958624017636
42,23.03203512191121,-8.508104252789247,-16.859398322342837,10.486571398233375
43,21.06109504468048,-9.314202338136074,-16.321583225916303,9.171794139001824
44,18.978054413609673,-9.992101304956766,-15.74827522180538,7.799096101538878
45,16.95615575338536,-10.531486197124359,-15.144504107000307,6.533179266568372
46,14.99443644022237,-10.932971052860628,-14.512046416754476,5.408306103384919
47,12.991301349456474,-11.210197065620473,-13.837179784327631,4.373227341333403
48,10.926423305906455,-11.38927150175898,-13.083255133754927,3.429640778853203
49,8.928553531460983,-11.5033009845074,-12.205425910000196,2.681897047142523
50,7.091917323152794,-11.588241501060184,-11.179924783000484,2.203008762880323
51,5.316605825071578,-11.680548243439981,-10.024135022056619,1.9204116619252252
52,3.387651526434003,-11.80977175865743,-8.789736911630209,1.6657756049299723
53,1.174846890991477,-11.99481489999679,-7.536573928968233,1.3227742478448996
54,-1.2751959322400777,-12.250407270166116,-6.312130082617088,0.8951548366426892
55,-3.897542292676042,-12.594147271769314,-5.14004148169617,0.39864997726733914
56,-6.770798934180643,-13.053141157223356,-4.011710911880386,-0.2555395364762717
57,-10.070224997521173,-13.667679967807784,-2.886513722732643,-1.2436823626010582
58,-13.86030744323309,-14.485438465468722,-1.6924543368934972,-2.6618434484496802
59,-18.001516167813428,-15.549944924102117,-0.33138999024070237,-4.43975125141707
60,-22.310313655986025,-16.88921630111669,1.2923530372995933,-6.458712497993609
61,-26.724395781992918,-18.507906798705328,3.2342529721940165,-8.66272720441598
62,-31.299329521513847,-20.383506681017423,5.487399536987391,-11.062372730082243
63,-36.020221430372445,-22.46623622094533,7.983665558084267,-13.618930691771574
64,-40.6997796071754,-24.680904419392164,10.605631901469094,-16.17840819609865
65,-45.09713669525842,-26.933206957356223,13.202066674813357,-18.54823512340049
66,-49.05727293888575,-29.123350859940913,15.630147053527285,-20.599936861129027
67,-52.56083876461441,-31.160349804171233,17.810436975534778,-22.324712969411944
68,-55.59115057119713,-32.971498348597585,19.739971310917646,-23.74475116817175
69,-58.026430273887584,-34.51146563856178,21.46286750364638,-24.818943494715754
70,-59.711683495191146,-35.767945914598975,23.033631468303902,-25.46659456999807
71,-60.592620499900846,-36.75227361291269,24.491555307004386,-25.660237393876624
72,-60.78832588001796,-37.48489823336983,25.85223012705949,-25.492736736184124
73,-60.44888583217012,-37.9873394900481,27.108353218480048,-25.080293104429693
74,-59.6107179751982,-38.276739552010056,28.23039346350463,-24.442573864869743
75,-58.232459009633985,-38.36692351304506,29.166469446589552,-23.513005029800965
76,-56.333331463269026,-38.2719820994518,29.83996803817058,-22.261582370907114
77,-54.08553569326753,-38.00161938825468,30.164299862018627,-20.785074802423683
78,-51.68816155984808,-37.55909553476481,30.079451118635163,-19.221993172278488
79,-49.19183440569336,-36.946125531739916,29.57344430862237,-17.620533638598594
80,-46.483966586686456,-36.16601794246736,28.67681672454444,-15.907381900276931
81,-43.46790875070885,-35.22674790004299,27.44845087065397,-14.014543732055138
82,-40.21627547877513,-34.14161668352673,25.963612665927798,-12.00132684163101
83,-36.88703200149525,-32.92505810701235,24.29739074943912,-9.994853916028642
84,-33.5529977959398,-31.588720070434334,22.506608420954866,-8.051070450710109
85,-30.13189525411621,-30.141911201147973,20.63288652282789,-6.094659213085928
86,-26.552271939574176,-28.595326327292142,18.72101421360837,-4.053234857942971
87,-22.919495882168324,-26.962498214806253,16.822484133195342,-1.9919105008917795
88,-19.437793040816356,-25.259787022654994,14.982217157721985,-0.06104870778555965
89,-16.235771097080345,-23.507391425913976,13.223492431476863,1.6389106164696883
90,-13.269988958957546,-21.7283493815215,11.54276192648514,3.1316882999018554
91,-10.477346213715872,-19.945642384123193,9.923796198061371,4.449267121487795
92,-7.94030011580358,-18.177705540143943,8.357656516982113,5.509879575202886
93,-5.8064293049044435,-16.434088936907518,6.84791291411732,6.178896280094427
94,-4.109775992329823,-14.716243670420695,5.399314421354526,6.415173943055922
95,-2.6986481778456266,-13.021085402330982,4.0035090073054675,6.334874223084051
96,-1.4155268617194114,-11.340468656176432,2.640166916605412,6.075097658796463
97,-0.2696977273992658,-9.657985298908248,1.2894729340109357,5.660798960312554
98,0.6391868380004498,-7.951152826189006,-0.05699188797972976,5.056179460085552
99,1.3167304706328204,-6.199152659674857,-1.3870975814941748,4.306569673952466
100,1.9415261536967194,-4.391083486736937,-2.6693984911926436,3.581099329352275
101,2.6850462849239634,-2.5305534492729076,-3.8693298016633038,3.030936819199793
102,3.545790870441974,-0.6364260889037769,-4.963792229428202,2.6561741805074117
103,4.393526884721115,1.260250675076298,-5.941018654894423,2.333959459582668
104,5.165560989746929,3.1218776162616853,-6.7930728085790655,1.9799200135219719
105,5.95842394721131,4.907030318588857,-7.5082766003116,1.6357558274479223
106,6.88102703713984,6.571924565893583,-8.065097207139775,1.3776137461769433
107,7.895323273437061,8.07337287625394,-8.439092597791852,1.2033721898362577
108,8.817801625785911,9.370749874078614,-8.618770168280093,1.0221801544202613
109,9.51942256820928,10.427608012958084,-8.607574119899141,0.7920272217794739
110,10.04011898052478,11.217035623272654,-8.410107377180335,0.597036162370809
111,10.468524086249518,11.728790928042608,-8.02088583245897,0.5578786451154132
112,10.808098203527438,11.971598980012757,-7.428781655209642,0.7285893996035259
113,10.94680188040714,11.968779283570647,-6.636885951120201,1.0570714517747164
114,10.815405186925048,11.7534706549186,-5.679272615193733,1.49274649562089
115,10.505035639384008,11.368966412607973,-4.6178181228644535,2.0772121365419007
116,10.182330300226871,10.867187958057142,-3.524874656590067,2.889999758094843
117,9.95270037276275,10.30066564271266,-2.46456648797926,3.953591280519405
118,9.705592102755203,9.720000747306297,-1.4969846078870765,5.111873232420262
119,9.521298603664455,9.154087944272533,-0.6008087453110158,6.390121570056457
120,9.524459338943828,8.63117498530643,0.23583068023924092,7.827839250751457
121,9.77871338329906,8.170333428373453,1.0103574831778204,9.41661376130824
122,10.216724212180262,7.778177040326856,1.7116856839309547,11.04898793957567
123,10.696111957144423,7.453180387129427,2.3280003244682153,12.566329802404749
124,11.138297987155632,7.190891425848299,2.8507399196441767,13.867325170307415
125,11.56260750224121,6.986721517947728,3.2778470414135303,14.940098328583506
126,11.99458075981446,6.837243096844269,3.6126159455025952,15.802315331748309
127,12.374178792031296,6.738150201071507,3.8585296174959245,16.429310187546637
128,-0.6414779372476582,-0.22201627625902304,-0.19721416630733582,-0.5178665338757666
129,-0.8727835878814828,-0.4935362439921723,-0.4333028630941048,-0.6579351815389913
130,-1.1739841437178062,-0.8740719894062404,-0.7923526546106722,-0.83515821190686
131,-1.46504989321852,-1.3541672643231206,-1.2825517453627888,-1.005534600545277
132,-1.5744929667968066,-1.9093586893140495,-1.891623133407731,-1.0594266009851994
133,-1.4252561541783542,-2.505900571759015,-2.589661988496473,-0.960019682534604
134,-1.0908697443613895,-3.1116103730733795,-3.3367070910873378,-0.7821213427560834
135,-0.699203994388107,-3.7041177926283493,-4.088692699992483,-0.6348816687365273
136,-0.2894386337056187,-4.2714676115097925,-4.799670255136856,-0.5533936494387122
137,0.1669362172994287,-4.811058694752713,-5.429664744033214,-0.5125344064851542
138,0.6120324659791996,-5.334664357258147,-5.961397403076481,-0.5421917357127433
139,0.8977915866010207,-5.846040292672403,-6.3864631488570085,-0.7346162852242554
140,0.9597336346180793,-6.344525785118622,-6.714160424076873,-1.115454846515068
141,0.9131685145093533,-6.8205366669172305,-6.964098226323509,-1.5803408412454387
142,0.88108439008784,-7.259075996177094,-7.16299016048641,-2.0294028688774137
143,0.82475647843522,-7.648503743366648,-7.343023766496424,-2.4867078757670393
144,0.6122358081198638,-7.982606590560049,-7.537964813146228,-3.040436674128189
145,0.2119828118596748,-8.258955820513334,-7.7764384735339505,-3.69208351001281
146,-0.22735186379606978,-8.47966533451679,-8.075384930698972,-4.310237792735036
147,-0.546624729904809,-8.652796730539997,-8.441390851055061,-4.768870550515284
148,-0.7515340406332587,-8.791499266601402,-8.874764489750149,-5.0704989581287006
149,-0.9759813377432397,-8.910502984695725,-9.370414280039652,-5.316114390419619
150,-1.2726788205289028,-9.020804369883473,-9.916996902474038,-5.548678484548621
151,-1.5199680082470335,-9.124028219432848,-10.494824384171823,-5.6808540542816095
152,-1.5710623723388197,-9.212564293697431,-11.075538344206612,-5.6116399303450395
153,-1.4048808882929573,-9.277876331827676,-11.628152779020185,-5.3444665289799875
154,-1.1368469673715604,-9.317917272659319,-12.123563122372,-4.990232317676871
155,-0.8439802254356608,-9.336630070196128,-12.532836496070297,-4.629897843856222
156,-0.4584281303251245,-9.338831460085931,-12.827469270885171,-4.230013318003089
157,0.11528936276867136,-9.327315065548536,-12.984729246290385,-3.7227868633181833
158,0.866624874547585,-9.304382212081576,-12.998318967918205,-3.104662526290566
159,1.6500125299661144,-9.270341464011636,-12.882926773768578,-2.4696741276875582
160,2.3478522914140574,-9.218198770181699,-12.665815504656972,-1.9079494181696088
161,2.9922906168958723,-9.136726925868677,-12.375936772953766,-1.4159472844406265
162,3.6809887078275603,-9.019247095532764,-12.037631043516008,-0.932315197440016
163,4.440152999910145,-8.869059862488134,-11.671810180686272,-0.4281050684871686
164,5.153996533497674,-8.70215658249083,-11.297551456753332,0.02822471691958469
165,5.700732553842407,-8.542626351668268,-10.92837094750355,0.357280049174077
166,6.103215379701639,-8.412693663859459,-10.568782785781352,0.5799522502830987
167,6.494488139225537,-8.326429012860725,-10.214899266992129,0.8038374647397826
168,6.962581458865446,-8.288933111668342,-9.858995096721504,1.1069426951165964
169,7.437990331986432,-8.295420449409377,-9.498397995280724,1.445880674297164
170,7.8021731301657375,-8.327694480776014,-9.143690418465704,1.7413454673854096
171,8.047396035634614,-8.357484985306057,-8.811674324099442,2.0026654266776878
172,8.281681122593254,-8.356843960869623,-8.509633602258882,2.3273563018323693
173,8.566421072471297,-8.304753633249277,-8.234950179804038,2.776087229345225
174,8.802469265647689,-8.191745474281877,-7.9840734724671805,3.2857374707157434
175,8.821250975344553,-8.024123672475001,-7.754736402167727,3.7258880219177244
176,8.53501416941715,-7.820568699644185,-7.544475879508947,4.013125471203874
177,8.02360324993794,-7.604578466864399,-7.3501819055374265,4.195625126500154
178,7.393868475373,-7.3993560190821,-7.167616408393484,4.346116336384026
179,6.607373873762905,-7.219491358669674,-6.986874806423031,4.4177673040586205
180,5.559230330083491,-7.061747785983636,-6.794093495382573,4.295720810347078
181,4.245729017334702,-6.905561935062219,-6.58380108197963,3.9246174687282602
182,2.8211790242684742,-6.728680935011653,-6.357817117313705,3.3526489796763244
183,1.4209326211781745,-6.530599745483731,-6.110877834187752,2.6123749435681556
184,-0.006406144441542194,-6.330486361351582,-5.8264492692087595,1.6223036646376918
185,-1.5954378190060121,-6.143997340740319,-5.482947784280127,0.27173702075034584
186,-3.3560116817020305,-5.977324131741442,-5.059767273305875,-1.4304312580264114
187,-5.120762518128695,-5.835672320682336,-4.53906489932798,-3.332340710260923
188,-6.7275858431901465,-5.727001973120176,-3.9112210011242925,-5.2811590818718335
189,-8.16185518122169,-5.659131782042965,-3.186997510290224,-7.228408590715026
190,-9.507588590107567,-5.641235140710462,-2.3916762982499202,-9.218703100217665
191,-10.793845324493953,-5.682728442015458,-1.540072133588561,-11.276198933056996
192,-11.899400201969957,-5.782861942540805,-0.6380881009267494,-13.305748979800134
193,-12.702898264157305,-5.934350691903362,0.2896190461146997,-15.19256893371897
194,-13.290347608032949,-6.137050336536481,1.203532722560276,-16.96739425235769
195,-13.931045237604378,-6.396622452409625,2.08231663709064,-18.808798333604546
196,-14.827247509200198,-6.718930336903561,2.92360774605648,-20.852618942898452
197,-15.989927537881377,-7.117676342236827,3.7168317144380154,-23.08962154717678
198,-17.37349862345498,-7.619419362188183,4.436993935002772,-25.458506534247956
199,-18.98476226436021,-8.252609065925236,5.050629204276927,-27.926033635964558
200,-20.85396693651748,-9.035813393087453,5.521997538290816,-30.492830277956248
201,-22.904478684171128,-9.9875693600728,5.839589367485184,-33.122675858636306
202,-24.920022752366176,-11.142869485372687,6.0337603155722,-35.70572433805291
203,-26.673101546573903,-12.538917777205398,6.151843550198272,-38.11279900460741
204,-28.043912235040704,-14.186975875072235,6.221442951068808,-40.269407896129444
205,-29.06890856930817,-16.079851084169952,6.247697999177745,-42.20327475427332
206,-29.820275658337167,-18.22264705212315,6.227174951777019,-43.96333636101247
207,-30.280463526037337,-20.63014981457055,6.125913590359147,-45.51249474132635
208,-30.401126700057844,-23.303216149891874,5.868168825393801,-46.75610773880368
209,-30.241428551241846,-26.22183781046162,5.365964811846147,-47.690196989773355
210,-30.012279348749637,-29.34052442125392,4.523051035833893,-48.476922658942584
211,-29.895646277566872,-32.58687632826503,3.214560146374126,-49.28974736338446
212,-29.89046836091935,-35.880612459298206,1.2838000765624682,-50.155874559038374
213,-29.857635719548686,-39.14483474607189,-1.440827154351691,-50.960683400986866
214,-29.67577379821676,-42.293987502964505,-5.11326404772246,-51.58401887523603
215,-29.357567179460997,-45.22748692120453,-9.833812929121468,-52.01738540655007
216,-28.975549182138753,-47.841054918834224,-15.64224928064203,-52.314815363959255
217,-28.537882481609866,-50.049399037429545,-22.562363542824926,-52.48711978397621
218,-27.947465831185532,-51.806391522492014,-30.666074066463715,-52.43810305921296
219,-27.110950449241194,-53.10651481203473,-40.07322309850744,-52.04997214967247
220,-26.076783104081247,-53.97816159888567,-50.84179175876875,-51.32119742857713
221,-24.976681443931636,-54.47293137296095,-62.89204294885737,-50.33345395606676
222,-23.85197868690934,-54.64389519881748,-76.10125728066575,-49.105895818580635
223,-22.58681996245785,-54.52292723899981,-90.44490174413855,-47.52836152973958
224,-21.08865500909293,-54.12146229879912,-106.0434851047267,-45.50661127624056
225,-19.44189680811612,-53.44940328555684,-123.14380175815312,-43.09905703761655
226,-17.80580212806877,-52.51398546591361,-142.0939295558108,-40.44146711604614
227,-16.243615107397357,-51.31468363115665,-163.27594254918256,-37.594965624349726
228,-14.664094906321361,-49.85213485242679,-187.0051168509843,-34.49462906167499
229,-12.990539866245605,-48.130102129730425,-213.4727080994317,-31.1014873307451
230,-11.324979251661293,-46.1598472010299,-242.7040659050996,-27.528652304590725
231,-9.860504976769592,-43.975447870716984,-274.5131887191588,-23.96459282033846
232,-8.671597340110061,-41.63417586121149,-308.51083631615813,-20.501484809208407
233,-7.614070578360708,-39.20211797292927,-344.14644024492696,-17.035033293821414
234,-6.513730964836148,-36.74305852772661,-380.72305344705404,-13.415211308929033
235,-5.394928620677267,-34.306107942742756,-417.43055126543845,-9.667216288579342
236,-4.437904561701998,-31.918872335373955,-453.4605504811577,-5.987443643151707
237,-3.7547514029925853,-29.590632719348235,-488.15768317150224,-2.5323986733608015
238,-3.269389589963844,-27.311651100501376,-521.0924123174176,0.7100011040969154
239,-2.8566564288432947,-25.053656805321307,-551.9855208764898,3.813274090907685
240,-2.5025340370307623,-22.775388918030597,-580.6006036392367,6.793373927457871
241,-2.2727459526382665,-20.42423396301647,-606.733364597679,9.633776884882598
242,-2.1404584123584334,-17.955158845841694,-630.2325838796712,12.41550468020242
243,-1.9171276509803896,-15.36608009834888,-650.9985900959542,15.357726974618647
244,-1.4271027407217285,-12.7044038011973,-668.9784959945558,18.65676088089354
245,-0.6704518710500154,-10.038854535277586,-684.1607363700625,22.330782563541916
246,0.10578443777284385,-7.537948779983094,-696.9543208300623,26.070746265741757
247,1.0168009099923785,-5.068549756493569,-706.8455009263851,30.03144582735891
248,2.1740830543947487,-2.5970732833750727,-713.6637083845305,34.25304949594201
249,3.5550765485127274,-0.1505401922308819,-717.5338040882594,38.60795064012237
250,4.978810231903037,2.2118972082117887,-718.8151857109801,42.8064047903066
251,6.234260453353311,4.4219200378309065,-718.0328557666832,46.5239474193511
252,7.2657776427978,6.4159629778761795,-715.8052715202024,49.60519307575112
253,8.16078194675103,8.138916442658715,-712.7734945804249,52.08643830298048
254,8.970003284353119,9.548863851739407,-709.535837735533,54.03261850953308
255,9.634153591770477,10.623559705756259,-706.5918756448189,55.4465249127573
256,-0.8045957387586706,-0.12810774469035818,-12.519064649957414,-0.2947295803054656
257,-0.9127925250554403,-0.2871430232461908,-27.782725773221763,0.3178898298758003
258,-0.9226442302047276,-0.5272465443705451,-49.92587895285315,1.3703980453942433
259,-0.7281866249791589,-0.8630175789621117,-79.13629967368685,2.962863702833678
260,-0.20652102908124598,-1.3036755368936697,-114.93804614132465,5.181181076337046
261,0.6476226771261206,-1.8496188458725535,-156.1970470790289,7.981373749349803
262,1.720052945436629,-2.488783806615715,-201.21449767418432,11.193261322037852
263,2.907874068866294,-3.1978836638596397,-247.93022282532525,14.647095019517971
264,4.2055146669485834,-3.948622789836033,-294.25536676325197,18.267921002732294
265,5.644550029456144,-4.71303757834457,-338.5261235527255,22.040465935506376
266,7.147395460179128,-5.468703068491372,-380.0682548765616,25.89897047103194
267,8.596057226362118,-6.187485317245235,-417.8309903258033,29.73072578888785
268,9.964750662643551,-6.832910434925864,-450.94041966378,33.507253912930565
269,11.386992268583182,-7.371868021231957,-478.7424277916816,37.34927280750564
270,12.991894462824975,-7.790918953282214,-500.8290650013991,41.365518398720276
271,14.7426069023405,-8.089053078930139,-517.0378239295678,45.49152092612312
272,16.503853891898896,-8.262268009116019,-527.3751507016906,49.54917927596869
273,18.202853805438924,-8.304181606170003,-531.9333260661774,53.39859741606943
274,19.90877358209285,-8.213639755383868,-530.8885555681588,57.0236803535682
275,21.688092097876,-7.995523875657976,-524.5006867497221,60.415493767793066
276,23.44429304991592,-7.65724494922307,-513.0311943259121,63.440420533505474
277,24.98641291144398,-7.207768935672807,-496.65522213987714,65.90382247071682
278,26.205915202537117,-6.6599652832974785,-475.43947860450794,67.70187396308154
279,27.1678830191523,-6.031824004051319,-449.36954005917033,68.89511400705173
280,27.954756990614655,-5.343364620379204,-418.3917138860932,69.5715263172533
281,28.509537599638907,-4.612210487315913,-382.426880664193,69.71148931746882
282,28.710468725604038,-3.8545297301562074,-341.36863470042687,69.2474321346418
283,28.538430723235,-3.0892564190482124,-295.11621137373083,68.20807020101574
284,28.14223020170745,-2.3367931820071464,-243.63815868315677,66.7690707712183
285,27.673748407815502,-1.6143901334052648,-187.04204188301665,65.1041977211975
286,27.127663699538452,-0.9332041961468475,-125.62826677668646,63.24281012076122
287,26.39433994006407,-0.29857453917627946,-59.90633443947554,61.11610698484705
288,25.44407541758104,0.28672536694454254,9.416396237753172,58.73406458058334
289,24.408331403403487,0.8219728527961416,81.4519157355251,56.25486540946906
290,23.426061890624723,1.3108795043104053,155.18205139605783,53.84790550402562
291,22.48794429629044,1.7597417475946222,229.5627756797428,51.56341968772543
292,21.4634837305123,2.1713167583251245,303.58668618474366,49.336544709510896
293,20.29375014144805,2.5426401064557775,376.26895290593876,47.13645815872036
294,19.084409320267408,2.8699900429097,446.6726219816283,45.03898054092373
295,17.97148343914577,3.1543808261222255,513.9834583398064,43.11122966126546
296,16.97951223762643,3.401207315579314,577.5545063753009,41.30802627202099
297,16.000475186349583,3.6162926294321145,636.912440676499,39.47456295991332
298,14.962044757643739,3.8040917811395403,691.731887125688,37.48945112613867
299,13.939848365863043,3.9689600822421385,741.7869540271819,35.361445030856174
300,13.059333294617213,4.116372252975757,786.9244637974887,33.16269234904037
301,12.370497349950304,4.249731166993606,827.06461298272,30.921232828020912
302,11.791434527619488,4.365662823603236,862.1985622594949,28.564268297907617
303,11.240395529442951,4.455685317603965,892.3794287929006,26.022365188224448
304,10.76911332806967,4.511042701894954,917.7135493901676,23.34092942846042
305,10.511157393128142,4.523507165004595,938.352342821397,20.645222938463256
306,10.5381993325599,4.486115739716792,954.4846227742399,18.014770857505706
307,10.764437728951258,4.398316471009117,966.3294578794074,15.398001976397156
308,11.068129314493591,4.268616577856872,974.1295925515823,12.702376033802578
309,11.447197803781114,4.1152476538266916,978.1454339307107,9.921646095495506
310,12.007534299502279,3.965239972269721,978.6496027888898,7.155664899918775
311,12.805261084985275,3.8471082756187505,975.9220398408348,4.489634161039102
312,13.721774858238488,3.78430254828828,970.2459120892745,1.8811084718473312
313,14.566481597964845,3.7927231648595057,961.904057023151,-0.7701009626798728
314,15.256987007487794,3.8797789073641242,951.1755096473596,-3.490952319039411
315,15.873232283995673,4.044266083090702,938.3325849781518,-6.185458690471939
316,16.492070832395328,4.277265151381205,923.6385877004042,-8.756774856537982
317,17.028146548753494,4.567527549633253,907.3458635029135,-11.238335747261717
318,17.318039083544363,4.9078596599808595,889.6942343426937,-13.733887262044579
319,17.29901167044601,5.293985089443506,870.9097862003917,-16.273482534249307
320,17.08587734990445,5.71581803461472,851.2037278832763,-18.751667109084114
321,16.79337628649612,6.150318443959941,830.770741169458,-21.07401219487743
322,16.357972993991094,6.565329327312794,809.782890579195,-23.30112355800911
323,15.625805576010622,6.932239217805276,788.3921113965174,-25.574127234075288
324,14.539972140115898,7.235324305726146,766.7523724146478,-27.956458248686896
325,13.219470411867313,7.46670573042843,745.0320427716827,-30.36733806928047
326,11.777146433446024,7.614018254205428,723.4020062157726,-32.722159024760685
327,10.14115705823472,7.658886276580813,702.0075051147332,-35.07553077860805
328,8.147672953073945,7.585555655539691,680.9251255276888,-37.55409578081649
329,5.747670735102381,7.388692588041198,660.1323893136216,-40.18787579636511
330,3.0952648240456773,7.076130800524542,639.5144330612503,-42.84570710222746
331,0.37169947090394917,6.665963284585849,618.8914677447171,-45.37410406964907
332,-2.397181417774875,6.181853235485877,598.0484148675068,-47.74136990766411
333,-5.2816244219204895,5.646310470555218,576.7658486056524,-50.011081144072925
334,-8.25054920010068,5.070903311432211,554.846317859052,-52.184903615467874
335,-11.097662937632814,4.455734015666628,532.1244590115541,-54.13152790912817
336,-13.622341591903137,3.8015388714765095,508.47285312944047,-55.71348433001516
337,-15.805467888899093,3.1194446255344355,483.8187558840489,-56.90956762930719
338,-17.772967356840873,2.4280192006054895,458.1492425212787,-57.79415553270898
339,-19.58581020559172,1.7429867268299188,431.4922639895269,-58.3882739567357
340,-21.137728663310863,1.0713082243673049,403.8976586883784,-58.59615296219175
341,-22.299523239110172,0.41217544911714465,375.41924056715897,-58.3229288360574
342,-23.065210011504124,-0.23703218708950097,346.10212616506186,-57.58289310718237
343,-23.547642602747874,-0.870619651071352,315.9966128271116,-56.5012013717344
344,-23.7973691902347,-1.4727568327137635,285.178147816321,-55.174942931615746
345,-23.709145764771066,-2.027371934066338,253.7633027791708,-53.59211726653096
346,-23.155883913882224,-2.5243146904125258,221.91783143681306,-51.72047254403892
347,-22.12501800702917,-2.9606489576014723,189.83062982437804,-49.601048949376874
348,-20.74469638415899,-3.339181141251136,157.67724747560567,-47.37113331008769
349,-19.12909559182793,-3.6635487882007403,125.60627737731338,-45.148176281002264
350,-17.2645354937818,-3.934075014266542,93.73959814613428,-42.92516404106017
351,-15.08587629072471,-4.144280041653629,62.17928721589,-40.61716693828815
352,-12.607691357150776,-4.2850977111073005,31.028104101983363,-38.18457987832649
353,-9.995283472344417,-4.354277105590569,0.407926803581959,-35.70953189936145
354,-7.426930843758826,-4.3554018573671565,-29.545370562767687,-33.3032637715248
355,-4.940393040862179,-4.293748853055559,-58.6821978044589,-30.989364957765854
356,-2.465670764712223,-4.178125286435022,-86.83051116599466,-28.705447212661852
357,0.021567425608419843,-4.022633377918283,-113.81639354412106,-26.413034151578287
358,2.4016047590144756,-3.845040525328969,-139.49323520081407,-24.184672718666352
359,4.5263224783893365,-3.661015673680428,-163.75032972437648,-22.127517989126847
360,6.374273072494403,-3.484940345901445,-186.5214650361819,-20.26080563455173
361,8.062869748594027,-3.3392381286894692,-207.79680669248324,-18.491098557110185
362,9.684346325511372,-3.2509121291683103,-227.62193942871164,-16.742892898175178
363,11.163728062516483,-3.2366392148865955,-246.09055565777194,-15.075818724679149
364,12.343871555282796,-3.296604910940247,-263.32811441958285,-13.623975012999349
365,13.1518509331997,-3.4192593786465046,-279.46183899572816,-12.466183583749745
366,13.6750224294551,-3.5886841502200277,-294.59886875058163,-11.552381163642377
367,14.009473914170954,-3.788707332840736,-308.8203494005867,-10.820325948218457
368,14.088529410735575,-4.0070597965556525,-322.1782954605547,-10.332405148609432
369,13.757884198336825,-4.238883237404311,-334.6966645029982,-10.215517860398322
370,12.967461112140816,-4.484196493440157,-346.38138957617844,-10.51584563942641
371,11.869081477613774,-4.744924889109283,-357.2235038696921,-11.12782188600822
372,10.639516451283946,-5.022307621274252,-367.202468070809,-11.922288551293855
373,9.290406789440098,-5.311165004349377,-376.30884943435666,-12.88085630808738
374,7.797421783979875,-5.601546930432679,-384.4301331855924,-14.042847374573778
375,6.078509889499231,-5.873718785247771,-391.8487125533811,-15.36596476452205
376,4.210783330431397,-6.114536653795725,-398.68979510446974,-16.72013897258191
377,2.2505322945027517,-6.314197890707731,-404.9757764196333,-18.0255236212212
378,0.18531099325908484,-6.461920005623932,-410.660809871175,-19.289168050478494
379,-1.9619209190165274,-6.549052643457173,-415.66910449074186,-20.518731017297167
380,-4.034401743886766,-6.57819412849171,-419.9262604509516,-21.630771236326414
381,-5.808854140245399,-6.563457363735013,-423.37824638743757,-22.49319386191943
382,-7.175670669286541,-6.522931106082311,-426.0073121408385,-23.060279272797203
383,-8.188155374246623,-6.474140408199464,-427.8424326695016,-23.412454229682368
384,-1.5756528537904377,-0.06861303566999587,1.3212915031033399,-1.0871819397376148
385,-2.177183002800986,-0.16519967130693058,2.858146172374167,-1.5381017057097184
386,-2.780721419408492,-0.30347755616980465,5.040728417977205,-2.0487819955025786
387,-3.209993304186832,-0.4842625537681283,7.859236327265351,-2.505282061822277
388,-3.310009127201312,-0.7057738218778177,11.243050939597115,-2.79270089451347
389,-3.0547433815571705,-0.9622717229526742,15.070711608319936,-2.8754002182906833
390,-2.514206494069196,-1.2417077115382333,19.184298757199812,-2.7797721586431887
391,-1.7328539020459819,-1.5270118315591072,23.411142926265057,-2.5131443823516433
392,-0.7030941688759677,-1.7995609495476035,27.59599316653069,-2.045337866926311
393,0.5501171524668587,-2.0417136049838995,31.638615274347213,-1.370902083306588
394,1.861815713478663,-2.2427778742132523,35.53868556373664,-0.5946182134526752
395,3.156758570253152,-2.398232226090187,39.24056989610695,0.22641274578527198
396,4.494519566423035,-2.51001369782336,42.67796237936104,1.1210008538464546
397,5.996344046862788,-2.581179534528797,45.77875149465012,2.1756590933450077
398,7.7046369105457,-2.6145836035234242,48.47725192545854,3.4341011393094023
399,9.520662566933893,-2.612963637460528,50.72948963257139,4.828103067806468
400,11.331601105608563,-2.577517627387178,52.51472653858753,6.264909300969744
401,13.138690060155229,-2.507194428749231,53.828246180875425,7.743356781610577
402,15.022356594785471,-2.3992277786643466,54.67906707659588,9.342722043129408
403,17.00313096168584,-2.2498311835278044,55.08708504128691,11.095393253653372
404,18.943977802997903,-2.0570481179070437,55.082943640597556,12.895759461154976
405,20.67224521174337,-1.8220512835580434,54.709430715187864,14.589474208958926
406,22.14671364684938,-1.547491734689453,54.007525376058,16.104761338725723
407,23.47092333456429,-1.2402106538371938,52.99880786277446,17.488643554778076
408,24.72851158926385,-0.9136534472057242,51.68176599548963,18.793931743394413
409,25.840168741109036,-0.5863349260413406,50.031569644441426,19.96104921187806
410,26.657458852510153,-0.28130815352141164,48.01248016611992,20.87547141388439
411,27.132376166379373,-0.021731645582518187,45.605524050329514,21.496860140602823
412,27.374615422858504,0.17859364511610967,42.818721713794055,21.913984635017755
413,27.495865933795756,0.31697269512086773,39.68036022183658,22.21650600349577
414,27.45053805634672,0.3950578850951353,36.233638538554686,22.351948769257334
415,27.108598669815215,0.41543474909446093,32.52649023322559,22.179944304579383
416,26.4271768081543,0.38075809109166037,28.6003821005613,21.62271355000483
417,25.540551267400396,0.29249037804261224,24.495380283464915,20.74227197671159
418,24.59537101566023,0.15096391247833713,20.2664445544217,19.613749226769077
419,23.56082847512209,-0.0438920322735771,15.985371146595295,18.189202472983023
420,22.301494716756352,-0.2916476620663714,11.728698263016668,16.36685321802694
421,20.772644681617017,-0.5900325977702761,7.563719325210262,14.150540336156922
422,19.10613095196292,-0.9331320407000125,3.536274333544268,11.707414378041756
423,17.44130957728574,-1.3110920091606175,-0.32433817148809174,9.224532582983384
424,15.755414562841999,-1.7097079493180756,-3.9884688814070106,6.76429049946133
425,13.926514349651628,-2.1109773518003396,-7.422488593412698,4.298154661101979
426,11.926342355608087,-2.499710319922124,-10.589652959194371,1.8549235802422515
427,9.90508028269085,-2.8688601991091613,-13.448741553586686,-0.4174416446984404
428,8.022081239174556,-3.2194531025836772,-15.968939821349883,-2.3882771020700027
429,6.278533485377263,-3.5606570215881232,-18.145402546346137,-4.077420338536201
430,4.555284917168254,-3.9063868389578316,-19.99454813134301,-5.62023243244907
431,2.8041505407080662,-4.267632065913389,-21.54562847742766,-7.096209426378588
432,1.1366210972150737,-4.648073767505273,-22.836530355590092,-8.448282155713356
433,-0.3224884794707135,-5.044175889615807,-23.903369424160598,-9.592389804670182
434,-1.5762444711745889,-5.447488077529839,-24.77209439175624,-10.51912624740918
435,-2.7402809140173687,-5.845737863591163,-25.46328016424932,-11.284897138739154
436,-3.8532655908493205,-6.220737668010559,-25.99983640109153,-11.883424215035069
437,-4.785373430711054,-6.550142074786756,-26.405287332606253,-12.194584881512531
438,-5.388581034255407,-6.814378374203481,-26.69569386771743,-12.10322860870289
439,-5.647266653829888,-7.00209339890652,-26.871577838302112,-11.608000560209733
440,-5.707291798270141,-7.113596046795542,-26.91778490005775,-10.841109747635622
441,-5.706839581076345,-7.160894972876559,-26.819856668440785,-9.949177832795176
442,-5.642650483197269,-7.162889508087526,-26.583392847347756,-8.990201876905424
443,-5.453098158412741,-7.138802339133211,-26.242608936953303,-7.966860157569694
444,-5.153306028639513,-7.1037827240297124,-25.856296401226743,-6.918590999125824
445,-4.882752997962585,-7.069132097477442,-25.49288994884656,-5.970550773876271
446,-4.757113251360436,-7.042232224420268,-25.213835927836477,-5.223831507107179
447,-4.737834875155364,-7.0243768424284765,-25.065290995975644,-4.6472912666652055
448,-4.687384893294859,-7.011766844698899,-25.08181984716912,-4.110954140810109
449,-4.5207598618548115,-6.997808941708184,-25.289259401604742,-3.515323452368897
450,-4.301403627955352,-6.973366396154106,-25.697301906150027,-2.8895092777022744
451,-4.131499696816832,-6.926290885363489,-26.29669103479467,-2.3220237897727296
452,-3.9971979010472585,-6.842254037456893,-27.063947233809476,-1.8383635211162659
453,-3.752072619512592,-6.711592779536526,-27.961930752368676,-1.360077479013275
454,-3.281920002926365,-6.538616768995925,-28.94274429147221,-0.8109322888691376
455,-2.6473609182121978,-6.3416501420653635,-29.95580755581894,-0.2309440010103177
456,-1.9837385806963248,-6.14573996942678,-30.953886492738267,0.27773448936893763
457,-1.328432031970665,-5.973541406907848,-31.896564983998935,0.6736615124232824
458,-0.5726185982804226,-5.836068031455963,-32.74964715685007,1.0384671998813213
459,0.3661857085045388,-5.730334021364334,-33.48457769723926,1.4556293695657372
460,1.3871393335929019,-5.643348579257615,-34.08580687243732,1.869744349668193
461,2.292930906436202,-5.5567718935549495,-34.55542258036885,2.1412063727762556
462,2.9671766850456662,-5.450648273192053,-34.9061229167863,2.1915270415437216
463,3.473206659553714,-5.3071003117949775,-35.152459252228184,2.0774612243896895
464,3.9064280884079476,-5.114826941338341,-35.31267269559136,1.870066579376035
465,4.219736330846629,-4.870228686294796,-35.418591204567555,1.527029204935292
466,4.284913347455467,-4.575113934102868,-35.515953915011885,0.956908739262966
467,4.060481022437087,-4.235784985956828,-35.652344556533635,0.16209578890117388
468,3.6744991049779947,-3.86302010759488,-35.86222899122006,-0.7175196204661644
469,3.258010305145752,-3.470737314361404,-36.15327057284106,-1.5497199289046926
470,2.771237012241642,-3.0724962838398566,-36.50358881011191,-2.338710544056177
471,2.0765393751130445,-2.676700876595128,-36.87008326947866,-3.1712997596249335
472,1.1307042234448743,-2.2862930146040306,-37.19583736356164,-4.0646412541442345
473,0.06265327523779896,-1.9048701680087992,-37.41879735578835,-4.905301657477189
474,-0.9970364766828947,-1.5423302732889703,-37.487343284971324,-5.577947042283676
475,-2.0807599079352346,-1.213455670255316,-37.37617715029207,-6.10133790200669
476,-3.325160857482263,-0.9300620775476892,-37.08660802944559,-6.60673267990043
477,-4.768798629661964,-0.6981586395548417,-36.63400641732427,-7.16792993213382
478,-6.267142667050822,-0.5230512806834485,-36.04667979481817,-7.718209628267002
479,-7.653711852323677,-0.41189437875150514,-35.374493059116894,-8.165524176582725
480,-8.905855515665053,-0.37111861053909395,-34.68396885952298,-8.504741817961508
481,-10.13141261101083,-0.4038040573756638,-34.03845145299791,-8.814382547957235
482,-11.369844962922537,-0.5107120252420327,-33.48058809841015,-9.122179081829097
483,-12.49227616475163,-0.691658777264681,-33.02692332835598,-9.336625624057223
484,-13.343308849386302,-0.9432483436298256,-32.670015850387465,-9.346458460323216
485,-13.88750357559049,-1.2586728257595468,-32.380882621461,-9.119821371038745
486,-14.22765991607713,-1.6303196132097209,-32.115546727934166,-8.729113558664904
487,-14.438885863335646,-2.0494800617293594,-31.829483093611977,-8.247501091611658
488,-14.460510077630383,-2.5034070469298717,-31.492868783801562,-7.660981001624338
489,-14.189272521197797,-2.973161449232768,-31.09601502851783,-6.912951328250849
490,-13.605942204684116,-3.4354874683518055,-30.64323839964778,-6.001314007439081
491,-12.831154706192647,-3.868693559549394,-30.143434773892515,-5.036042625276024
492,-11.986323955549317,-4.259011126969705,-29.607717607960637,-4.132093440915584
493,-11.06648506961464,-4.604682177643315,-29.05511347276179,-3.288857676162626
494,-9.999606343000988,-4.913032293690131,-28.51784932207236,-2.414144980651044
495,-8.781501771008116,-5.191412773520577,-28.03335460405652,-1.4442233134125797
496,-7.554534111644642,-5.444397455207217,-27.622441148867022,-0.4269457303325972
497,-6.479456800935872,-5.675052696775377,-27.276494663046947,0.5561814226537865
498,-5.572970929973286,-5.882032635380561,-26.961904639023476,1.5020649804071111
499,-4.7059147913414385,-6.057416465568279,-26.629939429793623,2.5019742275278514
500,-3.7669965635974556,-6.189092584992257,-26.226150022925054,3.624753877637258
501,-2.800104026028615,-6.2654131708343535,-25.700689373605517,4.809714756324254
502,-1.9763923716016276,-6.298997701285724,-25.067067768610432,5.907803026930111
503,-1.1455142692973117,-6.245221463880941,-24.236698492012234,6.9327086414666
504,-0.1925360648944778,-6.083689679822802,-23.19343336169844,7.909516241290899
505,0.8670593196784383,-5.817529377286393,-21.971853002593818,8.796073981124572
506,1.9138408468355272,-5.470582530013807,-20.64287656224704,9.496781110396132
507,2.8532225626459837,-5.080260498719924,-19.301542515270217,9.9611859558907
508,3.684588393249169,-4.687209692930485,-18.04918013812222,10.241065503961364
509,4.45050309304126,-4.326567570490284,-16.97147102326727,10.440749921282356
510,5.117976529870601,-4.02431608967272,-16.12344052178123,10.59864661301073
511,5.584899303246791,-3.796362831998921,-15.525277572267099,10.673649890358849
512,-1.1578236465715126,-0.011340607789463164,-0.4553030762733078,-1.0655560752243083
513,-1.3964638694062756,-0.03023402721117334,-0.996882948543443,-1.404514401809511
514,-1.5846826266476306,-0.065754420636943,-1.7372396310311335,-1.745657582828657
515,-1.573250948840738,-0.12328826299557182,-2.66053710362453,-1.9708519161636566
516,-1.2990996484205388,-0.20855369588914358,-3.7371914331722853,-2.0079275193506247
517,-0.8532778105819647,-0.32792729505022,-4.931855341116258,-1.885901030738263
518,-0.39743134795066576,-0.48854852277492866,-6.211300198789684,-1.6854045233555641
519,-0.014121702629566944,-0.6982039276293863,-7.54978732229257,-1.4344110645852424
520,0.29946285946511775,-0.964478370430693,-8.93252867081128,-1.1091121192268352
521,0.49911773474536647,-1.2923288654361245,-10.364530864300807,-0.7382099334562986
522,0.4271506130757419,-1.6818162994941999,-11.885797289623294,-0.4646867082828799
523,0.06719347316865516,-2.1258047516048904,-13.524862799664792,-0.33642730937292414
524,-0.4201616211821831,-2.614340783959656,-15.289134319671494,-0.27606051870957804
525,-0.8436598901179014,-3.1389200381152587,-17.158425065758575,-0.18429605163311097
526,-1.1476078414115587,-3.6923584511932592,-19.095218871198202,-0.06748154455003492
527,-1.399697125112374,-4.268106971896915,-21.05857581852826,-0.031680816351880615
528,-1.6051358164398477,-4.858700272620715,-23.016592386013183,-0.1273351018739447
529,-1.620076045504121,-5.450765751668139,-24.948441012383352,-0.2673388477171549
530,-1.3034077597749856,-6.027068878781595,-26.840342554967844,-0.33262228625935897
531,-0.6664413481198708,-6.574931455362468,-28.68238657119354,-0.28180088214726545
532,0.12973735485591226,-7.088131977988097,-30.46330584466736,-0.17034766861035916
533,0.9680491810649334,-7.563046824191092,-32.16465235934385,-0.03819636920510869
534,1.8915851630784772,-7.995925801528372,-33.756917608293115,0.17313981072235898
535,2.992302527797848,-8.381336194945431,-35.200564704236335,0.5620869127914639
536,4.271283379631764,-8.71222487710215,-36.453363625419115,1.161875266696031
537,5.5948507289966,-8.982752715125638,-37.47964200391798,1.8876950846475145
538,6.84942745015075,-9.191488207296038,-38.2547096890043,2.6469683041931424
539,8.078297030553722,-9.342370397677119,-38.765644042751184,3.450352378814023
540,9.418663497014371,-9.442742459191276,-39.016717527697445,4.382463134940805
541,10.947188486178021,-9.500099973574493,-39.0347245664127,5.486884731754589
542,12.579865828761912,-9.51993240916738,-38.86292219752868,6.686352396141019
543,14.184549659930735,-9.506799661710469,-38.54847797213179,7.870118128165384
544,15.73188374225733,-9.465861268776546,-38.13297435046786,9.011828373013714
545,17.29612824520344,-9.400674815898544,-37.641136434222005,10.177272040275437
546,18.909039455109195,-9.313841212998964,-37.07391421148255,11.404331369374642
547,20.44128765104509,-9.210239768312777,-36.414971630357286,12.600181535212654
548,21.714479738209985,-9.091383176462223,-35.646341985763904,13.622596807331027
549,22.676620994919237,-8.94969008292633,-34.76547648731966,14.418597344355593
550,23.44151252925765,-8.774256476621376,-33.786977337647066,15.067015092840201
551,24.125119443569353,-8.557831539570381,-32.7338286721273,15.64923461740661
552,24.689752539832895,-8.298952365790663,-31.632486830731565,16.115627003670312
553,25.017779832075,-8.003596870241955,-30.507411546379256,16.34273816269871
554,25.077202313914295,-7.68780044983057,-29.375918913203666,16.27997598115333
555,25.00017416117438,-7.376986394316931,-28.24743350460853,16.019369351202442
556,24.910610709911186,-7.100582354036094,-27.123503426108297,15.659429762281134
557,24.740313818097732,-6.883577707168091,-25.99637603650867,15.163576251991847
558,24.314216179375222,-6.737319146982354,-24.852653621646965,14.424874739204862
559,23.54288261265129,-6.65695511515379,-23.684035879408626,13.412204314813877
560,22.50985074044621,-6.626350970005985,-22.49305655357854,12.223123948752836
561,21.312421154504193,-6.626235471779104,-21.289113739302195,10.957971541292306
562,19.90464356082623,-6.642470552898674,-20.083964354526472,9.60590277194554
563,18.17250022461442,-6.6664017882545545,-18.894439139367904,8.097100494028204
564,16.110772363907895,-6.689293002461457,-17.744318049048683,6.438994387528779
565,13.89433835036686,-6.703569701216515,-16.653893272314516,4.764381107241723
566,11.698797795616528,-6.710572158033785,-15.625496815284654,3.192538808232066
567,9.52764716277076,-6.720820828892702,-14.647143998737336,1.7076595121262583
568,7.2782560953641005,-6.746406569267576,-13.711393981945875,0.21132897673815015
569,4.9404556973702585,-6.797197778121113,-12.820005100219465,-1.3224040256296605
570,2.668665054463914,-6.879831779800753,-11.975401790017246,-2.791596137201892
571,0.616701434745154,-6.995220611512359,-11.173978949443232,-4.09544990416053
572,-1.2169952963364028,-7.136954219131991,-10.412348674155613,-5.249045462371734
573,-2.9574425635254475,-7.294887425126596,-9.704679811878842,-6.351308326498929
574,-4.649565378905325,-7.458901678614048,-9.082739079719003,-7.430972976383478
575,-6.163018507743358,-7.619240565793268,-8.576536619902296,-8.38494464127596
576,-7.343303102296492,-7.767009188991865,-8.196219641467604,-9.083794624796298
577,-8.16281059407763,-7.893076504057277,-7.929494240211224,-9.47228550633309
578,-8.731995663953084,-7.986080179471734,-7.750729077081429,-9.598267977342315
579,-9.13003029441451,-8.03438952358751,-7.625894946180221,-9.511596056558128
580,-9.3002926938726,-8.033873755847546,-7.5116629258583,-9.180713427638764
581,-9.155088349349203,-7.993859759871718,-7.355260363376054,-8.549458768922468
582,-8.70351248682262,-7.93334149216486,-7.10273357699936,-7.626362075134206
583,-8.086937013514001,-7.8722762807199125,-6.714200542357663,-6.521318537199932
584,-7.42370351889313,-7.826178748047345,-6.177103848536244,-5.341580980969714
585,-6.6822503691872,-7.802376705901947,-5.513015545739909,-4.09155863858111
586,-5.750860226021967,-7.79538667500624,-4.770858941291108,-2.704384110956819
587,-4.5753478813002815,-7.785706471855019,-4.011434067241762,-1.1462123451165458
588,-3.2374480862881736,-7.744169942828318,-3.2955829566163417,0.5072571526002712
589,-1.8424266539543013,-7.641752880075593,-2.6702433459200576,2.147513690850344
590,-0.3825973750598742,-7.460236217817195,-2.151763654252318,3.7467243596718096
591,1.2445101753778594,-7.1941492602632895,-1.7282831366339593,5.369922773708602
592,3.08677868426785,-6.845726995041963,-1.3805701643298316,7.06765994994305
593,5.032305178033212,-6.4238449208629165,-1.0923804794051697,8.77342808478163
594,6.917366434369563,-5.946845910514945,-0.8497185613892042,10.362511037396736
595,8.686596587421338,-5.439467838663707,-0.6391675660228843,11.775535044098458
596,10.43129232185894,-4.923664866116098,-0.44736244844039336,13.065713896898355
597,12.232828056662377,-4.411385509434436,-0.2687630658420047,14.28570519832794
598,14.01144616146916,-3.9044289788981406,-0.11543058809187653,15.380202742628205
599,15.602515635192454,-3.400772250560901,-0.012725295807269763,16.23906631723105
600,16.9206393302232,-2.899548075328092,0.015750244671780406,16.810943675215672
601,18.038325356612415,-2.401889174988425,-0.03635432913540904,17.17743679405048
602,19.031234741480255,-1.9131788906176292,-0.14779670026779296,17.43876678552889
603,19.811178028873883,-1.4479008593815021,-0.2852221152578647,17.571096072800586
604,20.200933461057485,-1.027286099622454,-0.4362848916853481,17.48132194125353
605,20.10824884038899,-0.6682762879570157,-0.6171746910759571,17.148921325402284
606,19.620177216338664,-0.37737422524767356,-0.8555000922659385,16.685980722828837
607,18.8551401294426,-0.1528960062646643,-1.1757975733361508,16.201591715359296
608,17.795965181724327,0.009535142927550519,-1.589407944061142,15.665692923995284
609,16.352112657407027,0.11183447593747758,-2.089790721334702,14.96688437106892
610,14.527616758886442,0.15419358724415716,-2.6539278302997027,14.066601545670046
611,12.501877163872406,0.14136175821224442,-3.245083864946557,13.062538476115607
612,10.46349935229224,0.08016208704503752,-3.8190111162237805,12.06593238776114
613,8.425557309633675,-0.031034845694669494,-4.331257707654226,11.079280313422357
614,6.285695428074692,-0.20184692402168802,-4.736867386765109,10.025656126951528
615,4.03232039359423,-0.4405356373464607,-4.992853999817733,8.888394660500756
616,1.8242639561267593,-0.7492143821059062,-5.076552376260199,7.77560839791663
617,-0.17607377404809435,-1.1236378104831104,-5.000034077347505,6.809398207112961
618,-1.9634660790130967,-1.553254283301563,-4.803824527884265,6.001749116984489
619,-3.64995977910316,-2.0208274154797596,-4.540988270304102,5.25660485677417
620,-5.259599280400458,-2.5019780259759927,-4.259248059835294,4.525978803273593
621,-6.637134086466764,-2.9688056927638953,-3.9814611462207523,3.8892781068284275
622,-7.6023731045693,-3.398563156721066,-3.7016302934728866,3.4400212084381225
623,-8.11012946317646,-3.778238935739898,-3.4031555931473787,3.177181553416632
624,-8.262925638597498,-4.101099702693618,-3.077649425548638,3.003627162280268
625,-8.13622992866418,-4.362455815130861,-2.7298963534843037,2.8599453585896315
626,-7.679316520918312,-4.560401783720904,-2.3737338385552604,2.8058663610317236
627,-6.826808728150433,-4.6974842151302,-2.027216661535127,2.9412576091418003
628,-5.621787435068773,-4.779437627370679,-1.7113456503837892,3.3057183951841713
629,-4.247137797938977,-4.812262000946126,-1.4488150509701414,3.839384801379285
630,-2.9523881199510877,-4.815744957016567,-1.268418684645015,4.431003048264734
631,-1.5525341932130985,-4.763499781802062,-1.168034956547909,5.216029909787647
632,0.02777698329189976,-4.646637681964195,-1.1385575961621643,6.246851168779739
633,1.7130974521227,-4.470584601633857,-1.1560300362911926,7.451690968945699
634,3.3586072817039496,-4.249545952883345,-1.1864046256533207,8.688930989304666
635,4.889433869561206,-4.002458313727909,-1.2017798472211614,9.858456620282182
636,6.321879601849412,-3.7506816847308553,-1.1888795105115357,10.935280579804045
637,7.660531180502036,-3.51503725910036,-1.1480971594151523,11.908416165821643
638,8.82096504635557,-3.3127430035501684,-1.0890973593173932,12.715038337194619
639,9.678731312720092,-3.1550593913391203,-1.0263643334498846,13.27050830895048
640,-0.17443282671713362,-0.2874334609274648,-0.6155909231627534,-0.27832495038208255
641,0.28874691433407673,-0.6442316689541276,-1.5046856575841858,-0.025800401755121494
642,1.0674962546340456,-1.1549499322777157,-2.823656230596086,0.4097244848238241
643,2.33211519388941,-1.816424830381931,-4.572372081983332,1.143622005549941
644,4.122341616994557,-2.6105218166722546,-6.71620991909969,2.1980572262802163
645,6.305546694201076,-3.5096870233316784,-9.189178465847299,3.4692158246045697
646,8.6955498124357,-4.483287987393506,-11.894476907617449,4.817355770502571
647,11.202477788786263,-5.500668461823817,-14.715388292985494,6.185331494989613
648,13.805695778661713,-6.532779048401905,-17.535767729985416,7.578994281800745
649,16.395530044665517,-7.560025319360627,-20.265965484851016,8.942002599365871
650,18.754838128809894,-8.585573518405187,-22.874223101051946,10.131274730486945
651,20.752166326817985,-9.603876810877018,-25.313876542645936,11.074524640123284
652,22.446024711664066,-10.60966381549153,-27.555959070327546,11.840601160862226
653,23.93168041828423,-11.594455449448212,-29.58882229341557,12.520730426300581
654,25.168596067351917,-12.544095501350979,-31.40710456600562,13.09589077145134
655,26.050283429302944,-13.440100828010326,-32.99779938482357,13.49243249729067
656,26.576415984148486,-14.261815966207928,-34.34179691655754,13.718554966231723
657,26.91936251359389,-14.9883400400726,-35.43053457414337,13.914143485562658
658,27.243568522160686,-15.6028118681807,-36.27567629639437,14.213795906459012
659,27.53685077268828,-16.098259434461877,-36.90306450696006,14.6107856248632
660,27.68182426201235,-16.479426153666314,-37.3408646844059,14.998725639885478
661,27.64874274388273,-16.75741451318218,-37.60898685509665,15.332549368122526
662,27.5748566318345,-16.94177358971511,-37.71573214187197,15.706062167961
663,27.60234366633786,-17.03831279290515,-37.666154384939546,16.230258341041555
664,27.714910260484583,-17.051990125362156,-37.468517758908725,16.89965004618371
665,27.78016051073034,-16.988421439485013,-37.13519262442468,17.60823806911183
666,27.755609646541618,-16.853419499833542,-36.683129496717115,18.3125090704906
667,27.77362246552051,-16.65226557199431,-36.13203288539835,19.11231041259877
668,27.979340836711458,-16.39005400165173,-35.50144058282471,20.133151228370263
669,28.373362769033836,-16.072016366965148,-34.810077691179416,21.402443836901803
670,28.81566342225772,-15.701804339694164,-34.081434081357564,22.835852987474794
671,29.21798264779805,-15.281660616939718,-33.34758468653864,24.36453786449306
672,29.653659057074087,-14.815654411916752,-32.63923988298077,26.007927737491862
673,30.23496494747723,-14.31225952634744,-31.969517966531306,27.7986156378956
674,30.974329819622124,-13.783344726386815,-31.327989096759403,29.7001779488182
675,31.754581632277432,-13.239874662156334,-30.687247140398128,31.579552446923937
676,32.482121154991404,-12.68810829985321,-30.013507465362828,33.321451620308075
677,33.20101090664661,-12.130574495884712,-29.276599661040137,34.92813852679155
678,34.015453098554495,-11.571477488757594,-28.456882533061986,36.46067449847578
679,34.954599702287645,-11.020067714646826,-27.549756275213046,37.924318863584
680,35.89868818222752,-10.48932337013334,-26.5669099922377,39.21468247820728
681,36.71238082930501,-9.993906031577326,-25.528101931279316,40.225887069698814
682,37.39450069530722,-9.547688630245563,-24.451262099942642,40.96176030684122
683,38.04991024675723,-9.158730694609602,-23.35436471887932,41.51089795022708
684,38.743674799320424,-8.825741809200485,-22.264534071902496,41.926076663949054
685,39.392538253618575,-8.540463376057831,-21.219608145241995,42.141333914534485
686,39.869443589395374,-8.293815696086602,-20.258526133639123,42.05617950789189
687,40.158048088375914,-8.080222654069285,-19.407029679434086,41.65937338873051
688,40.365393261025716,-7.897519106538238,-18.667518788938825,41.060240332350176
689,40.566599655463335,-7.743938285872746,-18.028474087366067,40.374018018072356
690,40.67266683848682,-7.616087527769855,-17.485669836769066,39.59895863425249
691,40.52686587113483,-7.511471532539078,-17.045174944004128,38.66319065635552
692,40.073473006802296,-7.429890095775998,-16.70958376862704,37.554366068248605
693,39.416795375688594,-7.3681941239770765,-16.467876025086184,36.38205174560101
694,38.66632625546415,-7.3180739478402685,-16.294585524197092,35.24765012831782
695,37.77437163963775,-7.2704087353176385,-16.15796879124827,34.10873622132614
696,36.611924314792034,-7.218888319036325,-16.030743815271013,32.84417446188449
697,35.150230960303425,-7.1609284449252755,-15.895150904792693,31.39758249169453
698,33.5433731933099,-7.096826505969921,-15.748267380816946,29.8467389600713
699,31.9463632601387,-7.029109333975941,-15.60893183380001,28.27785180634156
700,30.33153251719374,-6.9622497724919805,-15.509180058486693,26.649590774631548
701,28.57117621504437,-6.899428933729824,-15.473098912864836,24.84951844179887
702,26.623337254720127,-6.838740793047151,-15.505094580123705,22.837711868496115
703,24.612423594405804,-6.773711007888298,-15.589173705935298,20.712646560293106
704,22.665958409532692,-6.694210714810998,-15.692130308526377,18.58815480460621
705,20.751900932503663,-6.586602379955548,-15.770985245373282,16.46628434145106
706,18.747331773592354,-6.4341159028688555,-15.781472427577134,14.282739511841953
707,16.622644916701677,-6.2169057755382084,-15.677544393927603,12.050039348446388
708,14.515902254248413,-5.916123366136326,-15.411791282198225,9.910943973674058
709,12.568792038012933,-5.520568076143124,-14.950404366733512,8.004886652794227
710,10.771676878288293,-5.031551400575638,-14.28651074251965,6.340150847440524
711,9.01065231386201,-4.461790624664677,-13.442173502360513,4.819738230907337
712,7.258022811897213,-3.8278929213503226,-12.461286621539067,3.3965780770757608
713,5.656018621106674,-3.1465060132800455,-11.396101154875705,2.1496504683224646
714,4.354647379922937,-2.435568586856899,-10.297391839248688,1.1644637820084793
715,3.349172796071936,-1.7146851631842528,-9.20768568267482,0.41022158080143933
716,2.4933759848256414,-1.0044404020304742,-8.156720263517908,-0.2501094963723513
717,1.6957490805088549,-0.32457826839715076,-7.161877724030552,-0.9090778059706452
718,1.0238645308228094,0.30834403737884936,-6.228427007101865,-1.5371825629382796
719,0.5735184910650019,0.8832164933148356,-5.355410164776722,-2.067420210258405
720,0.3313666613294962,1.3965471606709376,-4.547713553090658,-2.4845559097085634
721,0.15721486319221906,1.8506676887072921,-3.817565045025788,-2.853416137280815
722,-0.048981882085570985,2.2482406471056082,-3.1754558810847375,-3.214161587708087
723,-0.23156989313362875,2.589511775302067,-2.6236016302789276,-3.500133977740889
724,-0.2746302263639464,2.871065851621592,-2.157713000591798,-3.602426757974703
725,-0.1376467674259209,3.084959676521761,-1.772195860056277,-3.475230246933986
726,0.08333110111897339,3.2227367404152214,-1.4603949584305498,-3.1896938255506146
727,0.287259409804309,3.28106271314218,-1.2119418235612178,-2.835808377208472
728,0.5022357712913113,3.2628253762403396,-1.013146943007254,-2.420959934090327
729,0.8367432609060061,3.174171265804198,-0.8472828465307111,-1.9014613802879847
730,1.329095450515029,3.022494601021716,-0.692852335962719,-1.2935580071989858
731,1.851668036036885,2.8155215691060493,-0.5248361143011321,-0.7415069045173227
732,2.243701670918878,2.566639514856806,-0.3211574719408679,-0.4017937791275125
733,2.4836438660778613,2.306640906437605,-0.0696410223687795,-0.2953608184891189
734,2.689026455383706,2.0770762325479444,0.22950058995560377,-0.3040011528577664
735,2.9503037258405533,1.9085278118043572,0.5669603229505756,-0.30610424809100956
736,3.1981805878053584,1.814139333801727,0.9365165092219092,-0.2931388026651746
737,3.2920615447431607,1.7953605918513666,1.34788697884475,-0.3315045611827995
738,3.1930569835361573,1.8497804878879618,1.8187805279654132,-0.4383414371912925
739,3.0525273255964183,1.9799119927894395,2.353194554115402,-0.49303191316209394
740,3.039065584224412,2.1904442131599158,2.941234063950279,-0.367572643456777
741,3.1126505283736403,2.4775787722047,3.574312042708308,-0.10750497337015555
742,3.101996127566053,2.828941360067619,4.247201106559275,0.1293859625857688
743,2.9158153967985974,3.229965608758178,4.955138798579518,0.2386907070485142
744,2.621225001634168,3.6654196795966505,5.69721624037485,0.22747630850651468
745,2.2744780086035488,4.119880970802031,6.474026280410389,0.10004240263023156
746,1.7523578908667166,4.5820962491890285,7.282687229250798,-0.24625733704396668
747,0.8497738487286869,5.0478828468560435,8.106618873553206,-0.9472277038979113
748,-0.4915900411596882,5.517490846809309,8.899458193662122,-2.0066622990157823
749,-2.0790829430636646,5.992085570151893,9.596455018374629,-3.2291802330956303
750,-3.6953722928051147,6.461309273929044,10.15704674336398,-4.415260878741507
751,-5.348501425607755,6.892061918174345,10.59960496295296,-5.570875616857532
752,-7.185301905467422,7.248242746036896,10.979026720524235,-6.831413698737928
753,-9.262220761666512,7.507130482134234,11.33409098904041,-8.264764586697115
754,-11.494291374775695,7.653970493140848,11.675425799265811,-9.837429142804003
755,-13.823087513249842,7.681089629532766,12.000476447705054,-11.538646673580292
756,-16.34527325252439,7.584916650618535,12.306871337537025,-13.471997195918833
757,-19.23191545092749,7.36725217985497,12.602236908296165,-15.804512458252653
758,-22.421302780473066,7.18491379252188,12.946036462564727,-18.479895221441787
759,-25.952790093443994,6.805788278802842,13.266944448732913,-21.659707417292353
760,-29.776211866045486,6.114678257116684,13.509957937586424,-25.34239917318665
761,-33.848124928476125,5.086369645345306,13.635871950200249,-29.45412898781062
762,-38.04320557856749,3.765068520778279,13.62104978787465,-33.81335995437033
763,-42.07380380592632,2.241936953327519,13.464952751750996,-38.107392593525034
764,-45.58929053319114,0.6303518017664329,13.19746411895113,-41.98389167091021
765,-48.40034199997681,-0.9540443474172423,12.88286036583751,-45.221148948695046
766,-50.55001357304732,-2.40431009065728,12.598296005498268,-47.78810697681158
767,-52.16831963780626,-3.626574993098239,12.388289478028517,-49.73798634315405
768,-0.7001744890138699,-1.0698486112696357,-0.7504408969451122,-1.5687102559174
769,-1.504258115266621,-2.2065278276924065,-2.6092182067186105,-3.399875905906446
770,-2.616234806514598,-3.8483787558360767,-5.670869600495801,-5.928133341126064
771,-3.9078668399430105,-6.057845332182174,-10.129423455182357,-8.9670996805421
772,-5.302891295067051,-8.853188485836181,-16.148101036516348,-12.331696062377627
773,-6.784780910236666,-12.192545524760154,-23.849815851665674,-15.86389351528372
774,-8.299011339194491,-15.975561190306689,-33.273748443831934,-19.366957928494994
775,-9.708904297948186,-20.061584654268735,-44.38177435247646,-22.589825361885868
776,-10.873707842788544,-24.29610879411674,-57.15783106433814,-25.311239307459456
777,-11.799297601782504,-28.543659977588547,-71.71119219564189,-27.488452948090433
778,-12.654379635434395,-32.72840335090272,-88.33739305470759,-29.30159010684226
779,-13.517312466660114,-36.71941617696473,-107.38045738800687,-30.827746136296955
780,-14.341784107005452,-40.38872024729852,-129.2225971358387,-32.03715061732331
781,-15.07561082400039,-43.63941978267982,-154.1723706370053,-32.88517777789522
782,-15.779185303811373,-46.41863349893986,-182.35941068760735,-33.407654865594196
783,-16.541393330272513,-48.71852245350369,-213.70060047248555,-33.66564252772209
784,-17.31659609460669,-50.56998474093849,-247.9074085018598,-33.615462050912626
785,-17.882262485269955,-52.02169436038383,-284.5002116008524,-33.063451937808914
786,-18.03316498821705,-53.10787613681659,-322.84297662794364,-31.847139656957573
787,-17.754659361262245,-53.825281389756,-362.2028545491779,-30.00276029169282
788,-17.137319620766338,-54.14874959656949,-401.7988608052035,-27.68663616468688
789,-16.221658932461626,-54.062598025235026,-440.8502590168084,-25.018807188076984
790,-14.934674493132455,-53.56754005119249,-478.6624650235595,-22.012950148891978
791,-13.233492724995605,-52.66670722989712,-514.7078410596572,-18.694326291527332
792,-11.25878576635933,-51.3671882412049,-548.6322671143729,-15.21945846527093
793,-9.242372314286714,-49.70680634269885,-580.1798466762662,-11.798574272315113
794,-7.300034518259067,-47.762307667898654,-609.1317068683934,-8.528871733197425
795,-5.342219345423028,-45.6278171988556,-635.3141086964878,-5.31402371044637
796,-3.2515617695444976,-43.388494470324524,-658.6107081635055,-2.0183333085617505
797,-1.053546342595201,-41.103326049436816,-678.9558617825791,1.3693804941763483
798,1.1413748278816471,-38.794246905772376,-696.3286859562131,4.775152042473727
799,3.296672016513333,-36.4429788909572,-710.7476690063731,8.181204956504555
800,5.536685051766699,-34.00867566452551,-722.2653265106483,11.711445642570597
801,7.965057791473379,-31.450116105421696,-730.963148433652,15.478074450868059
802,10.452581656724714,-28.737459044592853,-736.9468600920852,19.37777732397345
803,12.717218293682178,-25.858955998799225,-740.342012388347,23.14746668165431
804,14.575566460737841,-22.82662897177472,-741.2899108213336,26.595857017061988
805,16.051850566218448,-19.674232739365625,-739.9438875162155,29.698129011448852
806,17.235717249225395,-16.446626528021707,-736.4659158842611,32.48500707589806
807,18.143357795389143,-13.199148597504477,-731.0235635012514,34.942492469519664
808,18.73971872312458,-10.001391153948834,-723.7872753472899,37.01811919962405
809,19.09591517474255,-6.919691652090768,-714.9279766476196,38.751119248875
810,19.44756542163188,-3.990234873239496,-704.6149197109205,40.32842496717343
811,20.016616710352505,-1.2245174634191505,-693.0138723216132,41.94070886870844
812,20.85084191910768,1.365775597153936,-680.2803465081965,43.64901053398849
813,21.83690445368537,3.764636838930673,-666.5535390123165,45.38012558314108
814,22.878802316188064,5.962443391489009,-651.9739912463981,47.073807582141114
815,23.997462945758762,7.9637314392309815,-636.709512106749,48.77134876359448
816,25.23764950181852,9.78243021311081,-620.9448753530837,50.53624562303685
817,26.553288338882858,11.43690589201139,-604.8397813608817,52.34472844580052
818,27.777707912424304,12.958724399428188,-588.4977109641167,54.045261394666866
819,28.807233211467285,14.393819734290817,-571.9652937432301,55.5246868810415
820,29.71637178812547,15.78852575968559,-555.2346105959302,56.81975070746258
821,30.63027488521824,17.17173177716728,-538.2158828055256,58.0142195762747
822,31.586417615476858,18.54540163726182,-520.7166655670816,59.13341634727944
823,32.47480195589106,19.89311807849598,-502.473647239917,60.09638269249611
824,33.157243571760155,21.190777024183266,-483.20791985551335,60.79796876140604
825,33.62360139740253,22.412643450509773,-462.66242339102905,61.238358531317814
826,34.00254188850839,23.53916170459433,-440.6147168337016,61.54701632456236
827,34.41875338800557,24.564810686832068,-416.87952993910085,61.852859998472795
828,34.85940388864797,25.504961547159677,-391.29488640414064,62.158340209712435
829,35.26091124743824,26.39000407157108,-363.7068580004977,62.40809820482265
830,35.651305331481346,27.246483268986687,-334.0194252827976,62.61643938203704
831,36.17363716975614,28.088366508352763,-302.24500535657614,62.90092535452859
832,36.933066110397306,28.919392679381932,-268.4277093439119,63.344948906835526
833,37.8458463871863,29.737132242990576,-232.52864143664942,63.865005164204284
834,38.72200227822613,30.53919800132646,-194.44768493940137,64.28899703880276
835,39.46106504298166,31.325910529751877,-154.07173784360654,64.52984803472211
836,40.15196338537845,32.096723997380835,-111.19410938245706,64.6662718729869
837,40.90180210328443,32.84885126690469,-65.44357024503311,64.7895924800195
838,41.65664450255985,33.58029883008568,-16.32882742355353,64.86169573782608
839,42.27824121250072,34.29152320500638,36.668816572432696,64.78409229224717
840,42.704790047931986,34.981290661207936,94.01703702960266,64.51762044840581
841,43.02560226406646,35.639699873758,156.0546149619327,64.12866978748568
842,43.32059464597511,36.251490376619756,222.88670804965724,63.66698294432542
843,43.491384939383735,36.804252024514184,294.2906893759576,63.0524679505768
844,43.33837064906954,37.28793174446849,369.6737042129647,62.146820226191
845,42.763456983408524,37.693467896203174,448.09536662797984,60.9102594734876
846,41.86508512630932,38.0169266816798,528.3540786868036,59.45233808090325
847,40.77641463284546,38.26259564580674,609.1376857616419,57.88729307348175
848,39.5021410237397,38.44095506630911,689.1789201120259,56.2104794710893
849,37.96752034384721,38.56254413563193,767.307672670236,54.33980572023759
850,36.201129278675054,38.633614188291034,842.4550291787881,52.26584012641285
851,34.40519291673497,38.658022390859934,913.7402935241606,50.107259894084315
852,32.76921590182223,38.640150417690506,980.5612857998531,47.968570941662826
853,31.293929155119475,38.582436371879666,1042.5220080598262,45.81484095322517
854,29.83232293190572,38.48405424002416,1099.309723128822,43.50567419561356
855,28.307297017587782,38.34477403137421,1150.686618331574,40.96844848642917
856,26.80975038666664,38.16615847153312,1196.5092535746448,38.27649421594744
857,25.446051585677978,37.948550886394415,1236.7193788505033,35.53461857135229
858,24.198465313770143,37.689553466853326,1271.3347300058333,32.77605249567854
859,22.937493943768537,37.38842546769282,1300.4387092311943,29.95288311679909
860,21.59834379745356,37.049566313962515,1324.1707999704226,27.041033839313698
861,20.279591736163155,36.680204970288585,1342.7175442205328,24.109919895114373
862,19.11995023401191,36.287500437476,1356.304116520635,21.259953082335954
863,18.148914678338805,35.87549348067882,1365.1865173621131,18.5248291888952
864,17.25393892398374,35.44441704867556,1369.6443984234222,15.81971431852092
865,16.336708175433273,34.993678807840645,1369.9747815839203,13.041365318431621
866,15.429823772373693,34.523694132785124,1366.4866821652047,10.177257326452837
867,14.627558979170914,34.03422908169512,1359.4959487015806,7.28897842852667
868,13.9495981379403,33.52015934675734,1349.3203673162445,4.409926293291964
869,13.268396209384319,32.97014961525683,1336.2756059688575,1.468440961015272
870,12.446641984463884,32.3725297589285,1320.6718157645691,-1.6225293805895298
871,11.491502409956773,31.72388818025534,1302.8106767379184,-4.842581510708266
872,10.534618320670216,31.031134048066253,1282.9829289184704,-8.053576201740436
873,9.673962850970568,30.30772860809211,1261.4663547795299,-11.121508133426296
874,8.853988943474308,29.570481373680245,1238.524178223813,-14.027833986286565
875,7.963920571139422,28.83323405883383,1214.4038448502677,-16.81355670967496
876,6.986566602265731,28.097016919554022,1189.3359608422302,-19.473799782042754
877,6.0315515514506854,27.34695563997868,1163.5333819378882,-21.91754817853093
878,5.1966482059424965,26.56149487029362,1137.1855623995252,-24.069749036279124
879,4.4296056878480385,25.724139020397978,1110.460231473455,-25.98539944989774
880,3.6049389052089036,24.826873989196148,1083.5240126617039,-27.789572259827796
881,2.680041059111339,23.868522215342587,1056.5473949334648,-29.539049403358298
882,1.769924084382941,22.85390635045695,1029.687216340443,-31.159188494402933
883,0.9985807775171335,21.793046457721932,1003.0745225660849,-32.57584366835352
884,0.3211596683919389,20.69824143337258,976.7988977822439,-33.85281377667954
885,-0.39486228757558023,19.58058276715989,950.890600408915,-35.116608399571064
886,-1.1818998873331075,18.511460262598803,926.7121373483334,-36.41063870461129
887,-1.9921778391230496,17.384348611714746,901.9348100796682,-37.699157081494405
888,-2.8273632523342958,16.160195808812933,875.6364695321081,-38.968055457308715
889,-3.7612493188222436,14.847864430297724,847.9144635209259,-40.26244141249218
890,-4.822424711731833,13.487751769324204,819.5454179299047,-41.60218944598403
891,-5.906907866174159,12.1387746574531,791.69064713139,-42.90142925883699
892,-6.8433967785509795,10.866367104653543,765.6459525857283,-44.015171564897216
893,-7.558678845407275,9.732711106845843,742.6345483346342,-44.872255014256694
894,-8.112336500774786,8.790074733483609,723.6418463022891,-45.51092945945706
895,-8.576342370326287,8.07405454332276,709.290841124209,-45.99484950428463
896,0.69742762793033,-0.00045355840975042083,7.99408617873853,0.45065818655185397
897,1.277856034184391,0.1266559298520978,17.238006966130033,0.8335587909863551
898,1.9985482402703298,0.33636351742534654,30.350366268734348,1.3011510307821168
899,2.8782093380164855,0.6302691252136741,47.28387454841962,1.850352725917747
900,3.8224804299630075,0.9991205354480487,67.61326214047281,2.3925304236349274
901,4.680878297487727,1.4236112474531732,90.5731940019741,2.802223569515389
902,5.3826237316753955,1.878173433386864,115.13653365480545,3.0164082032012494
903,5.966642209718742,2.3382952870038904,140.14879324601802,3.0631871894185356
904,6.498440615308457,2.7854998208502595,164.53416011435633,3.0079101736454987
905,6.989482367254248,3.2092726996838055,187.5536532331386,2.8809645293228128
906,7.438541194907651,3.608877723352621,209.113351973094,2.6952811300173365
907,7.91793083458081,3.993537106446564,228.88021181950424,2.515434888013161
908,8.53414177027447,4.375444944806479,246.58210176370272,2.443265414251467
909,9.296824314038863,4.76049373989292,262.0255449362349,2.5172147128660973
910,10.06483426867611,5.14595235218486,275.0965548341751,2.652063857944964
911,10.714284318293226,5.523463589624627,285.73281344982786,2.756641368400625
912,11.277630036852038,5.881575034097324,293.89804809072103,2.8452241690138957
913,11.874189137993854,6.206727836691898,299.574768355608,2.996978309995678
914,12.562345735066353,6.484795448074241,302.7686514767991,3.2485782632883438
915,13.25720390294439,6.704123504654733,303.5175408499398,3.528074699446873
916,13.859050219404864,6.859926514023782,301.8935869721112,3.7469857090763794
917,14.396909354957828,6.954925603735915,298.0019287249711,3.9075153535606635
918,15.00334570325111,6.994897906629607,291.97755392886626,4.091512058147241
919,15.760078033140637,6.984261717991803,283.98598579638247,4.352732120715791
920,16.582759781290715,6.923007658705603,274.23142442444055,4.630899935247273
921,17.327339250321437,6.808805523261361,262.9493389060665,4.819769077457058
922,17.946206396541985,6.643433645627546,250.3867702195569,4.883583669261235
923,18.51712997865988,6.434649233140294,236.78857835971573,4.895490922148762
924,19.101178101876847,6.192958630035493,222.38561076538974,4.9275495898509565
925,19.611374972973426,5.929933081619166,207.3894225267649,4.939460894288841
926,19.898930673350314,5.659109149303139,191.98720393975515,4.836974719112739
927,19.921541899376642,5.394503052719238,176.33465849187104,4.601700265167672
928,19.81511753304384,5.147012809315649,160.56612370763148,4.3488601045905115
929,19.724319967641083,4.921813260065788,144.81108944962153,4.186883966278362
930,19.620299330983787,4.718752992235187,129.1980700017999,4.077345173509036
931,19.378860420101958,4.535611538765994,113.85062404793311,3.904204662795572
932,18.969189159551068,4.368546229130979,98.87886831496672,3.620610941402419
933,18.532151338045615,4.207458431751681,84.37130706405668,3.3122763623515645
934,18.19615832783849,4.035106449746747,70.39778446271717,3.0682496035817004
935,17.895444419896965,3.8353559429274378,57.02158935270128,2.8468216004735836
936,17.449723886021708,3.601182786628641,44.30722705508858,2.5259090508143873
937,16.75633552159196,3.3350495805437306,32.314778445299446,2.048421970110759
938,15.87934922263978,3.0458533300136645,21.079558973657317,1.4925232819169483
939,14.892631688115829,2.7488332330273764,10.59819890989126,0.9571931412572052
940,13.724240581568406,2.467010066929844,0.8348032670854817,0.4386667958518202
941,12.22968538432196,2.2278422957883994,-8.271565054607375,-0.1445964431539374
942,10.385034560816148,2.054727889679847,-16.799046190338522,-0.8171267353779019
943,8.368527190089873,1.9593565904523191,-24.827043310214265,-1.4794495053346348
944,6.385966994304216,1.9411329087978488,-32.416726233920464,-2.03111140746353
945,4.476343053139201,1.990282192336481,-39.60227760895455,-2.5008444731085437
946,2.5328167440640343,2.0885295426870916,-46.39892643301921,-3.0182875355992276
947,0.5170201190396932,2.211537910536395,-52.80408175404071,-3.647590326103453
948,-1.4355661940668347,2.334498418559154,-58.78961205956668,-4.311076159397336
949,-3.1730158045791605,2.4380593290944326,-64.30683986795506,-4.9057431121364115
950,-4.675117747991485,2.51400821996276,-69.3001225079421,-5.4123141206543695
951,-6.035172236935206,2.5672469976787755,-73.72321939876407,-5.8918800674757374
952,-7.283119287382303,2.6115405465161663,-77.56531235204878,-6.36028790961215
953,-8.302607523750922,2.664280554977089,-80.87019614081274,-6.724202558787701
954,-8.95952662598784,2.7442501844954994,-83.730040523444,-6.872898752873419
955,-9.239316981215854,2.8685515522607012,-86.26037724696636,-6.786950088564176
956,-9.287912637937245,3.047066449442999,-88.56835154795937,-6.582168780598621
957,-9.254679735410262,3.2766545605804507,-90.73692935108559,-6.393489737146234
958,-9.165677573133534,3.5399718582890314,-92.83104984719165,-6.2584860672299705
959,-8.996131191865647,3.8107281450700725,-94.89617682558581,-6.148348030360737
960,-8.78271981399579,4.0591140771613246,-96.94419327123717,-6.0642346989418
961,-8.665520611667977,4.255021591103496,-98.96258631292834,-6.087411245756711
962,-8.740971765816518,4.372891790837437,-100.95126912945524,-6.276339369755574
963,-8.926386109254555,4.398274479192839,-102.93952646172015,-6.573082083944541
964,-9.01848252756479,4.32941854303629,-104.96807890356064,-6.844520367368788
965,-8.870558189182836,4.173206524666043,-107.06696711591717,-6.998676650518485
966,-8.512481280317784,3.941456928080374,-109.2414897069252,-7.060545478523673
967,-8.04827346192269,3.6477422256420344,-111.46697707368588,-7.096944317638076
968,-7.504185478001136,3.304749332716942,-113.69302790101585,-7.1074489945720245
969,-6.794851883794298,2.9224011847122178,-115.84634057829288,-7.000420627314619
970,-5.864195288905296,2.505568974538833,-117.83612386638309,-6.702398793980352
971,-4.823136873302048,2.0536286067924494,-119.57218102559045,-6.26555537992642
972,-3.857202418697685,1.562832967723491,-120.98491505592958,-5.804558553497432
973,-3.052807822210546,1.0298468585353913,-122.03836770186052,-5.36033267310513
974,-2.3339179717601124,0.45466547387533773,-122.73456135667436,-4.840885643799212
975,-1.6236523315958291,-0.157712994662728,-123.1066511512478,-4.159464801028392
976,-0.9998951844260761,-0.7966322898944064,-123.21365064481382,-3.373579710862947
977,-0.6159651664183984,-1.447125078415803,-123.14376464041425,-2.624005691696702
978,-0.5361891091528466,-2.0923102744329176,-123.00055661424109,-1.9963459127635395
979,-0.656553751436602,-2.716112009225618,-122.86392914060606,-1.4485907273096053
980,-0.8608912656581569,-3.3063024777171512,-122.77049811577855,-0.9228407916045694
981,-1.1842206809437823,-3.8546003527675023,-122.72891831215496,-0.4663291598456753
982,-1.7350966109937676,-4.354546067989965,-122.73630613351045,-0.18176742287876646
983,-2.5183601580551835,-4.801002030152092,-122.78043983705388,-0.10633195717741036
984,-3.366069359367373,-5.190177086758576,-122.83815190600612,-0.15917879622818792
985,-4.116913424002625,-5.519576146070954,-122.87632475510122,-0.2536933044044179
986,-4.798134495934481,-5.788333765971184,-122.85884743768082,-0.4120602540614623
987,-5.562391450850848,-5.997770419414062,-122.7580369027227,-0.7275692745936718
988,-6.479431489922723,-6.152858666238797,-122.55816167391707,-1.2269092737209812
989,-7.442533772106866,-6.262145887961645,-122.25236155288808,-1.8084166546709715
990,-8.327571740941798,-6.334968490544564,-121.84081792292461,-2.3685778173654346
991,-9.149173506345127,-6.378621234004451,-121.33387914684066,-2.925355842349724
992,-10.021006723784414,-6.395468284590992,-120.75656510233912,-3.5806296863154765
993,-10.968703057251911,-6.3820304114902875,-120.14399277571093,-4.3639029693154825
994,-11.846403030631864,-6.332126206747604,-119.52846576674602,-5.170023870411831
995,-12.488939319353772,-6.239314155444784,-118.92809222629333,-5.8812875035672105
996,-12.868952217868419,-6.099188094784946,-118.34369576900747,-6.485843838271888
997,-13.103977194986808,-5.912497192949317,-117.76141736922494,-7.073195634050488
998,-13.280332102220456,-5.684340531167696,-117.15450480187964,-7.693010728562495
999,-13.342347426537984,-5.420567453635407,-116.48652160569502,-8.276468345922153
1000,-13.205631794231818,-5.125717297650904,-115.7199281762808,-8.724141349285144
1001,-12.888894922023368,-4.803796749716355,-114.82696886710896,-9.004800205056373
1002,-12.530793369596525,-4.459731149966358,-113.79454668810475,-9.178626227439926
1003,-12.225055892243448,-4.097926194199396,-112.619410715303,-9.292624754265265
1004,-11.909559074107088,-3.7194282947041977,-111.30465123670253,-9.298637359580882
1005,-11.458550389804849,-3.3207851912245543,-109.86600283601376,-9.105497571360921
1006,-10.821202016284035,-2.897570048216234,-108.33708930680923,-8.680804796909595
1007,-10.088666066941666,-2.452024792801379,-106.76146249588876,-8.103607936927283
1008,-9.364158190854205,-1.994357995843487,-105.1763372698687,-7.465012095224381
1009,-8.622964642700254,-1.5377086309191117,-103.5986662406462,-6.7633516302530525
1010,-7.74347398925304,-1.0961906089554825,-102.02765087855265,-5.923673026667117
1011,-6.65750027871117,-0.68492369001013,-100.46077793428134,-4.9037045983112
1012,-5.462094914408502,-0.3190679839600647,-98.90086423933718,-3.7745448288959276
1013,-4.293794851797005,-0.010529618156326921,-97.35169117936353,-2.632913337554801
1014,-3.2046806411848228,0.24272514129973222,-95.85414063641988,-1.5380226501965304
1015,-2.097133148288736,0.43932840250433175,-94.34639728437374,-0.39451683930821724
1016,-0.9983095063606431,0.5818327972454971,-92.82571704620027,0.7827459570255129
1017,-0.017796425943987476,0.676148288305003,-91.3256024415615,1.905780695550512
1018,0.7896218784722837,0.7317584967192666,-89.89637134483661,2.914039946235419
1019,1.467396521495545,0.7596563549360994,-88.59161590441363,3.812294800217296
1020,2.0833319169082922,0.7690334771234855,-87.45745266785576,4.626297997095725
1021,2.625845790175236,0.7652227134394324,-86.52461077707001,5.33202852928516
1022,3.0182946749264237,0.7512408888700958,-85.80421927944124,5.865188949380838
1023,3.2320670123504844,0.7311372039536342,-85.28924103923767,6.2010679091831
1024,0.8817522114281021,-0.041096390570661466,-0.3983039101356849,0.6098092811328059
1025,1.5583735649409702,-0.02781949472409022,-0.786294226756654,1.0477771491870709
1026,2.440318741783609,0.019561190530566472,-1.2532046027928447,1.5951753757731109
1027,3.518936545363852,0.11735498577240232,-1.7665199840124444,2.230276230673172
1028,4.648873599995719,0.2846024273459347,-2.2949471126281002,2.8300991167204015
1029,5.655810847695372,0.5371327669822101,-2.8045991092685116,3.251053639393833
1030,6.477500151094215,0.8790422481375789,-3.25985868875472,3.436054220352793
1031,7.147476934007619,1.298064065637625,-3.630073180388532,3.4118022129958256
1032,7.656676195008169,1.7663835985303191,-3.8989526406023733,3.1968448130646587
1033,7.9274260752631855,2.2464423853278404,-4.074922075999004,2.7754219490646777
1034,7.921125353833261,2.699201232546383,-4.199476198130856,2.160848829024779
1035,7.729030593881471,3.0932923601120765,-4.309549562591632,1.460114272390321
1036,7.469341132391214,3.4094514999543395,-4.437074446517312,0.8014169917759004
1037,7.127414479793567,3.639211452342404,-4.595173358113998,0.20469114645832232
1038,6.583276845221152,3.782393762980218,-4.776816819203371,-0.41190503993086713
1039,5.810430949105016,3.847456721432676,-4.970861168200394,-1.0828479470718464
1040,4.963446473005659,3.8521120353721767,-5.1721914874601085,-1.7239292187149884
1041,4.214307303365625,3.820382381621724,-5.382415844303182,-2.2414813380200305
1042,3.5952453551825454,3.775749424637185,-5.601912906835172,-2.6482471724892753
1043,3.0175848701537022,3.733329978994726,-5.819438543623942,-3.058493951826505
1044,2.45862877208713,3.6966183582542804,-6.0125758416700155,-3.5361396539440397
1045,2.053198274229245,3.6606193290669546,-6.1562612619497,-4.015359796496231
1046,1.948220738479945,3.6175537016610013,-6.233815407780129,-4.39729866560265
1047,2.1604702043187958,3.5615244913558874,-6.2372403452851115,-4.640650473986456
1048,2.569268446222477,3.490825956544824,-6.156966484115241,-4.779427835844081
1049,3.081414516534187,3.408469524412979,-5.978201389153774,-4.8272367513694325
1050,3.7301784902161934,3.320812438907166,-5.686403649685993,-4.712797728795955
1051,4.572168756611291,3.233534597022508,-5.272507357330034,-4.342643921982264
1052,5.574469222921485,3.1469520283909276,-4.739524039849814,-3.6925113945238346
1053,6.585512081838736,3.058114322296522,-4.112193185467239,-2.8557112916181246
1054,7.477088187469067,2.968545110242968,-3.436027943553187,-1.940317078230425
1055,8.271269543084095,2.8839082036446255,-2.764374623059342,-0.9619491531399185
1056,9.083582995142386,2.8065551605165866,-2.1431690291838534,0.12731955490369645
1057,9.972249377685879,2.73350555602288,-1.6012424215376797,1.3342469338266905
1058,10.842978817522244,2.6603918077960027,-1.1477585456654842,2.556674548412566
1059,11.563029394466405,2.5858174503579603,-0.7740586503125877,3.6723276557376305
1060,12.115128439987966,2.5125675860978234,-0.45427591676344065,4.659883175330756
1061,12.612154205795665,2.4450306345349575,-0.1426399903921689,5.608684644772674
1062,13.145752700755642,2.385982414547296,0.218458300477018,6.5946024012833675
1063,13.65126310051868,2.3382612350217493,0.674305257534553,7.573859319134952
1064,14.006131709366485,2.3093232122246494,1.236365858256997,8.443203561006333
1065,14.194614618421738,2.309365344217447,1.8796445932492882,9.159251208697066
1066,14.34919093326669,2.3445655277093684,2.5592279004400473,9.79197266435218
1067,14.58630064723099,2.4141598283044985,3.232150530635339,10.4117744806601
1068,14.84592477073501,2.512845696312331,3.8674750203838033,10.96211071166925
1069,14.965014385556444,2.6331974329365058,4.450229091965038,11.31346304950508
1070,14.845938131745,2.7659564618916446,4.9869412325453935,11.406820355499457
1071,14.549645078987135,2.9006006595169405,5.497010528867281,11.32666116850006
1072,14.152126272410907,3.0266902853220623,5.990159479058153,11.170189337579076
1073,13.576062498878432,3.135086589465019,6.4573023634822935,10.908365640132464
1074,12.66576017514728,3.217547238705298,6.87685685377916,10.436454302388068
1075,11.372597787867432,3.2677729169097054,7.215752258296345,9.706708669690023
1076,9.84054942474688,3.2856213008159534,7.425124477578225,8.797666913236258
1077,8.233920071732676,3.277448657771275,7.447164481500106,7.795073231200571
1078,6.556129852832747,3.2518668580095835,7.234244404019767,6.660820103323136
1079,4.712841671365912,3.2140654480351767,6.7711587481955435,5.286082806817629
1080,2.7023554044238858,3.1611982636170235,6.087939946620319,3.642367688868186
1081,0.6946989238254552,3.0817193548800996,5.251165888433521,1.8453831811073598
1082,-1.1443860507691517,2.960752932945739,4.339506237895627,0.034553840772990896
1083,-2.8244475240137925,2.788788928430051,3.4212454634749947,-1.7538555101820332
1084,-4.473100252951137,2.564111339219443,2.546209636844088,-3.566173516825372
1085,-6.132993426231844,2.2895516020126254,1.749551550360376,-5.389493172098941
1086,-7.6786279563248945,1.9697212267057238,1.0550557805285499,-7.090562187673456
1087,-8.971965133804627,1.6095240258022132,0.4748614716911857,-8.539401697753288
1088,-10.011008994885051,1.2119181653014,0.013560957059285459,-9.724915182588903
1089,-10.910369379200407,0.7799563947978989,-0.32765357890823127,-10.735025096054844
1090,-11.71526581182394,0.32485507938756736,-0.5539543713820897,-11.610567369894369
1091,-12.315304901077912,-0.13539883394578892,-0.679367167680554,-12.283535995540168
1092,-12.590665812147893,-0.5868545926298269,-0.7209204831681328,-12.674580067545353
1093,-12.551218469328225,-1.026113445480464,-0.6919210509910398,-12.785993964892585
1094,-12.34381312590573,-1.4596516484277917,-0.6091759396869352,-12.719786778471768
1095,-12.080063709604511,-1.8979156492707747,-0.502273139103603,-12.557238818502407
1096,-11.72593356503109,-2.349988042570093,-0.40510005952913675,-12.273440234438514
1097,-11.199759240826328,-2.8203291016484675,-0.34600052503982665,-11.800226607240084
1098,-10.50276444497748,-3.307705771716101,-0.3466551414779979,-11.124867031030748
1099,-9.768446776971738,-3.8077000148654974,-0.41932078359813374,-10.345525346093714
1100,-9.117383316317584,-4.3155571738926755,-0.565224227843036,-9.57004509383441
1101,-8.527294543002624,-4.825719237275259,-0.7775560427712144,-8.801718844182346
1102,-7.89158400965695,-5.329800455792681,-1.0461110045153572,-7.965250299940483
1103,-7.162535326548234,-5.81820800026072,-1.36072202725382,-7.022826889697958
1104,-6.4420553657961,-6.282456200796525,-1.712250700329567,-6.055702717471623
1105,-5.8684102652625905,-6.715601199029125,-2.09140029171555,-5.178367106359529
1106,-5.461075232137664,-7.113597649076046,-2.4845535531222454,-4.4168731562850985
1107,-5.1065420797863315,-7.477320961722837,-2.8713279018097926,-3.696765092351265
1108,-4.706748416840575,-7.810980253338062,-3.2277286888990804,-2.9528309240294637
1109,-4.311717736567321,-8.116958634212395,-3.531594296745836,-2.22929470376644
1110,-4.028542377532563,-8.39432433008346,-3.767573987862295,-1.6255504361381234
1111,-3.8680962564147996,-8.639971901140187,-3.9303329437390815,-1.1734346530359385
1112,-3.7092073492484876,-8.848865448161115,-4.02625881142671,-0.781753472432339
1113,-3.451692591251631,-9.015414743098157,-4.0742889649443566,-0.3602452315315989
1114,-3.1630099282937523,-9.133878147622408,-4.101859565268884,0.04464718037021817
1115,-2.992093719127176,-9.19835416088192,-4.13553321559379,0.30766421787873016
1116,-2.9860388752307343,-9.203756238891716,-4.198613442907467,0.37389077230740103
1117,-3.011897950134288,-9.146464874315098,-4.31455852291971,0.33267760117583445
1118,-2.9318273085467976,-9.02500800666966,-4.502186713640427,0.28001033738550896
1119,-2.7814296837503925,-8.839565303845825,-4.766344151434276,0.17529393943993224
1120,-2.6968131814719714,-8.59103022296458,-5.099890698807064,-0.09692462086644932
1121,-2.7403220133344997,-8.283043616136663,-5.4975477980843435,-0.5856320422380324
1122,-2.8154104252403145,-7.924843407266421,-5.963932210355144,-1.2105677213689083
1123,-2.8272672400052254,-7.529829602996146,-6.507764174621062,-1.8848293800494837
1124,-2.85026193650883,-7.112661550728027,-7.1296610072001885,-2.6333638983988767
1125,-3.0515448310563054,-6.685895963574914,-7.81606998211809,-3.536531639078823
1126,-3.4951721331873316,-6.255382820453984,-8.54236111530735,-4.59648927042811
1127,-4.0521745812043095,-5.819074201712142,-9.277281274978922,-5.684280256387098
1128,-4.5676523175426365,-5.371042251303127,-9.989274868300107,-6.6656013290167335
1129,-5.033514342350914,-4.909038714944163,-10.654546558866475,-7.52786180746284
1130,-5.542894990303315,-4.439160298752634,-11.260289680074688,-8.346708920117537
1131,-6.110594180888979,-3.975125853580372,-11.801365563280777,-9.13731839347552
1132,-6.5979525188981265,-3.533822415580221,-12.2741283543526,-9.795154487687034
1133,-6.877028037054344,-3.1279374521612735,-12.677016289181669,-10.2254137556266
1134,-6.98652205894462,-2.763297648857982,-13.017937290352302,-10.46339180162402
1135,-7.0913050192809886,-2.4426774080470857,-13.316336234680435,-10.64750309634061
1136,-7.278244372280392,-2.1678310189462464,-13.595197784042014,-10.856865867757989
1137,-7.457425541588963,-1.9360845301326717,-13.8686843460627,-11.03806077594773
1138,-7.49885486226856,-1.7368703194089088,-14.13204838940898,-11.10911494264565
1139,-7.377950651850457,-1.554114885240387,-14.36193611609546,-11.06257161891785
1140,-7.196080344744985,-1.3748593383510144,-14.530425703587406,-10.98936279819121
1141,-7.017119865953641,-1.197492728593781,-14.620232981727119,-10.958281712996454
1142,-6.768503318079936,-1.0247861960291016,-14.623331890228268,-10.94646021198534
1143,-6.340377916479207,-0.8912624987116449,-14.562985146174213,-10.831309643783017
1144,-5.777734241621256,-0.8220737216628204,-14.464547656342836,-10.605934165373139
1145,-5.197822358714723,-0.8282028967749608,-14.352575675214284,-10.325458673805489
1146,-4.637141390360394,-0.9049875923322022,-14.246383100575295,-10.002732190618726
1147,-4.0415128755922956,-1.0353998326843679,-14.158778538787349,-9.59735341761949
1148,-3.3923226286089596,-1.1961815858249563,-14.098718098250263,-9.097190197014772
1149,-2.7722897358191423,-1.3636033208040346,-14.072219725902528,-8.569060477863925
1150,-2.303710448911829,-1.5182268963829162,-14.080053951164352,-8.116886565664561
1151,-2.0167991459582892,-1.6461576184321944,-14.114490403513585,-7.783280125484928
1152,0.6268900784016105,0.017512580261810715,-0.4557372450611231,0.5203851715882682
1153,1.238591585637201,0.015468634220377322,-1.0200242610453585,0.9171476223598739
1154,2.149166746184741,-0.0034827685016580665,-1.8187851100448205,1.4700017558947711
1155,3.3391185191923545,-0.05174743222377882,-2.8479352188245484,2.1653346145481085
1156,4.651363566390138,-0.1398479932338645,-4.084702222680845,2.8917045709146
1157,5.931361410433693,-0.2728659041988201,-5.489234966686889,3.5301524487145346
1158,7.144823134374429,-0.4487628725178527,-7.006624000807414,4.054171753018762
1159,8.330674747646611,-0.6589717085746671,-8.57088020221837,4.50614885936527
1160,9.453820806908396,-0.8906769133466214,-10.116659336229247,4.882102667295174
1161,10.388564150734563,-1.129789624401186,-11.59671167698259,5.113130441590283
1162,11.053274756153016,-1.3631723536840301,-13.00370534325747,5.163095442121847
1163,11.513693669110916,-1.579940228836729,-14.326454836369036,5.107450151123639
1164,11.856064647193307,-1.7727068413075193,-15.564016385015249,5.03430374484412
1165,12.035872619998797,-1.9385280209746711,-16.716323158080595,4.922888406037246
1166,11.943117052738916,-2.07798070166797,-17.78116203164689,4.691100077202612
1167,11.544057646898688,-2.1935622941532924,-18.761446668877028,4.310540336116711
1168,10.958046180111047,-2.289192926398089,-19.66532895028048,3.866901634379622
1169,10.317421818353173,-2.3699297457160693,-20.493752355679103,3.4477066253393254
1170,9.599360914312664,-2.4407660185872024,-21.233232931897188,3.013486963826683
1171,8.693641407318554,-2.503635881667396,-21.863400851333175,2.451172796415556
1172,7.58555987658563,-2.557452771363186,-22.36935610818955,1.7190095945187382
1173,6.4335034061468095,-2.6025592060098117,-22.745583168397417,0.9114743251145397
1174,5.3930837438993,-2.6418914082718725,-22.995634576691433,0.1350860879821923
1175,4.439883838708945,-2.6790623329877215,-23.133941404057104,-0.6298413146046413
1176,3.4271433450017357,-2.7176590341136033,-23.187249009816362,-1.496497050872183
1177,2.280085661765143,-2.7603807449198623,-23.188443047864528,-2.5163959909342712
1178,1.0918123322456252,-2.806523225071477,-23.165161497947523,-3.606832197140793
1179,-0.022913812105570475,-2.8512950473599465,-23.13045610515076,-4.667641284475824
1180,-1.0863259212581124,-2.8897285569486275,-23.075016235544048,-5.703250219132117
1181,-2.226945466158285,-2.9210657669715387,-22.97118492936059,-6.802778464203805
1182,-3.488318539957747,-2.949481462429963,-22.787074962859613,-7.991487689138553
1183,-4.7432117912856775,-2.9819849837794146,-22.493859679331198,-9.164131847919121
1184,-5.840112229495798,-3.029069829255529,-22.067856624048343,-10.191607350734893
1185,-6.74879824821397,-3.106351467519086,-21.49732423549818,-11.028508413493956
1186,-7.562372041262877,-3.229984380271093,-20.79345611043898,-11.726568270871416
1187,-8.32363265661266,-3.409956662198127,-19.988742834522885,-12.311901520640328
1188,-8.934607765733611,-3.645850475179191,-19.11872143747528,-12.711498293100796
1189,-9.280618861624735,-3.92519112423935,-18.210022005470595,-12.834727808064923
1190,-9.358481672790777,-4.2252699140722925,-17.285016511150573,-12.664567923212461
1191,-9.303718012234693,-4.516824696190064,-16.365528613114517,-12.283846159009347
1192,-9.224950807984213,-4.769280352339485,-15.464151688210599,-11.766010279266698
1193,-9.072564009620722,-4.955803476190493,-14.578695419513691,-11.089824154925946
1194,-8.722763404163029,-5.056000871325159,-13.700155524830341,-10.194067749045576
1195,-8.124790283841598,-5.058324665343138,-12.825463725304848,-9.076256971515319
1196,-7.3680966879814385,-4.963238497392726,-11.963393460382008,-7.845116258578918
1197,-6.555734767873007,-4.78443037594646,-11.133419522677311,-6.62409781689987
1198,-5.674157851271096,-4.543476759275497,-10.360059042607618,-5.439872775160782
1199,-4.619390879003514,-4.261310657975595,-9.665936190236048,-4.229779181897758
1200,-3.3377933730672593,-3.9527546360820036,-9.071223168982927,-2.951495849835044
1201,-1.9308849045145673,-3.6249470517189115,-8.59312397656022,-1.6728178912766756
1202,-0.5552509974850914,-3.2783935429782343,-8.241598971634215,-0.4997525467289893
1203,0.7264714994994719,-2.9104648077397974,-8.018113909561057,0.5450868015174555
1204,1.9732585146986836,-2.5201131848160245,-7.917117994956424,1.5479112070412513
1205,3.2231619664264013,-2.109897474388727,-7.9230056014368975,2.580345713552299
1206,4.365966711000182,-1.6851697586635517,-8.000558690479561,3.5874510915985396
1207,5.2350169572516645,-1.2513262679066626,-8.092343670184803,4.4516762130707574
1208,5.777369681171113,-0.8124033855245373,-8.13478474496821,5.123913951744482
1209,6.11987687615976,-0.3725978157360003,-8.081629280474075,5.681013360900463
1210,6.396345117977268,0.06332074317696522,-7.912368184590994,6.204111185990636
1211,6.5727896838105675,0.48892971450049694,-7.625611936119359,6.650886593791827
1212,6.526171113600048,0.8944836450591753,-7.233300639175203,6.907348279499859
1213,6.219521639110185,1.2693466098745085,-6.759085855319942,6.918067932109112
1214,5.784233426562252,1.6071285028176188,-6.2362104813268475,6.754842945510282
1215,5.361326684578294,1.9068386712289043,-5.702237699406519,6.503113213097088
1216,4.927154848967938,2.1674255954447608,-5.191453211380343,6.140096918515518
1217,4.354737577128868,2.3851936730403245,-4.727726141623349,5.583849999824158
1218,3.5913205711631333,2.557826162527051,-4.32279551892075,4.825316811196858
1219,2.7514316190541024,2.687615563442169,-3.9794074348278072,3.989316404199937
1220,1.959360844592951,2.7785148260861434,-3.6913657504910526,3.2033642987737116
1221,1.1753942131046131,2.831183553970693,-3.4440670118676175,2.4642121797324346
1222,0.2622034807396976,2.843720574973343,-3.2224428435339982,1.6842840103976686
1223,-0.8182681765813073,2.8145308501220536,-3.016897143486457,0.8366295691886381
1224,-1.9258191401476197,2.7430447590330163,-2.81729902780693,0.01309068204656337
1225,-2.9026994694123456,2.631975927187876,-2.606633359684041,-0.6906477694644453
1226,-3.734511551285784,2.4903208006215016,-2.3690786477272137,-1.2886617788496273
1227,-4.520481415757225,2.3310457142205423,-2.101898296077392,-1.8866037992466076
1228,-5.285450651088897,2.167024443282308,-1.8171858062884856,-2.5372109156504994
1229,-5.894330818144319,2.009474333071258,-1.5309573184552294,-3.1640665141004414
1230,-6.21170179534452,1.8648046044979159,-1.2491120660459802,-3.6627544374821825
1231,-6.256206135875041,1.7318083901156374,-0.967685575917278,-4.012765656476426
1232,-6.18681786745929,1.6026846520768403,-0.6824889480839663,-4.293610955104575
1233,-6.111620228259637,1.465454368560832,-0.39144962313656884,-4.5592581852650484
1234,-5.978716736454065,1.308244044455685,-0.09032554576253948,-4.757908428628164
1235,-5.689285695075226,1.1240238248179502,0.23043637421951466,-4.809122959916252
1236,-5.233440816967094,0.9108119474965213,0.5825137938634508,-4.699210670784649
1237,-4.726443234358779,0.6696789976729236,0.9704520564287021,-4.512366112205418
1238,-4.251224718020197,0.40423245639840943,1.3858414910474592,-4.316225598329258
1239,-3.7519192052514616,0.11901270280563674,1.8074259105887132,-4.075646524367649
1240,-3.130526500916477,-0.1829691150623181,2.2042563670225133,-3.7153006704340346
1241,-2.3709215893937214,-0.5005388086025149,2.5452106649369055,-3.219277180176927
1242,-1.5955498935072305,-0.83388983515719,2.8155227402507004,-2.68360984890941
1243,-0.9377647426312088,-1.183901267566762,3.026792824024219,-2.2223381599100067
1244,-0.39887878623374384,-1.5493440874375024,3.2088270188402284,-1.8501101860815685
1245,0.12987181601602052,-1.9241865052463174,3.391875021648842,-1.4837589290263757
1246,0.7210796678774417,-2.2976701958893884,3.5944459334850953,-1.059829232423991
1247,1.3024151421952985,-2.656888564665536,3.8204810143676675,-0.6268930740401537
1248,1.7663552959561963,-2.991346040015745,4.064073277290286,-0.2705515472164659
1249,2.1223183616193793,-3.2956460148816165,4.31844418175761,0.00491840364643667
1250,2.5057341896078884,-3.567603786591511,4.577021819685276,0.30657906016708697
1251,3.017403783456895,-3.8055553237476794,4.826207495217985,0.7323357307741692
1252,3.5864932094456505,-4.009320912172596,5.0441037912105084,1.2533856394783087
1253,4.060567656925543,-4.181234669356257,5.209971299122544,1.7674533588061647
1254,4.373681389695937,-4.322007735231423,5.316074062943995,2.2187974301438365
1255,4.615358254454217,-4.427813120607441,5.369926339785955,2.6593778764687737
1256,4.8735816939050105,-4.491483606458851,5.386814426098642,3.135940798084431
1257,5.071435914600448,-4.506392952597201,5.383443165350776,3.571961848164391
1258,5.042957207875154,-4.4728725412556685,5.374527860308805,3.8305820827135824
1259,4.707266156243855,-4.39842730745591,5.370979256049764,3.844134029894651
1260,4.1629609487965356,-4.290418040017453,5.382202218105659,3.6767179646198267
1261,3.5329914636276727,-4.1513946228832515,5.419142972495396,3.4072453075525266
1262,2.790890095580119,-3.980232705582622,5.491426507699397,3.007508416030754
1263,1.8291984939499104,-3.774826362499215,5.601668753935701,2.393678383472492
1264,0.6345183517254311,-3.5331948109587437,5.743897762123908,1.5605504965660022
1265,-0.6343119135056743,-3.251810589888976,5.9062881988691585,0.6437627380485252
1266,-1.825068117801991,-2.9291999180845147,6.073211695758272,-0.21702868785912754
1267,-2.9699920896916714,-2.574483305896187,6.222917230758701,-1.024325796956672
1268,-4.200689642495551,-2.2063588613751075,6.332930617796913,-1.875945643115831
1269,-5.5533648363765575,-1.84813304680851,6.393895544504182,-2.8107088590936833
1270,-6.860359704217593,-1.5314233914239446,6.419824407586378,-3.713559285096592
1271,-8.123315450815545,-1.2777397472102252,6.41029692894348,-4.585801016150201
1272,-9.428891175561917,-1.1011452219222875,6.371315183231042,-5.493875851921921
1273,-10.844845170773747,-1.006955031768482,6.3131666003403115,-6.496673929841881
1274,-12.287180474599834,-0.9886652295453894,6.247398710187585,-7.542314635702271
1275,-13.568197729733596,-1.0268612144449503,6.183064230576114,-8.497406317767444
1276,-14.579307277407645,-1.094505416195526,6.124437888050781,-9.276845428438891
1277,-15.356942901188228,-1.1678093566496386,6.073011238942166,-9.891893252629554
1278,-15.99067991220303,-1.231514916616577,6.0306148219799285,-10.392203199883825
1279,-16.473294560163303,-1.2767331770560697,5.9988871294372705,-10.765763321749398
1280,0.714570513251835,-0.15168025860139542,-0.10619068196876263,0.6064563596159813
1281,1.2997969004915089,-0.27746322160468984,-0.395197895834302,0.9792005646781787
1282,2.0387811919351244,-0.4656061718090946,-0.8575715227253942,1.3820683935238265
1283,2.812766183960989,-0.7366755917634465,-1.5053066532625907,1.7303595498562288
1284,3.4317338805881334,-1.0979056001157657,-2.343063811704519,1.903718675815338
1285,3.7635660161255267,-1.5441125244746348,-3.369146502352145,1.8240193137000003
1286,3.805976001400783,-2.0653765896702025,-4.570782589338593,1.501345512635551
1287,3.6279133950131697,-2.6475870315353776,-5.924952173692763,0.9873742002503113
1288,3.240167575845501,-3.277298535566566,-7.404417825679727,0.2756636826211662
1289,2.598444056070899,-3.9513926833263673,-8.984545700811953,-0.6954836829591499
1290,1.735910426334771,-4.6862562287916285,-10.65155796403096,-1.936918600427894
1291,0.7966935268146275,-5.498519387327934,-12.394771991911592,-3.370727751287618
1292,-0.11532508697739843,-6.403627910123379,-14.205401643046594,-4.936638053563769
1293,-1.0316625650991469,-7.4137376756764395,-16.062526993585852,-6.655688557082487
1294,-1.9975905653774468,-8.540320330769745,-17.936888039817827,-8.54252621365956
1295,-2.9752253145637773,-9.79575888330065,-19.803153284920185,-10.536586870915306
1296,-3.875866848692718,-11.192984416426814,-21.642293605157036,-12.51587354843341
1297,-4.667889985512363,-12.737119508911785,-23.44937096710442,-14.392424368387461
1298,-5.439974852633401,-14.41382820443616,-25.231910777755516,-16.18436235586489
1299,-6.309886769730034,-16.194807273214508,-26.99277704620537,-17.969971426838853
1300,-7.3084789002856345,-18.05384325280603,-28.730214933859703,-19.80785386380203
1301,-8.32537128776223,-19.976609849846078,-30.443398900293836,-21.660942356202888
1302,-9.237883328127024,-21.960485615884053,-32.14029417884515,-23.46067414581794
1303,-10.081809418754144,-24.002681861763115,-33.85900645216764,-25.236290225559294
1304,-10.980598024806012,-26.093913373215592,-35.66632224327954,-27.069376161158
1305,-11.953924335250113,-28.223122491981407,-37.62231657878789,-28.941948267486193
1306,-12.842863455011335,-30.381830843965876,-39.77199688132772,-30.672347576618215
1307,-13.487506286324813,-32.563323837855435,-42.17170164777693,-32.070424921889995
1308,-13.904217006416648,-34.75710843986424,-44.89722575852424,-33.107933933925054
1309,-14.223377937158983,-36.95455427345844,-48.029819194359966,-33.89048867322432
1310,-14.524524834294407,-39.158479830121266,-51.64304117822738,-34.522877572550826
1311,-14.75085976037615,-41.37722535050889,-55.79817272007972,-35.01149108909636
1312,-14.834367401159872,-43.61491923932761,-60.55213273391554,-35.33414050939602
1313,-14.83447875267328,-45.868870208051334,-65.97134957845431,-35.55806191959999
1314,-14.890570412741354,-48.12748770143736,-72.13720287073367,-35.817395718270824
1315,-15.070802946106754,-50.363869419725646,-79.15116227482248,-36.17478564927045
1316,-15.28073163874229,-52.535065976615336,-87.12969402292555,-36.53222841502275
1317,-15.392791557421592,-54.59367377173872,-96.18551271625314,-36.734590745809214
1318,-15.439647331053218,-56.49601661497013,-106.44974256409311,-36.74066699081722
1319,-15.59513829608043,-58.1969563303427,-118.12641789352386,-36.631484820765294
1320,-15.945043302328823,-59.658926562783556,-131.5071231562907,-36.4345424924227
1321,-16.393852411569537,-60.87724878030747,-146.9427107101201,-36.054558082596394
1322,-16.821190593066632,-61.8771037523738,-164.80396919258945,-35.39946603782018
1323,-17.213021864106295,-62.689864726899174,-185.41717305969226,-34.483358887933214
1324,-17.66212244830803,-63.34336010321509,-208.97428523216178,-33.428616840379114
1325,-18.20073484580166,-63.858544188154035,-235.48269591781036,-32.30798387714721
1326,-18.682282621879697,-64.24754409003212,-264.7652291521386,-31.01435581580911
1327,-18.91372232141189,-64.51477770988676,-296.46697806233254,-29.381632401234736
1328,-18.825706409568546,-64.65734765541521,-330.0665477988019,-27.366308984046498
1329,-18.50183633259243,-64.66648270796748,-364.90382470928364,-25.074040289105195
1330,-18.01694202466158,-64.52856964216882,-400.23533514574865,-22.603482860243613
1331,-17.32794006660926,-64.23091670111668,-435.31699969502483,-19.948311476497526
1332,-16.371124648270772,-63.768762553448134,-469.4834972662,-17.07865542565734
1333,-15.179543230383063,-63.139925068602174,-502.2031306012052,-14.03956477025532
1334,-13.889188991922184,-62.332939865270276,-533.0994310149098,-10.952439060791885
1335,-12.599738176343006,-61.33559394857904,-561.9084350954028,-7.916820168034114
1336,-11.288994793278393,-60.15903215836331,-588.4147012939287,-4.944481567102533
1337,-9.866208527651198,-58.83115211637721,-612.4418495340161,-1.9560373046853972
1338,-8.284744150023801,-57.365306750818256,-633.8641716848201,1.126507632231791
1339,-6.6167431647134505,-55.75538683362662,-652.6041704192118,4.265107009688651
1340,-4.964051880676846,-53.993805832083225,-668.627648347972,7.364588909682817
1341,-3.33364838878128,-52.07754732143945,-681.938477498847,10.405400215512053
1342,-1.6361995554782718,-50.004646034157844,-692.5735976629653,13.470787752228269
1343,0.14983565273279528,-47.76606567546867,-700.5982732406371,16.587586321997687
1344,1.876821852699576,-45.34077256380548,-706.1016312830567,19.622533338015284
1345,3.361926431224241,-42.712964431792045,-709.1924971251065,22.40690465492858
1346,4.5306565139864485,-39.88710353274935,-709.9955383296095,24.854660582709343
1347,5.449944688474939,-36.88010301042989,-708.6477226007888,27.00345420533205
1348,6.190541753926789,-33.71632061446341,-705.2950908547098,28.918166223964896
1349,6.683849476054127,-30.431755305367854,-700.0898427330736,30.5526866627997
1350,6.803975547014806,-27.07473493167279,-693.1877284860715,31.800839220767205
1351,6.527906677238685,-23.698446033192422,-684.7457382996546,32.636920615250965
1352,6.014457174668607,-20.34696523773036,-674.9200777698258,33.194225738585104
1353,5.4708099832783,-17.045471718295396,-663.8644162974078,33.653452678117674
1354,4.949707991639615,-13.804897670405342,-651.7283936562869,34.048839560992484
1355,4.370510698063708,-10.63477160290232,-638.6561189280998,34.2752358787084
1356,3.7075342276300165,-7.543353785890546,-624.7837218250904,34.282884923890435
1357,3.0960800473233157,-4.533678322253769,-610.2307778241851,34.17447814750818
1358,2.683323241885788,-1.6068349856949407,-595.1045418666855,34.056103727686086
1359,2.4462465047016284,1.2357876283339455,-579.530987502272,33.8877568310106
1360,2.2349557896258987,3.9893533867473705,-563.6617815901326,33.527858163668625
1361,1.965900238681933,6.646728346269028,-547.6407325702245,32.91764227643357
1362,1.727192269921139,9.209432480638656,-531.5783309541847,32.181172013064966
1363,1.6421094575662891,11.688724104676133,-515.5400628842245,31.49391040450606
1364,1.7061389395066597,14.093780587467782,-499.5223293768057,30.91656706125811
1365,1.815473894673933,16.43080643751197,-483.4281993664325,30.394552849383555
1366,1.9535162592642248,18.710020503574334,-467.06591726988694,29.93537604601044
1367,2.270502447399354,20.9430522131956,-450.159402285965,29.682462702013027
1368,2.9105900083495846,23.1349014782808,-432.3628038835714,29.756896577491336
1369,3.8503023202199738,25.283888990240644,-413.2910694508472,30.129020879179684
1370,4.929265912421639,27.38732921746418,-392.57892076800505,30.64877600651482
1371,6.050360891102999,29.440929095182167,-369.9389175212502,31.220927672869003
1372,7.277953429204438,31.432869248526675,-345.15999508466484,31.89071704310332
1373,8.699465037243806,33.3448736547089,-318.07959917469395,32.73104036911952
1374,10.28881976213799,35.16080541770288,-288.60293108781366,33.73343367993103
1375,11.901836584389876,36.8732014441986,-256.738535969052,34.79782493736458
1376,13.45545514552411,38.483200018815786,-222.60676050115433,35.87135054248292
1377,15.042084560932224,39.99650266073433,-186.43441519687514,37.039222221100545
1378,16.807211003384815,41.420943462019686,-148.48301151514138,38.42624835126962
1379,18.798575982457166,42.76323996496902,-108.87211865645911,40.061626298415405
1380,20.924276471345003,44.026176052830564,-67.42328148031656,41.839118862217546
1381,23.092020695361963,45.210738609668304,-23.64107408401926,43.64736056594242
1382,25.325459737319868,46.318959023904526,23.196355398157458,45.485095225868236
1383,27.70954538230867,47.35407912980673,73.90458563460783,47.421484409503094
1384,30.264791209088774,48.318610743198526,129.2414506564047,49.47519165217819
1385,32.87586520938666,49.215344539619046,189.7512645075974,51.54585356139467
1386,35.41733968785734,50.052823086621906,255.64310774565635,53.51562778245039
1387,37.89390160211602,50.8477751676771,326.7217811924104,55.37100835058479
1388,40.40614061418386,51.61998151792241,402.3597644688959,57.18570898555698
1389,42.98286751505816,52.382394571079935,481.4988245395514,58.975774350942366
1390,45.465976922253134,53.132473837958585,562.7181564669626,60.59894864998631
1391,47.62755539735324,53.84942257566277,644.4204488266034,61.843286218683765
1392,49.35577756980223,54.50215083090934,725.0705411520747,62.58050931292124
1393,50.70338466908302,55.06329117206552,803.371075582037,62.82776759658622
1394,51.72562443477837,55.516824048042835,878.344876914712,62.6281881665204
1395,52.33451472433721,55.859286544083844,949.3085417371833,61.92939223609141
1396,52.38926369266764,56.09648014351097,1015.7550359340554,60.63556595228281
1397,51.86307870961968,56.237216780253846,1077.2680366810675,58.724451803042214
1398,51.09448387643919,56.295968922995115,1133.2580897168486,56.56721107405581
1399,49.94240442792932,56.28339707696178,1184.1226515251599,53.8433599521874
1400,48.318947650560325,56.21823591180154,1229.7301538818344,50.40983916741576
1401,46.25885427932571,56.123538760839274,1269.734394398842,46.325851402730535
1402,43.95017315416995,56.02093811761859,1303.7994550677279,41.84881774306639
1403,41.64572784700003,55.92312952419079,1331.7476338981312,37.33090476528214
1404,39.50562296652074,55.83204797734084,1353.6420409608802,33.062749637337376
1405,37.57041273689632,55.74594044311531,1369.8152157689858,29.226702426448032
1406,35.87582832564188,55.66732913220758,1380.8547293392146,25.971047333022344
1407,34.5414040000525,55.60357179614842,1387.5562590466773,23.47045413842619
1408,1.3641992690981268,0.1524401019306582,12.295089252422127,0.6147949302111309
1409,2.0013799586188625,0.3068816959036448,27.123550943686457,0.7428010686699839
1410,2.7761890169163843,0.5407994738693673,48.50476270551154,0.8621412072251616
1411,3.597774601356488,0.8735873675684009,76.58935668148713,0.9091139839231788
1412,4.334627744218959,1.318654174071322,110.9495600044632,0.784252065415845
1413,4.947787992895861,1.8807005235045247,150.60645734419228,0.46771175581437174
1414,5.498536201631275,2.5553690856414364,194.14182422196996,0.0283249803399529
1415,6.027480620238909,3.331525520071243,239.9011660012834,-0.4744041557134207
1416,6.4846660522449175,4.195597426600253,286.2923180758571,-1.0546168704372554
1417,6.800786649171841,5.1334273209602745,332.1819308296888,-1.7567889335074973
1418,7.0310026277468065,6.131921776138077,377.3903703636991,-2.55737338410583
1419,7.232732574619566,7.1618710372433,421.316503655381,-3.400022939795539
1420,7.384346391467957,8.186045922876074,463.4357730191725,-4.278974012991005
1421,7.352100300074082,9.163221090300542,503.31467696386784,-5.2814139281019745
1422,7.071447788427848,10.057004540739642,540.6041272276752,-6.454125963603286
1423,6.6604795780659165,10.847237283878957,575.0322515740952,-7.714510642955533
1424,6.300535896391251,11.532201190810518,606.3970787432495,-8.933390444369474
1425,6.083298814014999,12.119386161940964,634.553754065884,-10.044247921870785
1426,5.95897179551106,12.613843362746897,659.4092358729681,-11.08484279794198
1427,5.871761441760678,13.013022266858835,680.9407779392418,-12.095842531636384
1428,5.8779361342058785,13.311016975279152,699.1996353060068,-13.021373019296728
1429,6.094004800136235,13.504568530392696,714.2789992389669,-13.742780933910126
1430,6.560783836606722,13.591782260362173,726.2797336024732,-14.199674788305343
1431,7.154690211455182,13.564200700676238,735.2897164043364,-14.458257058795354
1432,7.724069836301448,13.403297690329893,741.3759617045233,-14.606989471280459
1433,8.244732678480464,13.08640160518955,744.584461649267,-14.653269793615378
1434,8.800621613189586,12.597004549069064,744.9312543014493,-14.53202407903157
1435,9.44220596569969,11.935569273831877,742.390547470193,-14.209974482094212
1436,10.080850360421296,11.12394735325841,736.9024131321476,-13.76898308279508
1437,10.591242681277526,10.201286115167962,728.3982055873656,-13.334102975049815
1438,10.960843489705216,9.21616197832335,716.8279184927645,-12.959299169121264
1439,11.308783164271569,8.215881513922199,702.1867520990213,-12.5881715397684
1440,11.726879056845489,7.235910274847548,684.5384360812941,-12.164740074621736
1441,12.140361135530505,6.296874725200736,664.018789522103,-11.745021528238551
1442,12.400447183067435,5.4093343313735875,640.8191682937114,-11.43575972531733
1443,12.457171482700717,4.581045422757687,615.1647921984417,-11.262842257618825
1444,12.431641207150664,3.8223486782650875,587.2903283897062,-11.102638694402714
1445,12.450480699655447,3.1437834636874173,557.42819737593,-10.816555381990407
1446,12.465529572353118,2.5490333222747084,525.8230846893412,-10.410837193595604
1447,12.329572220297772,2.0327809733439692,492.742380542269,-9.987436671072558
1448,11.988132233508798,1.5857139756138938,458.4624709701683,-9.596971955329002
1449,11.5641220652574,1.20040981141537,423.24957998937936,-9.169150962326261
1450,11.177342174667835,0.871425075678352,387.34916380318697,-8.634191853516768
1451,10.767070640899092,0.5924800185246157,350.9880902535161,-8.05849861475452
1452,10.166932087572164,0.35549371111511163,314.3927098921276,-7.599167780568779
1453,9.291320003075134,0.15069806718607548,277.79941560799364,-7.3477579962010235
1454,8.225501949355856,-0.03007053709091353,241.43701946085113,-7.249272824248896
1455,7.075970340385837,-0.18859458830229356,205.5041920159391,-7.210969800004167
1456,5.8113128297714205,-0.31903168551291766,170.1587096696926,-7.231021509172992
1457,4.311506418875234,-0.41057572407744514,135.51840016279664,-7.382913455909668
1458,2.5535511720270776,-0.45257715941687765,101.68037219838749,-7.670912922026041
1459,0.7010486338885966,-0.43981193664902873,68.74599418274019,-7.954706966667249
1460,-1.0727041652990634,-0.3770225629006564,36.826662774303145,-8.086891959813162
1461,-2.7675732375920905,-0.280922905658536,6.035307354087832,-8.058180634674228
1462,-4.501900522203705,-0.1746255669380083,-23.522805883357584,-7.962997230610571
1463,-6.29500893322657,-0.07526860842433218,-51.760522518987784,-7.829239634080552
1464,-7.985874682973487,0.014049762936153828,-78.6183985149473,-7.560131432031094
1465,-9.390870194910539,0.10385990769925907,-104.06829019220636,-7.049211431955664
1466,-10.455965194809876,0.21072910902363573,-128.1034169402855,-6.273625268570661
1467,-11.265266876616877,0.34665937283955417,-150.72839802807758,-5.301756346327983
1468,-11.86833328050818,0.5140654752230314,-171.9601095108032,-4.177692942058524
1469,-12.17989896770027,0.7054372886172817,-191.83378807123572,-2.8502505604495334
1470,-12.097435037066079,0.9041243333262289,-210.4086729775627,-1.2618672141640754
1471,-11.634346218574988,1.0865288461328682,-227.75310554494584,0.5510369832385762
1472,-10.95213509038825,1.2255304627067112,-243.9188911365896,2.437596689231238
1473,-10.19947995557745,1.293801757716425,-258.9431319576667,4.256725942742879
1474,-9.378647759509875,1.26797496032613,-272.87036774034044,5.9780938146756455
1475,-8.415075827600157,1.1350532400309665,-285.7625938132796,7.627473879498674
1476,-7.297003545908994,0.8951393389462362,-297.69413094848727,9.182328372656059
1477,-6.139326606317219,0.5584672856776208,-308.73978640385917,10.537238157425366
1478,-5.046669752652681,0.13960924045256096,-318.96054261286895,11.614708662350305
1479,-3.9927592983518068,-0.3485764254396719,-328.3928953145908,12.455915755599944
1480,-2.866715295682609,-0.8981774943622084,-337.0432801040172,13.187555673552437
1481,-1.6135998583464373,-1.5076004392605704,-344.8909419194745,13.905583442796175
1482,-0.3426922452904879,-2.1791279819894664,-351.9042395853954,14.573126399985362
1483,0.7763352390833489,-2.912871923660701,-358.0604258223923,15.080907790626862
1484,1.6824294137950508,-3.7016734965690836,-363.3539140244371,15.38312613281604
1485,2.458103140226414,-4.528584958053619,-367.7958194173739,15.549094213168134
1486,3.1800585006696043,-5.367618176049719,-371.41840137350323,15.651728737322603
1487,3.7849467216474566,-6.187714296083887,-374.28659267491923,15.653231992735087
1488,4.159383392489923,-6.957679397279561,-376.50751609826216,15.468029039220772
1489,4.302088682981122,-7.649383549038468,-378.2190342720588,15.094152789893487
1490,4.376286169474101,-8.240431978117645,-379.55709528574704,14.6676735873628
1491,4.536717570450489,-8.718094286679799,-380.62684729264726,14.331357344269037
1492,4.757543436452674,-9.082797981462088,-381.4915046726537,14.094462291381069
1493,4.905932215934439,-9.346673399211587,-382.1825603658012,13.873085143406906
1494,4.916816740202614,-9.528115927537131,-382.7153333007242,13.602646408589935
