,TP9,AF7,AF8,TP10
0,-0.08436796817374131,-0.3434428798817846,-0.6195875794847514,-0.17812435652408337
1,-0.3213585429317789,-0.7192570083186929,-1.3702661515963017,-0.5344277396192227
2,-0.682865047918046,-1.249405240875266,-2.454350515877602,-1.081301995908017
3,-1.1941877236740501,-1.9382475904771268,-3.8747868604671845,-1.8420174464923593
4,-1.8658331787816016,-2.778472008365385,-5.600105760503656,-2.825711246984243
5,-2.684855710799873,-3.748428414583472,-7.569283984954815,-4.020380740902856
6,-3.620044049451855,-4.812064074954901,-9.701261362692598,-5.391930020877641
7,-4.63670593645957,-5.923646733095488,-11.909216743251815,-6.88972420141548
8,-5.700976501369594,-7.03741618611919,-14.117652422207787,-8.452298622979928
9,-6.7733493132996205,-8.11850969151573,-16.280261185889938,-10.01230096032311
10,-7.816562626376489,-9.154133453766905,-18.401128976599534,-11.512127393305638
11,-8.810445944118651,-10.11815862014478,-20.463848208289267,-12.901118356047627
12,-9.760318447992313,-10.987214837500208,-22.453361329799144,-14.151435361069026
13,-10.675187541280577,-11.746103781083429,-24.354272301231255,-15.259422311544485
14,-11.553997049448828,-12.393269074707423,-26.15047869454635,-16.24099408427379
15,-12.39497326958578,-12.940408015575851,-27.82756618547902,-17.125879431581694
16,-13.204876433584037,-13.40566535094928,-29.37103101543875,-17.951589408836284
17,-13.99543698555171,-13.806632129783695,-30.762488594104916,-18.755545061392105
18,-14.768482620819993,-14.157864280238439,-31.98522087687135,-19.562807855907355
19,-15.506304570697067,-14.47160353110902,-33.032917276437175,-20.372667629225766
20,-16.174911242271282,-14.756110629862572,-33.91097563135041,-21.153799326641135
21,-16.74944747743169,-15.012475353498637,-34.63316111008734,-21.861699275215848
22,-17.240336919765348,-15.237881088100359,-35.216924821485364,-22.46861671389841
23,-17.685033337091205,-15.432311835588518,-35.67754071013635,-22.96801297339143
24,-18.119087850088196,-15.600722929903553,-36.02244324630363,-23.35650769358001
25,-18.556766931394378,-15.750208019884615,-36.249424028591896,-23.627599856547135
26,-19.00343257726958,-15.88647930134101,-36.35055883968374,-23.78221461388003
27,-19.46984316670014,-16.01459688851782,-36.31942145905446,-23.83602948224487
28,-19.959735435037327,-16.139814557007526,-36.156842823628885,-23.815625455544197
29,-20.45523331099979,-16.26442674357169,-35.872058841728496,-23.74649733448088
30,-20.917707629451385,-16.384721076418465,-35.48146669174485,-23.641385240147162
31,-21.312837255950424,-16.490069218026893,-35.008799819405915,-23.505797250397062
32,-21.636781721028218,-16.565563476248,-34.48493890583307,-23.350484748340964
33,-21.913430442578075,-16.59696815260469,-33.944754158311106,-23.1938036786889
34,-22.175652895174508,-16.57394003195732,-33.42172073860566,-23.05647124956965
35,-22.44738199898523,-16.49083650469606,-32.94176043788671,-22.953189929217817
36,-22.742602869501543,-16.347742720608146,-32.52077846983483,-22.895122088495395
37,-23.07756971378607,-16.15261339414322,-32.16531251381059,-22.8971699933033
38,-23.464703540724194,-15.921564602488843,-31.873044547667792,-22.96847202289571
39,-23.887078960449337,-15.674068771165206,-31.636415451584163,-23.096091975323898
40,-24.291994735546982,-15.425855143130374,-31.446176684956612,-23.24873022993196
41,-24.61459835869231,-15.185772905479775,-31.292242083307606,-23.39834707755193
42,-24.800009943322873,-14.955690564086394,-31.164411215782494,-23.527038231049158
43,-24.805673312508752,-14.731483740033807,-31.05125427558765,-23.617257165127942
44,-24.594087676210112,-14.505486765821125,-30.93947594298173,-23.647384074916165
45,-24.140462594715625,-14.269031764630276,-30.816860277316543,-23.5935768947305
46,-23.449928872035354,-14.014955099276385,-30.676588135849293,-23.437782478007662
47,-22.560323557143338,-13.74070298800654,-30.518900428114463,-23.181165052533473
48,-21.529159734577377,-13.4505132875314,-30.346317695769415,-22.84197203814501
49,-20.410654851995893,-13.154273043792498,-30.156265094324695,-22.43750365207036
50,-19.246923458797298,-12.863798421631536,-29.939923109079924,-21.975810021688368
51,-18.081496583077136,-12.591102488784403,-29.68633271784773,-21.464131309072354
52,-16.96810009404054,-12.347851738299406,-29.38728273154253,-20.92068912758402
53,-15.96327918715399,-12.141755747785002,-29.0374580758689,-20.368063318161916
54,-15.100749581036174,-11.971605872728507,-28.63008679450554,-19.811587030233483
55,-14.37421218558784,-11.825840001154143,-28.156921865749663,-19.23776572921159
56,-13.755639338623995,-11.685125451938717,-27.610749432216547,-18.631933494478645
57,-13.224073481074218,-11.528399086551273,-26.98813234167932,-17.989693763052234
58,-12.779358263502251,-11.341158807741254,-26.2946830130965,-17.32260664451171
59,-12.429839866541853,-11.120549870767855,-25.54697994495076,-16.659762267284574
60,-12.17144376274338,-10.873015665237743,-24.768915528135963,-16.035811503114267
61,-11.983326504703374,-10.606074899618466,-23.985520079094627,-15.472139745728171
62,-11.839416222533158,-10.323061352209693,-23.216654145023558,-14.973702858213914
63,-11.724925591968761,-10.024881342978198,-22.47498212951083,-14.538098427385851
64,-11.63672902735226,-9.713884061906448,-21.766509711488883,-14.15696501845531
65,-11.567787599800827,-9.395125687378886,-21.091407832308803,-13.81542773359767
66,-11.497344252155413,-9.07516445688725,-20.445147946797306,-13.49876479846317
67,-11.398990252889268,-8.759612461158564,-19.817966179365946,-13.195781632097326
68,-11.252752988344783,-8.451335432086283,-19.194455357632503,-12.89425434702185
69,-11.046029534165914,-8.151540401339822,-18.55386052394766,-12.577253460546649
70,-10.76912411379678,-7.861149091207041,-17.870471919605784,-12.226929490872111
71,-10.413053586447955,-7.581421017067375,-17.121112209804856,-11.831924692273992
72,-9.980344774183664,-7.314324884326241,-16.293603520251047,-11.386609211562716
73,-9.4923677052411,-7.061242174968385,-15.38606006934795,-10.884614473841543
74,-8.974477902640954,-6.8201224979620525,-14.403781067769987,-10.317983888793188
75,-8.439495576442386,-6.583502615206064,-13.355872570692265,-9.67871662086763
76,-7.886345540209855,-6.339986516633791,-12.250799820163143,-8.960881123912293
77,-7.314791346374403,-6.077629212799263,-11.095184881945931,-8.165748072788388
78,-6.73743897303618,-5.788109851016133,-9.894830817569002,-7.307257410759014
79,-6.175879957270326,-5.471316538731197,-8.653063812973402,-6.4132281578163335
80,-5.65389405915994,-5.136732698550904,-7.370939183853695,-5.521007424448959
81,-5.189154922572379,-4.798131561402478,-6.05498634243573,-4.665604686841813
82,-4.786387398488003,-4.466223847797925,-4.722977816819099,-3.8641630323604845
83,-4.442015228115606,-4.1461512026323435,-3.399695394466158,-3.1142061652036017
84,-4.144139309065278,-3.8367448055980833,-2.1097467671005448,-2.4004926379716878
85,-3.861048427100882,-3.5336127410941045,-0.8731635045953275,-1.6966825538446657
86,-3.546283630512353,-3.2330116833011404,0.2957720229030313,-0.9703821700365021
87,-3.1623473458430467,-2.9324454967343945,1.3890313197330744,-0.19734848417613793
88,-2.6992907762022638,-2.6342995695256364,2.409409006247949,0.6238368998340829
89,-2.1780795858884225,-2.348017285275186,3.375533115084244,1.467808592614189
90,-1.6365689082469383,-2.090701200346851,4.317993204432962,2.2878266795635307
91,-1.1174610241058613,-1.8891301954911512,5.268774283934319,3.0248598117994017
92,-0.6734640958320844,-1.779929241190938,6.253662837262393,3.6175690530160796
93,-0.3776924414992535,-1.8074369915661905,7.288601728952999,4.006236067392787
94,-0.3198595828041214,-2.0174766894288525,8.379101470113408,4.135314279707409
95,-0.5713971515857885,-2.44591527206171,9.521992443535826,3.9685126956145713
96,-1.1496682067974466,-3.106407163259099,10.705796933718663,3.5090547470229945
97,-2.0183747120302833,-3.9869525057963173,11.91189920150246,2.805808926637371
98,-3.1135829260138936,-5.056491100528792,13.121808734618316,1.9369816057434506
99,-4.372119268584901,-6.273003143230344,14.322344029457387,0.9823672862844923
100,-5.733186598181551,-7.586429179624195,15.502360959602104,0.013586550818051268
101,-7.116938629675393,-8.940029148768664,16.65000054733747,-0.9004872705680236
102,-8.423246812255691,-10.274891626865202,17.75192224855168,-1.7015308512492322
103,-9.556396549465541,-11.535424293554822,18.792637078567655,-2.353305894186427
104,-10.446670846819764,-12.679128928148577,19.755120092154677,-2.8405122080747796
105,-11.055793593969023,-13.681614419575787,20.620382594385806,-3.1621207921307777
106,-11.37583710434949,-14.53286582758675,21.367421809911715,-3.3280750209935834
107,-11.426576365090298,-15.234550370974029,21.975040853877076,-3.35812772291715
108,-11.256389291558266,-15.794779633134853,22.426336513553675,-3.2786654154082853
109,-10.93787109814379,-16.221401522365756,22.715060087865236,-3.1176996978285043
110,-10.539618699469345,-16.517439971405754,22.846461532051233,-2.8956254964132326
111,-10.09364522133141,-16.6799739978782,22.831900101412376,-2.613216864822882
112,-9.593733819672256,-16.703967257319885,22.684960242695094,-2.2521674575619772
113,-9.022046224218503,-16.585733499257817,22.42286723103937,-1.7897418436176502
114,-8.360774165494984,-16.323204002799542,22.068408273180246,-1.2080133630596115
115,-7.587682560615112,-15.916048044888726,21.646389556232535,-0.4973117465487486
116,-6.679251874044982,-15.367919066658569,21.17804465993523,0.34067983854123074
117,-5.61713150312855,-14.690465277088864,20.681260825087815,1.2939864808199666
118,-4.42945720515758,-13.944274575516683,20.180506810749254,2.319559583790773
119,-3.149077503287009,-13.099630800197184,19.68686400936845,3.400468361430806
120,-1.8467623307612107,-12.169543475073432,19.21582785277633,4.4933338265007485
121,-0.5943416854505957,-11.192226638761008,18.782917093292756,5.545601284871326
122,0.547662770882688,-10.217279951447892,18.40102436034687,6.506945276196882
123,1.5267968357949124,-9.29581856400336,18.080615023981466,7.33515862241935
124,2.3059144896555988,-8.471167571244203,17.829280122731774,8.002834761247346
125,2.8740401188910325,-7.773574514847133,17.648787621619917,8.50294285928407
126,3.2508711217939363,-7.221135277983133,17.532269127257536,8.848025503574918
127,3.477482116588655,-6.820650087076337,17.46644158051768,9.063670477248428
128,-0.17747885732340812,-0.5098039161531105,-0.37270828558279623,-0.2501745686927741
129,-0.5518060845834576,-1.0970905537200044,-0.8477872338942094,-0.5981640563337693
130,-1.1334439537518877,-1.9401969006803792,-1.5343000605894657,-1.1347968526530237
131,-1.948674042151902,-3.042831918225903,-2.4478595700711505,-1.8906946162242955
132,-2.9846329742158644,-4.381288832496955,-3.5910752179372265,-2.8689934937267005
133,-4.187806742595273,-5.910107767914135,-4.947419506812058,-4.039581592265765
134,-5.4850014956584445,-7.570295405850517,-6.480970087324526,-5.346327106445236
135,-6.807207959214333,-9.300210224823045,-8.144237468485207,-6.720308603180276
136,-8.103790648623011,-11.048486405537522,-9.887192683910378,-8.096492658049835
137,-9.342593538655477,-12.787507115406832,-11.665684609727425,-9.424924412943948
138,-10.515607580510926,-14.531242400217355,-13.457074445633008,-10.678681881480763
139,-11.633955461042385,-16.276435378871465,-15.222590614336191,-11.831063052645344
140,-12.73994913807965,-18.020696167212677,-16.919722385818933,-12.876747851917807
141,-13.890642889362374,-19.76539927055446,-18.500991523270436,-13.832866935642725
142,-15.135362144797515,-21.517174642760065,-19.91637561519483,-14.733491033549031
143,-16.511286223374448,-23.285992231999014,-21.119466982452735,-15.622810777676888
144,-18.05160013345823,-25.084104850293585,-22.07470330999762,-16.550713618093713
145,-19.78767589032836,-26.92520267907546,-22.762746292587284,-17.568422385166063
146,-21.72998365810475,-28.820963627155244,-23.17746970480098,-18.712256034122248
147,-23.854625553767356,-30.778663142859298,-23.317816847850107,-19.988674231465605
148,-26.1181085962644,-32.80364105633958,-23.18396634174172,-21.3830494415253
149,-28.481553759493952,-34.899068552705955,-22.775963002948426,-22.87897508438759
150,-30.91664323160883,-37.05935586119342,-22.098053587438187,-24.462103554962564
151,-33.38418488389398,-39.26617558819084,-21.167317435322357,-26.107299873793796
152,-35.82083109108541,-41.48829506434144,-20.016765680780004,-27.768467528378494
153,-38.148552207710836,-43.681875659377276,-18.691222739677524,-29.38230264633934
154,-40.30085292394077,-45.79371538390275,-17.24245051899761,-30.887032012735613
155,-42.244834051690475,-47.768655506908004,-15.72279239850272,-32.242667547946745
156,-43.967704148188986,-49.558260110007765,-14.177792378563138,-33.42824728762048
157,-45.45135544970898,-51.12566913689035,-12.643004322017493,-34.4239894198948
158,-46.66554746950507,-52.44554099608152,-11.140588299382085,-35.20417899161195
159,-47.585062464337014,-53.50250671943175,-9.677000550830684,-35.7441645814132
160,-48.2028404259922,-54.29023037786627,-8.246901299269606,-36.02946095024935
161,-48.518906598680516,-54.81032561512079,-6.8419151268265255,-36.0558329172991
162,-48.524269630126014,-55.06974394692204,-5.458481496822484,-35.822115724072475
163,-48.19536340086129,-55.07727308505735,-4.100630162068731,-35.32812472624941
164,-47.510424830057964,-54.84107043764773,-2.7795513564787058,-34.58035364103517
165,-46.465430875071945,-54.366922211478524,-1.513751600488924,-33.589709102855544
166,-45.06970092982969,-53.65676785450155,-0.3346063235766851,-32.361414147184256
167,-43.3351204848374,-52.70908475136449,0.7138968591570518,-30.895948291292704
168,-41.272153410590114,-51.523624088054355,1.5888529600200276,-29.199093492311693
169,-38.90747506997139,-50.10958131529929,2.2605510469177603,-27.29221040209176
170,-36.30040341472324,-48.48978076981222,2.7125834432143834,-25.216022601240127
171,-33.53050913293963,-46.69612127613567,2.9346049297073065,-23.01951265904557
172,-30.67084418451293,-44.76054761471669,2.9241567755683002,-20.744055607552696
173,-27.775158717147583,-42.70899620039523,2.6965318903664444,-18.421376595041327
174,-24.88969245514839,-40.56115010127325,2.2877068353518877,-16.08414993978002
175,-22.06409795443358,-38.33324789076913,1.7415820136028901,-13.771282482625699
176,-19.34929022754862,-36.04002229181229,1.0931182670933413,-11.523384896388322
177,-16.780850211732275,-33.696253320392756,0.3700923180821385,-9.374300481867039
178,-14.366160829040915,-31.32023312322264,-0.39912946575173164,-7.348456441143246
179,-12.100419979338707,-28.93631438632695,-1.1860425967560846,-5.468659601251731
180,-9.990529249332075,-26.574387362139152,-1.9648906850739722,-3.7604359613060074
181,-8.055405715114135,-24.267520512318473,-2.716583590541141,-2.2474102856385243
182,-6.305875288131148,-22.04799476314976,-3.4315573561176747,-0.9447416079291873
183,-4.7374821312812205,-19.943721877455886,-4.1077236751787884,0.14539697280065145
184,-3.3423109033480842,-17.975832141609065,-4.744258803964978,1.0354579360055152
185,-2.1162269489347274,-16.154337987822615,-5.338579480869841,1.749277512699981
186,-1.0475735537047073,-14.471903518885025,-5.890194076679067,2.316283054273213
187,-0.09515595777530078,-12.906392656840218,-6.404770355676625,2.7717506382872545
188,0.811179175984305,-11.434360674406332,-6.891883864100313,3.15299446874482
189,1.7447419142888125,-10.0399544478023,-7.364345117858797,3.486106766312199
190,2.7560008591079663,-8.713776841040248,-7.842982910845682,3.779779828259438
191,3.8588339131144305,-7.448755956485124,-8.354446054892845,4.031416876501131
192,5.040114497613362,-6.239308529955605,-8.919137914278233,4.237176859319159
193,6.274412007848809,-5.081406609924748,-9.538570176513932,4.3967518440137034
194,7.527526749932081,-3.970733469012023,-10.195783550395651,4.514111427342708
195,8.751963814204425,-2.9017564309081885,-10.868477506524945,4.598266103606246
196,9.888583535029715,-1.8663605252938233,-11.536714307051508,4.6627227157164315
197,10.88771320581434,-0.8537007494164977,-12.184483429596744,4.722978690063827
198,11.72936911500063,0.14678821741138232,-12.799640326638015,4.792681309698134
199,12.426711268060489,1.1445820613158113,-13.371089646836296,4.8800734675177235
200,13.011962556489683,2.149745256660103,-13.888529724795553,4.984746308426557
201,13.516262247668674,3.1712893244421734,-14.343733060467763,5.096656918371169
202,13.963744703827361,4.212731704448047,-14.730699155433719,5.198842842780565
203,14.374889508629568,5.268862356994163,-15.045003240718334,5.276439933097237
204,14.764452143260808,6.326737319039828,-15.281842260104144,5.326900911921135
205,15.129494567166201,7.371672333907286,-15.436171429945336,5.356578752004176
206,15.441660123689408,8.390211075971512,-15.505179924314378,5.3690877733152815
207,15.657979658649264,9.366715770126799,-15.48936722232684,5.358333087117971
208,15.744289703444423,10.281599761438127,-15.392223088220717,5.31256175686263
209,15.691783169159804,11.114429680593792,-15.218196339953879,5.224626134353416
210,15.506977579497986,11.850795391176767,-14.971012652647046,5.094746127375716
211,15.196155644875274,12.488914838619001,-14.655953824700354,4.928452410886627
212,14.763216131564281,13.039343831144418,-14.281918191995958,4.734303943762471
213,14.219059953665095,13.5194512261686,-13.859669964740355,4.523134199767838
214,13.589498391869745,13.948522485950882,-13.39994212297813,4.310051375074151
215,12.900361458105568,14.344923587873136,-12.913941667649631,4.110800009391455
216,12.157669706964732,14.724412989432603,-12.41265300522175,3.934143603311064
217,11.351209900681377,15.098393751198433,-11.903334964875143,3.7811793588604545
218,10.47791911534771,15.473665419297848,-11.388032738812608,3.6504649334026102
219,9.551477155208342,15.853321350664597,-10.86596047194091,3.5400082966972723
220,8.590627830328144,16.235835061019078,-10.336862822594899,3.441180262679884
221,7.61053478883198,16.616404468336732,-9.802914201124997,3.3295417307776582
222,6.622827348001654,16.991168095212004,-9.268839562736193,3.171322544222615
223,5.648802275066927,17.35982120360289,-8.741485715668112,2.9436701733473405
224,4.728226432996525,17.725644453762424,-8.228948603653084,2.641996330919269
225,3.9028305783150623,18.093741506717834,-7.739686547316567,2.272314603864929
226,3.1942545303416843,18.46908496622426,-7.280861631111446,1.8397522324850852
227,2.600370671332928,18.85325100942044,-6.856298437811338,1.3435504807891518
228,2.1167451569163434,19.24285777356895,-6.466172742393952,0.7829957215579338
229,1.7532835897519699,19.633109186499418,-6.107402394536924,0.1649923598971951
230,1.524808709527488,20.02161081039819,-5.777859410247274,-0.4902072152558007
231,1.431620113061513,20.408052595874544,-5.482037235250202,-1.1576549298220449
232,1.4496009328657622,20.791212571831945,-5.230807096173489,-1.8255071322034966
233,1.5488164191641092,21.16648338587417,-5.035405097229186,-2.4914813098476047
234,1.7175980636191834,21.524560932214236,-4.901804746818254,-3.1481813635373097
235,1.9518268254706914,21.852182916064596,-4.828120053607937,-3.7858394144277514
236,2.229583936518628,22.135936973436998,-4.801627054160916,-4.402302777595983
237,2.511611772008466,22.366616664969822,-4.79985763797501,-4.999706800016447
238,2.7564929609910247,22.538676796969117,-4.796604845136649,-5.576547257242369
239,2.936536230259726,22.6447831062442,-4.766447377384578,-6.129482400983778
240,3.049202277229259,22.676751764354904,-4.690396817132388,-6.656273823619428
241,3.1042349116903516,22.63429218064097,-4.5630753628034615,-7.15015084992088
242,3.1169166815176537,22.527069389431958,-4.3936335023186,-7.60101205877872
243,3.108562805096543,22.368064976401932,-4.20198475841065,-7.9956904068999535
244,3.0868481364853344,22.166686568524945,-4.017792578349881,-8.304420163651876
245,3.039255662435404,21.92685437954729,-3.870827100186035,-8.49156336166338
246,2.8950876037811755,21.68643959803004,-3.768736388329147,-8.520412103352582
247,2.704105649710626,21.352470141865396,-3.6996288364846945,-8.481338142200917
248,2.507896103089669,20.88131412187773,-3.6462684358656636,-8.446411463090946
249,2.345684735793227,20.268456545152127,-3.5895536734276083,-8.458081044590207
250,2.246249055618301,19.539479582290646,-3.5153312121143214,-8.534095127723662
251,2.214190098424727,18.741360892154844,-3.4187590554912166,-8.685033983081464
252,2.236183442201339,17.932580138648582,-3.304055201199292,-8.914082912757245
253,2.304946624866131,17.17297334164344,-3.181516728247397,-9.204191190176365
254,2.421735698540343,16.514882565912934,-3.064734870892142,-9.520790215836968
255,2.5813851559894943,15.997406993998345,-2.967040419630302,-9.824771653735212
256,-0.1022230772396509,-0.8098729993564482,-0.15153783805163856,-1.0844227286855581
257,-0.10161356990789382,-1.6515246422179466,-1.1025708234459652,-2.4447876480340724
258,-0.01742261254665539,-2.839076907410039,-3.0097412737977196,-4.427059619537015
259,0.14339128697216552,-4.386118689415676,-6.246233101505871,-7.053071066315366
260,0.3287603246176879,-6.284939499848462,-11.215062301702083,-10.287334288564107
261,0.44399173477437914,-8.507713713809231,-18.38806617795832,-14.043018871317258
262,0.3454480291546175,-11.010274893515108,-28.297495111615827,-18.21203339010264
263,-0.14681425767069656,-13.74089430399038,-41.484743586832636,-22.68413350971184
264,-1.204592131184055,-16.650304982899147,-58.43188074711772,-27.35219920355167
265,-2.9382543619477905,-19.706168861765146,-79.50051044818998,-32.13554299442867
266,-5.370741227751209,-22.917354932015062,-104.89816717886566,-37.00764735410359
267,-8.442340901357905,-26.241922507127573,-134.58731034453314,-41.848345318018545
268,-12.02493228680892,-29.612563396781226,-168.278223748659,-46.49586831719951
269,-15.941311688835947,-32.94892465005445,-205.47684008603989,-50.7944990814362
270,-19.994270113748343,-36.181723594761856,-245.54677316392645,-54.633755121087795
271,-24.00584424679854,-39.25912788451179,-287.718013505742,-57.960807406572215
272,-27.85580302762968,-42.13564606807145,-331.11802218733015,-60.766856666901674
273,-31.51074183443387,-44.76729923633589,-374.82261503647686,-63.07820151321275
274,-35.00049845231113,-47.11575203585951,-417.89881211883005,-64.95753291230152
275,-38.35590955338889,-49.15436323657971,-459.4580543559907,-66.49112608032829
276,-41.59585298430947,-50.869240243296765,-498.7250029947445,-67.76615971010715
277,-44.74180524052094,-52.25581782566308,-535.0524925447382,-68.85727547275624
278,-47.81266243045152,-53.3188949605428,-567.870449012277,-69.82043874027693
279,-50.793728206685465,-54.07022425528372,-596.7064179557567,-70.67646573580342
280,-53.60867184913356,-54.51837867937135,-621.2570348076117,-71.40024333904682
281,-56.1542337081759,-54.669469663076775,-641.4106041220508,-71.94335598527061
282,-58.36847522404106,-54.54286675349293,-657.2360008129972,-72.26219114181427
283,-60.25791911616744,-54.176810345428684,-668.9526953193246,-72.32751748632258
284,-61.86173524215023,-53.61682249925697,-676.8840373915751,-72.13808688147563
285,-63.20309441522779,-52.90214928630608,-681.4050486520919,-71.71764443802307
286,-64.27240815114455,-52.05691523402449,-682.8681429751198,-71.0728850416223
287,-65.03438062238648,-51.08420684069166,-681.5194428399855,-70.16722508200827
288,-65.44283537910822,-49.97029026540935,-677.5194277549308,-68.933190985285
289,-65.45657735394373,-48.70261043661459,-671.036451391908,-67.2989977620286
290,-65.05293659996755,-47.28470221777398,-662.2696067451595,-65.21385977848783
291,-64.22849522078177,-45.73241167900483,-651.4451086393268,-62.66490503607169
292,-62.999144893908756,-44.06217527360218,-638.8275314616254,-59.68558653270215
293,-61.40598446338129,-42.2870319802239,-624.7203027506974,-56.349628203255705
294,-59.50619836590244,-40.41840441252439,-609.4520460440967,-52.75229337874416
295,-57.358785098490785,-38.468991257643836,-593.337594955775,-48.982192221459876
296,-55.02825077649534,-36.45895430297537,-576.6202304060753,-45.11573255089983
297,-52.592467681259116,-34.42161611951985,-559.4126275095396,-41.25016546601365
298,-50.1250099650088,-32.39322322999044,-541.6886732270266,-37.49420537596738
299,-47.66119524087007,-30.391393007450365,-523.3252876033899,-33.90434262076412
300,-45.18882217757799,-28.4111586376184,-504.1301134100699,-30.458324813250652
301,-42.6735952813926,-26.440551996888125,-483.8643551371809,-27.08634361935112
302,-40.09302975887697,-24.47203721049419,-462.27937930839374,-23.714412227902432
303,-37.45438926981909,-22.50386490341465,-439.1401993875777,-20.298247824156288
304,-34.7937245180999,-20.5413844101356,-414.2509908358249,-16.84910883003029
305,-32.15382256374797,-18.597894821078697,-387.4881535249687,-13.415862023628652
306,-29.559915559397744,-16.686561702736956,-358.8071710037441,-10.035206487271815
307,-27.020490028512246,-14.80879061569055,-328.23609894005676,-6.717177045885663
308,-24.53971546894667,-12.95557873347412,-295.86544801541396,-3.4553488924768754
309,-22.118907134226287,-11.12319308284511,-261.81639963279304,-0.24376565813579099
310,-19.741685620611296,-9.320488898251238,-226.2115268027789,2.900432002646396
311,-17.372289428563313,-7.561608822365685,-189.17795121034115,5.939154098315219
312,-14.98044669568592,-5.85761017244649,-150.8644969294208,8.83800030313098
313,-12.560140615552779,-4.210975118773039,-111.44993470761149,11.586251470378858
314,-10.120279579160679,-2.613630023732126,-71.14203008312236,14.200902218720039
315,-7.665825075363944,-1.0511374840774566,-30.168447661086926,16.686523218763522
316,-5.188140311344928,0.4890178345009905,11.231939097802314,18.994666961262176
317,-2.6610952322629986,2.0130968935662827,52.802302637977476,21.062140762992097
318,-0.06903109619714753,3.518662154253201,94.26745850982334,22.87032525594929
319,2.557950591533291,4.99060091695291,135.3591177188719,24.454576135151754
320,5.16258686771185,6.4030846807930555,175.81949636265162,25.872737018722997
321,7.6984121849757905,7.728880394617976,215.37993815590727,27.170265925530813
322,10.134088587106763,8.94392506864621,253.78600245891388,28.3624052080925
323,12.429331106357418,10.020855499971859,290.84185719977603,29.42091520438418
324,14.526585154608059,10.923820761282391,326.40556082159196,30.291294902142702
325,16.37425113866247,11.617639972580019,360.3549281937812,30.93818467528333
326,17.954127621321135,12.086725605205473,392.56851346338254,31.364360063305096
327,19.29360895708828,12.346443502533788,422.929936928983,31.605056326225245
328,20.44411163742019,12.434684755651341,451.3441525855502,31.709470162087705
329,21.445975107298395,12.393619145511055,477.7498556889497,31.717978746442782
330,22.326869051093677,12.261139800724521,502.11102466164175,31.659393989886162
331,23.110063444626014,12.067464868547061,524.4079197232533,31.562436281527685
332,23.795980604950092,11.828468813581441,544.6464487135635,31.46098064260993
333,24.35184311748344,11.546550811886496,562.8653082319175,31.37790203412453
334,24.728745288708954,11.218577147257674,579.1267915866096,31.292934990162436
335,24.889331613037925,10.839881592136454,593.4959588277504,31.147397575602735
336,24.842714927771077,10.409813733453353,606.0202914084936,30.891164400045973
337,24.64700460046438,9.938739864670406,616.734506326425,30.51515497821645
338,24.367181875327812,9.447271204118369,625.6805837985546,30.045489158456938
339,24.047512924058015,8.96298803987984,632.8992211784456,29.515496711588167
340,23.715565252596893,8.519704491117263,638.4134711676618,28.953973191735155
341,23.397086877159328,8.153300441480788,642.2566811825826,28.38699247201018
342,23.11909485908726,7.890718588419229,644.4941888969641,27.83159976864335
343,22.8917257805649,7.739411868877946,645.186265495621,27.292844305889957
344,22.700934572941748,7.686444034650947,644.3563899677142,26.77031004902962
345,22.531341475192335,7.707217868868069,642.0284099853371,26.26465330844822
346,22.39386133621444,7.776364017461899,638.3125263310422,25.780272692326886
347,22.32329705186227,7.872156188115238,633.4639930785947,25.32891906065339
348,22.34805826187674,7.975373563579161,627.8473108262749,24.931087019949757
349,22.47444161705077,8.074189823223882,621.8694006471408,24.608108751515232
350,22.697070538501105,8.169142792153423,615.9864448889173,24.375566658558103
351,23.010043008197428,8.271011289315298,610.7202923116841,24.248087770726755
352,23.41116632614957,8.399413665002172,606.6045520762327,24.24598062816959
353,23.901251278374236,8.577093842693316,604.1095246011973,24.392522630686717
354,24.479115687109758,8.82367982038205,603.6044127406362,24.70590037508232
355,25.144451841624523,9.16023907324387,605.3500187392099,25.200701003987362
356,25.913425444808492,9.610985204019492,609.493720935249,25.899358473814065
357,26.82293290848002,10.194083459962075,616.0704662415714,26.83176611050918
358,27.908197861331296,10.914736858299639,625.0116697787774,28.013313967354726
359,29.172752696434227,11.765456717775672,636.1545080397851,29.423354262133337
360,30.578488526531846,12.727723279511828,649.2752940843768,31.004700970895545
361,32.060328808323575,13.7739534863906,664.1232633665592,32.677087095796125
362,33.55274054680952,14.872479948598226,680.4118500211988,34.35501996599455
363,35.01630941574601,15.994043373645328,697.8022272684157,35.966094676527476
364,36.4354296695101,17.114619146107554,715.8910920861905,37.458019556401545
365,37.79550573300047,18.215545077993973,734.2089168375705,38.79599132956754
366,39.08423576743888,19.283731124267916,752.2286894275306,39.964859362810834
367,40.304261830206144,20.314281009780323,769.3310308239177,40.972366453229554
368,41.471846148698944,21.31686951359669,784.7657151507793,41.83962814385314
369,42.599403378230186,22.314648802618827,797.7024986300146,42.58809377975553
370,43.673823049164035,23.33431785856881,807.3361698748331,43.231734400306934
371,44.662040581858285,24.396724416963227,812.9669948814243,43.76841161596029
372,45.53065477295458,25.50995542706276,814.0623691999291,44.17744949896464
373,46.249046187170194,26.671138385726838,810.3252305900097,44.427345487143604
374,46.83001992877587,27.854672633750923,803.3101598393174,44.53449579806289
375,47.18694959607405,29.075297821178808,790.8728242630148,44.38885986637425
376,47.29470374833693,30.31152471287833,772.6316472452465,43.96169865436791
377,47.185252193094676,31.519793115464957,749.4945056836589,43.292206450274065
378,46.91984085310435,32.648583500243305,723.169726055457,42.456836824399645
379,46.55735414622655,33.64929816191521,695.7072381252733,41.54345585648436
380,46.13912557604179,34.48390692650568,669.1372452331715,40.63459618635346
381,45.69885680385378,35.13143619725257,645.2242562640636,39.80010609064988
382,45.28401063150871,35.592401494972336,625.3114789933277,39.09799954262009
383,44.94681628448643,35.88708931078625,610.2098105739167,38.56799367604037
384,0.1460619321996972,-0.047132351988192406,2.3415091748020522,-0.045911067600383534
385,0.22469241884828448,-0.16829379939005085,4.482402530524934,-0.16616165725197812
386,0.3227421137918738,-0.3486118523888301,7.096065707296458,-0.3270981786097368
387,0.4297072556963231,-0.5877985751753179,9.940179133047991,-0.5150753128210348
388,0.545737823534288,-0.8805111343310118,12.733684300908013,-0.709617020001626
389,0.6798668972602707,-1.21801115040552,15.184745361217871,-0.8888892408030645
390,0.837486281848357,-1.5882135135518956,17.000934087037525,-1.0337581569702015
391,1.0159990969666561,-1.9755299140862066,17.92929791110003,-1.1312683336088094
392,1.211537047264135,-2.3632644444628252,17.821890595708904,-1.1784814325836763
393,1.4274012505834899,-2.737081721162532,16.69906187055234,-1.1844853907294068
394,1.6761045794650822,-3.0869484481156317,14.78748386657447,-1.168535740749493
395,1.9466716221253,-3.4024227647024574,12.246868630128233,-1.1540800286123514
396,2.206714858010555,-3.6736988031942492,9.200237916511584,-1.1600398721639802
397,2.4268058800934846,-3.8939482323003034,5.737017537596233,-1.1933843671285667
398,2.5950544863342033,-4.059338422763677,1.929787653554828,-1.2490450671224695
399,2.7026753150027685,-4.16914446034726,-2.146878104330416,-1.3188631753380518
400,2.7313717801856696,-4.229732414456718,-6.405806760981428,-1.4030275085236927
401,2.657609128945391,-4.254716466807782,-10.741652346394645,-1.5123817358690543
402,2.4759710350834645,-4.2619414126043,-15.032613085052576,-1.6567369013998472
403,2.209296443538899,-4.270336301231077,-19.156619432293954,-1.8342103986378315
404,1.8872819471885847,-4.294520052680305,-23.01104340443944,-2.035085260203889
405,1.5266398642876062,-4.342335269409721,-26.51813773020847,-2.249234529257628
406,1.1305026114667245,-4.416401528713844,-29.616013013349562,-2.4697635834532052
407,0.7063922909116465,-4.515272976343664,-32.25364031932019,-2.691219958389669
408,0.28138100537594596,-4.6344058667444665,-34.40892337406825,-2.902228165072888
409,-0.11052258192316837,-4.766479399199721,-36.10569141815508,-3.086389811937986
410,-0.452420991922934,-4.901859947228389,-37.396593811010646,-3.2321065918944107
411,-0.7521610758321351,-5.032887152110501,-38.32726430614327,-3.33978225667403
412,-1.0304459200310463,-5.157780537625594,-38.9090198875877,-3.4230274240492884
413,-1.3040466037870035,-5.278239162635042,-39.12664879296919,-3.5034103379289916
414,-1.576962461922381,-5.39562432998146,-38.969914381058835,-3.6011876964145166
415,-1.851745645917381,-5.510688954776091,-38.440219127561456,-3.730522871711957
416,-2.1411850891041424,-5.624139158557201,-37.541744463241415,-3.9000989661133483
417,-2.4574265855482293,-5.7360062239534075,-36.2793872573154,-4.111797966801674
418,-2.7960084124715094,-5.845392676992254,-34.65851221114841,-4.357923833493726
419,-3.131789248605127,-5.950389816796334,-32.69792331595087,-4.623127708739191
420,-3.434138351712642,-6.048531932861207,-30.44710516235816,-4.894949423117521
421,-3.681297204178533,-6.13855118391467,-27.984401865867884,-5.169945297361624
422,-3.855312205756334,-6.219947072598911,-25.405502677651693,-5.444665756197766
423,-3.9390105924432257,-6.288193818866391,-22.80702043323129,-5.7053797708277685
424,-3.921665900365082,-6.331262887938834,-20.25882570554497,-5.928597481689138
425,-3.8130315382065296,-6.333619709911204,-17.787995088746197,-6.093311123132149
426,-3.649808339087303,-6.283082234367267,-15.388392479700746,-6.189551380308985
427,-3.472641377436414,-6.176422807328674,-13.035804416770102,-6.215887061366171
428,-3.302028010069932,-6.021812122446919,-10.696909413843398,-6.179095907235506
429,-3.1353544801346866,-5.835988544521541,-8.33694793963136,-6.094492254557915
430,-2.9625994329944096,-5.639938835996866,-5.923301092487124,-5.981048719833742
431,-2.784646371552887,-5.454295823346794,-3.428972694472124,-5.856789048747846
432,-2.6150635421574844,-5.296534378550756,-0.8424977026751223,-5.7383382522346045
433,-2.4617981532605175,-5.182142875386304,1.8212173174207589,-5.6358993292340696
434,-2.3129002269545853,-5.124492752144619,4.513907323236171,-5.545341653321965
435,-2.1546662765783964,-5.1323996731264625,7.15596490549895,-5.451890866227406
436,-1.9953378431500572,-5.208465125134801,9.65234919369377,-5.33934731032921
437,-1.8630762564125436,-5.34903281943872,11.922907422424048,-5.195638686506099
438,-1.783208086946446,-5.546994235485507,13.92272174176586,-5.010698476212416
439,-1.7617674575420121,-5.796088192983365,15.635919673648964,-4.774102038968746
440,-1.7927516162243142,-6.094393030726633,17.068480552715542,-4.483035605021508
441,-1.8733954463450804,-6.446918163747669,18.246290545927906,-4.152102553113351
442,-2.0115351660759346,-6.864279416581907,19.20734497930266,-3.8153586761242795
443,-2.207848869651087,-7.355998773907743,19.994196864825568,-3.513231042448426
444,-2.4370276275378693,-7.924789899286875,20.648990287167642,-3.2756378752352213
445,-2.6624756543843717,-8.565713476248623,21.210460066747462,-3.1179634230809383
446,-2.8580238114579632,-9.266984019785244,21.708048626467882,-3.0452374863944174
447,-3.0138841119781152,-10.010574844710437,22.150533537632214,-3.055366469370426
448,-3.1264339373316683,-10.776393034065515,22.5271054324418,-3.1392325177509033
449,-3.190057978777536,-11.547288824504188,22.826216747135863,-3.28112631019137
450,-3.2113278570876593,-12.308920028543895,23.04601857465899,-3.466254023752172
451,-3.2295304032298517,-13.048473316786215,23.189608371788424,-3.694153915773309
452,-3.3020495229988596,-13.755409975912414,23.26505792664179,-3.9738617952069952
453,-3.460573023148458,-14.423052615900865,23.28827376146557,-4.303178938889262
454,-3.699080896823045,-15.049671558121311,23.27881552866084,-4.664430177211106
455,-3.995378575869254,-15.636336068922228,23.25289733735882,-5.0335370149227305
456,-4.334962840911101,-16.183569326620415,23.222265414916187,-5.393448168511138
457,-4.72134349784397,-16.690787504823277,23.202609508698455,-5.743233721872718
458,-5.156887510774505,-17.15524066825749,23.216411755553242,-6.0889741494786005
459,-5.619784714604652,-17.571513274415587,23.283861281580975,-6.431605471203726
460,-6.070622740645426,-17.934452113304843,23.416261845264334,-6.76710888051193
461,-6.484585333087476,-18.23802431409101,23.611664114312234,-7.094395873512584
462,-6.867988627503649,-18.471016608307973,23.8510498455437,-7.417386260360721
463,-7.237572530048823,-18.618773357091662,24.102609092054372,-7.73906063523508
464,-7.5987802519528636,-18.669105219884017,24.331061744897603,-8.057958966105524
465,-7.944573713489743,-18.614654552747663,24.50303202615953,-8.370357017293829
466,-8.26947861970178,-18.45100752903266,24.586652494186836,-8.672764556057723
467,-8.579695084482518,-18.1767260015997,24.556112165312783,-8.960377971173397
468,-8.883639403157785,-17.795393177939687,24.401766306644774,-9.223589007422458
469,-9.182769816284647,-17.31673717579114,24.128438875692765,-9.452844838768783
470,-9.47651577592488,-16.758053477191005,23.742985937814012,-9.651779080290762
471,-9.768942069846588,-16.142173813541856,23.25090553502061,-9.837670553920491
472,-10.068085431904953,-15.49099856132098,22.660399956842014,-10.033182850747071
473,-10.381903680826737,-14.82321069652799,21.982212086478107,-10.265009050782353
474,-10.708894925780658,-14.157563646764848,21.227652689954933,-10.555486676528961
475,-11.033314144079716,-13.513884409859257,20.406082567868033,-10.912206018918862
476,-11.347084706419793,-12.908723155211685,19.524927927817068,-11.334253985674529
477,-11.671678982019056,-12.349844569953891,18.59507001904853,-11.822546068242678
478,-12.049499816736175,-11.837206839966383,17.634696738057542,-12.380317827085562
479,-12.516955336668676,-11.36968532052129,16.667274614001634,-13.00396429531779
480,-13.085689569833752,-10.94555450159479,15.712618758278984,-13.673587529162525
481,-13.751115618343832,-10.556955210056534,14.781555558740697,-14.359312948237422
482,-14.504034139097083,-10.1886011344203,13.880118096180112,-15.034256023013722
483,-15.325748240428284,-9.821961558348146,13.012173901433973,-15.677486991267633
484,-16.17604964239498,-9.439389160617193,12.179563088000398,-16.273243297171252
485,-16.98958098424981,-9.02500812017737,11.38277488014809,-16.810581825505658
486,-17.699536060774456,-8.566405832124987,10.619962878044355,-17.2849856558618
487,-18.263696358439834,-8.058913884219749,9.88785482412194,-17.701046472798815
488,-18.662110207772688,-7.509807278005174,9.1868790453007,-18.07045543750908
489,-18.88002597091245,-6.93993020082263,8.519786233487356,-18.403474937008095
490,-18.90341085256752,-6.377648669731053,7.882901337614567,-18.69757512627555
491,-18.7350704096754,-5.846925221091488,7.264949959355687,-18.937292547240737
492,-18.411143444706603,-5.360866670043207,6.651617747404629,-19.106075228373715
493,-17.992671535996703,-4.923584167215822,6.029072582556182,-19.19252199430857
494,-17.531130871422988,-4.533184380473109,5.387787111204272,-19.182808084100976
495,-17.047370757328554,-4.182875018633044,4.726898331194841,-19.057131523577304
496,-16.54689651118314,-3.8622934630972146,4.058900343327846,-18.80225220565655
497,-16.039762856372576,-3.559752288900247,3.4093731567004437,-18.420677187847858
498,-15.53746799315733,-3.2648656642288927,2.806304405826256,-17.926651274225836
499,-15.040881094292992,-2.9718829244078138,2.2680767173939285,-17.33837028498527
500,-14.539539570164923,-2.6815787498789985,1.8029338356753057,-16.67616763177501
501,-14.01754670837125,-2.399033964521036,1.4147368926609745,-15.96491180449338
502,-13.472526324407651,-2.139647165289624,1.1266500823897159,-15.246063028854877
503,-12.898708702324264,-1.8956052190551322,0.8994523202654008,-14.528562433383916
504,-12.303335796987446,-1.6650758050967525,0.7017044343192812,-13.829783764671879
505,-11.70002706377334,-1.4471088483743355,0.5083121851967268,-13.167270468988391
506,-11.114240546616864,-1.2411189948256243,0.3030344974583634,-12.559841925873267
507,-10.580997783419221,-1.047659667157673,0.08375639781642172,-12.028021331011994
508,-10.13296260619092,-0.869273062515414,-0.13950516839947327,-11.588630590002706
509,-9.784628286180112,-0.7107476217760361,-0.3530398746688233,-11.247762930770074
510,-9.53060737897464,-0.5782878344482054,-0.5428345379324013,-10.999192115209189
511,-9.35885077342606,-0.47710199058275166,-0.6962106706429065,-10.829669676231932
512,-0.3609423653050302,-0.38883272693611404,-0.13590773489194363,-0.4316190891929618
513,-0.8559066945119307,-0.8588789412843066,-0.3641212141903778,-1.0190789927420232
514,-1.5851795419934416,-1.5301129763713028,-0.7018327448466414,-1.8721778272386886
515,-2.5646995001687722,-2.4015523609516087,-1.146517970007626,-2.9960208732105156
516,-3.7767077905867628,-3.454283044471958,-1.6854525077214333,-4.368993363034723
517,-5.176736693506939,-4.653398330271444,-2.3008905534527946,-5.947736863025047
518,-6.7094589100097615,-5.954248975468423,-2.972458628694501,-7.673726641460279
519,-8.32434098852977,-7.3081480309209175,-3.6764453637353935,-9.475823042517838
520,-9.978274106690694,-8.667846019063392,-4.388701026340635,-11.273492739336467
521,-11.629125759966147,-9.999260105917156,-5.088237526050786,-12.995663287206987
522,-13.254235310557375,-11.298741831981209,-5.760893770333436,-14.614911352995723
523,-14.837473726056531,-12.550380483240323,-6.385216135926,-16.115542637299708
524,-16.37518533808057,-13.740496749750182,-6.943472141552543,-17.501329364717424
525,-17.857259194591574,-14.857161302570283,-7.420556332873999,-18.775738355703595
526,-19.26317751071413,-15.889523960654035,-7.798233242692892,-19.936971957036814
527,-20.580556694955526,-16.827673527648777,-8.056725014587942,-20.988068676819605
528,-21.819786004712387,-17.66350017499446,-8.186227102118375,-21.943683364913024
529,-23.00131490345554,-18.392405174478796,-8.196610947640046,-22.821260276811728
530,-24.128740338541558,-19.014849276518653,-8.113630008893471,-23.624411431304424
531,-25.18183435872258,-19.534776678670273,-7.96944899554582,-24.3410003741377
532,-26.138091248226885,-19.95633835214837,-7.799443904973093,-24.953031926932155
533,-26.982845611270037,-20.282768981363056,-7.64170778362139,-25.440492678923096
534,-27.702102402679113,-20.515960843845438,-7.531302628603447,-25.782764190641814
535,-28.27553244735257,-20.655891451792016,-7.489381416601536,-25.9643711358132
536,-28.673758521204952,-20.7033198780456,-7.515187401451667,-25.98122479828078
537,-28.8723241923321,-20.662846767271642,-7.5938794138155306,-25.8466819667346
538,-28.87485223413784,-20.540189268689062,-7.716622636084987,-25.59174791187917
539,-28.71728697353758,-20.34004982115868,-7.885734316231903,-25.25745426085291
540,-28.442569369750398,-20.069376948522272,-8.10186031809027,-24.882449769787264
541,-28.08480590912583,-19.740021035103187,-8.359235842408134,-24.491116278747683
542,-27.675330454710604,-19.3675810162536,-8.654386718748919,-24.098329714191372
543,-27.246322614461885,-18.970168047723337,-8.98980383007537,-23.720499615765732
544,-26.83117098423949,-18.5683115557827,-9.365569506359096,-23.374283411847603
545,-26.454255718840813,-18.182932157328313,-9.773287444307035,-23.068622308897012
546,-26.121547988705238,-17.8308893711678,-10.203339353784383,-22.802861662660362
547,-25.82551727391466,-17.52299340162044,-10.649174346929966,-22.5726827364014
548,-25.551880032832653,-17.2678198418472,-11.09823410899737,-22.369894281803692
549,-25.280205528825814,-17.07366203616046,-11.52634517855377,-22.175591306948085
550,-24.976645645057594,-16.943812155809262,-11.901778366079789,-21.960828389318106
551,-24.5933581927062,-16.87065429569513,-12.19481203557535,-21.696177873305583
552,-24.08349871205079,-16.833748853447883,-12.392519477980898,-21.35969866956877
553,-23.422264136194013,-16.80300857043156,-12.50756415204178,-20.945391289733095
554,-22.614505017171712,-16.74467173772137,-12.567710132738735,-20.468475869805463
555,-21.682250464459766,-16.628361877043535,-12.59772412835171,-19.954916523928798
556,-20.651809049481557,-16.43186302655094,-12.619941933219652,-19.429573064771553
557,-19.55071606613744,-16.14098155258949,-12.666033325318793,-18.91589897055005
558,-18.418317886360565,-15.74965085147707,-12.771051932631407,-18.442576999201304
559,-17.31118958287668,-15.262254555276009,-12.955505537543967,-18.039272597993012
560,-16.28592825923708,-14.694318885719023,-13.221625588913325,-17.715785125879094
561,-15.37437039871212,-14.069239548477592,-13.561934478802801,-17.453697472133033
562,-14.571077128879361,-13.413931451395957,-13.95806255778869,-17.218598929867206
563,-13.848704572113474,-12.756672441692336,-14.373109431632967,-16.973055876122405
564,-13.179984680708857,-12.124281171502192,-14.7589175858948,-16.68345137639649
565,-12.542319294290923,-11.537667616004004,-15.074924530071511,-16.323134591592332
566,-11.914747718140664,-11.009815699050495,-15.296534188353133,-15.873581304566619
567,-11.277203523346424,-10.548992473040594,-15.411101048889861,-15.32992453353185
568,-10.62125825718651,-10.162849550969105,-15.415353453851948,-14.706198895620657
569,-9.961942273684212,-9.858376645389782,-15.313439024783762,-14.030702342439898
570,-9.327285784133295,-9.63738100836411,-15.11366818286864,-13.336181441120413
571,-8.736361297368646,-9.491642207186164,-14.831487273407863,-12.64569036122688
572,-8.187401298040099,-9.402678285706404,-14.492286063008615,-11.965937365651527
573,-7.667098829012464,-9.344892611112007,-14.122905439479117,-11.298179107836175
574,-7.166472549994686,-9.29053560030171,-13.741674702672906,-10.647084352961402
575,-6.681110799868118,-9.215876987587817,-13.355551955545556,-10.020033039438674
576,-6.197412622748118,-9.104161527942182,-12.959982297878975,-9.424286489384283
577,-5.687481684088744,-8.94489383308255,-12.542435803924883,-8.866155223816039
578,-5.123758995770397,-8.734442284031202,-12.086466542196728,-8.352268219252382
579,-4.496053842742507,-8.479196355871194,-11.575330416580442,-7.890798759900202
580,-3.819240130124819,-8.195365027313684,-10.999815339968679,-7.495346755529652
581,-3.1210186204751107,-7.9017331707027205,-10.360772452871172,-7.179539247850295
582,-2.4265086034261523,-7.611313124659085,-9.662051212538584,-6.943056665927773
583,-1.7578479464128172,-7.327020754186597,-8.91275087636125,-6.770794631148396
584,-1.1380364237337077,-7.042068608443662,-8.142517776609747,-6.639009097626116
585,-0.5938321499256143,-6.743305797795211,-7.405879427191044,-6.5136796963357195
586,-0.14170531361672475,-6.415286052951874,-6.765866588220113,-6.35189737332338
587,0.22316904775294868,-6.046235547923567,-6.266066141340283,-6.114311177716246
588,0.5107985614758019,-5.6342858357638725,-5.909330770102813,-5.781367824090762
589,0.7194251279087408,-5.188046687106295,-5.661833285543492,-5.364792956841621
590,0.8310615449830228,-4.7204163514072,-5.474362982436266,-4.9020747607518995
591,0.828997483266024,-4.242653839004574,-5.299899362987672,-4.43648868040381
592,0.715777909341796,-3.763810496482918,-5.100922090577987,-4.001268834538604
593,0.5067952945863958,-3.2922362280560535,-4.851995594995233,-3.6171309397737343
594,0.21545255689195875,-2.8365129713681783,-4.541656393581937,-3.2967538051914262
595,-0.15358546627893355,-2.405127069361069,-4.173020109932584,-3.0474721660705946
596,-0.5952684261732817,-2.004475118539087,-3.7653913871502596,-2.867461199958787
597,-1.0923046313989455,-1.637630065163645,-3.3552348457818044,-2.7392197716300952
598,-1.6142723461021065,-1.3063823644079429,-2.9879136543234295,-2.6342323306921327
599,-2.1343847804447496,-1.0154654119029276,-2.7030307674035923,-2.532277716326273
600,-2.642228848828689,-0.7716722839000407,-2.5235708081993944,-2.430805511235221
601,-3.132539214838139,-0.5775511928314496,-2.4466456648403563,-2.3331300806221096
602,-3.591488905627677,-0.42903559047525225,-2.4442745735346367,-2.2403077031132894
603,-3.9981858850515186,-0.31735323410803795,-2.482554280330724,-2.1566016806318182
604,-4.34095718077451,-0.23110938561868227,-2.5423862352185655,-2.091718432134591
605,-4.623343510214999,-0.15863475392331075,-2.627745802902763,-2.0518037221221106
606,-4.846699671780198,-0.0899850038348519,-2.7537828767342014,-2.0326282556329027
607,-4.991822025413129,-0.018532870467146755,-2.927820233626421,-2.020747141400866
608,-5.02317441345383,0.057687057211110684,-3.147664984972328,-1.996742154162724
609,-4.919509680937964,0.13714368394032164,-3.408390047430094,-1.9449986788724494
610,-4.693564532510563,0.21788831888176824,-3.7035309795496993,-1.8628674757810433
611,-4.376069151059983,0.299355082313542,-4.024075924905637,-1.7536183243337484
612,-3.9932415930767764,0.38295494646027206,-4.357219359253056,-1.617870224591991
613,-3.563468703500114,0.47084166443240355,-4.689074761884874,-1.4571964964931576
614,-3.1094546801977088,0.5661209533848421,-5.011502212464397,-1.2812648146016499
615,-2.6682487719644286,0.6754731721250946,-5.323377873370757,-1.1088571929576103
616,-2.2832292137876236,0.8072757107912107,-5.628636877216211,-0.962396259311918
617,-1.9823400086768148,0.9656595550599576,-5.930585590044015,-0.8618248157153849
618,-1.7683364813997864,1.144905590130213,-6.221186902713174,-0.822009565599142
619,-1.6247060184372575,1.3323228605141584,-6.482974234749889,-0.851760746176757
620,-1.5187639953973724,1.5185850915691679,-6.7012627604529404,-0.9439551739475067
621,-1.403619546026071,1.7004691894239248,-6.865224717622438,-1.064783812875029
622,-1.2239625007429147,1.8763628645465154,-6.960842101339197,-1.1659093679740884
623,-0.9260446232810493,2.0425652589529646,-6.971517319476831,-1.2089146824011627
624,-0.478864373580881,2.1923996255957876,-6.885009025914869,-1.1753466180465713
625,0.10995433507233188,2.3196786222397696,-6.697132662393351,-1.067734819346206
626,0.8051244426843774,2.4230034187226543,-6.412276435097224,-0.9020615610633962
627,1.564722349541808,2.50480189575949,-6.044525684817629,-0.6909257182800911
628,2.3473913584441966,2.5674602746388624,-5.616775668369638,-0.4398092252115089
629,3.109622644473444,2.6123031679158966,-5.15291184594985,-0.15375531554874677
630,3.7415347215470884,2.6411574045228625,-4.67543080864549,0.10727618702470515
631,4.357555465124921,2.651882164015302,-4.173273142290588,0.4204611638605144
632,5.030074249263935,2.642895413097634,-3.6480191611379427,0.8258625732035654
633,5.8002088129484495,2.61330817060148,-3.1143099346189156,1.3372269730142772
634,6.6770641675837545,2.566852236303793,-2.5960808016730845,1.9493399427398141
635,7.638689989287261,2.511763991423829,-2.1201314321019566,2.6401957683466213
636,8.63944518611473,2.456438806038053,-1.7093750151474367,3.369346268767295
637,9.618314464439665,2.405388823174794,-1.3747502277593477,4.079909574885471
638,10.507946922099341,2.3599226162484386,-1.1160998136961615,4.708582953332365
639,11.244934171473423,2.3223417514721993,-0.9309625391891729,5.202995906277945
640,-0.010165971089821273,-0.359108442396638,-0.5789943016402325,-0.11186768683897527
641,-0.010702789142536175,-0.8039444909367597,-1.1742219865532733,-0.32203718942908105
642,-0.005759949509079123,-1.458695387598278,-1.963258464298844,-0.6563169461680799
643,0.0035832985269215537,-2.330216339008528,-2.922265135242144,-1.1389550736955125
644,0.018968861702720358,-3.403518490144019,-4.014370470299884,-1.7786601826105322
645,0.03991185125846508,-4.643632351100966,-5.194455131870412,-2.5671882018715495
646,0.04939079394288068,-6.002676271795526,-6.415693494613213,-3.487346842288004
647,0.015240067011757813,-7.428399549323959,-7.640714892728026,-4.517120839812447
648,-0.0907545975940213,-8.871973646894473,-8.855014523831603,-5.629256829484703
649,-0.2791201360149461,-10.296904204743456,-10.075161548773782,-6.79181384994313
650,-0.5506306924252573,-11.694057378707996,-11.353087933981087,-7.977042949198612
651,-0.9149420112998893,-13.042341808213365,-12.712329019799398,-9.156898809172095
652,-1.3913725087800626,-14.325186088863102,-14.157788933493444,-10.307955936515832
653,-1.9954602576886489,-15.530590079800058,-15.67667766721753,-11.408568569345613
654,-2.728091441157323,-16.65058931148228,-17.24757681951769,-12.439067640912503
655,-3.5756906156204287,-17.678831452438317,-18.844092911551233,-13.387174480503042
656,-4.519753532696656,-18.606952040188585,-20.426317744230598,-14.25540796446764
657,-5.544452061906511,-19.424635425212223,-21.93768857716248,-15.057073786700707
658,-6.630518733593437,-20.12383293408936,-23.314634588542763,-15.799673808306164
659,-7.739158276932914,-20.70341417339396,-24.497675719282462,-16.47389917481532
660,-8.820803958539441,-21.17148492112326,-25.43868394996616,-17.060929445189043
661,-9.840935992543853,-21.54209087420378,-26.104416412039004,-17.54616593822043
662,-10.78167734414377,-21.829200010779402,-26.47760146988416,-17.921871538200985
663,-11.62537997177566,-22.041784541951216,-26.554767923786347,-18.18181858691125
664,-12.353407727925529,-22.18199796515847,-26.3449165340592,-18.320950882005736
665,-12.962819275594013,-22.248185384582104,-25.872955248946138,-18.337272676398978
666,-13.474810259053843,-22.238879741567775,-25.18055028125261,-18.237707681084334
667,-13.927839664383608,-22.15372811549982,-24.32049076357443,-18.047836089076032
668,-14.354029456256956,-21.99269662494553,-23.34453170313737,-17.804461120040962
669,-14.759562409296848,-21.75679409450665,-22.29410438395734,-17.54024224241907
670,-15.130247807504116,-21.449527152707113,-21.20407462249524,-17.277901935128448
671,-15.447837459746166,-21.07783451644655,-20.10613824606211,-17.02745968869895
672,-15.708594631542498,-20.652661874838607,-19.02623958190999,-16.787820177050612
673,-15.918914721967916,-20.188773975591946,-17.98559706722645,-16.550947817540347
674,-16.076106774757818,-19.703246498389024,-17.00056267075428,-16.30726205129752
675,-16.168174358601984,-19.212861617345176,-16.07926771190849,-16.05924637354917
676,-16.19153182546563,-18.73104271025418,-15.22173450455523,-15.833496689388165
677,-16.164182375051325,-18.264718677233244,-14.421692358439463,-15.673233216828805
678,-16.1082502899891,-17.81504693968129,-13.669237944082761,-15.617747365249617
679,-16.035186990958906,-17.382181065107325,-12.955257016923307,-15.690375675096103
680,-15.952783430389141,-16.966868089943226,-12.27653074169586,-15.897255556982351
681,-15.871352790161684,-16.568064516547455,-11.637652453731764,-16.23152350634268
682,-15.80841530057625,-16.180349111235067,-11.04658510858537,-16.6811742519679
683,-15.777052861738346,-15.792881827349136,-10.513002483013391,-17.22468839770834
684,-15.762063640012512,-15.391458426299486,-10.052062276166954,-17.81306975420423
685,-15.720614588106788,-14.962656176558992,-9.681596520902943,-18.372434338787258
686,-15.614373368881456,-14.498471101710106,-9.411608520896266,-18.834966948831916
687,-15.433757848869393,-13.99833503588612,-9.236637836489644,-19.161902554156622
688,-15.18778317267877,-13.465236391990624,-9.141166308815698,-19.34595112178917
689,-14.882213649555224,-12.90140322087509,-9.113683210827627,-19.403165310943983
690,-14.518757505577103,-12.311239076825842,-9.14691768790807,-19.36224038258958
691,-14.11307270679799,-11.707018928441965,-9.227664726961933,-19.262194525093083
692,-13.691509407025034,-11.107930754653383,-9.336784200662812,-19.146916708996283
693,-13.266446787036276,-10.534550938375203,-9.455121222228893,-19.04951741996939
694,-12.822475937436234,-10.005659944309208,-9.568725944193494,-18.981665672996062
695,-12.325814752227858,-9.536880635768318,-9.673485399987666,-18.93098316049831
696,-11.74619916644488,-9.13850207039534,-9.775272726977613,-18.86676823832527
697,-11.06126672984909,-8.813983833424365,-9.882035061343894,-18.75233109665814
698,-10.253956812702311,-8.561100340174962,-9.992547748251615,-18.54732091637123
699,-9.306159234321582,-8.375800053501973,-10.093050880412221,-18.203233567705812
700,-8.18803519631887,-8.253693975452283,-10.166342709621993,-17.672304468929383
701,-6.888420244940816,-8.187672196087746,-10.203319448980258,-16.930940203592556
702,-5.448957778029442,-8.166962877250917,-10.204717114723564,-15.994005785947454
703,-3.9474726430408325,-8.177692855015108,-10.173907919111437,-14.90345499283177
704,-2.4610809173872794,-8.203554597100496,-10.108393069683192,-13.707077694550668
705,-1.0452506939066462,-8.228348490438872,-9.998592692392176,-12.445797704429417
706,0.2592350847903219,-8.237800762508483,-9.833431839840841,-11.153117876428288
707,1.409804680911527,-8.217620967891154,-9.6055188713165,-9.859945620585215
708,2.35489802808876,-8.152893665538228,-9.312392680120212,-8.596808088799241
709,3.047566501756734,-8.030264098866567,-8.95232619270849,-7.385622296265536
710,3.4712285790135917,-7.840071162749167,-8.525003828838276,-6.228404389188432
711,3.644526017096434,-7.577070226511464,-8.041270341183452,-5.115008718133938
712,3.6064289376149414,-7.23970700144003,-7.5243250467709135,-4.044440302736551
713,3.4010545759996353,-6.830067001242792,-7.002038116951284,-3.0236060886570493
714,3.074657966065903,-6.354472195557596,-6.50366563249585,-2.046200380344457
715,2.679443197535673,-5.822938093728334,-6.058999185880911,-1.0952152790844263
716,2.2631746604601473,-5.24679620315102,-5.6915476540039585,-0.16330597061326907
717,1.846830419808593,-4.636573458195568,-5.406802802032857,0.7440575881128876
718,1.4261225543769547,-4.002495988708383,-5.1852539292979225,1.6185720427604133
719,1.0033106053341934,-3.354354938649919,-4.989331870983875,2.4542629011182524
720,0.5931552193110077,-2.7012058346588046,-4.780479432325674,3.2427177567774867
721,0.20048229977724238,-2.0539472569336334,-4.5308105580413205,3.9646730649620214
722,-0.190754129054115,-1.4245333196282093,-4.224813294096907,4.588483915410869
723,-0.6133317845538843,-0.8204038056081242,-3.858209384680864,5.075534685641651
724,-1.0945557524946377,-0.24164861832652873,-3.44255897859033,5.3911546245088475
725,-1.6317179703806959,0.3164245058137206,-3.009894809224513,5.515445412942372
726,-2.1951716191191406,0.8590131924073096,-2.606738529335636,5.443914890518085
727,-2.7567030703494586,1.388840796754206,-2.276688248967742,5.179137984935502
728,-3.3057152517149695,1.9057649581913052,-2.040106959942201,4.734260396427365
729,-3.834902211159477,2.4074979917871313,-1.8914664198368543,4.15080634606726
730,-4.3246696617254745,2.8899726279122584,-1.8134117905103637,3.492989083029354
731,-4.746728526883588,3.3486971619526624,-1.7853434589388337,2.8169000964899418
732,-5.087744794582817,3.7797896098946135,-1.785677073931287,2.157490633327129
733,-5.369881480256015,4.179499553408241,-1.7966991627287177,1.5305515581525957
734,-5.645219621296136,4.543865814422335,-1.8109349268232418,0.9258109186337802
735,-5.973813414479476,4.870252208604919,-1.8349870156362231,0.3095637401854015
736,-6.39795730196997,5.159084814742524,-1.887719766636577,-0.35668704798150463
737,-6.938637837997661,5.412645843775651,-1.992385589576917,-1.1069281118551744
738,-7.606726132907351,5.634030979205948,-2.1680191521528043,-1.972275896050256
739,-8.399793485474506,5.8275717728032745,-2.426300770676426,-2.9734802086383527
740,-9.29279170182606,5.996506488050331,-2.7697984993523725,-4.106593929999187
741,-10.238049353301863,6.139919134810474,-3.1911462594136424,-5.338852781808793
742,-11.187618563172098,6.252678983287624,-3.676947355086967,-6.620996471237618
743,-12.117962209210596,6.32747564854341,-4.211301883119496,-7.904464074674953
744,-13.026525234431922,6.3556015382540725,-4.77614293738384,-9.148223657698534
745,-13.912368010537412,6.32595190468238,-5.351338311380496,-10.317437558588203
746,-14.767752437522105,6.226031317687537,-5.916588424238577,-11.382085741825534
747,-15.589252204698438,6.0455402524852015,-6.455994160855919,-12.320817830644007
748,-16.38525304126163,5.778950140918531,-6.9629407747800265,-13.123376796048202
749,-17.163639353020425,5.42597328424543,-7.438592421853791,-13.783992080986064
750,-17.906316744998744,4.994412715960234,-7.883355249453703,-14.290765125026113
751,-18.557553711660088,4.503912671050437,-8.28790762407443,-14.618134265284946
752,-19.049752202240743,3.984018330207974,-8.631452649828658,-14.736421643755136
753,-19.337381583023575,3.4685014753691044,-8.889124057641377,-14.631771477431009
754,-19.403354859564953,2.9899719054320104,-9.041796447860825,-14.308910842879522
755,-19.239958823339986,2.574755343817427,-9.082278994707186,-13.77941141879843
756,-18.839505587242943,2.2372892903278503,-9.015750278296586,-13.061864769538271
757,-18.211505806417943,1.9778334493138638,-8.855521078963877,-12.193653946558138
758,-17.46005908227685,1.7717480115175426,-8.642095500127246,-11.269703846809724
759,-16.550865460264287,1.630228350054922,-8.3525041351312,-10.284843986481768
760,-15.495844454788351,1.5533395082612675,-7.98594690292117,-9.260550203573038
761,-14.330003728746934,1.5325759744510623,-7.562691484764139,-8.233166916229287
762,-13.110904116561857,1.5556016476109975,-7.117662633979177,-7.247814554020097
763,-11.913946630444496,1.6101153724624768,-6.687925436385401,-6.350321758034012
764,-10.814296003820278,1.684796039157321,-6.301030847973978,-5.576596471789925
765,-9.866413241341784,1.769683002322373,-5.970450982353317,-4.943255413743145
766,-9.097240655980011,1.85728002649365,-5.700340190320031,-4.44928037343413
767,-8.515989335252076,1.9417928187364324,-5.492109280012517,-4.0880656054892635
768,-0.2427336192497117,-0.28491233748346045,-0.41865831078369753,-0.392217279344523
769,-0.6064029838066626,-0.6175906073167237,-0.9844896936438621,-0.942997436784891
770,-1.171726970196527,-1.094607449582527,-1.8219631318218015,-1.7597046620843382
771,-1.965060850168309,-1.7204900381569537,-2.9382684036274576,-2.8551605796148434
772,-2.981888723241261,-2.489895631382163,-4.3180336329885325,-4.211106330141597
773,-4.192032994671744,-3.3909012406825387,-5.927837612162948,-5.783092191951768
774,-5.558722815433542,-4.4057143774450065,-7.722195886545875,-7.513249700214507
775,-7.044838410337112,-5.510691054545534,-9.650526189401827,-9.33795840070425
776,-8.604083525931355,-6.679882948563351,-11.665759341149387,-11.193171548705461
777,-10.177601305937133,-7.891844326088509,-13.73734817766508,-13.026209534974717
778,-11.714780404279567,-9.138887807741549,-15.869547673425352,-14.814034061009098
779,-13.168971157463377,-10.394873317565937,-18.050746711726475,-16.52394185352083
780,-14.510234774921518,-11.62849951861132,-20.268933056729416,-18.120598417925436
781,-15.716116918810703,-12.810029794577511,-22.506775669015692,-19.56469693152432
782,-16.764708746551165,-13.916092803295294,-24.738338996712717,-20.820551756786013
783,-17.643984030018988,-14.930418128277397,-26.933258270907835,-21.865037443269053
784,-18.36087777687565,-15.844794478899558,-29.0601168949126,-22.69112808791358
785,-18.93789017637473,-16.6622074330608,-31.087691926746484,-23.30670695291845
786,-19.401446875691192,-17.396659347130967,-32.98857475922842,-23.730038020855478
787,-19.77089935220725,-18.06639946773478,-34.74183970566954,-23.986523306713767
788,-20.067276087976545,-18.685102819959873,-36.33253307976143,-24.11074014285352
789,-20.322191957656184,-19.257100089459104,-37.7503593024285,-24.143910881746915
790,-20.566859170559436,-19.77816619415894,-38.988797753168576,-24.12425803803009
791,-20.814438465596453,-20.241778439622454,-40.04371319080915,-24.07576778370318
792,-21.058993883719896,-20.64295028477713,-40.91175005403367,-24.006307353796167
793,-21.293932293199493,-20.976882628253595,-41.58899970891734,-23.9168427410834
794,-21.520698779813593,-21.236453738183705,-42.07349546004515,-23.806870448704426
795,-21.739326295627887,-21.40950367563688,-42.37028768308306,-23.67548531950666
796,-21.93156116022008,-21.482553093873747,-42.49190103945819,-23.520699551833147
797,-22.057379393343933,-21.446987431369575,-42.45679072919326,-23.33848704196326
798,-22.081972681986173,-21.3004915829274,-42.28724792703197,-23.12592756542274
799,-22.007437957495213,-21.047733856859526,-42.00323724324008,-22.881174907220853
800,-21.869969996179112,-20.701406580962065,-41.61528329360631,-22.606242295644304
801,-21.707006344929507,-20.278766177516882,-41.12487219408025,-22.31618947419657
802,-21.533178698864152,-19.79283803216412,-40.52974344501252,-22.036123684190763
803,-21.351235327386117,-19.255437210850875,-39.82530287664232,-21.793179843119308
804,-21.18208513980097,-18.69187512171524,-39.00606185629398,-21.616338317438338
805,-21.071075189391877,-18.140965083310235,-38.06833142065875,-21.532663887542064
806,-21.05599996980122,-17.638719383758374,-37.01300265538016,-21.553740149758042
807,-21.13626169220228,-17.203832239436924,-35.85101613213011,-21.6621907268395
808,-21.283890068607654,-16.834374036662716,-34.603201492704414,-21.815881840356784
809,-21.471539085355143,-16.514939236225953,-33.29225125420143,-21.966427599950247
810,-21.681543602860252,-16.228186107689275,-31.93837867659478,-22.07252493766601
811,-21.901175203203305,-15.963567511761475,-30.559236305951956,-22.109399295366014
812,-22.1189445527459,-15.723479606112944,-29.168562861864892,-22.07938087318812
813,-22.328322882289257,-15.521295462780344,-27.777429353144544,-22.017404323931014
814,-22.542130175035826,-15.373386306071046,-26.394771524424343,-21.986839552604636
815,-22.79879004628462,-15.298766837607397,-25.022282356466437,-22.06279490302752
816,-23.135765788803575,-15.31932075336484,-23.656018302163787,-22.310175372323208
817,-23.564685355409253,-15.453262580052744,-22.294454144117765,-22.764913510759477
818,-24.074951582032245,-15.708000184269862,-20.94229887475988,-23.41958390750821
819,-24.645781881240826,-16.07813727038042,-19.61117017113072,-24.226776375944926
820,-25.25143771164953,-16.543629221528604,-18.320448445253906,-25.120380718556476
821,-25.84772970900504,-17.065076407151633,-17.09580665650721,-26.02395198145714
822,-26.364980907987924,-17.59071199322116,-15.96336255936536,-26.847016415806856
823,-26.73381761062746,-18.076005084046976,-14.94258778628485,-27.507743181658185
824,-26.921161154091326,-18.495253424129682,-14.041137863515356,-27.973753620883706
825,-26.93666011395075,-18.838451820880575,-13.258443724715438,-28.270274722831477
826,-26.808152566800214,-19.103649621328312,-12.595212873086897,-28.44996963603302
827,-26.569039296888562,-19.29265608616655,-12.05709483627506,-28.564709303029392
828,-26.25825007131523,-19.407923880723335,-11.654231516022053,-28.649264947274037
829,-25.913228110765303,-19.448707201561653,-11.399054334769332,-28.706165499960047
830,-25.563271302067296,-19.41097394695308,-11.299560826023598,-28.707903257512804
831,-25.229321605404195,-19.294101499747967,-11.356697742712303,-28.61420763129237
832,-24.91043932094611,-19.107618588699633,-11.567815596335175,-28.38783286562858
833,-24.570618608917755,-18.866596786544594,-11.923045253410624,-28.004648913564015
834,-24.16961716589108,-18.582537463102152,-12.399179450531166,-27.460267536560963
835,-23.697541282493415,-18.26379445936245,-12.964503244621953,-26.78212841739487
836,-23.172238537744352,-17.917558577675884,-13.594857109705284,-26.026795143885945
837,-22.60934642323577,-17.54513686658385,-14.29986744030584,-25.241097034383312
838,-21.992163881868564,-17.139597374004346,-15.134374899485456,-24.42165065752678
839,-21.29856365046397,-16.692552709982085,-16.171543027750776,-23.546090627759103
840,-20.54625779507738,-16.204048152183937,-17.47845957767506,-22.632439459575565
841,-19.784315296436706,-15.685299030554285,-19.127199008439362,-21.728146702488203
842,-19.074046827785942,-15.154130345061484,-21.205088549000553,-20.87975527646041
843,-18.47564787465497,-14.627609608233067,-23.808657632095084,-20.128018027595246
844,-18.022018772692157,-14.11535523183074,-27.039016863782884,-19.50149838756606
845,-17.72254512053698,-13.626800086251066,-30.993220108348236,-19.01301130897214
846,-17.589358118322444,-13.186857589473442,-35.76774639223161,-18.669870925325434
847,-17.63384960782313,-12.830253413174235,-41.47402286449826,-18.48488360999164
848,-17.847294335574052,-12.584456649820027,-48.23554286920419,-18.474233338344593
849,-18.204430478610785,-12.45436828696689,-56.20109715539023,-18.650112619584593
850,-18.689029219216124,-12.413304200398988,-65.58201400176986,-19.011958643123975
851,-19.300547045855293,-12.42040069051782,-76.61423043033443,-19.54296672879749
852,-20.03485873730367,-12.439138238983094,-89.430051674281,-20.215676737089666
853,-20.883305057696706,-12.441058574671125,-103.96394499349965,-21.003701387189583
854,-21.849062076172164,-12.412583742128374,-119.9292149618921,-21.904108961916727
855,-22.956102625723773,-12.35824791418713,-136.82285110476568,-22.943218180756165
856,-24.230264232655465,-12.293996069966601,-153.96946104212063,-24.135765638884777
857,-25.649036452340646,-12.236606020589162,-170.595252090266,-25.43308578259347
858,-27.13197150928533,-12.200153079785347,-185.89514393644225,-26.735857451502465
859,-28.575399339159347,-12.201720115756453,-199.1102960479552,-27.950427681949403
860,-29.88400825793725,-12.264282996384122,-209.6149694344495,-29.01293127928659
861,-31.008571037822225,-12.409197961176469,-216.97065066540287,-29.893028321123854
862,-31.944009367440085,-12.639666878102416,-220.9751095012234,-30.583373220641718
863,-32.67868476181576,-12.92581010594394,-221.71224527649787,-31.06801796030796
864,-33.17471199783882,-13.212338576923523,-219.52986310040438,-31.314817386973036
865,-33.40124677633735,-13.445237029357441,-214.94904636777375,-31.297592126957227
866,-33.36555364983568,-13.586507843857326,-208.55973777753505,-31.01470480323053
867,-33.09909467383702,-13.619029656168756,-200.9309479100978,-30.501154868865342
868,-32.62226297305143,-13.545567836130113,-192.592606615282,-29.80181023567482
869,-31.922319880159836,-13.379826142410527,-184.05986477941374,-28.90970325792172
870,-30.96966629128972,-13.143540590810112,-175.79889827246603,-27.775400665354876
871,-29.754468050082128,-12.862328520529468,-168.14831308338077,-26.375177171981946
872,-28.292542155373273,-12.557908528841839,-161.29393963105545,-24.72441441219867
873,-26.60533530670309,-12.240045685445265,-155.31131270196644,-22.842555172395375
874,-24.709311775129716,-11.896809250042349,-150.208324136873,-20.72747275073151
875,-22.62651237547902,-11.503089691033608,-145.95717841459668,-18.36466397096415
876,-20.39043197053402,-11.04174136615181,-142.52808035212988,-15.757128315599799
877,-18.0326145386335,-10.507212778734932,-139.92625051810114,-12.933460160755528
878,-15.566238455022095,-9.900639095481154,-138.21627605622322,-9.941436289768893
879,-12.990108474171386,-9.223130182603159,-137.50862938514737,-6.841893162711265
880,-10.306037617974683,-8.462483512880157,-137.91940134154825,-3.6967864511077053
881,-7.535862730644956,-7.598712034607481,-139.53224607142613,-0.560781062932503
882,-4.735212529442455,-6.623724688761302,-142.38225871989638,2.5275573751360225
883,-1.9658602630975417,-5.545593089067635,-146.44565680431117,5.5496481896357155
884,0.7321455623862692,-4.383328268076539,-151.6133785685679,8.4950123617768
885,3.324500176862105,-3.15963939590067,-157.67111272218628,11.345015994516269
886,5.700469303742263,-1.9496214607085165,-164.4352528324952,13.98467887442995
887,7.941423594020353,-0.6597237460572092,-171.47050758818023,16.455178728462872
888,10.082603270329932,0.7359281395688975,-178.319533718323,18.77376663628685
889,12.134254195758146,2.210279560286983,-184.58056897602663,20.954031342601922
890,14.077852541692877,3.701175486652308,-189.95378572215057,22.972792312296352
891,15.871522830304762,5.127185921576682,-194.25412158812765,24.775849848760323
892,17.467029214092467,6.408578403531328,-197.41586625021077,26.312443763600996
893,18.825995220678468,7.492747596657891,-199.48961525938742,27.560737733749583
894,19.924393298167878,8.35916258288589,-200.6242147763044,28.52723658214967
895,20.748453674469776,9.004651182703942,-201.0335841449356,29.229376835461714
896,-0.34384248908244885,-0.34743789332639474,-3.8470196571407103,-0.0810647050122148
897,-0.9771885107429841,-0.9027837020865912,-7.9272808420845156,-0.621285080957404
898,-1.9008933629175795,-1.7234500676176832,-13.513676372224344,-1.4827244883328163
899,-3.087430418384557,-2.803232344016444,-20.498428211709996,-2.6565213149002274
900,-4.472023070361018,-4.118111861600932,-28.61361133207052,-4.097801178284119
901,-5.982797180363056,-5.636261134807849,-37.43157729183523,-5.731473691742068
902,-7.567286756888934,-7.318418828264694,-46.40569723857856,-7.460306956674706
903,-9.190834189242853,-9.116062044373393,-54.96078394684632,-9.178770558806377
904,-10.821848546183,-10.974565633860976,-62.59793585986658,-10.787445245922521
905,-12.436187757393078,-12.84337463361137,-69.00140284462573,-12.210461784316195
906,-14.042366977966436,-14.693939341598943,-74.1652291527168,-13.416765332134224
907,-15.653641429818375,-16.48545363297913,-77.97424678521988,-14.40930308494415
908,-17.28409592118106,-18.181997269870095,-80.32329737493407,-15.227195526515544
909,-18.91598419634476,-19.751801481504838,-81.13370677750893,-15.908040102702888
910,-20.479141438976868,-21.158009643189445,-80.38240105237567,-16.443830693804795
911,-21.872294766162565,-22.35766763321398,-78.10833312022045,-16.797073531181503
912,-23.0086757461661,-23.31723781326537,-74.39345047893683,-16.95260694950175
913,-23.82770313705954,-24.02460450953764,-69.34634565067722,-16.922564527624555
914,-24.282730230646198,-24.489410037104996,-63.10962611840312,-16.727614102467804
915,-24.351223928518138,-24.741420726487593,-55.85429490624611,-16.39099131487739
916,-24.050221003249863,-24.82122646618322,-47.74721633591865,-15.935099002177951
917,-23.423171823558906,-24.75998840515393,-38.95384923066919,-15.378776098044902
918,-22.511692548795505,-24.5697815819314,-29.670570838813966,-14.731261646218831
919,-21.345037711403812,-24.252292625198248,-20.11351805575722,-13.982526844467396
920,-19.954271904827003,-23.809768856659442,-10.468237959595566,-13.100233270273485
921,-18.387869421973175,-23.24876154824015,-0.8430292963107049,-12.04070224655523
922,-16.703118409736973,-22.57989461050764,8.771227485943335,-10.765365996796032
923,-14.94538205509586,-21.81676394208942,18.52205923941853,-9.24835389237758
924,-13.142785612152643,-20.97414690523415,28.658117770572805,-7.47812973845247
925,-11.316342573595946,-20.066960899083554,39.466844343038886,-5.462434028936243
926,-9.486531660821795,-19.111753027190332,51.2475644023674,-3.237773585895266
927,-7.677871933111292,-18.12882255683732,64.30912040408161,-0.8692472963657529
928,-5.922816137088375,-17.140233679318133,78.96850654823564,1.5690460208081978
929,-4.244471001779681,-16.163067548718598,95.5188436326996,4.012209123048932
930,-2.6434392565004443,-15.202568082591608,114.17913359935467,6.408014204965421
931,-1.1152637028429395,-14.254149118323266,135.07526349812622,8.71461499837787
932,0.33879062219426104,-13.310751695342436,158.22942380279935,10.897250293266874
933,1.7183355231050714,-12.364753161231496,183.55441646109514,12.922561458362223
934,3.0269913471322396,-11.41046028791877,210.89099917899716,14.762916791952742
935,4.274138917345438,-10.449827894945344,240.0721356462482,16.402430843932766
936,5.474926713736281,-9.494150899358681,270.9575060574986,17.826919602508948
937,6.642452428526832,-8.561367132615421,303.39683935681285,19.019176397875633
938,7.774733478613817,-7.67294594396362,337.1445502762867,19.96701616373766
939,8.852809099524217,-6.85114369422475,371.77301133053794,20.664615624309555
940,9.85877809548654,-6.114862200314436,406.63538510310434,21.109716594263013
941,10.791815160002377,-5.474222364392136,440.8960186741945,21.30514532060047
942,11.658195274907241,-4.927626887124333,473.5812750279842,21.257846784140796
943,12.448293270995222,-4.464196096441518,503.65393257040154,20.97759323313659
944,13.131160491245941,-4.068594605473422,530.1223027409768,20.47841674853878
945,13.668932804045575,-3.726365353189021,552.136053642568,19.777627793715066
946,14.028595645525275,-3.430013484120292,569.0717925367048,18.889020080935914
947,14.17348904308946,-3.181273976737497,580.634490620336,17.815817675896078
948,14.058168902108827,-2.988306617570288,586.9090762773587,16.554422731966806
949,13.65079237337931,-2.862317985662843,588.3196978182391,15.107224745930914
950,12.959204921897692,-2.8131602606486004,585.5082641816451,13.492804227236805
951,12.037570403038334,-2.8406781567678383,579.1477123462284,11.746394405840864
952,10.968930090448346,-2.9264820395821043,569.7800451925002,9.913724265981394
953,9.842868650109036,-3.0373895279147565,557.7446205092947,8.049041191130836
954,8.74577752216832,-3.1365778699359788,543.1769031476609,6.216009885136275
955,7.754809715009823,-3.1908929673304076,526.0546002580104,4.48133197912153
956,6.927989326683023,-3.174133742001279,506.26722806665475,2.9044791483123964
957,6.282883605098451,-3.069152852751338,483.6862402516097,1.5280442651153916
958,5.783493427123181,-2.870768767232442,458.24303863699464,0.36895407118396273
959,5.365450799841832,-2.5871792449760487,430.00389355554285,-0.5796427353925817
960,4.976684679181417,-2.238278955331081,399.1793923143354,-1.3353024018535984
961,4.594572436300328,-1.8521853524873142,366.0750567235424,-1.9208900832115272
962,4.21350340828692,-1.4587088528370977,331.0769914041562,-2.36584184065411
963,3.8296833135621595,-1.080817949409574,294.6551668159922,-2.701962045573144
964,3.4443115659671326,-0.7297424674604781,257.30838173807956,-2.956432592152614
965,3.082326373381597,-0.40597442444363563,219.49301146147516,-3.148449437035384
966,2.7990987694565894,-0.10127491627940947,181.6046475905313,-3.2898564156558594
967,2.645010617746821,0.19809091671053677,144.00593606879596,-3.386911508208381
968,2.627726725585322,0.5043179060289814,107.05826395405298,-3.4471226112579947
969,2.7197271359415685,0.8232609359757925,71.10748472106873,-3.48651375633523
970,2.8891861035885316,1.1572767299234457,36.43390604716196,-3.52524065555277
971,3.1173123234642484,1.5095297667262644,3.2355758465509084,-3.5773917238233564
972,3.387686607901543,1.8806674968930794,-28.339616581640385,-3.647613140829595
973,3.666927157872598,2.262017929689182,-58.15286551596412,-3.736814137431564
974,3.910502285517863,2.6342803026849437,-86.06567122464863,-3.8508564497330653
975,4.08462437608711,2.9746067402976206,-111.95676011495762,-3.998480841374218
976,4.171896501374539,3.2668654156054155,-135.73971503569413,-4.18138202433128
977,4.162706495435048,3.5066062470104296,-157.36738064466428,-4.394883078009616
978,4.05399319183762,3.7008436865883776,-176.82380483868167,-4.635666328301336
979,3.8574251660877334,3.8646935317130215,-194.12422807017842,-4.903049463963778
980,3.6064101401065494,4.017768442466205,-209.32186494363467,-5.196114156184741
981,3.346781743312544,4.180236334536059,-222.50785740519316,-5.510422340670735
982,3.1143860856537433,4.365601227825658,-233.79793591383827,-5.840803864735477
983,2.923025438520513,4.576021222598239,-243.31418734855606,-6.192661261507414
984,2.7746155501712266,4.803312501761904,-251.18211408222257,-6.579959921579325
985,2.6798476199858943,5.033957414687694,-257.53761149111494,-7.005650086445771
986,2.6541871175847143,5.257163902764571,-262.52050652834066,-7.451416933581923
987,2.6961312776936293,5.469962775145261,-266.25586528830274,-7.890927286755292
988,2.7842746112215124,5.675819778366753,-268.8498427636872,-8.30887126968872
989,2.890928002754599,5.881353232612519,-270.40394015446384,-8.706655312110554
990,3.0022384489599463,6.093476096685003,-271.02347869855197,-9.092570802318871
991,3.124641975213093,6.316859885373603,-270.8158458147363,-9.465397418182778
992,3.2711041026767296,6.551503766732799,-269.87889577171734,-9.815470922663915
993,3.4481576818201263,6.790171941987439,-268.28800049822394,-10.142083249434823
994,3.644058451746832,7.019194794393538,-266.0999734263088,-10.457062652505812
995,3.831023704286205,7.222329980772739,-263.3684177708954,-10.772620745685805
996,3.983424315821153,7.38267382225872,-260.1519771435796,-11.096159040492465
997,4.08360749858463,7.482446912737768,-256.50724344952096,-11.434742963319328
998,4.11596386884396,7.5078687691644,-252.49335813778674,-11.795394836470136
999,4.067157639501763,7.459279317476024,-248.2009397172026,-12.177258968774632
1000,3.9334294562729553,7.350984737285751,-243.7622458930536,-12.562172259756627
1001,3.7266317336256582,7.200529410274135,-239.3170073472393,-12.919153239294562
1002,3.4747156859450765,7.021631840316816,-234.96978484372502,-13.224027713182686
1003,3.212465078370146,6.821284662044582,-230.76985426748735,-13.467220650848049
1004,2.966744431086377,6.597622130762026,-226.70817820638146,-13.641322634276491
1005,2.750794448772627,6.341988853602675,-222.7309489244425,-13.728404136621066
1006,2.56998434382823,6.0468197366136955,-218.76358368549694,-13.703894211517634
1007,2.4278096753638705,5.712166990648843,-214.72934907565076,-13.551111420393019
1008,2.317726652261619,5.345324398192471,-210.56277923623998,-13.270184767357968
1009,2.214944463295126,4.956808266687284,-206.22392753464507,-12.874723597530187
1010,2.0872555043822762,4.5567481315029355,-201.7078436277228,-12.382401617176445
1011,1.9140073086554386,4.153068167195383,-197.04075819808926,-11.809023014490672
1012,1.693705140030363,3.751361829479071,-192.27321485032417,-11.164582785137496
1013,1.4305904058412953,3.356930326509824,-187.48203314774597,-10.455838895762321
1014,1.1419887329790956,2.9815137662260502,-182.86470100371736,-9.717617191606273
1015,0.8050942249175977,2.627629434765943,-178.36556298641347,-8.942278280704834
1016,0.4254788197181352,2.2983544690817865,-174.01486236378562,-8.143317049787136
1017,0.01876087422465436,1.9955070125267744,-169.87083056988413,-7.35012285442634
1018,-0.3993242658189862,1.7231392104017949,-166.0131149659928,-6.599822726213828
1019,-0.813262132986349,1.4869467370094258,-162.53782645126861,-5.927190284948911
1020,-1.204158571171139,1.2911363318321323,-159.5373271801699,-5.357678774597036
1021,-1.5473845331785168,1.1382829102895895,-157.0859836584877,-4.905810651547523
1022,-1.819505105630241,1.0303792063254584,-155.22608164360312,-4.575479269247103
1023,-2.0114122729316524,0.967082053604959,-153.94929407138545,-4.360149216670952
1024,-0.3324116113953598,-0.34903526553915404,0.4894327822348818,-0.17283590852690733
1025,-0.6658993282431829,-0.7761098268604955,1.1391931084955425,-0.4442733136864789
1026,-1.1133239912369235,-1.3668720866289699,2.0748496507516303,-0.8490198268185499
1027,-1.674260750359881,-2.108767930851338,3.2872029647504513,-1.4037762402139318
1028,-2.3349217344534887,-2.9766307346295355,4.74029096359984,-2.1169009519563344
1029,-3.077967354131097,-3.9351230802800976,6.3762409845419095,-2.9923650610122987
1030,-3.8861933987488064,-4.9416349471828225,8.118934965650682,-4.025858091510659
1031,-4.737422661549484,-5.9513353261732895,9.882434517485452,-5.197725927851503
1032,-5.598439285647842,-6.923418545210854,11.587001473551211,-6.472949526919141
1033,-6.430310176514956,-7.83078561160135,13.18013432973895,-7.8044948806485035
1034,-7.2098203744052665,-8.674577235788714,14.658774450347348,-9.143303819194092
1035,-7.917141691746157,-9.448532520985749,16.008836070671148,-10.433508012348595
1036,-8.530667815019642,-10.148161731815774,17.20470408242121,-11.616494695828642
1037,-9.025854640930937,-10.773158989901543,18.20789202790308,-12.641796187635979
1038,-9.390072509809059,-11.328503173681055,18.98296118354838,-13.481128717205547
1039,-9.631762740729213,-11.823792876952691,19.5044957329679,-14.132464705556195
1040,-9.785186002911146,-12.272788416207115,19.749328711849117,-14.618223500544111
1041,-9.894756535341491,-12.690109724326339,19.69785576253365,-14.971214939502103
1042,-9.983894738511301,-13.088686403051012,19.34885418675572,-15.21627957135644
1043,-10.049031537851466,-13.4789263893405,18.726651765899696,-15.366477992398513
1044,-10.08120740992544,-13.86488310275384,17.873844121739037,-15.428436526209666
1045,-10.079750433862749,-14.23954396438598,16.83885956268286,-15.405456624033837
1046,-10.046410354804147,-14.588168674951861,15.669057423165869,-15.295233926472772
1047,-9.978586244330684,-14.897277858071106,14.409884407872822,-15.094001073633237
1048,-9.86870365341266,-15.15916389092226,13.103472804241038,-14.808880118506659
1049,-9.716730968671998,-15.373077366705473,11.779722453673378,-14.461763429213526
1050,-9.545212954456701,-15.545431410557336,10.446043022409802,-14.090140917410217
1051,-9.391523828781681,-15.686907118237185,9.09080122113215,-13.741696614438792
1052,-9.286540351275496,-15.809416971920172,7.69852430767626,-13.45466654594491
1053,-9.242138695949752,-15.923516769810876,6.26308982830806,-13.248682393415734
1054,-9.259347214125544,-16.03400859489545,4.785142788458038,-13.131547370893065
1055,-9.34413258354004,-16.139131848009352,3.2651044905419906,-13.104955418916063
1056,-9.514023779170518,-16.236298494556603,1.7147099021665422,-13.167280768381653
1057,-9.786037467927223,-16.327735038911932,0.16699999922756548,-13.311562114056093
1058,-10.159317980007945,-16.419566038535706,-1.339079221179794,-13.52399092208227
1059,-10.625683599779002,-16.515937875772583,-2.7788624739302823,-13.792825549928288
1060,-11.188405081843625,-16.614837697407772,-4.143394560830027,-14.11317885610935
1061,-11.858936290199964,-16.7098273345956,-5.426997273985776,-14.484084154646062
1062,-12.6370002721521,-16.794711381631505,-6.617256048073505,-14.904848191735944
1063,-13.497753229763903,-16.86354498784595,-7.696950277776149,-15.364327168539655
1064,-14.403307201737046,-16.9061677245756,-8.651478816108837,-15.842701385940725
1065,-15.321117341396356,-16.90864619225846,-9.474078516265132,-16.32890808113092
1066,-16.227012615865668,-16.858743155722564,-10.16564575428559,-16.822593590852545
1067,-17.089580797409106,-16.74844057010615,-10.729808227376221,-17.321806964045795
1068,-17.864981186359717,-16.573843887797214,-11.17023934792233,-17.81677631724751
1069,-18.51662233453351,-16.33580705557695,-11.488660485541105,-18.296545006717896
1070,-19.032866621197783,-16.04275979535826,-11.683471967142765,-18.755771806933094
1071,-19.42356903289008,-15.71276344868448,-11.753892006337223,-19.19002871963707
1072,-19.69733099729517,-15.367606265777773,-11.706752643884213,-19.591144604543388
1073,-19.84639114092981,-15.023229074293148,-11.565691982537825,-19.946001016608758
1074,-19.85827539223782,-14.685066615617606,-11.372305835218574,-20.23513561877193
1075,-19.73766002472563,-14.349881895040582,-11.167343739406938,-20.438848224192075
1076,-19.507546107589302,-14.010871830000552,-10.974862757312245,-20.544010130944375
1077,-19.182117087079796,-13.660189101145026,-10.806707033762603,-20.54220705973876
1078,-18.750363298188176,-13.289703875201868,-10.672971415371318,-20.42644142143588
1079,-18.192756523549516,-12.892105088579937,-10.584845119506056,-20.190950555944273
1080,-17.508401166045743,-12.461712459016331,-10.547756572049705,-19.83962750502016
1081,-16.72312877695677,-11.995990954982306,-10.553970286888164,-19.390091840127003
1082,-15.87123096145643,-11.497607174375911,-10.585195513934366,-18.854497945466335
1083,-14.973390385707035,-10.97469958818476,-10.617976303345918,-18.23003841094331
1084,-14.029687355087733,-10.438538538884377,-10.624083111269572,-17.513800309264663
1085,-13.034204091466043,-9.900841173452362,-10.58098217707626,-16.708126337413482
1086,-11.989815807013512,-9.370388856078867,-10.491825574935913,-15.814157864794058
1087,-10.90027744195433,-8.848551727616279,-10.385931165064417,-14.825249278601756
1088,-9.761828207087154,-8.328639596420345,-10.301906122292763,-13.725500082235866
1089,-8.574148417269784,-7.800683741920486,-10.27564834013336,-12.502497831547112
1090,-7.355695708278477,-7.2566212367887,-10.332456352790055,-11.162794448891457
1091,-6.144441767417601,-6.692358597106873,-10.47975799530139,-9.734487904425817
1092,-4.979377798507859,-6.108032066822653,-10.705216120703497,-8.260145658016452
1093,-3.8813152699480415,-5.509424024334506,-10.980283115961278,-6.784584359002331
1094,-2.854010373194414,-4.9065792572359115,-11.26356716238577,-5.344504873856499
1095,-1.9050297546732686,-4.307850968215845,-11.507338460588791,-3.97226610421097
1096,-1.0596052930214233,-3.7201300450116475,-11.671825276264634,-2.703715834555292
1097,-0.34824371383875946,-3.1555797448260843,-11.735695620994598,-1.5734577325029124
1098,0.2136748999368009,-2.633257359096261,-11.693820463240387,-0.6011458344571025
1099,0.6321719491702248,-2.1733087473612507,-11.554720732793971,0.2114729014102459
1100,0.918206697310845,-1.7902094493706093,-11.344798956496733,0.8668194071311327
1101,1.069184346354619,-1.491133921570297,-11.108563339686501,1.3651422223867626
1102,1.0706244047337032,-1.277566935190215,-10.896607649290294,1.7100759083054735
1103,0.9160510898863893,-1.146171743015368,-10.745428312716331,1.9124997758298115
1104,0.6225682911755609,-1.0880333609316328,-10.671088857749046,1.9866060609604979
1105,0.21929539829906813,-1.0872201824173204,-10.675301418988408,1.9400495966937963
1106,-0.26958871730292744,-1.1231609247694265,-10.743321979812658,1.7745309287246462
1107,-0.8256928848637555,-1.1769543477823392,-10.846451427210399,1.4940953046732033
1108,-1.4305969958332918,-1.2349669329216353,-10.952476734193644,1.1090682073963198
1109,-2.06140727198096,-1.2882431211182999,-11.031994157329622,0.6399267934429679
1110,-2.700797272644378,-1.3325502418354456,-11.066944216808782,0.111999554506589
1111,-3.346171614844803,-1.3684449495802842,-11.055905742302485,-0.45817751747393487
1112,-3.9931517659171156,-1.40069029517858,-11.009053420093341,-1.0619345200668437
1113,-4.616031973349041,-1.4340490797189935,-10.942635689867355,-1.6866079874916875
1114,-5.170281173264964,-1.464601445227944,-10.87670619526111,-2.3135230604516197
1115,-5.6118759031174115,-1.4792541704252582,-10.83462593220306,-2.924596091189312
1116,-5.915086243732097,-1.465927320011042,-10.839599210719802,-3.5051109432474776
1117,-6.074921869650127,-1.4222548810810611,-10.906670789109626,-4.042079009578616
1118,-6.088044773132544,-1.3533290359284882,-11.040887293163518,-4.5209933896847545
1119,-5.938547389399493,-1.263298281117399,-11.245352792267846,-4.926251999348613
1120,-5.609008756488213,-1.1541562622646537,-11.52790471224691,-5.246851005169811
1121,-5.096270557132266,-1.0305109318035668,-11.89758325831452,-5.47290358925858
1122,-4.408382827332151,-0.9004415866426001,-12.356705224424706,-5.583968055192401
1123,-3.5476020210776213,-0.7709500312205314,-12.897227454216038,-5.550229536956493
1124,-2.5099204397984227,-0.6428156733095935,-13.500043332584394,-5.343753036006643
1125,-1.3010393084469056,-0.5106253952654692,-14.138367090837486,-4.946770201718587
1126,0.055381954527226995,-0.3645554876176094,-14.78711303593379,-4.36177407908614
1127,1.5248005349608267,-0.1899211263890901,-15.42548458661155,-3.613926375093789
1128,3.0760082652098855,0.028540665733105902,-16.03063296353794,-2.7355929868670317
1129,4.68180085678593,0.29883067199784613,-16.580208904014547,-1.7534936659682423
1130,6.308653612340223,0.6180062885016754,-17.063427459269622,-0.6875670036231425
1131,7.915820221732236,0.9744443946772179,-17.48551352505298,0.44689620289778315
1132,9.464062754384596,1.3552702204029556,-17.86354237087922,1.6357062749243862
1133,10.928579437425517,1.7524987888824781,-18.218548725442236,2.8636199907948425
1134,12.307856129794068,2.162113014449296,-18.56730836762717,4.117024126066458
1135,13.618911401444539,2.577933682430883,-18.91651603524405,5.388921035496501
1136,14.872111080502783,2.987109801100092,-19.257290100994496,6.676361455133515
1137,16.04915214952926,3.372536807547329,-19.561718155766947,7.970862618288358
1138,17.108533734538447,3.7180521505711894,-19.79216571832674,9.24962795029988
1139,18.004170492607344,4.011379011610227,-19.918425459317348,10.473686324687339
1140,18.706928629468194,4.2460027604573085,-19.925924633443856,11.599544014923527
1141,19.20716037349549,4.422434967904902,-19.81795923321785,12.591139207911054
1142,19.520356879356722,4.554930573793494,-19.630145577653305,13.417260012121798
1143,19.603344046498226,4.640633383668177,-19.392339218174047,14.077572905820233
1144,19.456176391809347,4.680579364993383,-19.13716558080105,14.589118278145133
1145,19.112604849627317,4.679596297341737,-18.89862847720621,14.978332216011518
1146,18.62976810982297,4.649268994423011,-18.706235036321015,15.269923510019465
1147,18.077284947782445,4.605398233356434,-18.575945256593144,15.48304783361119
1148,17.525914193669152,4.561034169323479,-18.50768265304849,15.634418861664757
1149,17.035937594665114,4.522061947694647,-18.490563973958213,15.74127927366892
1150,16.645925887449913,4.487913336564758,-18.507414834998684,15.818755887820943
1151,16.366957419497965,4.456729988801799,-18.53796246418582,15.875843332389804
1152,-0.13370916367291494,-0.2167764636449353,-0.589633458836634,-0.1058608635902765
1153,-0.3134493688674146,-0.568453096143233,-1.2741021976708125,-0.27356697999707535
1154,-0.561553376444887,-1.105841922208758,-2.198098753347252,-0.5321970235347488
1155,-0.864238488539228,-1.8456057345948338,-3.3394750228274304,-0.8832361254043122
1156,-1.190497072171575,-2.7892099486390647,-4.6648731002783,-1.3187760517163019
1157,-1.514538723056014,-3.9214354060057084,-6.13557157275782,-1.827854816026274
1158,-1.827269313525767,-5.210814086003259,-7.708636990416713,-2.39591664468965
1159,-2.1269717290289947,-6.612305164770624,-9.334669158115808,-3.001315340357862
1160,-2.4041198144354894,-8.074183033252035,-10.962614505410299,-3.6135318018527536
1161,-2.638645893245327,-9.549689378510848,-12.557103063916314,-4.194025661753951
1162,-2.8138427311799545,-11.012475758484943,-14.124047761522567,-4.7066796433344145
1163,-2.924712243438588,-12.435672046936702,-15.658985120599686,-5.1143762813941445
1164,-2.9618795951933388,-13.80169415973584,-17.151709813502055,-5.394846666829229
1165,-2.904292845959504,-15.097722473028318,-18.577158492411023,-5.544095616021686
1166,-2.7332472307042113,-16.31179880532362,-19.904112984763408,-5.569546394505813
1167,-2.442823272481566,-17.43468495860613,-21.109316462894355,-5.479576395789938
1168,-2.04449663019718,-18.462107902325485,-22.18335201519422,-5.284224515988916
1169,-1.5572121680435707,-19.393082600525677,-23.131089047675932,-5.002718172154544
1170,-0.9945902837443765,-20.228391855798186,-23.969947174225677,-4.658978248602629
1171,-0.3722882706651006,-20.971455476065344,-24.722756359575776,-4.268102379941839
1172,0.2778202033992929,-21.630360681499006,-25.40771615436066,-3.833838200660247
1173,0.9106512724799248,-22.217685023216536,-26.031230791997125,-3.354696812635316
1174,1.494378482564522,-22.747353042148134,-26.58540030167957,-2.82477559390434
1175,2.02464925438054,-23.2312906612181,-27.05491198311695,-2.236603104661502
1176,2.5101264441903983,-23.678513303000724,-27.427685015521348,-1.5875433224770155
1177,2.9526797167367773,-24.095430305090815,-27.6970806337179,-0.8846276994485979
1178,3.3378293360243974,-24.484341222679486,-27.86031172382154,-0.15195169794987123
1179,3.6483714798908196,-24.842198470686714,-27.92027880601208,0.5766200356124908
1180,3.8866500863884363,-25.161264033675877,-27.88777133250723,1.280161470258432
1181,4.077381462617005,-25.430628763268835,-27.78282806274158,1.9579140006092304
1182,4.246995329351289,-25.63983508389903,-27.635671065571792,2.6179781259592514
1183,4.404996378789859,-25.783404656831664,-27.47847753918713,3.265312143022111
1184,4.549422568574169,-25.862231680476864,-27.331918698562202,3.899202167140553
1185,4.682533354821233,-25.88294141192675,-27.201144918809415,4.5170458948956265
1186,4.814798239235738,-25.859234283466456,-27.078444598096944,5.113324951963458
1187,4.948106887469513,-25.81086562907297,-26.94549730793528,5.672105848849161
1188,5.063591033693576,-25.757407953094194,-26.775306499084586,6.162699006757371
1189,5.13657945174331,-25.711730971976333,-26.537837432558575,6.548655942353998
1190,5.153544947841268,-25.67717719763981,-26.209103640548506,6.804773530244911
1191,5.114107667872898,-25.651444269559875,-25.78059939300863,6.922125485551327
1192,5.01990794297774,-25.632289292972043,-25.26383795459865,6.902501916843319
1193,4.8661117958239215,-25.618014698207414,-24.68718886569247,6.7554251372926295
1194,4.649331905451336,-25.604394821578538,-24.09083589026609,6.498547974615306
1195,4.381222169879244,-25.584358089138565,-23.51796907653436,6.161022923076549
1196,4.091662965176844,-25.551260780967525,-23.00298093894741,5.780134475515224
1197,3.810485494519612,-25.50047260948386,-22.564571607038687,5.388321220149482
1198,3.5504937054571055,-25.428803745792386,-22.203804174999995,5.005109629515102
1199,3.3109800104837626,-25.332812631390528,-21.90674320029637,4.63727063865415
1200,3.0934693310495707,-25.205990829620088,-21.652826867482798,4.286955017432052
1201,2.912555357137775,-25.03698974322119,-21.42418676643037,3.962744602400288
1202,2.7812474310800295,-24.809852838626554,-21.204669213148446,3.6802983333926083
1203,2.6933822617775975,-24.505810981902073,-20.971839862114642,3.4547748832543155
1204,2.6332232935945097,-24.106784187578377,-20.698244208468694,3.303141780399541
1205,2.6001379141859204,-23.599277122813092,-20.362826299407892,3.2533507939895334
1206,2.616838484714041,-22.97696222728799,-19.962074382431656,3.3365257617945194
1207,2.711496863075326,-22.242599577696062,-19.511342577863278,3.570997652112287
1208,2.8998965478523573,-21.407485102248316,-19.03834532129877,3.955067315159354
1209,3.1818674550144204,-20.488113031579907,-18.575936433842795,4.466907800047312
1210,3.5514949771874633,-19.504853522137974,-18.154402187867056,5.0703043873743665
1211,4.004328274583385,-18.482013600861432,-17.793822127771513,5.721594665737019
1212,4.529717014157987,-17.445174060741135,-17.50076575288691,6.373511939673179
1213,5.10269395995077,-16.416955234554347,-17.272567855851403,6.978250905809034
1214,5.685457146906367,-15.413507999416408,-17.105831944631372,7.495942313344722
1215,6.2475536383931765,-14.44322799962525,-16.999596326556443,7.906727619316091
1216,6.784785270524993,-13.508318572094195,-16.948448144486306,8.219873858503327
1217,7.313333687056388,-12.607325043254718,-16.932329487311563,8.468643714235094
1218,7.847841266316166,-11.737427762863579,-16.92188294485298,8.692196645670336
1219,8.387524673535667,-10.89620023114924,-16.896791852138495,8.927383701840201
1220,8.929772316147126,-10.082305560778265,-16.8540519316723,9.206249736614526
1221,9.477856440783608,-9.295799262992608,-16.802867491904113,9.544448890221792
1222,10.0275807894774,-8.539775650170512,-16.749465654252884,9.929580573039553
1223,10.561992266228037,-7.824067803558346,-16.681603553287246,10.329518652679933
1224,11.062349629075475,-7.166659956111876,-16.56931818728509,10.719682150664624
1225,11.525892691824998,-6.588697012395829,-16.378099533165603,11.096273669647601
1226,11.97003156238616,-6.107066083319036,-16.07935280639269,11.469119798102335
1227,12.420999276983828,-5.728803628471725,-15.657985254472338,11.851977635599916
1228,12.896929653501696,-5.44845375692554,-15.119114997227838,12.2530088421704
1229,13.398141373265453,-5.248303058782554,-14.486286771856433,12.668310072655343
1230,13.91540819866142,-5.101105130500944,-13.790222573987624,13.083508902898169
1231,14.439098885110038,-4.97520640907738,-13.060649090789438,13.477666262707167
1232,14.957149218381218,-4.840230160993492,-12.331758940106576,13.825487600652833
1233,15.444450117035059,-4.6702435008369525,-11.64972571553627,14.099238539891891
1234,15.862297260232447,-4.443508973871654,-11.063457468709236,14.268686044681347
1235,16.178221096912644,-4.142462373346548,-10.603237603407337,14.304884442851622
1236,16.389948217544525,-3.7554572101583883,-10.265354569516742,14.192724828271162
1237,16.535315965629874,-3.2792107184621218,-10.01294386351944,13.94454784546022
1238,16.669184457982006,-2.719857954284328,-9.785411659269121,13.600860011479433
1239,16.83291013786898,-2.089347882354702,-9.516298107353942,13.215008398176003
1240,17.045496402908906,-1.399224222740525,-9.162767609628126,12.837891121184812
1241,17.31036708655644,-0.657121422309599,-8.717573653254174,12.511906880184506
1242,17.627408138370537,0.1318376783739787,-8.195191876041873,12.27036124516821
1243,17.99798797833078,0.9604474833898498,-7.6192234880514995,12.138238335822292
1244,18.421806656175374,1.8164692005412648,-7.015709799897647,12.130550756895062
1245,18.88776176345292,2.6838250979797738,-6.405285412977563,12.249444799445847
1246,19.379965853871646,3.5448742277414973,-5.79991063245743,12.485116625713207
1247,19.893925320118715,4.384046329320535,-5.203272930447792,12.81907228278838
1248,20.428278680087057,5.192530649941359,-4.6093620094710825,13.226893537534686
1249,20.970551997421445,5.968087395447201,-3.9988743500408734,13.681008925457895
1250,21.500322394570254,6.711909059129187,-3.341239389688516,14.15635234755134
1251,22.000216194110344,7.426253921119844,-2.6101481124012973,14.638456972817051
1252,22.459667590220857,8.110762167065422,-1.7996381212529566,15.121661713439977
1253,22.86141298493403,8.760206659735289,-0.9255283288953431,15.595563253327429
1254,23.167921613459296,9.366252563809699,-0.01954755331767638,16.03746619793813
1255,23.332325270996577,9.919842945573652,0.8770928515247798,16.418598227980507
1256,23.332368146456293,10.411269195359674,1.7297139993816668,16.715287830498152
1257,23.188081053437845,10.82879389139377,2.5288298345163276,16.911621214991722
1258,22.937772776655457,11.15966294057922,3.2865389097339643,16.99152090391953
1259,22.608327437453298,11.3936913929785,4.015172861120142,16.934488453600554
1260,22.210021271340615,11.526541587884768,4.716580124277775,16.72335910977571
1261,21.751435691800094,11.560617840614421,5.384634992108596,16.356890842571097
1262,21.25467152355324,11.50282220977967,6.00822251435838,15.851624365017678
1263,20.747306819535144,11.362768245434452,6.570861114770582,15.234676650411494
1264,20.231742012453786,11.152438355316544,7.049841520575975,14.532994546778179
1265,19.672136148221785,10.884395688263135,7.420384891885999,13.758694613673292
1266,19.023105311971957,10.571802441383717,7.660882612860036,12.909827870295409
1267,18.256983675886996,10.22877364143806,7.755835269230622,11.983963213055683
1268,17.36528339344851,9.866499906654223,7.702067834316548,10.981546973773334
1269,16.35411950997391,9.49281016189492,7.51435557384932,9.90594416089703
1270,15.270964566286334,9.114334656560933,7.216731495768259,8.808226491120816
1271,14.099859458940594,8.73512110432373,6.855609245586907,7.658855354773657
1272,12.878208045033885,8.36484540550003,6.4779331334837265,6.471008426780196
1273,11.663765864381356,8.015119155243314,6.122541838204206,5.282111402386695
1274,10.510136980752305,7.697730357008655,5.815415060564867,4.14038931899203
1275,9.4614137133754,7.422759927067345,5.572872848477012,3.0947039605598
1276,8.559554220284491,7.196752412392051,5.404332097295875,2.1879720648115963
1277,7.838265845526397,7.0218674650045605,5.310096265503049,1.4504250346794099
1278,7.307703075538476,6.896617822718986,5.278985625107655,0.8932211293749105
1279,6.949802339945843,6.817673311544879,5.290222817324489,0.5078339829859746
1280,0.11330177199805702,-0.3013358514570998,-0.46101687365864263,-0.045337896300953445
1281,0.3818184851258123,-0.6597340460544036,-1.103659599381345,0.08105514792815441
1282,0.8100263266835248,-1.1730951016672078,-2.056495939477074,0.3322598001848286
1283,1.4225809986543927,-1.843534234708747,-3.326194569417007,0.733811619830016
1284,2.2348922786323606,-2.6597814193048315,-4.890875797213329,1.298617228043025
1285,3.239504890605126,-3.598685065989788,-6.701247054730917,2.023868101312083
1286,4.402879620465805,-4.630221561869332,-8.681317820978922,2.8906105026563558
1287,5.679600523555598,-5.7213403640299845,-10.739610008165023,3.8694842463615524
1288,7.032371753586174,-6.839776220671286,-12.790024744223702,4.9282064531242264
1289,8.436117613540342,-7.961431119083485,-14.7742903987569,6.033412698843694
1290,9.872508039381927,-9.081399914413078,-16.685004669891487,7.152352537867591
1291,11.304736190836646,-10.180676715918311,-18.509170835789774,8.254135042947851
1292,12.694488509810668,-11.237618415679773,-20.244195253697132,9.311176903224048
1293,14.012640639609563,-12.228695452610687,-21.89418155770604,10.297744592349305
1294,15.234938727390253,-13.132165872074907,-23.463943028305856,11.193398919804004
1295,16.32753782541501,-13.932103655695565,-24.95130019081156,11.978827796682921
1296,17.243785167487538,-14.61999289089242,-26.346494831372326,12.622088698321031
1297,17.94793412806883,-15.194067853023544,-27.63832050505243,13.08527649761784
1298,18.43143459283554,-15.660740187679462,-28.81576033730143,13.348851661579356
1299,18.698101233797946,-16.037347917971022,-29.86666406123249,13.414541261065715
1300,18.751542944843465,-16.349182934274367,-30.777473563487284,13.290438947991383
1301,18.603509395019763,-16.62254655273415,-31.533763060848507,12.987048515640458
1302,18.289460988615392,-16.87758785406831,-32.12319031054781,12.521352225180966
1303,17.87242166263812,-17.12128090141115,-32.53803472118935,11.921316106340694
1304,17.41543636448921,-17.349557497493095,-32.77431792798791,11.219983616244523
1305,16.942942719586192,-17.55898158632721,-32.83342917521723,10.437852294074974
1306,16.444239893445893,-17.74900737441281,-32.725187259963775,9.583476147960967
1307,15.906961837302847,-17.914303784726453,-32.46325120185828,8.670466498207203
1308,15.335498160355227,-18.037819940069724,-32.05910033179491,7.728601167894203
1309,14.751426769276076,-18.087843754381353,-31.5208967534109,6.8071310063839565
1310,14.180194003779047,-18.021644682058135,-30.849959139811155,5.969090881139275
1311,13.649704201619826,-17.791671416253774,-30.033899551147588,5.2787294391347235
1312,13.208514350249565,-17.351337824732365,-29.046274564298507,4.796294522803474
1313,12.922332406199294,-16.66212027912101,-27.855990666327397,4.583966606269428
1314,12.845838094826892,-15.700719555564376,-26.43921438939647,4.697710253139031
1315,12.995564067721128,-14.461105829989048,-24.785958050078147,5.160413188585389
1316,13.34572385175332,-12.952508169496525,-22.901332049836444,5.953765736451191
1317,13.84211711892826,-11.201610936479254,-20.804440461449882,7.0370651904738954
1318,14.406068336000887,-9.25683809011232,-18.526043004489228,8.35742990712838
1319,14.931932569891956,-7.186293580279503,-16.107675676505288,9.846190848764165
1320,15.299830920889065,-5.068887369336639,-13.599414975238783,11.423824751729729
1321,15.40596818184902,-2.98049538928309,-11.050430018530918,13.012166703023606
1322,15.198369020263652,-0.978884669798783,-8.49548783759474,14.549060562853906
1323,14.67962042236747,0.9010868808627535,-5.953871153022353,15.994022495015049
1324,13.875037813396087,2.639136184337872,-3.4455423958714,17.32028050473493
1325,12.815995221867128,4.223132600667967,-1.0008419979779797,18.511552064378908
1326,11.537612840022561,5.648449258750086,1.3448139931148524,19.56060060606605
1327,10.082734804216562,6.917522986193677,3.555610410609242,20.464793993745257
1328,8.511768189990992,8.038540824490436,5.596336012165709,21.22608553170443
1329,6.897918260170993,9.02287473039432,7.4378332325781615,21.851654618243842
1330,5.316517160656991,9.88297393311313,9.06531413338892,22.347356105385387
1331,3.8406717502731524,10.629894809993262,10.479421897021721,22.708317489106612
1332,2.5320613813618187,11.270383107909836,11.690759427316516,22.91807120286065
1333,1.4384287876195438,11.8050774378715,12.71483453200462,22.958529713243202
1334,0.6019418577364741,12.230204833751385,13.570087243316806,22.819036191423244
1335,0.05233816173223961,12.541370554147678,14.278199682347594,22.49586578583487
1336,-0.2094434970100072,12.735780549912002,14.863135452232033,21.99072890503093
1337,-0.21667681398516905,12.813502951712827,15.345396912691955,21.31168199583703
1338,-0.026551625935550285,12.777721556692288,15.732330565443705,20.47640260466526
1339,0.29987596634697344,12.634228705586102,16.015468584843884,19.516631369115625
1340,0.7094823687297546,12.392111922986777,16.181576421397327,18.47276541083919
1341,1.1577201847266343,12.063401971710544,16.22699884271865,17.379402890168965
1342,1.6019876130264308,11.660382531247723,16.159779588509952,16.25411848024771
1343,2.004132383164416,11.194766333615165,15.992019920380368,15.100702507674132
1344,2.342992280286853,10.680034966529911,15.735482763814064,13.91993912411674
1345,2.6091629228427666,10.131999692647993,15.401086536810737,12.710940943934226
1346,2.7906899851791325,9.565406832750071,14.997951379468097,11.466581250884833
1347,2.8701097791077106,8.991496125535532,14.535192682855651,10.17733340046528
1348,2.8395742232992345,8.419684678930302,14.027729391268576,8.843742450936412
1349,2.7131568488870226,7.860140868849974,13.496704207885049,7.481485202548995
1350,2.5202149696233604,7.32387230952952,12.963629554020262,6.112583220820159
1351,2.2869484340187425,6.823099712574524,12.44770373486287,4.750293664402592
1352,2.0216407367023677,6.369099905799526,11.960197895344649,3.3938376713322427
1353,1.7264536553110408,5.9660299715736365,11.491679069620114,2.036718339048499
1354,1.408995844444453,5.61012635392844,11.011705127258107,0.6729739496326099
1355,1.075757320979181,5.293262540860645,10.485649639558899,-0.6987621567507016
1356,0.7267152828427377,5.007878993350119,9.890691923589566,-2.0711894107687026
1357,0.36068293459417866,4.75327999241926,9.22477122250492,-3.42628534783459
1358,-0.010641619291816284,4.5365026519175355,8.50979544493227,-4.734275094436617
1359,-0.35293349634252785,4.369245585888214,7.789477555183879,-5.9532629854052805
1360,-0.6137599492583066,4.264087264528531,7.123372917378483,-7.0314021194541
1361,-0.7507783071677321,4.229867318039818,6.5762259654167625,-7.921758023680282
1362,-0.754221147712098,4.270573887344575,6.20615714896738,-8.598351416524372
1363,-0.6353479208369883,4.388354940285318,6.054959144706858,-9.060398509437016
1364,-0.40690150078174175,4.584262678150883,6.139913748708662,-9.33028281329733
1365,-0.07990716420316274,4.85357889104767,6.448254335568655,-9.44799556306013
1366,0.3174369260212068,5.181655551860221,6.937532676109812,-9.465352132379852
1367,0.727344696023358,5.5448123585593665,7.543061195518103,-9.437905522316443
1368,1.081570160303607,5.9144215010026935,8.187048298857334,-9.414320539747871
1369,1.3349036077230947,6.261325112651905,8.79484215077735,-9.42930948372778
1370,1.475901766052756,6.561013494546012,9.322351858895273,-9.501712108392276
1371,1.5084480884774631,6.794867146434539,9.768243733603923,-9.632988442214863
1372,1.4368971751313295,6.946122315476765,10.15323685493943,-9.813590066116967
1373,1.2573321184140245,6.99920257856945,10.493373840194357,-10.038996432058498
1374,0.9568577079834177,6.941266858225874,10.792260286914077,-10.312611274285953
1375,0.5232740421551465,6.765110516110842,11.045313013245988,-10.637027670227493
1376,-0.057494143893754346,6.474772283082417,11.244116883988726,-11.01284494979664
1377,-0.8102944749015866,6.086559770838903,11.377686947089186,-11.443077151738391
1378,-1.7591406273494261,5.623423033557678,11.435150223603895,-11.929842523834528
1379,-2.899688383316529,5.1070826525793995,11.410235121489363,-12.465194083396964
1380,-4.19224062241943,4.552506520641381,11.30333087863864,-13.031027416992842
1381,-5.582370885598219,3.967529631823762,11.123261211781436,-13.606195129378532
1382,-7.0206750006214325,3.357120685221762,10.888722058021694,-14.173235453914605
1383,-8.468720311656138,2.7276139450002628,10.626150563228851,-14.721451286186307
1384,-9.886487765116378,2.0868985065221612,10.365439282637608,-15.244713012374865
1385,-11.224871170801936,1.4427897230937072,10.133981095919639,-15.739389423160894
1386,-12.442682888610626,0.8034851350864939,9.948260906960346,-16.20426292909532
1387,-13.522698222554764,0.1790635370642091,9.806282778554575,-16.64156373829892
1388,-14.472393926730318,-0.4197244656793312,9.689764950631016,-17.058535304004096
1389,-15.30575024268062,-0.9834280629996885,9.577033087953833,-17.462913216159833
1390,-16.020103845188654,-1.5048881112216672,9.45247333628203,-17.851970328696993
1391,-16.59934079730791,-1.979395935206243,9.304061807999691,-18.214813616871737
1392,-17.03815072772854,-2.4037077350880853,9.116645557089718,-18.547108795528764
1393,-17.351296220444667,-2.7769715458345847,8.874903507529467,-18.854088038920462
1394,-17.559695135354605,-3.103089139108831,8.573585429611683,-19.14142837632901
1395,-17.680791508077576,-3.3889063921303557,8.219474106401963,-19.40727704144474
1396,-17.732534746670584,-3.638773915124776,7.8238349510400775,-19.645129583384527
1397,-17.73953894323591,-3.852326471509085,7.396273256482904,-19.85281110486743
1398,-17.73500718280441,-4.0248201100066785,6.973690924801702,-20.034792628285576
1399,-17.73633951577168,-4.160056318247087,6.503676295794235,-20.202213959051566
1400,-17.74273043762365,-4.263384902939376,5.96587429981584,-20.35895342539386
1401,-17.74488412020968,-4.340788280688606,5.365501610118875,-20.503176932196354
1402,-17.741703753164398,-4.398528145682428,4.726033762266695,-20.631807793770456
1403,-17.739531037364337,-4.4425300851787695,4.081387005181474,-20.74347127659525
1404,-17.73874284395376,-4.477134932632489,3.469037557606898,-20.837971431445446
1405,-17.731327104346466,-4.504127944275874,2.923267230960503,-20.91537335143353
1406,-17.70986446036117,-4.523371422421062,2.4693646773565967,-20.976537135328066
1407,-17.680833459225525,-4.534886680124667,2.1220352482732734,-21.023718599904058
1408,-0.24891650564282844,-0.17130188888052325,-0.25426110309087213,-0.26774746286990836
1409,-0.46289903035562346,-0.4019142330412226,-0.5850032078882794,-0.6012827155544513
1410,-0.7654385274391013,-0.7377041948840214,-1.0648521226596208,-1.0988499017313185
1411,-1.1643639774100247,-1.1857377265822377,-1.7098391891431837,-1.7761512828768904
1412,-1.6537292699103534,-1.7472516450182596,-2.534288903010468,-2.6390469142723436
1413,-2.2259694847187212,-2.4137519371770164,-3.544140851153393,-3.6807807945012905
1414,-2.8848783144969725,-3.1678016867356003,-4.7318047143502096,-4.880823772865309
1415,-3.643103715230786,-3.9885570920100624,-6.074352995297701,-6.208321759260015
1416,-4.506220777316096,-4.8571106965275295,-7.534766616568428,-7.626681493948447
1417,-5.474568873054555,-5.761261527983477,-9.070035615412527,-9.098579732710823
1418,-6.5634127189507305,-6.701463108462957,-10.64856541089264,-10.597119197845569
1419,-7.78002643385133,-7.671414626265938,-12.23016767211793,-12.077411286412733
1420,-9.110729176661826,-8.661310765490594,-13.77675812974074,-13.49119125017923
1421,-10.509316942053484,-9.655818776048944,-15.250552628542373,-14.794024771638487
1422,-11.913265051889963,-10.634002901349922,-16.612573514489164,-15.954378474670431
1423,-13.268517442798412,-11.571099909957612,-17.82335833635686,-16.95936420415871
1424,-14.53534179257678,-12.441886578662816,-18.850855713818422,-17.816532174322035
1425,-15.674312278431254,-13.22459986813037,-19.68135436903352,-18.548625881944524
1426,-16.637407697559514,-13.904457781691132,-20.31742610447864,-19.183795596507466
1427,-17.383734055509176,-14.473921665906191,-20.764557205974377,-19.74759606500773
1428,-17.90340709232083,-14.930498591214775,-21.02481967899648,-20.25726933080478
1429,-18.21805823309205,-15.277106383636154,-21.099522298258865,-20.71731690932724
1430,-18.3548670707236,-15.524589540640111,-20.99695364536629,-21.118550165960762
1431,-18.327363760289625,-15.68954137354843,-20.741523520047135,-21.442126460057164
1432,-18.143194292681105,-15.787997144163603,-20.376533919740723,-21.663793041756833
1433,-17.82598002496565,-15.833430555204043,-19.95673036681979,-21.76181650808705
1434,-17.42240965451475,-15.838194154561542,-19.534511994368284,-21.73073083323895
1435,-16.97876353983778,-15.81321402441853,-19.145577104114945,-21.582071114608507
1436,-16.52286669756903,-15.766331620200763,-18.801618127954118,-21.33147017525031
1437,-16.073312790542854,-15.701390308897604,-18.49349556986464,-20.996026679147135
1438,-15.653372375604054,-15.620172474229946,-18.198066333223526,-20.598571836208144
1439,-15.296639639287289,-15.524129881677887,-17.88957025798349,-20.164495657004878
1440,-15.030700398508175,-15.413761868776849,-17.55381501336481,-19.71520264671459
1441,-14.857839734871622,-15.288468224363484,-17.189813020884973,-19.25918908081945
1442,-14.759171738491386,-15.1473005677373,-16.804994540076358,-18.79086915547129
1443,-14.715115918648205,-14.990045085466809,-16.41857210201934,-18.304185190432587
1444,-14.720864113170894,-14.818121064030466,-16.063108025676325,-17.80142158644264
1445,-14.775798926441865,-14.635153418050638,-15.775639011784762,-17.291741362809713
1446,-14.873304140745434,-14.448135620051849,-15.584999167532043,-16.790085578188123
1447,-15.007103425564992,-14.267870876164478,-15.503206103523969,-16.315757964424634
1448,-15.182715657365064,-14.107330483588198,-15.51940127155846,-15.889947093272326
1449,-15.424207528864073,-13.979306930914431,-15.598187863971432,-15.533335849031674
1450,-15.75695329626647,-13.893435725243442,-15.690527184614364,-15.261810728240093
1451,-16.178053016402757,-13.852946159515238,-15.750748861135758,-15.077063754495223
1452,-16.645627157536474,-13.853616162938025,-15.74726647859298,-14.960651763481675
1453,-17.10738475085284,-13.884936681512627,-15.667476476178784,-14.886957368506092
1454,-17.532070628259476,-13.93193762455135,-15.520041821388162,-14.835438313872398
1455,-17.90778698568902,-13.977761281572812,-15.333158310062165,-14.785351586050748
1456,-18.224239061229365,-14.007248751753306,-15.14553146374901,-14.713515569773815
1457,-18.4584219486589,-14.012093183297855,-14.992546247621318,-14.601236182802957
1458,-18.595782716219816,-13.991459041862553,-14.899251445710574,-14.44125731661889
1459,-18.657353484492177,-13.946588568626723,-14.87947983054485,-14.240372295416725
1460,-18.686271446253084,-13.878849766217336,-14.931807418838293,-14.014220825633853
1461,-18.71846231474772,-13.791354278005933,-15.039700808732878,-13.779388143781418
1462,-18.76673189814919,-13.692326996372897,-15.179338951802771,-13.54835354035032
1463,-18.834788847620455,-13.59654014286122,-15.324619374725636,-13.332525131287072
1464,-18.93365908371542,-13.519893710054658,-15.450111409853044,-13.149581882114486
1465,-19.068674403809432,-13.474148258405323,-15.536118536942727,-13.019421508180383
1466,-19.220341905669695,-13.463348706557317,-15.570777331723788,-12.949006929469595
1467,-19.34964960967441,-13.480299329030462,-15.54624574349424,-12.922924747903314
1468,-19.429706013871517,-13.507455485370329,-15.457004085269707,-12.912445791956976
1469,-19.465994055748702,-13.520380805031367,-15.303271083614197,-12.890884581747382
1470,-19.475491924444654,-13.490610587233526,-15.092236158338554,-12.83404577093576
1471,-19.450554330556603,-13.389365173369704,-14.8342698043902,-12.711811511213172
1472,-19.35627206023904,-13.191457886889026,-14.536229690778839,-12.49076010336664
1473,-19.154278109389573,-12.87702294485195,-14.19928253452086,-12.143423865942793
1474,-18.824785630503175,-12.432976129230315,-13.822450773631068,-11.655621751648072
1475,-18.37485278541498,-11.857034337375238,-13.404699109869188,-11.032700183548052
1476,-17.81315093266154,-11.161711922964317,-12.946178483001347,-10.299199886240547
1477,-17.134489656246142,-10.372971127991944,-12.451610568888348,-9.492824870453395
1478,-16.338778705448693,-9.524442708745932,-11.934149356571625,-8.658490683595723
