timestamps,TP9,AF7,AF8,TP10,Right AUX
1727412984.063,13.184,-81.543,-33.203,-12.695,0.000
1727412984.067,16.602,-80.078,-45.410,-21.973,0.000
1727412984.071,-35.156,-76.172,-51.270,-27.344,0.000
1727412984.075,-84.961,-59.570,-47.363,-29.297,0.000
1727412984.079,-37.598,-67.871,-37.598,-18.555,0.000
1727412984.083,20.020,-74.219,-37.109,-18.066,0.000
1727412984.087,0.488,-61.035,-40.039,-25.879,0.000
1727412984.091,-45.410,-74.707,-41.016,-30.762,0.000
1727412984.095,-81.543,-65.430,-37.109,-28.320,0.000
1727412984.099,-68.848,-50.293,-32.227,-28.809,0.000
1727412984.103,-11.719,-55.176,-46.387,-28.320,0.000
1727412984.106,-3.906,-70.312,-61.035,-34.180,0.000
1727412984.110,-62.012,-100.098,-82.031,-53.223,0.000
1727412984.114,-123.535,-101.562,-97.656,-82.520,0.000
1727412984.118,-101.562,-92.773,-76.172,-86.426,0.000
1727412984.122,-30.762,-85.938,-78.613,-66.895,0.000
1727412984.126,-36.133,-89.844,-102.539,-72.754,0.000
1727412984.130,-95.215,-82.520,-109.375,-83.496,0.000
1727412984.134,-124.023,-93.750,-99.121,-82.031,0.000
1727412984.138,-89.844,-100.586,-86.426,-75.684,0.000
1727412984.142,-47.852,-80.078,-87.402,-63.965,0.000
1727412984.146,-44.434,-77.148,-85.938,-75.195,0.000
1727412984.149,-72.266,-88.379,-89.844,-73.242,0.000
1727412984.153,-121.094,-95.703,-87.891,-71.777,0.000
1727412984.157,-128.418,-98.633,-82.031,-81.055,0.000
1727412984.161,-71.289,-96.191,-78.125,-71.777,0.000
1727412984.165,-28.809,-92.285,-75.195,-48.340,0.000
1727412984.169,-60.059,-78.613,-80.566,-58.594,0.000
1727412984.173,-120.117,-87.891,-73.730,-75.195,0.000
1727412984.177,-106.934,-80.078,-76.172,-63.965,0.000
1727412984.181,-45.410,-78.613,-76.660,-50.293,0.000
1727412984.185,-11.719,-86.426,-71.777,-33.691,0.000
1727412984.188,-44.434,-66.406,-69.336,-28.320,0.000
1727412984.192,-96.191,-70.801,-66.406,-49.316,0.000
1727412984.196,-89.355,-81.055,-56.152,-58.105,0.000
1727412984.200,-43.945,-56.152,-52.734,-46.387,0.000
1727412984.204,-18.555,-25.391,-69.336,-41.992,0.000
1727412984.208,-13.184,-41.992,-56.152,-20.020,0.000
1727412984.212,-62.988,-61.523,-47.852,-24.902,0.000
1727412984.216,-94.238,-53.223,-55.664,-46.387,0.000
1727412984.220,-41.504,-42.480,-51.758,-39.551,0.000
1727412984.224,14.648,-41.504,-42.969,-27.344,0.000
1727412984.228,8.301,-47.363,-52.734,-31.250,0.000
1727412984.231,-59.082,-48.828,-63.477,-35.156,0.000
1727412984.235,-100.098,-41.016,-64.453,-43.457,0.000
1727412984.239,-48.828,-39.551,-65.918,-38.574,0.000
1727412984.243,12.695,-46.387,-60.059,-20.508,0.000
1727412984.247,6.348,-40.527,-53.223,-19.043,0.000
1727412984.251,-60.547,-39.551,-56.641,-44.434,0.000
1727412984.255,-89.355,-43.945,-55.664,-53.711,0.000
1727412984.259,-59.570,-22.461,-54.199,-44.922,0.000
1727412984.263,-20.508,-22.461,-52.734,-41.992,0.000
1727412984.267,-6.836,-50.293,-52.246,-40.527,0.000
1727412984.271,-54.199,-46.875,-62.012,-39.551,0.000
1727412984.274,-104.492,-47.363,-68.848,-53.223,0.000
1727412984.278,-74.707,-55.176,-64.941,-60.547,0.000
1727412984.282,-13.184,-52.246,-60.547,-52.246,0.000
1727412984.286,-12.695,-53.711,-72.754,-55.176,0.000
1727412984.290,-60.547,-58.594,-75.684,-53.711,0.000
1727412984.294,-119.629,-43.945,-71.289,-65.918,0.000
1727412984.298,-89.844,-55.664,-70.801,-71.777,0.000
1727412984.302,-25.391,-83.008,-68.848,-64.453,0.000
1727412984.306,-27.344,-71.777,-70.312,-63.477,0.000
1727412984.310,-65.918,-57.617,-62.988,-59.570,0.000
1727412984.313,-112.305,-64.941,-53.223,-70.801,0.000
1727412984.317,-90.332,-73.242,-42.969,-56.152,0.000
1727412984.321,-15.137,-58.594,-42.480,-26.367,0.000
1727412984.325,-1.953,-51.758,-51.270,-30.762,0.000
1727412984.329,-44.434,-47.363,-62.500,-38.086,0.000
1727412984.333,-99.121,-46.875,-57.129,-42.480,0.000
1727412984.337,-88.867,-43.945,-44.922,-38.574,0.000
1727412984.341,-21.973,-38.086,-37.598,-29.297,0.000
1727412984.345,2.930,-43.945,-35.645,-25.391,0.000
1727412984.349,-35.156,-47.852,-41.016,-25.879,0.000
1727412984.353,-101.074,-42.969,-58.594,-45.898,0.000
1727412984.356,-91.797,-39.551,-50.293,-39.062,0.000
1727412984.360,-20.508,-42.969,-26.855,-19.043,0.000
1727412984.364,7.812,-44.434,-37.109,-7.324,0.000
1727412984.368,-24.902,-36.621,-43.457,-7.812,0.000
1727412984.372,-70.801,-17.578,-40.527,-22.461,0.000
1727412984.376,-71.777,-9.277,-32.715,-32.715,0.000
1727412984.380,-11.719,-17.578,-34.180,-14.160,0.000
1727412984.384,23.926,-19.531,-37.598,-6.836,0.000
1727412984.388,-4.395,-24.902,-39.062,-24.902,0.000
1727412984.392,-68.359,-16.602,-44.434,-39.551,0.000
1727412984.396,-70.801,-30.762,-28.320,-37.598,0.000
1727412984.399,-6.836,-36.133,-23.438,-34.668,0.000
1727412984.403,34.668,-28.809,-24.414,-22.949,0.000
1727412984.407,21.484,-33.203,-28.809,-6.836,0.000
1727412984.411,-51.270,-36.621,-44.434,-26.367,0.000
1727412984.415,-115.723,-20.996,-49.316,-53.223,0.000
1727412984.419,-58.105,-30.273,-49.316,-37.598,0.000
1727412984.423,6.836,-54.688,-41.016,-18.066,0.000
1727412984.427,-4.883,-44.922,-33.203,-19.043,0.000
1727412984.431,-58.594,-38.086,-38.574,-33.203,0.000
1727412984.435,-86.914,-37.109,-40.527,-44.922,0.000
1727412984.439,-37.598,-43.457,-37.598,-29.785,0.000
1727412984.442,6.836,-60.059,-44.922,-26.855,0.000
1727412984.446,3.418,-60.547,-53.711,-41.992,0.000
1727412984.450,-42.480,-48.340,-50.781,-36.133,0.000
1727412984.454,-89.844,-41.016,-43.945,-37.109,0.000
1727412984.458,-73.730,-42.480,-44.922,-50.293,0.000
1727412984.462,-15.625,-47.363,-41.016,-42.480,0.000
1727412984.466,-7.812,-38.574,-43.945,-44.922,0.000
1727412984.470,-52.246,-33.203,-50.781,-35.156,0.000
1727412984.474,-86.914,-45.410,-44.434,-41.992,0.000
1727412984.478,-62.012,-62.988,-39.551,-45.410,0.000
1727412984.481,0.000,-62.012,-38.574,-36.621,0.000
1727412984.485,0.000,-56.641,-36.621,-36.133,0.000
1727412984.489,0.000,-63.965,-38.086,-40.039,0.000
1727412984.493,0.000,-64.453,-43.945,-55.176,0.000
1727412984.497,0.000,-57.617,-48.340,-61.035,0.000
1727412984.501,0.000,-46.387,-50.293,-48.828,0.000
1727412984.505,0.000,-44.922,-53.711,-46.387,0.000
1727412984.509,0.000,-53.223,-55.664,-43.457,0.000
1727412984.513,0.000,-71.777,-43.457,-32.715,0.000
1727412984.517,0.000,-79.590,-30.273,-13.672,0.000
1727412984.521,0.000,-39.062,-36.621,-21.973,0.000
1727412984.524,0.000,-20.508,-41.016,-52.246,0.000
1727412984.528,0.000,-43.457,-41.016,-54.688,0.000
1727412984.532,-118.164,-43.457,-52.734,-81.543,0.000
1727412984.536,-117.676,-37.598,-49.805,-83.496,0.000
1727412984.540,-41.992,-22.461,-43.945,-54.199,0.000
1727412984.544,-17.090,-8.301,-62.988,-67.383,0.000
1727412984.548,-61.523,2.930,-75.684,-86.914,0.000
1727412984.552,-109.863,-3.906,-80.566,-88.379,0.000
1727412984.556,-123.047,-13.184,-85.449,-99.121,0.000
1727412984.560,-69.824,-6.348,-87.891,-91.797,0.000
1727412984.563,-22.461,11.719,-92.773,-79.102,0.000
1727412984.567,-33.691,31.250,-95.215,-85.938,0.000
1727412984.571,-88.867,32.227,-100.586,-95.215,0.000
1727412984.575,-98.633,9.766,-96.191,-86.426,0.000
1727412984.579,-46.875,14.160,-97.168,-76.172,0.000
1727412984.583,4.883,21.973,-105.469,-80.566,0.000
1727412984.587,-4.883,21.484,-102.051,-62.500,0.000
1727412984.591,-64.453,22.461,-101.074,-57.617,0.000
1727412984.595,-84.961,9.277,-104.980,-72.754,0.000
1727412984.599,-38.574,8.789,-110.352,-70.312,0.000
1727412984.603,9.277,11.719,-111.816,-56.152,0.000
1727412984.606,3.418,11.719,-105.957,-35.645,0.000
1727412984.610,-50.293,13.184,-97.168,-48.828,0.000
1727412984.614,-77.148,3.906,-83.984,-63.477,0.000
1727412984.618,-40.039,-9.277,-85.449,-54.199,0.000
1727412984.622,28.320,-16.113,-79.102,-36.133,0.000
1727412984.626,24.414,-15.137,-70.801,-38.574,0.000
1727412984.630,-34.180,-8.301,-68.848,-36.133,0.000
1727412984.634,-71.289,-0.977,-60.059,-35.645,0.000
1727412984.638,-26.367,-0.977,-55.664,-41.992,0.000
1727412984.642,40.527,-1.465,-56.641,-24.414,0.000
1727412984.646,23.926,-15.625,-60.059,-9.277,0.000
1727412984.649,-32.715,-27.832,-65.430,-21.484,0.000
1727412984.653,-76.172,-22.461,-58.105,-35.156,0.000
1727412984.657,-53.223,-9.277,-46.875,-34.668,0.000
1727412984.661,13.184,-8.789,-51.758,-22.949,0.000
1727412984.665,41.504,-23.926,-52.734,-7.812,0.000
1727412984.669,-7.812,-16.602,-49.316,-5.371,0.000
1727412984.673,0.000,-10.254,-45.898,-9.277,0.000
1727412984.677,0.000,-8.301,-36.621,-4.883,0.000
1727412984.681,0.000,-10.254,-49.805,-11.230,0.000
1727412984.685,0.000,-18.066,-63.477,-13.184,0.000
1727412984.689,0.000,-17.578,-63.965,-14.648,0.000
1727412984.692,0.000,-17.578,-68.359,-26.855,0.000
1727412984.696,0.000,-23.926,-69.824,-34.180,0.000
1727412984.700,0.000,-15.137,-65.430,-39.062,0.000
1727412984.704,0.000,-5.371,-63.477,-27.832,0.000
1727412984.708,0.000,-20.020,-68.848,-13.184,0.000
1727412984.712,0.000,-24.902,-73.242,-26.855,0.000
1727412984.716,0.000,-34.668,-62.988,-30.273,0.000
1727412984.720,-1.953,-39.062,-54.199,-19.043,0.000
1727412984.724,30.762,-36.133,-61.035,-14.648,0.000
1727412984.728,2.930,-31.250,-58.105,-10.742,0.000
1727412984.731,-51.758,-27.344,-49.316,-14.160,0.000
1727412984.735,-65.430,-27.832,-44.434,-25.879,0.000
1727412984.739,-19.043,-31.738,-42.480,-25.879,0.000
1727412984.743,39.551,-34.180,-49.805,-21.973,0.000
1727412984.747,8.301,-36.133,-59.082,-30.762,0.000
1727412984.751,-80.078,-48.828,-75.195,-48.828,0.000
1727412984.755,-90.332,-37.109,-78.613,-55.664,0.000
1727412984.759,-23.926,-21.973,-61.035,-43.945,0.000
1727412984.763,17.578,-20.508,-62.012,-43.945,0.000
1727412984.767,-13.672,-26.855,-65.918,-36.133,0.000
1727412984.771,-82.031,-32.227,-72.754,-47.363,0.000
1727412984.774,-104.492,-53.223,-71.777,-68.848,0.000
1727412984.778,-54.199,-62.500,-63.477,-61.523,0.000
1727412984.782,-0.977,-55.176,-61.035,-41.992,0.000
1727412984.786,-11.719,-55.176,-61.523,-38.086,0.000
1727412984.790,-66.406,-56.152,-54.688,-49.316,0.000
1727412984.794,-83.008,-51.270,-44.434,-52.734,0.000
1727412984.798,-43.457,-46.875,-45.898,-42.969,0.000
1727412984.802,7.324,-50.293,-41.504,-25.391,0.000
1727412984.806,10.254,-64.941,-44.922,-32.715,0.000
1727412984.810,-52.734,-77.148,-61.035,-53.711,0.000
1727412984.814,-78.613,-67.871,-51.758,-49.316,0.000
1727412984.817,-46.387,-54.199,-41.504,-35.645,0.000
1727412984.821,-3.906,-46.875,-41.504,-29.785,0.000
1727412984.825,8.789,-35.156,-34.668,-22.461,0.000
1727412984.829,-49.316,-33.203,-42.969,-24.902,0.000
1727412984.833,-84.473,-55.176,-43.457,-25.879,0.000
1727412984.837,-43.945,-57.617,-29.785,-21.973,0.000
1727412984.841,9.277,-53.223,-38.574,-23.926,0.000
1727412984.845,20.996,-47.363,-46.387,-17.090,0.000
1727412984.849,-31.738,-38.574,-44.922,-21.973,0.000
1727412984.853,-80.078,-39.062,-50.781,-38.086,0.000
1727412984.856,-61.523,-52.246,-59.570,-40.527,0.000
1727412984.860,-4.883,-79.590,-57.617,-32.227,0.000
1727412984.864,16.602,-66.895,-55.664,-21.973,0.000
1727412984.868,-32.715,-39.062,-58.105,-34.668,0.000
1727412984.872,-96.680,-41.504,-59.082,-54.688,0.000
1727412984.876,-78.613,-52.734,-48.340,-59.570,0.000
1727412984.880,-14.648,-54.199,-54.199,-48.340,0.000
1727412984.884,6.836,-53.711,-66.895,-39.062,0.000
1727412984.888,-21.973,-54.199,-67.383,-37.109,0.000
1727412984.892,-90.332,-56.641,-73.242,-48.828,0.000
1727412984.896,-99.121,-52.246,-65.430,-57.129,0.000
1727412984.899,-27.344,-45.410,-53.223,-39.551,0.000
1727412984.903,16.602,-41.016,-58.105,-25.391,0.000
1727412984.907,-16.602,-41.992,-52.734,-23.438,0.000
1727412984.911,-76.172,-36.133,-52.246,-29.297,0.000
1727412984.915,-88.867,-37.598,-62.500,-51.758,0.000
1727412984.919,-37.598,-55.664,-56.152,-48.340,0.000
1727412984.923,4.395,-55.664,-54.688,-34.668,0.000
1727412984.927,-25.879,-49.316,-56.152,-34.668,0.000
1727412984.931,-83.496,-53.223,-46.387,-46.387,0.000
1727412984.935,-90.820,-62.500,-52.734,-58.105,0.000
1727412984.939,-35.645,-65.430,-55.176,-44.922,0.000
1727412984.942,17.090,-60.547,-54.199,-35.645,0.000
1727412984.946,-8.301,-56.641,-54.199,-36.621,0.000
1727412984.950,-67.871,-41.016,-60.059,-53.223,0.000
1727412984.954,-80.078,-21.484,-52.734,-59.082,0.000
1727412984.958,-32.715,-26.855,-38.086,-39.551,0.000
1727412984.962,23.926,-35.645,-38.574,-20.020,0.000
1727412984.966,18.066,-22.949,-52.734,-17.578,0.000
1727412984.970,-49.805,-32.715,-58.105,-28.809,0.000
1727412984.974,-81.543,-47.852,-53.223,-41.016,0.000
1727412984.978,-39.551,-25.879,-54.688,-40.527,0.000
1727412984.981,15.137,-43.457,-53.223,-11.230,0.000
1727412984.985,-3.418,-59.082,-56.152,-19.531,0.000
1727412984.989,-39.551,-57.129,-52.734,-31.250,0.000
1727412984.993,-69.824,-60.547,-45.410,-32.715,0.000
1727412984.997,-41.992,-53.223,-32.715,-28.320,0.000
1727412985.001,29.297,-41.504,-28.320,1.465,0.000
1727412985.005,31.738,-43.945,-35.156,9.766,0.000
1727412985.009,-36.621,-35.645,-39.551,-10.742,0.000
1727412985.013,-89.844,-20.508,-45.898,-35.156,0.000
1727412985.017,-46.875,-48.340,-36.621,-20.996,0.000
1727412985.021,14.648,-58.594,-31.250,-4.395,0.000
1727412985.024,4.395,-48.340,-29.785,-11.230,0.000
1727412985.028,-49.316,-50.781,-32.715,-26.367,0.000
1727412985.032,-82.520,-51.758,-43.945,-52.246,0.000
1727412985.036,-61.523,-48.340,-38.574,-54.688,0.000
1727412985.040,-8.301,-52.734,-36.133,-35.645,0.000
1727412985.044,5.859,-56.152,-35.645,-32.715,0.000
1727412985.048,-42.480,-54.199,-36.133,-29.785,0.000
1727412985.052,-88.379,-52.246,-41.016,-39.551,0.000
1727412985.056,-75.195,-40.039,-39.551,-56.152,0.000
1727412985.060,-15.625,-39.551,-44.922,-47.363,0.000
1727412985.064,9.766,-54.199,-43.457,-39.062,0.000
1727412985.067,-34.668,-60.547,-41.992,-37.109,0.000
1727412985.071,-84.961,-60.547,-45.898,-35.156,0.000
1727412985.075,-84.473,-50.781,-39.062,-44.922,0.000
1727412985.079,-20.996,-56.152,-32.715,-31.738,0.000
1727412985.083,9.766,-47.363,-41.016,-30.273,0.000
1727412985.087,-28.809,-48.340,-48.828,-40.527,0.000
1727412985.091,-69.336,-62.988,-41.992,-35.156,0.000
1727412985.095,0.000,-52.734,-29.785,-35.645,0.000
1727412985.099,0.000,-56.641,-38.086,-35.645,0.000
1727412985.103,0.000,-62.988,-41.016,-22.949,0.000
1727412985.106,0.000,-54.199,-44.922,-9.766,0.000
1727412985.110,0.000,-53.223,-51.758,-22.949,0.000
1727412985.114,0.000,-43.457,-46.387,-38.574,0.000
1727412985.118,0.000,-38.086,-39.551,-21.973,0.000
1727412985.122,0.000,-33.691,-36.621,-2.930,0.000
1727412985.126,0.000,-23.926,-38.574,-8.301,0.000
1727412985.130,0.000,-41.992,-41.504,-20.508,0.000
1727412985.134,0.000,-46.387,-37.109,-36.133,0.000
1727412985.138,0.000,-30.762,-31.250,-40.527,0.000
1727412985.142,-82.031,-49.805,-34.180,-22.949,0.000
1727412985.146,-41.504,-62.988,-43.457,-26.367,0.000
1727412985.149,0.977,-48.828,-47.363,-47.852,0.000
1727412985.153,-18.555,-37.109,-44.922,-54.199,0.000
1727412985.157,-72.266,-28.320,-40.039,-42.969,0.000
1727412985.161,-78.125,-29.785,-32.227,-25.391,0.000
1727412985.165,-16.113,-27.344,-32.227,-6.836,0.000
1727412985.169,21.973,-20.996,-41.016,-30.273,0.000
1727412985.173,-9.277,-34.180,-38.574,-45.898,0.000
1727412985.177,-64.941,-43.457,-40.039,-29.785,0.000
1727412985.181,-79.102,-41.016,-46.387,-33.203,0.000
1727412985.185,-31.738,-47.363,-45.898,-32.715,0.000
1727412985.189,-54.688,-44.922,-44.434,-30.762,0.000
1727412985.192,-95.215,-41.992,-47.852,-42.969,0.000
1727412985.196,-74.707,-41.504,-55.664,-40.039,0.000
1727412985.200,-14.160,-34.668,-52.246,-25.391,0.000
1727412985.204,-1.465,-30.273,-49.805,-28.809,0.000
1727412985.208,-58.105,-36.133,-59.082,-35.645,0.000
1727412985.212,-109.863,-41.504,-56.152,-45.898,0.000
1727412985.216,-70.312,-45.410,-50.781,-46.387,0.000
1727412985.220,-8.789,-49.316,-50.293,-31.250,0.000
1727412985.224,-8.301,-49.805,-45.898,-26.367,0.000
1727412985.228,-45.898,-45.898,-41.992,-25.391,0.000
1727412985.231,-90.820,-40.039,-45.898,-43.457,0.000
1727412985.235,-83.008,-40.039,-40.527,-53.711,0.000
1727412985.239,-18.555,-42.480,-29.785,-41.016,0.000
1727412985.243,5.859,-39.551,-34.180,-33.203,0.000
1727412985.247,-41.504,-47.363,-39.062,-29.785,0.000
1727412985.251,-88.379,-44.922,-40.039,-39.062,0.000
1727412985.255,-71.289,-46.875,-28.809,-42.480,0.000
1727412985.259,-23.926,-61.523,-26.855,-37.598,0.000
1727412985.263,9.766,-53.711,-41.992,-32.227,0.000
1727412985.267,-7.812,-33.691,-39.062,-20.996,0.000
1727412985.271,-71.289,-26.855,-40.527,-36.621,0.000
1727412985.274,-86.426,-40.527,-39.062,-43.945,0.000
1727412985.278,-20.020,-41.504,-30.762,-20.996,0.000
1727412985.282,20.996,-31.738,-26.855,-14.648,0.000
1727412985.286,-20.996,-32.715,-36.621,-25.391,0.000
1727412985.290,-79.102,-39.551,-40.039,-32.715,0.000
1727412985.294,-93.750,-36.133,-40.039,-45.898,0.000
1727412985.298,-29.785,-49.805,-37.598,-46.875,0.000
1727412985.302,22.461,-58.105,-34.180,-26.367,0.000
1727412985.306,-7.812,-39.551,-35.645,-16.602,0.000
1727412985.310,-47.363,-34.668,-33.203,-28.809,0.000
1727412985.313,-83.496,-39.551,-29.297,-44.922,0.000
1727412985.317,-67.871,-35.645,-48.340,-60.547,0.000
1727412985.321,-5.859,-39.551,-57.129,-55.664,0.000
1727412985.325,-15.137,-62.988,-55.664,-55.176,0.000
1727412985.329,-83.008,-64.453,-57.617,-62.500,0.000
1727412985.333,-101.074,-50.781,-43.457,-71.777,0.000
1727412985.337,-57.129,-53.223,-40.527,-69.336,0.000
1727412985.341,-21.973,-48.340,-59.082,-55.176,0.000
1727412985.345,-1.465,-42.969,-57.129,-37.109,0.000
1727412985.349,-45.410,-47.852,-52.734,-38.086,0.000
1727412985.353,-88.867,-46.387,-44.434,-48.340,0.000
1727412985.356,-44.434,-38.086,-32.227,-36.621,0.000
1727412985.360,3.906,-31.738,-27.344,-34.668,0.000
1727412985.364,-4.395,-30.762,-33.203,-37.109,0.000
1727412985.368,-59.570,-28.809,-44.434,-37.598,0.000
1727412985.372,-105.957,-23.926,-52.246,-54.688,0.000
1727412985.376,-56.152,-35.645,-38.574,-43.457,0.000
1727412985.380,25.879,-39.551,-38.086,-21.973,0.000
1727412985.384,18.555,-32.715,-45.410,-25.879,0.000
1727412985.388,-40.527,-41.992,-44.922,-31.738,0.000
1727412985.392,-81.543,-36.133,-48.340,-39.551,0.000
1727412985.396,-51.758,-14.648,-44.434,-32.227,0.000
1727412985.399,13.672,-18.555,-36.133,-6.348,0.000
1727412985.403,17.090,-17.578,-40.527,-13.184,0.000
1727412985.407,-41.992,-37.598,-48.340,-25.879,0.000
1727412985.411,-90.820,-51.270,-49.316,-36.621,0.000
1727412985.415,-65.918,-47.363,-44.434,-34.668,0.000
1727412985.419,-0.488,-45.898,-34.668,-20.020,0.000
1727412985.423,18.555,-43.945,-40.039,-16.602,0.000
1727412985.427,-28.809,-51.270,-54.199,-18.066,0.000
1727412985.431,-88.379,-46.875,-57.129,-33.691,0.000
1727412985.435,-78.613,-40.039,-56.641,-49.805,0.000
1727412985.438,-10.742,-42.969,-52.246,-35.156,0.000
1727412985.442,11.230,-52.246,-58.105,-26.367,0.000
1727412985.446,-26.367,-59.082,-55.176,-31.250,0.000
1727412985.450,-85.938,-39.551,-50.781,-48.340,0.000
1727412985.454,-86.426,-45.898,-46.875,-52.734,0.000
1727412985.458,-16.113,-63.965,-48.828,-44.922,0.000
1727412985.462,8.301,-58.105,-55.176,-35.156,0.000
1727412985.466,-37.109,-57.617,-55.176,-27.832,0.000
1727412985.470,-101.074,-55.664,-61.523,-54.688,0.000
1727412985.474,-96.191,-64.453,-62.500,-60.547,0.000
1727412985.478,-24.902,-68.359,-49.805,-44.434,0.000
1727412985.481,11.719,-62.500,-37.598,-42.480,0.000
1727412985.485,-18.555,-62.988,-43.457,-36.133,0.000
1727412985.489,-80.078,-65.918,-67.383,-41.016,0.000
1727412985.493,-102.051,-73.242,-68.359,-48.340,0.000
1727412985.497,-55.176,-74.219,-59.570,-50.293,0.000
1727412985.501,-3.906,-75.195,-55.176,-44.922,0.000
1727412985.505,-4.395,-68.848,-53.223,-32.715,0.000
1727412985.509,-75.195,-66.406,-57.129,-53.223,0.000
1727412985.513,-108.398,-73.242,-59.570,-69.336,0.000
1727412985.517,-47.852,-75.684,-45.410,-44.922,0.000
1727412985.521,7.324,-59.082,-31.738,-22.949,0.000
1727412985.524,-7.812,-42.969,-43.945,-24.902,0.000
1727412985.528,-59.082,-55.664,-52.246,-41.016,0.000
1727412985.532,-89.844,-54.688,-37.109,-39.551,0.000
1727412985.536,-38.574,-55.176,-31.250,-20.996,0.000
1727412985.540,24.902,-61.035,-41.992,-25.879,0.000
1727412985.544,1.953,-65.430,-45.898,-32.227,0.000
1727412985.548,-48.828,-71.777,-42.480,-24.414,0.000
1727412985.552,-75.195,-69.824,-44.434,-27.832,0.000
1727412985.556,-43.945,-68.848,-41.504,-27.832,0.000
1727412985.560,10.742,-55.176,-33.203,-10.742,0.000
1727412985.564,17.578,-43.945,-35.156,-4.883,0.000
1727412985.567,-39.062,-53.223,-35.645,-14.648,0.000
1727412985.571,-83.984,-52.734,-37.598,-42.969,0.000
1727412985.575,-47.852,-57.129,-38.574,-42.480,0.000
1727412985.579,8.301,-66.895,-33.691,-17.090,0.000
1727412985.583,17.578,-62.988,-37.109,-19.531,0.000
1727412985.587,-15.625,-47.363,-34.180,-29.785,0.000
1727412985.591,-73.242,-41.016,-35.645,-37.109,0.000
1727412985.595,-58.594,-51.758,-48.340,-28.809,0.000
1727412985.599,2.441,-55.176,-42.969,-18.555,0.000
1727412985.603,18.555,-60.059,-39.062,-14.160,0.000
1727412985.606,-14.648,-75.195,-43.457,-23.926,0.000
1727412985.610,-79.590,-72.266,-42.969,-62.988,0.000
1727412985.614,-81.543,-63.477,-48.828,-62.988,0.000
1727412985.618,-9.277,-69.336,-51.758,-33.691,0.000
1727412985.622,18.066,-64.453,-44.434,-25.391,0.000
1727412985.626,-27.344,-61.523,-48.828,-32.715,0.000
1727412985.630,-82.520,-75.684,-54.199,-48.340,0.000
1727412985.634,-85.938,-80.566,-43.457,-52.246,0.000
1727412985.638,-27.344,-86.426,-53.711,-42.480,0.000
1727412985.642,5.859,-84.473,-56.641,-34.180,0.000
1727412985.646,-37.598,-79.102,-45.410,-41.992,0.000
1727412985.649,-99.609,-82.520,-51.270,-56.152,0.000
1727412985.653,-103.027,-74.707,-52.734,-51.270,0.000
1727412985.657,-27.832,-66.406,-41.992,-40.527,0.000
1727412985.661,20.996,-60.547,-39.062,-35.156,0.000
1727412985.665,-22.949,-59.570,-38.574,-25.879,0.000
1727412985.669,-84.473,-44.922,-56.641,-39.551,0.000
1727412985.673,-95.215,-46.875,-68.848,-62.012,0.000
1727412985.677,-20.508,-65.430,-48.340,-45.410,0.000
1727412985.681,34.180,-76.660,-35.645,-3.418,0.000
1727412985.685,-4.395,-92.285,-40.527,7.812,0.000
1727412985.689,-84.961,-78.125,-36.621,-26.855,0.000
1727412985.692,-106.934,-39.062,-39.551,-45.898,0.000
1727412985.696,-36.621,-63.477,-41.016,-12.207,0.000
1727412985.700,33.691,-68.359,-36.133,2.930,0.000
1727412985.704,9.277,-56.152,-34.668,-19.043,0.000
1727412985.708,-85.449,-30.762,-7.324,-56.152,0.000
1727412985.712,-103.516,-47.363,-14.648,-71.289,0.000
1727412985.716,-51.270,-78.613,-10.742,-72.266,0.000
1727412985.720,6.836,-62.012,57.129,-76.172,0.000
1727412985.724,-56.152,-4.395,41.016,-84.961,0.000
1727412985.728,-108.398,40.527,-60.059,-58.105,0.000
1727412985.731,-80.566,-86.914,-93.262,-16.602,0.000
1727412985.735,-76.172,-55.664,-65.918,-64.453,0.000
1727412985.739,69.824,-82.031,-42.480,21.973,0.000
1727412985.743,15.625,-118.164,8.301,-10.254,0.000
1727412985.747,-210.938,11.230,35.156,-205.566,0.000
1727412985.751,-177.734,-17.090,-23.926,-114.746,0.000
1727412985.755,-49.805,-44.434,-117.676,-13.672,0.000
1727412985.759,56.152,-55.664,-107.910,53.711,0.000
1727412985.763,151.367,-98.145,-83.496,114.746,0.000
1727412985.767,5.859,-10.254,-112.793,12.207,0.000
1727412985.771,-65.918,-86.914,-133.789,13.672,0.000
1727412985.774,4.883,-99.121,-99.609,27.344,0.000
1727412985.778,-34.668,-91.797,-53.223,-72.266,0.000
1727412985.782,-36.133,-28.809,-82.520,-44.434,0.000
1727412985.786,-31.250,5.371,-77.637,46.387,0.000
1727412985.790,13.672,-85.449,-104.004,88.379,0.000
1727412985.794,75.195,-76.172,-128.418,95.703,0.000
1727412985.798,85.938,-62.988,-67.383,79.102,0.000
1727412985.802,67.871,-58.594,-26.367,46.387,0.000
1727412985.806,33.691,-47.852,-96.680,54.688,0.000
1727412985.810,-27.832,-51.270,-114.746,47.852,0.000
1727412985.814,-38.574,-57.129,-87.891,21.973,0.000
1727412985.817,33.203,-49.316,-90.332,30.273,0.000
1727412985.821,34.668,-41.504,-80.078,35.645,0.000
1727412985.825,-6.836,-68.848,-64.453,14.160,0.000
1727412985.829,-23.438,-57.129,-56.641,6.836,0.000
1727412985.833,-33.203,-31.738,-59.570,-3.418,0.000
1727412985.837,-0.977,-30.273,-61.523,-1.465,0.000
1727412985.841,41.504,-45.410,-45.410,8.789,0.000
1727412985.845,23.926,-35.156,-40.527,8.301,0.000
1727412985.849,-23.438,-30.273,-43.457,-6.348,0.000
1727412985.853,-53.223,-35.156,-37.109,-13.184,0.000
1727412985.856,-14.648,-26.855,-31.250,1.953,0.000
1727412985.860,44.922,-30.273,-44.922,18.555,0.000
1727412985.864,6.836,-36.621,-55.176,18.555,0.000
1727412985.868,-60.547,-22.461,-53.223,3.906,0.000
1727412985.872,-68.359,-29.785,-43.457,0.000,0.000
1727412985.876,-18.555,-37.109,-41.992,4.395,0.000
1727412985.880,36.621,-28.809,-41.504,20.020,0.000
1727412985.884,4.883,-37.109,-38.574,11.230,0.000
1727412985.888,-75.684,-50.781,-43.457,-14.160,0.000
1727412985.892,-83.008,-43.457,-40.527,-32.715,0.000
1727412985.896,-32.227,-41.016,-35.645,-29.297,0.000
1727412985.899,-5.371,-44.434,-44.922,-16.113,0.000
1727412985.903,-4.395,-41.016,-45.410,-14.160,0.000
1727412985.907,-48.340,-40.039,-38.574,-21.484,0.000
1727412985.911,-87.402,-31.738,-37.598,-33.691,0.000
1727412985.915,-42.480,-39.551,-32.715,-26.855,0.000
1727412985.919,5.371,-48.828,-36.133,-25.391,0.000
1727412985.923,4.395,-41.992,-46.875,-29.785,0.000
1727412985.927,-51.758,-36.133,-53.223,-34.668,0.000
1727412985.931,-114.746,-43.945,-49.316,-46.387,0.000
1727412985.935,-64.941,-61.035,-38.574,-35.645,0.000
1727412985.939,12.207,-43.945,-36.133,-25.879,0.000
1727412985.942,-2.930,-31.250,-40.039,-28.320,0.000
1727412985.946,-72.754,-45.898,-51.758,-32.227,0.000
1727412985.950,-110.840,-57.617,-55.664,-48.340,0.000
1727412985.954,-86.426,-55.664,-45.410,-51.270,0.000
1727412985.958,-32.715,-37.598,-39.062,-38.574,0.000
1727412985.962,-2.930,-41.016,-37.598,-43.457,0.000
1727412985.966,-45.898,-59.570,-44.922,-47.852,0.000
1727412985.970,-97.168,-55.664,-50.293,-55.176,0.000
1727412985.974,-84.961,-47.852,-48.340,-58.105,0.000
1727412985.978,-24.414,-48.828,-44.434,-33.691,0.000
1727412985.981,14.648,-52.734,-48.340,-27.344,0.000
1727412985.985,-31.738,-55.176,-54.688,-34.180,0.000
1727412985.989,-93.750,-41.016,-52.246,-45.898,0.000
1727412985.993,-88.867,-42.969,-41.992,-57.129,0.000
1727412985.997,-26.855,-60.547,-38.574,-42.969,0.000
1727412986.001,14.648,-57.129,-41.992,-26.855,0.000
1727412986.005,-22.949,-62.500,-45.898,-29.785,0.000
1727412986.009,-97.656,-61.035,-42.480,-47.852,0.000
1727412986.013,-91.797,-52.246,-29.785,-41.992,0.000
1727412986.017,-12.207,-60.547,-19.043,-32.715,0.000
1727412986.021,16.602,-58.594,-24.902,-30.762,0.000
1727412986.024,-28.809,-53.711,-30.762,-32.227,0.000
1727412986.028,-94.727,-47.363,-30.273,-59.082,0.000
1727412986.032,-100.098,-47.852,-23.438,-58.594,0.000
1727412986.036,-38.086,-46.875,-17.090,-41.016,0.000
1727412986.040,-6.348,-46.387,-22.461,-38.086,0.000
1727412986.044,-27.344,-50.781,-30.273,-35.645,0.000
1727412986.048,-77.637,-53.711,-30.273,-45.410,0.000
1727412986.052,-83.984,-67.383,-29.297,-47.852,0.000
1727412986.056,-31.250,-64.453,-32.227,-39.062,0.000
1727412986.060,13.672,-46.387,-30.762,-20.508,0.000
1727412986.064,-2.441,-57.129,-32.715,-15.137,0.000
1727412986.067,-68.848,-59.082,-39.551,-29.297,0.000
1727412986.071,-101.562,-62.500,-38.086,-41.504,0.000
1727412986.075,-51.270,-69.336,-26.367,-47.852,0.000
1727412986.079,-1.465,-57.617,-32.715,-42.969,0.000
1727412986.083,-11.719,-63.477,-50.293,-42.480,0.000
1727412986.087,-70.312,-72.266,-60.059,-54.199,0.000
1727412986.091,-103.516,-73.242,-50.293,-60.059,0.000
1727412986.095,-74.219,-76.172,-50.781,-62.988,0.000
1727412986.099,2.930,-90.332,-55.664,-52.734,0.000
1727412986.103,-10.742,-84.961,-56.641,-46.387,0.000
1727412986.106,-82.520,-74.707,-62.988,-49.805,0.000
1727412986.110,-115.723,-62.012,-57.617,-65.918,0.000
1727412986.114,-84.473,-52.734,-47.363,-61.035,0.000
1727412986.118,-21.973,-59.082,-55.176,-38.086,0.000
1727412986.122,-7.812,-69.336,-56.641,-27.832,0.000
1727412986.126,-59.082,-68.359,-47.363,-43.457,0.000
1727412986.130,-105.957,-51.758,-51.270,-61.523,0.000
1727412986.134,-79.590,-63.477,-50.781,-53.711,0.000
1727412986.138,-15.137,-80.078,-47.363,-44.434,0.000
1727412986.142,3.906,-76.172,-47.363,-39.062,0.000
1727412986.146,-39.551,-62.500,-51.758,-41.504,0.000
1727412986.149,-66.406,-50.781,-52.734,-48.828,0.000
1727412986.153,-63.477,-47.363,-56.641,-52.246,0.000
1727412986.157,-21.973,-33.691,-67.871,-50.781,0.000
1727412986.161,12.207,-41.992,-67.871,-44.434,0.000
1727412986.165,-15.137,-62.012,-63.965,-31.738,0.000
1727412986.169,-73.730,-54.199,-64.453,-45.898,0.000
1727412986.173,-66.895,-43.945,-63.477,-47.363,0.000
1727412986.177,5.859,-44.922,-59.570,-28.809,0.000
1727412986.181,35.156,-47.363,-58.594,-22.949,0.000
1727412986.185,-18.555,-47.852,-62.500,-31.250,0.000
1727412986.189,-80.078,-45.898,-62.988,-47.363,0.000
1727412986.192,-68.359,-39.062,-51.758,-55.176,0.000
1727412986.196,-3.418,-43.457,-49.316,-40.527,0.000
1727412986.200,20.508,-39.062,-51.758,-43.457,0.000
1727412986.204,-24.902,-32.227,-42.969,-48.340,0.000
1727412986.208,-83.496,-37.598,-43.457,-63.965,0.000
1727412986.212,-92.773,-44.434,-44.434,-68.848,0.000
1727412986.216,-41.016,-44.922,-46.387,-52.246,0.000
1727412986.220,6.836,-52.734,-47.852,-40.527,0.000
1727412986.224,-24.902,-65.430,-53.711,-40.527,0.000
1727412986.228,-91.309,-66.895,-55.176,-53.223,0.000
1727412986.232,-101.562,-61.035,-36.621,-66.895,0.000
1727412986.235,-48.340,-56.152,-36.621,-56.641,0.000
1727412986.239,2.441,-59.570,-53.711,-36.621,0.000
1727412986.243,-20.508,-58.594,-57.617,-45.898,0.000
1727412986.247,-81.543,-59.082,-56.152,-65.430,0.000
1727412986.251,-96.680,-68.848,-49.316,-75.195,0.000
1727412986.255,-56.641,-70.312,-41.992,-62.012,0.000
1727412986.259,-10.254,-75.684,-44.922,-41.504,0.000
1727412986.263,-28.320,-86.426,-57.617,-39.551,0.000
1727412986.267,0.000,-73.730,-57.617,-51.758,0.000
1727412986.271,0.000,-52.734,-52.246,-67.871,0.000
1727412986.274,0.000,-47.363,-44.434,-51.758,0.000
1727412986.278,0.000,-56.152,-44.434,-35.156,0.000
1727412986.282,0.000,-61.523,-57.617,-53.223,0.000
1727412986.286,0.000,-60.547,-67.383,-65.430,0.000
1727412986.290,0.000,-50.781,-62.500,-78.125,0.000
1727412986.294,0.000,-47.852,-49.805,-69.336,0.000
1727412986.298,0.000,-61.035,-51.270,-38.086,0.000
1727412986.302,0.000,-66.406,-46.387,-26.367,0.000
1727412986.306,0.000,-62.500,-42.969,-33.691,0.000
1727412986.310,0.000,-54.688,-46.387,-36.133,0.000
1727412986.314,-65.430,-46.875,-47.852,-39.551,0.000
1727412986.317,-14.160,-55.664,-47.852,-41.016,0.000
1727412986.321,-10.742,-51.758,-48.828,-32.715,0.000
1727412986.325,-33.691,-57.129,-47.852,-23.926,0.000
1727412986.329,-78.613,-59.082,-46.875,-40.527,0.000
1727412986.333,-66.895,-40.039,-42.480,-52.734,0.000
1727412986.337,-0.977,-40.039,-31.250,-34.180,0.000
1727412986.341,3.906,-40.039,-22.461,-29.297,0.000
1727412986.345,-37.598,-34.180,-33.691,-23.926,0.000
1727412986.349,-65.918,-48.340,-34.180,-32.227,0.000
1727412986.353,-50.293,-51.270,-26.855,-55.664,0.000
1727412986.357,-8.789,-54.199,-31.738,-34.668,0.000
1727412986.360,0.000,-46.875,-28.809,-10.742,0.000
1727412986.364,0.000,-41.016,-33.691,-31.738,0.000
1727412986.368,0.000,-48.828,-43.457,-47.852,0.000
1727412986.372,0.000,-46.387,-42.480,-41.504,0.000
1727412986.376,0.000,-38.086,-41.016,-32.715,0.000
1727412986.380,0.000,-55.176,-37.598,-17.578,0.000
1727412986.384,0.000,-56.152,-47.852,-25.879,0.000
1727412986.388,0.000,-41.992,-55.176,-47.363,0.000
1727412986.392,0.000,-57.617,-44.434,-45.410,0.000
1727412986.396,0.000,-57.617,-48.340,-47.852,0.000
1727412986.399,0.000,-57.129,-52.246,-46.875,0.000
1727412986.403,0.000,-63.477,-48.340,-33.691,0.000
1727412986.407,-86.914,-60.059,-52.734,-40.039,0.000
1727412986.411,-89.355,-53.223,-44.434,-41.016,0.000
1727412986.415,-24.902,-41.504,-34.668,-20.996,0.000
1727412986.419,21.484,-44.434,-44.922,-17.578,0.000
1727412986.423,-4.395,-51.758,-48.340,-33.691,0.000
1727412986.427,-68.848,-57.617,-42.969,-33.203,0.000
1727412986.431,-78.613,-64.941,-31.250,-31.250,0.000
1727412986.435,-12.207,-56.152,-30.273,-24.414,0.000
1727412986.439,21.484,-51.758,-40.527,-17.578,0.000
1727412986.442,-13.672,-51.758,-49.316,-30.273,0.000
1727412986.446,-42.969,-46.875,-41.504,-21.973,0.000
1727412986.450,-54.199,-50.293,-29.785,-16.113,0.000
1727412986.454,-27.344,-46.387,-32.715,-17.090,0.000
1727412986.458,25.879,-44.434,-33.691,-2.930,0.000
1727412986.462,13.184,-36.133,-37.109,-10.742,0.000
1727412986.466,-40.527,-34.180,-40.527,-21.973,0.000
1727412986.470,-76.660,-46.875,-40.039,-34.180,0.000
1727412986.474,-32.715,-51.270,-32.715,-23.438,0.000
1727412986.478,24.902,-42.969,-35.645,-14.160,0.000
1727412986.482,11.719,-47.852,-53.711,-10.254,0.000
1727412986.485,-35.156,-40.527,-47.852,-12.207,0.000
1727412986.489,-68.359,-34.180,-35.645,-29.785,0.000
1727412986.493,-52.246,-41.992,-34.668,-28.809,0.000
1727412986.497,6.836,-52.246,-33.691,-17.578,0.000
1727412986.501,14.648,-59.082,-38.086,-12.207,0.000
1727412986.505,-45.410,-48.828,-43.945,-21.484,0.000
1727412986.509,-89.355,-53.711,-50.293,-42.969,0.000
1727412986.513,-70.801,-52.246,-48.340,-46.875,0.000
1727412986.517,-8.301,-40.527,-47.852,-18.555,0.000
1727412986.521,20.996,-47.363,-46.387,-5.371,0.000
1727412986.524,-20.996,-54.199,-45.410,-23.926,0.000
1727412986.528,-88.867,-60.547,-50.781,-48.340,0.000
1727412986.532,-88.867,-64.453,-45.898,-53.711,0.000
1727412986.536,-24.902,-63.477,-39.062,-44.434,0.000
1727412986.540,0.977,-67.871,-44.434,-38.574,0.000
1727412986.544,-41.992,-57.617,-52.246,-41.504,0.000
1727412986.548,-89.355,-49.316,-48.340,-43.945,0.000
1727412986.552,-67.383,-59.570,-39.062,-42.480,0.000
1727412986.556,-20.020,-55.176,-37.598,-33.691,0.000
1727412986.560,-5.859,-53.223,-56.152,-33.691,0.000
1727412986.564,-31.738,-56.152,-55.664,-35.645,0.000
1727412986.567,-87.402,-53.711,-44.922,-47.363,0.000
1727412986.571,-97.168,-52.734,-43.457,-54.688,0.000
1727412986.575,-29.297,-41.504,-44.922,-47.852,0.000
1727412986.579,-1.465,-40.527,-43.457,-35.645,0.000
1727412986.583,-39.062,-55.176,-42.969,-26.855,0.000
1727412986.587,-89.355,-48.340,-52.246,-42.969,0.000
1727412986.591,-101.074,-38.574,-55.664,-59.570,0.000
1727412986.595,-41.992,-33.691,-61.035,-56.641,0.000
1727412986.599,18.066,-50.781,-64.941,-35.645,0.000
1727412986.603,-24.414,-64.941,-68.848,-36.133,0.000
1727412986.607,-82.520,-59.570,-64.453,-53.223,0.000
1727412986.610,-87.402,-50.781,-53.711,-59.082,0.000
1727412986.614,-29.297,-46.875,-52.246,-42.480,0.000
1727412986.618,9.766,-42.480,-56.641,-34.180,0.000
1727412986.622,-11.230,-30.762,-56.641,-34.668,0.000
1727412986.626,-45.410,-32.227,-52.246,-27.344,0.000
1727412986.630,-76.172,-32.715,-41.504,-26.367,0.000
1727412986.634,-37.109,-30.762,-39.551,-14.648,0.000
1727412986.638,20.020,-31.250,-43.457,-13.184,0.000
1727412986.642,8.789,-30.273,-39.551,-16.113,0.000
1727412986.646,-47.363,-36.621,-41.504,-28.809,0.000
1727412986.649,-83.496,-41.504,-49.316,-49.805,0.000
1727412986.653,-51.758,-36.133,-41.992,-51.270,0.000
1727412986.657,2.441,-27.832,-34.668,-36.133,0.000
1727412986.661,-4.883,-32.227,-38.086,-23.438,0.000
1727412986.665,-59.082,-46.875,-33.203,-29.297,0.000
1727412986.669,-79.102,-33.691,-25.391,-40.527,0.000
1727412986.673,-41.992,-35.156,-21.484,-33.203,0.000
1727412986.677,11.230,-46.875,-31.738,-14.648,0.000
1727412986.681,32.715,-52.734,-38.574,-19.043,0.000
1727412986.685,-31.250,-67.871,-50.781,-38.086,0.000
1727412986.689,-111.816,-49.805,-64.941,-44.922,0.000
1727412986.692,-74.707,-45.898,-52.246,-49.316,0.000
1727412986.696,-12.207,-48.828,-41.016,-49.316,0.000
1727412986.700,-13.184,-51.758,-42.969,-39.551,0.000
1727412986.704,-47.852,-53.223,-43.945,-29.297,0.000
1727412986.708,-88.379,-50.293,-41.016,-37.109,0.000
1727412986.712,-74.219,-52.734,-40.527,-43.457,0.000
1727412986.716,-18.066,-47.852,-49.316,-38.086,0.000
1727412986.720,-1.465,-53.711,-60.059,-27.832,0.000
1727412986.724,-36.621,-60.059,-60.059,-22.461,0.000
1727412986.728,-80.566,-54.688,-56.641,-52.734,0.000
1727412986.732,-68.848,-59.082,-46.875,-58.594,0.000
1727412986.735,-17.090,-60.059,-42.969,-43.457,0.000
1727412986.739,1.953,-55.664,-50.293,-33.203,0.000
1727412986.743,-34.180,-56.152,-59.082,-34.180,0.000
1727412986.747,-100.098,-69.336,-63.965,-62.012,0.000
1727412986.751,-95.215,-59.570,-58.105,-68.848,0.000
1727412986.755,-29.785,-51.270,-53.711,-46.875,0.000
1727412986.759,14.648,-48.828,-50.781,-23.926,0.000
1727412986.763,-3.418,-42.480,-45.898,-15.137,0.000
1727412986.767,-59.082,-41.992,-46.387,-20.996,0.000
1727412986.771,-64.453,-35.156,-44.434,-34.180,0.000
1727412986.774,-11.230,-42.969,-44.434,-24.414,0.000
1727412986.778,21.973,-42.969,-45.410,-15.625,0.000
1727412986.782,0.977,-39.062,-48.828,-19.043,0.000
1727412986.786,-59.082,-33.691,-48.828,-25.391,0.000
1727412986.790,-85.938,-42.480,-44.922,-35.645,0.000
1727412986.794,-31.738,-52.246,-47.852,-36.133,0.000
1727412986.798,19.531,-44.434,-49.805,-22.949,0.000
1727412986.802,-2.930,-35.645,-51.270,-25.879,0.000
1727412986.806,-66.895,-36.621,-53.223,-35.645,0.000
1727412986.810,-80.566,-45.410,-49.805,-37.598,0.000
1727412986.814,-37.598,-42.480,-45.898,-30.762,0.000
1727412986.817,5.371,-44.434,-48.828,-17.578,0.000
1727412986.821,-3.418,-46.387,-47.363,-11.719,0.000
1727412986.825,-52.734,-49.805,-38.574,-18.555,0.000
1727412986.829,-82.031,-50.781,-27.832,-30.273,0.000
1727412986.833,-46.387,-45.898,-21.973,-24.414,0.000
1727412986.837,4.395,-51.270,-31.250,-20.996,0.000
1727412986.841,-9.766,-60.547,-44.434,-27.344,0.000
1727412986.845,-78.613,-51.270,-46.387,-39.062,0.000
1727412986.849,-104.004,-42.969,-38.086,-46.387,0.000
1727412986.853,-62.500,-43.457,-30.273,-32.715,0.000
1727412986.857,0.000,-46.875,-34.180,-22.949,0.000
1727412986.860,3.906,-46.387,-48.340,-25.879,0.000
1727412986.864,-46.387,-43.457,-43.457,-18.555,0.000
1727412986.868,-91.309,-50.293,-38.574,-39.062,0.000
1727412986.872,-69.336,-59.082,-32.715,-57.129,0.000
1727412986.876,-1.465,-57.617,-32.715,-43.457,0.000
1727412986.880,7.812,-60.059,-45.898,-33.203,0.000
1727412986.884,-59.082,-59.570,-57.617,-36.133,0.000
1727412986.888,-107.422,-47.852,-51.270,-46.387,0.000
1727412986.892,-72.266,-41.016,-39.551,-41.016,0.000
1727412986.896,-13.184,-48.828,-44.922,-43.457,0.000
1727412986.899,1.465,-50.293,-53.223,-44.922,0.000
1727412986.903,-50.781,-41.504,-58.594,-39.551,0.000
1727412986.907,-96.191,-57.129,-49.316,-51.758,0.000
1727412986.911,-58.105,-59.082,-43.945,-48.828,0.000
1727412986.915,-6.836,-53.711,-54.688,-29.297,0.000
1727412986.919,7.324,-53.711,-61.523,-28.320,0.000
1727412986.923,-22.461,-44.922,-62.500,-31.738,0.000
1727412986.927,-74.707,-39.551,-54.199,-34.668,0.000
1727412986.931,-62.988,-37.598,-43.945,-34.180,0.000
1727412986.935,2.441,-35.645,-40.527,-20.996,0.000
1727412986.939,28.320,-45.898,-41.504,-10.742,0.000
1727412986.942,-4.883,-56.641,-43.457,-11.230,0.000
1727412986.946,-54.688,-40.527,-47.852,-16.602,0.000
1727412986.950,-66.406,-33.691,-49.316,-21.973,0.000
1727412986.954,-12.695,-39.551,-52.246,-25.879,0.000
1727412986.958,28.320,-45.898,-56.152,-18.066,0.000
1727412986.962,-1.953,-51.270,-61.035,-18.066,0.000
1727412986.966,-61.035,-43.945,-64.453,-39.062,0.000
1727412986.970,0.000,-49.316,-58.105,-46.875,0.000
1727412986.974,0.000,-57.129,-48.340,-32.227,0.000
1727412986.978,0.000,-53.223,-49.805,-25.391,0.000
1727412986.982,0.000,-60.059,-55.664,-20.996,0.000
1727412986.985,0.000,-60.547,-53.711,-24.902,0.000
1727412986.989,0.000,-52.246,-55.664,-40.039,0.000
1727412986.993,0.000,-54.688,-51.758,-50.293,0.000
1727412986.997,0.000,-58.105,-45.898,-53.223,0.000
1727412987.001,0.000,-50.781,-54.688,-30.762,0.000
1727412987.005,0.000,-47.852,-57.617,-25.879,0.000
1727412987.009,0.000,-39.551,-48.340,-49.316,0.000
1727412987.013,0.000,-34.180,-51.270,-42.480,0.000
1727412987.017,1.465,-29.785,-56.641,-35.645,0.000
1727412987.021,-2.441,-41.992,-41.504,-36.133,0.000
1727412987.025,-54.199,-50.781,-30.273,-34.180,0.000
1727412987.028,-100.586,-52.734,-27.832,-56.152,0.000
1727412987.032,-62.500,-59.082,-17.578,-55.176,0.000
1727412987.036,1.465,-62.012,-7.324,-29.785,0.000
1727412987.040,10.254,-54.688,-3.906,-20.996,0.000
1727412987.044,-52.734,-43.945,2.930,-30.273,0.000
1727412987.048,-105.469,-51.758,8.789,-45.898,0.000
1727412987.052,-75.684,-49.316,18.066,-40.039,0.000
1727412987.056,-9.277,-41.504,26.367,-29.785,0.000
1727412987.060,9.277,-44.922,27.832,-28.809,0.000
1727412987.064,-41.992,-50.781,20.996,-37.598,0.000
1727412987.067,-86.426,-49.316,17.578,-50.293,0.000
1727412987.071,-39.062,-38.574,26.855,-37.109,0.000
1727412987.075,34.668,-35.156,26.855,-17.090,0.000
1727412987.079,31.250,-46.875,22.461,-16.113,0.000
1727412987.083,-38.086,-42.480,11.719,-32.227,0.000
1727412987.087,-88.867,-41.504,8.301,-52.246,0.000
1727412987.091,-62.500,-45.410,17.090,-40.039,0.000
1727412987.095,9.277,-40.039,10.254,-17.578,0.000
1727412987.099,33.203,-41.504,5.859,-14.160,0.000
1727412987.103,-10.742,-37.598,9.766,-17.090,0.000
1727412987.107,-59.570,-29.785,8.789,-15.625,0.000
1727412987.110,-43.457,-30.762,10.742,-9.277,0.000
1727412987.114,11.230,-36.133,11.230,-4.883,0.000
1727412987.118,30.762,-45.410,-4.883,-5.371,0.000
1727412987.122,-0.977,-28.809,-17.578,-12.695,0.000
1727412987.126,-41.992,-8.789,-12.207,-27.344,0.000
1727412987.130,-66.895,-6.836,-7.812,-23.438,0.000
1727412987.134,-22.949,-8.789,0.488,0.488,0.000
1727412987.138,23.926,-10.742,-1.465,-0.977,0.000
1727412987.142,-6.348,-29.297,-11.719,-2.930,0.000
1727412987.146,-63.965,-28.809,-15.137,-21.484,0.000
1727412987.149,-80.078,-17.090,-8.301,-31.738,0.000
1727412987.153,-26.367,-27.344,-3.418,-16.602,0.000
1727412987.157,30.273,-36.133,-16.602,-2.930,0.000
1727412987.161,0.000,-35.645,-28.320,-2.441,0.000
1727412987.165,-59.570,-35.645,-30.762,-21.973,0.000
1727412987.169,-64.941,-33.203,-20.508,-25.391,0.000
1727412987.173,-11.230,-24.414,-14.160,-12.695,0.000
1727412987.177,32.715,-32.227,-24.902,-9.277,0.000
1727412987.181,15.137,-41.992,-27.832,-6.348,0.000
1727412987.185,-53.223,-29.297,-27.344,-6.348,0.000
1727412987.189,-83.008,-30.762,-28.809,-20.996,0.000
1727412987.192,-22.949,-41.504,-24.414,-27.832,0.000
1727412987.196,17.090,-41.992,-33.691,-23.438,0.000
1727412987.200,-8.789,-29.297,-40.039,-19.043,0.000
1727412987.204,-39.551,-35.645,-37.109,-24.902,0.000
1727412987.208,-60.059,-36.133,-40.039,-37.598,0.000
1727412987.212,-37.598,-27.832,-41.992,-34.668,0.000
1727412987.216,27.344,-29.785,-39.551,-19.531,0.000
1727412987.220,31.738,-28.809,-45.410,-16.113,0.000
1727412987.224,-34.180,-43.457,-55.176,-23.926,0.000
1727412987.228,-67.871,-52.246,-59.082,-38.574,0.000
1727412987.232,-26.855,-51.758,-50.293,-30.762,0.000
1727412987.235,29.785,-40.527,-44.922,-22.949,0.000
1727412987.239,46.875,-31.250,-53.711,-14.160,0.000
1727412987.243,-16.113,-32.715,-53.223,-9.766,0.000
1727412987.247,-73.730,-19.043,-50.781,-22.461,0.000
1727412987.251,-34.180,-29.297,-47.852,-15.625,0.000
1727412987.255,25.391,-37.109,-43.945,-1.953,0.000
1727412987.259,30.762,-29.297,-43.457,0.977,0.000
1727412987.263,-25.879,-26.367,-51.270,-9.766,0.000
1727412987.267,-83.496,-39.062,-55.176,-27.832,0.000
1727412987.271,-55.664,-42.969,-52.246,-31.250,0.000
1727412987.275,20.020,-40.039,-45.898,-5.371,0.000
1727412987.278,37.109,-37.109,-42.969,-3.906,0.000
1727412987.282,-17.578,-41.016,-41.992,-21.484,0.000
1727412987.286,-70.312,-40.039,-53.223,-34.180,0.000
1727412987.290,-58.594,-39.551,-54.688,-34.668,0.000
1727412987.294,0.000,-43.945,-54.199,-17.578,0.000
1727412987.298,27.344,-54.688,-68.359,-19.043,0.000
1727412987.302,-18.555,-70.312,-72.266,-21.484,0.000
1727412987.306,-71.777,-61.035,-61.035,-24.902,0.000
1727412987.310,-59.082,-48.828,-50.781,-33.691,0.000
1727412987.314,-4.395,-48.828,-57.617,-26.367,0.000
1727412987.317,21.973,-51.270,-62.500,-16.113,0.000
1727412987.321,-13.672,-49.805,-62.500,-18.555,0.000
1727412987.325,-77.148,-49.316,-63.965,-27.344,0.000
1727412987.329,-77.148,-61.035,-52.246,-29.297,0.000
1727412987.333,-10.254,-69.824,-44.922,-12.207,0.000
1727412987.337,29.297,-61.523,-47.363,-0.977,0.000
1727412987.341,-3.418,-51.758,-52.734,-7.812,0.000
1727412987.345,-69.824,-61.035,-64.453,-21.973,0.000
1727412987.349,-83.984,-58.105,-66.406,-37.109,0.000
1727412987.353,-40.039,-49.805,-60.059,-34.180,0.000
1727412987.357,2.441,-52.246,-58.594,-18.066,0.000
1727412987.360,0.488,-49.805,-53.223,-13.184,0.000
1727412987.364,-41.504,-48.340,-50.293,-16.113,0.000
1727412987.368,-80.078,-51.758,-57.129,-29.785,0.000
1727412987.372,-46.875,-55.664,-60.059,-33.691,0.000
1727412987.376,14.648,-63.965,-58.594,-17.090,0.000
1727412987.380,14.648,-48.828,-65.430,-8.301,0.000
1727412987.384,-32.227,-40.527,-63.965,-13.184,0.000
1727412987.388,-58.105,-39.551,-54.199,-28.320,0.000
1727412987.392,-12.695,-33.691,-43.945,-21.973,0.000
1727412987.396,43.945,-29.785,-41.016,-9.766,0.000
1727412987.400,36.133,-26.855,-45.898,-14.648,0.000
1727412987.403,-23.926,-20.996,-51.758,-22.461,0.000
1727412987.407,-48.828,-22.461,-51.270,-29.297,0.000
1727412987.411,-8.789,-32.715,-47.363,-15.137,0.000
1727412987.415,33.203,-33.691,-57.617,-7.812,0.000
1727412987.419,25.391,-37.598,-59.570,-13.672,0.000
1727412987.423,-25.879,-38.574,-57.129,-12.207,0.000
1727412987.427,-64.941,-33.203,-57.129,-20.996,0.000
1727412987.431,-44.922,-36.133,-51.758,-27.832,0.000
1727412987.435,8.301,-38.574,-55.664,-23.926,0.000
1727412987.439,24.902,-45.898,-55.176,-14.160,0.000
1727412987.442,-19.531,-43.945,-49.316,-13.184,0.000
1727412987.446,-73.730,-45.410,-46.875,-24.902,0.000
1727412987.450,-55.176,-45.410,-44.434,-26.367,0.000
1727412987.454,7.812,-46.875,-42.480,-11.230,0.000
1727412987.458,27.832,-47.363,-48.340,-6.836,0.000
1727412987.462,-12.207,-44.922,-50.781,-15.137,0.000
1727412987.466,-80.566,-39.551,-53.223,-33.203,0.000
1727412987.470,-72.266,-31.250,-60.059,-29.785,0.000
1727412987.474,-16.602,-32.715,-56.152,-18.066,0.000
1727412987.478,13.672,-40.039,-51.270,-13.184,0.000
1727412987.482,-4.883,-41.016,-49.316,-14.648,0.000
1727412987.485,-57.617,-36.133,-47.852,-22.461,0.000
1727412987.489,-53.711,-34.668,-50.293,-17.090,0.000
1727412987.493,5.859,-33.691,-56.152,-14.160,0.000
1727412987.497,23.438,-43.457,-62.988,-17.090,0.000
1727412987.501,-10.742,-44.922,-56.641,-13.672,0.000
1727412987.505,-53.223,-35.645,-47.363,-21.484,0.000
1727412987.509,-61.523,-40.039,-51.270,-36.621,0.000
1727412987.513,0.488,-38.086,-54.688,-10.742,0.000
1727412987.517,45.410,-27.832,-52.734,17.090,0.000
1727412987.521,11.719,-13.672,-51.758,2.441,0.000
1727412987.525,-53.711,-16.113,-56.641,-20.020,0.000
1727412987.528,-55.176,-27.832,-45.410,-16.113,0.000
1727412987.532,16.602,-25.391,-34.668,0.488,0.000
1727412987.536,55.176,-16.602,-44.434,-6.836,0.000
1727412987.540,24.902,-21.973,-57.617,-21.484,0.000
1727412987.544,-46.875,-33.203,-63.477,-23.926,0.000
1727412987.548,-73.730,-29.297,-64.941,-25.879,0.000
1727412987.552,-18.555,-39.062,-53.223,-12.695,0.000
1727412987.556,34.668,-44.434,-49.316,0.977,0.000
1727412987.560,20.020,-36.621,-54.688,0.000,0.000
1727412987.564,-46.875,-32.715,-54.199,-15.625,0.000
1727412987.567,-77.148,-33.691,-49.805,-29.785,0.000
1727412987.571,-29.297,-39.062,-42.480,-17.578,0.000
1727412987.575,26.855,-47.852,-43.457,-5.859,0.000
1727412987.579,0.000,-47.852,-54.688,-16.602,0.000
1727412987.583,0.000,-41.992,-56.152,-20.996,0.000
1727412987.587,0.000,-46.387,-49.805,-25.391,0.000
1727412987.591,0.000,-46.387,-43.457,-29.785,0.000
1727412987.595,0.000,-39.062,-38.086,-10.742,0.000
1727412987.599,0.000,-40.039,-47.852,-9.766,0.000
1727412987.603,0.000,-57.129,-60.059,-27.344,0.000
1727412987.607,0.000,-72.754,-53.711,-31.738,0.000
1727412987.610,0.000,-59.570,-37.109,-33.691,0.000
1727412987.614,0.000,-48.828,-35.645,-15.137,0.000
1727412987.618,0.000,-53.223,-40.039,-5.371,0.000
1727412987.622,0.000,-62.988,-46.387,-17.578,0.000
1727412987.626,-91.309,-62.500,-46.387,-25.879,0.000
1727412987.630,-64.453,-56.641,-39.062,-29.785,0.000
1727412987.634,-25.391,-54.688,-50.293,-35.156,0.000
1727412987.638,-12.207,-62.012,-63.965,-38.086,0.000
1727412987.642,-46.387,-62.012,-64.941,-42.969,0.000
1727412987.646,-87.891,-56.641,-65.430,-48.340,0.000
1727412987.650,-71.289,-58.594,-62.500,-42.969,0.000
1727412987.653,-19.531,-60.059,-54.688,-31.738,0.000
1727412987.657,14.160,-50.781,-58.594,-30.762,0.000
1727412987.661,-21.973,-46.875,-67.871,-25.391,0.000
1727412987.665,-75.684,-47.852,-64.941,-29.785,0.000
1727412987.669,-54.199,-42.969,-54.199,-33.691,0.000
1727412987.673,9.766,-41.016,-48.340,-20.020,0.000
1727412987.677,41.504,-45.898,-55.176,-9.277,0.000
1727412987.681,11.719,-38.086,-56.641,-13.184,0.000
1727412987.685,-50.293,-40.527,-51.758,-20.508,0.000
1727412987.689,-55.176,-50.781,-47.363,-20.020,0.000
1727412987.692,4.883,-49.316,-44.434,-7.324,0.000
1727412987.696,30.273,-39.551,-46.387,-0.977,0.000
1727412987.700,-8.789,-34.668,-52.734,-26.367,0.000
1727412987.704,-65.918,-30.273,-60.059,-37.598,0.000
1727412987.708,-82.520,-18.555,-55.664,-39.062,0.000
1727412987.712,-17.578,-39.551,-54.688,-25.879,0.000
1727412987.716,28.809,-42.969,-71.289,-18.066,0.000
1727412987.720,8.301,-43.457,-74.707,-24.902,0.000
1727412987.724,-51.758,-57.617,-69.336,-25.391,0.000
1727412987.728,-72.754,-47.852,-67.871,-31.250,0.000
1727412987.732,-21.973,-47.852,-64.453,-27.832,0.000
1727412987.735,24.902,-54.688,-45.410,-10.254,0.000
1727412987.739,15.625,-60.547,-34.668,6.836,0.000
1727412987.743,-55.664,-59.570,-36.133,-9.277,0.000
1727412987.747,-90.820,-53.223,-36.621,-33.691,0.000
1727412987.751,-41.016,-61.523,-37.598,-31.738,0.000
1727412987.755,17.090,-68.359,-36.621,-8.789,0.000
1727412987.759,17.578,-55.664,-34.180,-1.953,0.000
1727412987.763,-30.762,-54.199,-34.668,-14.160,0.000
1727412987.767,-65.918,-63.965,0.000,-22.949,0.000
1727412987.771,-36.133,-70.801,0.000,-23.926,0.000
1727412987.775,17.090,-77.148,0.000,-15.625,0.000
1727412987.778,7.324,-69.336,0.000,-11.719,0.000
1727412987.782,-46.387,-68.848,0.000,-9.277,0.000
1727412987.786,-75.195,-78.125,0.000,-11.719,0.000
1727412987.790,-41.504,-59.570,0.000,-10.254,0.000
1727412987.794,9.766,-59.082,0.000,-9.766,0.000
1727412987.798,27.832,-69.824,0.000,-15.625,0.000
1727412987.802,-21.973,-68.359,0.000,-15.137,0.000
1727412987.806,-71.777,-67.383,0.000,-33.691,0.000
1727412987.810,-34.180,-62.500,0.000,-33.691,0.000
1727412987.814,20.020,-56.152,-48.828,-22.949,0.000
1727412987.818,17.578,-61.523,-61.523,-30.273,0.000
1727412987.821,-34.180,-60.059,-65.430,-33.203,0.000
1727412987.825,-75.195,-50.781,-64.453,-37.109,0.000
1727412987.829,-61.035,-53.223,-60.547,-36.133,0.000
1727412987.833,7.324,-65.918,-49.805,-23.926,0.000
1727412987.837,26.855,-62.500,-45.410,-15.625,0.000
1727412987.841,-15.137,-49.316,-43.945,-3.906,0.000
1727412987.845,-55.664,-45.410,-46.875,-5.859,0.000
1727412987.849,-49.805,-44.922,-31.250,-20.996,0.000
1727412987.853,6.836,-38.086,-13.184,-13.184,0.000
1727412987.857,40.039,-39.062,-16.113,-2.930,0.000
1727412987.860,0.000,-51.758,-31.738,-12.695,0.000
1727412987.864,0.000,-51.758,-38.086,-34.668,0.000
1727412987.868,0.000,-57.617,-32.715,-41.016,0.000
1727412987.872,0.000,-61.523,-28.809,-26.855,0.000
1727412987.876,0.000,-48.828,-24.414,-15.625,0.000
1727412987.880,0.000,-47.852,-20.020,-7.324,0.000
1727412987.884,0.000,-41.504,-27.344,-16.602,0.000
1727412987.888,0.000,-40.039,-30.273,-27.832,0.000
1727412987.892,0.000,-49.316,-24.414,-11.719,0.000
1727412987.896,0.000,-53.223,-26.367,-17.090,0.000
1727412987.900,0.000,-56.641,-36.133,-34.180,0.000
1727412987.903,0.000,-62.012,-38.574,-31.250,0.000
1727412987.907,-74.707,-57.129,-32.227,-41.016,0.000
1727412987.911,-32.227,-61.035,-30.273,-36.621,0.000
1727412987.915,4.395,-68.359,-38.086,-25.879,0.000
1727412987.919,-14.160,-63.477,-41.016,-26.855,0.000
1727412987.923,-77.637,-60.547,-41.504,-41.016,0.000
1727412987.927,-102.539,-62.500,-38.574,-46.387,0.000
1727412987.931,-49.805,-64.453,-37.109,-38.574,0.000
1727412987.935,-1.465,-68.848,-42.969,-27.344,0.000
1727412987.939,-17.090,-71.289,-48.828,-20.020,0.000
1727412987.942,-61.523,-69.336,-49.805,-26.855,0.000
1727412987.946,-92.773,-59.082,-49.805,-41.992,0.000
1727412987.950,-45.410,-63.477,-42.480,-31.738,0.000
1727412987.954,14.160,-59.082,-36.133,-15.137,0.000
1727412987.958,13.672,-50.781,-40.527,-16.113,0.000
1727412987.962,-23.438,-47.363,-45.410,-21.484,0.000
1727412987.966,-65.430,-45.898,-39.551,-20.996,0.000
1727412987.970,-35.645,-48.340,-39.551,-26.855,0.000
1727412987.974,12.695,-57.617,-43.945,-22.461,0.000
1727412987.978,13.184,-58.594,-42.969,-13.184,0.000
1727412987.982,-36.133,-52.246,-48.340,-18.555,0.000
1727412987.985,-84.961,-53.223,-48.828,-37.109,0.000
1727412987.989,-47.852,-59.570,-43.457,-38.574,0.000
1727412987.993,16.113,-60.547,-30.762,-21.484,0.000
1727412987.997,18.066,-50.781,-29.297,-10.742,0.000
1727412988.001,-25.391,-46.387,-34.180,-20.508,0.000
1727412988.005,-66.406,-54.199,-33.691,-25.879,0.000
1727412988.009,-48.828,-52.734,-30.273,-18.555,0.000
1727412988.013,2.441,-45.410,-31.738,-15.625,0.000
1727412988.017,21.484,-60.547,-34.668,-12.695,0.000
1727412988.021,-25.879,-64.941,-39.062,-24.414,0.000
1727412988.025,-84.473,-60.059,-40.527,-41.016,0.000
1727412988.028,-73.242,-64.453,-30.762,-36.133,0.000
1727412988.032,-17.090,-70.312,-29.785,-24.902,0.000
1727412988.036,11.230,-71.777,-41.992,-26.367,0.000
1727412988.040,-21.484,-80.078,-45.898,-20.508,0.000
1727412988.044,-83.008,-81.543,-45.898,-35.156,0.000
1727412988.048,-70.801,-70.801,-47.852,-46.875,0.000
1727412988.052,-3.418,-71.289,-43.457,-26.367,0.000
1727412988.056,22.949,-63.477,-34.668,-19.043,0.000
1727412988.060,-4.883,-61.523,-30.762,-15.625,0.000
1727412988.064,-65.918,-64.941,-34.180,-32.715,0.000
1727412988.068,-83.984,-51.758,-41.504,-45.898,0.000
1727412988.071,-32.227,-60.059,-39.551,-24.414,0.000
1727412988.075,4.395,-66.406,-35.645,-24.414,0.000
1727412988.079,-26.855,-71.289,-38.574,-28.320,0.000
1727412988.083,-82.031,-74.219,-38.574,-24.902,0.000
1727412988.087,-88.379,-53.711,-34.668,-31.738,0.000
1727412988.091,-43.945,-36.133,-42.969,-45.410,0.000
1727412988.095,4.395,-45.410,-47.363,-32.227,0.000
1727412988.099,-4.395,-54.199,-44.922,-29.785,0.000
1727412988.103,-64.453,-58.105,-43.457,-51.758,0.000
1727412988.107,-90.820,-49.805,-41.016,-51.758,0.000
1727412988.110,-33.691,-39.551,-34.668,-34.180,0.000
1727412988.114,22.461,-37.598,-37.109,-13.184,0.000
1727412988.118,-4.395,-40.527,-43.945,-10.254,0.000
1727412988.122,-64.453,-44.922,-44.922,-33.691,0.000
1727412988.126,-88.379,-42.969,-40.527,-36.621,0.000
1727412988.130,-43.457,-42.969,-26.855,-20.020,0.000
1727412988.134,4.883,-42.969,-28.809,-22.949,0.000
1727412988.138,4.883,-33.691,-36.621,-28.809,0.000
1727412988.142,0.000,-30.273,-38.086,-24.414,0.000
1727412988.146,0.000,-40.039,-43.945,-39.551,0.000
1727412988.150,0.000,-47.852,-39.062,-31.250,0.000
1727412988.153,0.000,-49.805,-30.762,-8.789,0.000
1727412988.157,0.000,-41.504,-36.133,-9.277,0.000
1727412988.161,0.000,-33.203,-35.156,-11.719,0.000
1727412988.165,0.000,-32.715,-27.344,-21.973,0.000
1727412988.169,0.000,-42.480,-25.879,-35.645,0.000
1727412988.173,0.000,-53.223,-29.785,-23.926,0.000
1727412988.177,0.000,-50.781,-33.203,-12.207,0.000
1727412988.181,0.000,-41.016,-30.762,-27.832,0.000
1727412988.185,0.000,-34.180,-34.180,-49.805,0.000
1727412988.189,-72.266,-45.898,-33.203,-48.828,0.000
1727412988.193,-14.160,-49.805,-28.320,-29.297,0.000
1727412988.196,10.742,-44.434,-26.855,-15.625,0.000
1727412988.200,-43.457,-51.758,-38.086,-20.508,0.000
1727412988.204,-91.797,-54.199,-47.363,-36.133,0.000
1727412988.208,-76.660,-66.895,-41.504,-47.363,0.000
1727412988.212,-22.461,-69.824,-38.086,-34.668,0.000
1727412988.216,8.301,-50.781,-42.969,-21.484,0.000
1727412988.220,-26.367,-42.480,-47.363,-26.367,0.000
1727412988.224,-91.309,-40.039,-48.340,-43.457,0.000
1727412988.228,-85.449,-46.875,-44.434,-51.758,0.000
1727412988.232,-26.367,-48.340,-41.016,-36.621,0.000
1727412988.235,2.930,-41.992,-49.316,-35.156,0.000
1727412988.239,-30.762,-38.086,-53.711,-42.480,0.000
1727412988.243,-81.543,-40.039,-45.898,-36.133,0.000
1727412988.247,-72.266,-33.691,-41.992,-32.715,0.000
1727412988.251,-14.160,-34.668,-43.457,-25.879,0.000
1727412988.255,26.367,-34.668,-44.434,-14.648,0.000
1727412988.259,2.930,-32.227,-44.434,-18.066,0.000
1727412988.263,-63.477,-37.109,-51.270,-32.715,0.000
1727412988.267,-65.918,-38.086,-45.898,-34.180,0.000
1727412988.271,-20.020,-38.086,-33.691,-30.762,0.000
1727412988.275,14.160,-31.738,-33.203,-21.484,0.000
1727412988.278,4.883,-31.738,-38.086,-13.672,0.000
1727412988.282,0.000,-35.156,-37.598,-15.625,0.000
1727412988.286,0.000,-26.367,-33.203,-20.996,0.000
1727412988.290,0.000,-21.973,-33.203,-17.578,0.000
1727412988.294,0.000,-20.996,-28.320,-4.395,0.000
1727412988.298,0.000,-20.020,-28.809,-2.441,0.000
1727412988.302,0.000,-22.461,-32.227,-10.742,0.000
1727412988.306,0.000,-31.738,-30.273,-19.043,0.000
1727412988.310,0.000,-35.156,-24.414,-15.625,0.000
1727412988.314,0.000,-28.809,-19.531,-1.953,0.000
1727412988.318,0.000,-30.762,-31.738,-13.672,0.000
1727412988.321,0.000,-50.781,-39.062,-28.809,0.000
1727412988.325,0.000,-58.594,-32.227,-36.621,0.000
1727412988.329,-50.293,-55.176,-29.297,-36.621,0.000
1727412988.333,7.324,-52.734,-33.203,-30.273,0.000
1727412988.337,-0.977,-57.617,-40.527,-32.715,0.000
1727412988.341,-51.270,-65.918,-41.992,-39.062,0.000
1727412988.345,-84.961,-41.504,-37.598,-43.457,0.000
1727412988.349,-51.758,-40.527,-31.738,-38.574,0.000
1727412988.353,12.695,-47.852,-27.832,-28.809,0.000
1727412988.357,19.531,-48.340,-33.203,-17.578,0.000
1727412988.360,-51.270,-51.758,-42.969,-34.668,0.000
1727412988.364,-95.215,-57.129,-42.480,-54.688,0.000
1727412988.368,-60.059,-47.363,-38.574,-50.293,0.000
1727412988.372,-9.766,-37.598,-38.086,-34.668,0.000
1727412988.376,1.465,-39.551,-42.480,-23.926,0.000
1727412988.380,-41.504,-39.062,-49.316,-28.320,0.000
1727412988.384,-88.867,-37.598,-51.270,-41.016,0.000
1727412988.388,-73.730,-35.156,-40.039,-38.086,0.000
1727412988.392,-13.672,-36.133,-37.109,-29.297,0.000
1727412988.396,18.066,-47.363,-39.062,-27.344,0.000
1727412988.400,-21.973,-50.293,-36.133,-15.625,0.000
1727412988.403,-84.473,-41.016,-35.156,-27.344,0.000
1727412988.407,-69.824,-36.621,-26.367,-37.598,0.000
1727412988.411,-6.836,-41.504,-31.738,-25.391,0.000
1727412988.415,16.602,-53.223,-39.551,-21.973,0.000
1727412988.419,-23.438,-52.734,-37.109,-31.738,0.000
1727412988.423,-76.172,-53.711,-37.598,-44.434,0.000
1727412988.427,-69.336,-51.758,-29.785,-36.621,0.000
1727412988.431,-10.254,-45.898,-23.438,-18.555,0.000
1727412988.435,22.949,-41.016,-27.344,-19.531,0.000
1727412988.439,-12.207,-28.320,-35.156,-19.043,0.000
1727412988.443,-77.148,-31.738,-39.062,-24.414,0.000
1727412988.446,-78.613,-41.504,-32.227,-27.344,0.000
1727412988.450,-23.438,-39.062,-31.250,-27.344,0.000
1727412988.454,13.672,-41.992,-37.109,-23.438,0.000
1727412988.458,-5.371,-53.223,-33.691,-13.184,0.000
1727412988.462,-60.059,-51.270,-34.180,-26.855,0.000
1727412988.466,-78.613,-49.316,-31.250,-44.922,0.000
1727412988.470,-41.504,-50.781,-24.414,-34.180,0.000
1727412988.474,-0.977,-52.246,-31.250,-20.508,0.000
1727412988.478,-7.324,-51.270,-35.156,-13.184,0.000
1727412988.482,-68.359,-45.898,-31.738,-31.738,0.000
1727412988.485,-99.121,-61.035,-20.508,-48.828,0.000
1727412988.489,-50.293,-62.988,-19.043,-40.039,0.000
1727412988.493,-2.930,-60.059,-27.832,-26.855,0.000
1727412988.497,-4.883,-62.500,-35.156,-26.855,0.000
1727412988.501,-60.547,-59.082,-41.016,-40.039,0.000
1727412988.505,-95.703,-65.430,-41.504,-51.270,0.000
1727412988.509,-64.453,-53.711,-42.969,-55.664,0.000
1727412988.513,-8.789,-33.203,-35.645,-32.227,0.000
1727412988.517,0.000,-36.133,-34.668,-11.230,0.000
1727412988.521,0.000,-38.574,-42.969,-32.715,0.000
1727412988.525,0.000,-39.062,-39.062,-51.758,0.000
1727412988.528,0.000,-46.875,-26.855,-40.527,0.000
1727412988.532,0.000,-41.016,-25.879,-24.414,0.000
1727412988.536,0.000,-37.109,-34.668,-23.438,0.000
1727412988.540,0.000,-42.480,-36.133,-34.668,0.000
1727412988.544,0.000,-44.434,-37.109,-62.012,0.000
1727412988.548,0.000,-44.922,-33.691,-62.500,0.000
1727412988.552,0.000,-41.992,-33.203,-27.832,0.000
1727412988.556,0.000,-36.621,-41.016,-32.227,0.000
1727412988.560,0.000,-41.504,-41.992,-41.016,0.000
1727412988.564,-63.477,-46.387,-37.109,-41.016,0.000
1727412988.568,-48.828,-33.691,-26.367,-40.527,0.000
1727412988.571,8.301,-22.949,-27.832,-31.738,0.000
1727412988.575,21.484,-27.344,-41.992,-33.691,0.000
1727412988.579,-21.973,-34.180,-42.480,-29.785,0.000
1727412988.583,-68.359,-29.785,-32.227,-32.227,0.000
1727412988.587,-61.035,-22.949,-32.715,-42.969,0.000
1727412988.591,8.301,-5.859,-23.438,-28.320,0.000
1727412988.595,52.734,5.859,-7.324,0.000,0.000
1727412988.599,11.230,0.977,-0.488,3.418,0.000
1727412988.603,-54.199,-2.930,-1.953,-17.090,0.000
1727412988.607,-41.504,0.488,-3.418,-23.438,0.000
1727412988.610,16.602,-5.371,-7.324,-12.207,0.000
1727412988.614,47.363,-22.949,-23.926,-10.742,0.000
1727412988.618,2.930,-28.809,-29.785,-17.578,0.000
1727412988.622,-67.383,-32.715,-25.879,-30.762,0.000
1727412988.626,-71.289,-35.156,-25.879,-43.457,0.000
1727412988.630,-11.719,-29.297,-28.809,-29.785,0.000
1727412988.634,20.996,-30.762,-37.598,-26.855,0.000
1727412988.638,-7.812,-32.227,-41.016,-38.574,0.000
1727412988.642,-51.758,-32.227,-39.062,-39.062,0.000
1727412988.646,-81.543,-30.273,-33.691,-45.898,0.000
1727412988.650,-31.250,-26.855,-27.832,-33.691,0.000
1727412988.653,24.414,-33.691,-28.320,-18.555,0.000
1727412988.657,-5.859,-27.832,0.000,-24.414,0.000
1727412988.661,-63.965,-34.668,0.000,-34.180,0.000
1727412988.665,-83.008,-42.969,0.000,-42.969,0.000
1727412988.669,-29.297,-41.992,0.000,-33.691,0.000
1727412988.673,24.414,-31.250,0.000,-18.066,0.000
1727412988.677,0.977,-23.438,0.000,-15.137,0.000
1727412988.681,-58.105,-23.926,0.000,-24.414,0.000
1727412988.685,-77.148,-31.738,0.000,-29.297,0.000
1727412988.689,-40.527,-40.527,0.000,-24.902,0.000
1727412988.693,10.254,-34.180,0.000,-26.367,0.000
1727412988.696,8.789,-38.086,0.000,-22.461,0.000
1727412988.700,-38.574,-48.828,0.000,-15.625,0.000
1727412988.704,-60.547,-42.480,-23.926,-19.043,0.000
1727412988.708,-30.273,-47.852,-20.020,-3.418,0.000
1727412988.712,10.742,-53.223,-22.949,6.836,0.000
1727412988.716,17.090,-34.668,-28.809,4.395,0.000
1727412988.720,-29.297,-23.926,-32.227,-4.395,0.000
1727412988.724,-71.777,-19.531,-29.297,-16.602,0.000
1727412988.728,-43.457,-17.090,-25.879,-10.742,0.000
1727412988.732,19.531,-30.762,-25.391,10.742,0.000
1727412988.735,28.320,-28.320,-22.949,4.883,0.000
1727412988.739,-18.066,-31.250,-29.297,-7.812,0.000
1727412988.743,-73.242,-45.410,-28.809,-17.578,0.000
1727412988.747,-59.082,-46.387,-21.484,-37.109,0.000
1727412988.751,4.395,-52.734,-19.531,-26.367,0.000
1727412988.755,23.926,-58.105,-26.367,-18.066,0.000
1727412988.759,-27.832,-56.641,-37.109,-28.320,0.000
1727412988.763,-83.984,-54.199,-38.574,-40.527,0.000
1727412988.767,-74.707,-62.012,-34.180,-50.781,0.000
1727412988.771,-16.602,-65.918,-35.156,-45.898,0.000
1727412988.775,15.137,-64.453,-44.434,-37.109,0.000
1727412988.778,-35.156,-65.430,-55.176,-44.434,0.000
1727412988.782,-91.797,-77.637,-54.688,-67.383,0.000
1727412988.786,-87.891,-82.031,-47.852,-65.918,0.000
1727412988.790,-28.809,-69.824,-47.852,-46.875,0.000
1727412988.794,8.789,-65.918,-54.688,-39.551,0.000
1727412988.798,-28.320,-69.824,-66.895,-43.457,0.000
1727412988.802,-88.379,-67.383,-67.871,-57.129,0.000
1727412988.806,-89.355,-60.547,-60.547,-60.547,0.000
1727412988.810,-34.180,-62.500,-56.152,-59.082,0.000
1727412988.814,3.906,-52.246,-50.781,-53.223,0.000
1727412988.818,-7.812,-52.246,-49.805,-35.156,0.000
1727412988.821,-69.824,-67.871,-53.223,-45.410,0.000
1727412988.825,-89.355,-55.664,-50.781,-75.684,0.000
1727412988.829,-20.508,-36.621,-45.898,-53.223,0.000
1727412988.833,18.555,-39.062,-41.992,-33.691,0.000
1727412988.837,-17.090,-43.457,-41.504,-41.016,0.000
1727412988.841,-69.824,-42.480,-39.551,-46.875,0.000
1727412988.845,-80.566,-42.480,-31.250,-42.969,0.000
1727412988.849,-30.273,-41.016,-24.414,-31.250,0.000
1727412988.853,21.973,-36.621,-25.391,-23.926,0.000
1727412988.857,16.113,-36.133,-37.598,-20.996,0.000
1727412988.860,-41.992,-30.762,-43.457,-19.531,0.000
1727412988.864,-71.777,-33.203,-36.621,-30.273,0.000
1727412988.868,-36.621,-34.668,-24.414,-27.832,0.000
1727412988.872,17.578,-29.785,-20.508,-17.578,0.000
1727412988.876,16.602,-37.598,-29.785,-10.254,0.000
1727412988.880,-53.711,-48.340,-48.828,-20.020,0.000
1727412988.884,-105.957,-40.527,-51.758,-42.480,0.000
1727412988.888,-55.176,-46.387,-37.598,-39.551,0.000
1727412988.892,15.625,-50.781,-37.598,-28.320,0.000
1727412988.896,8.301,-48.340,-46.875,-20.508,0.000
1727412988.900,-45.898,-50.781,-48.828,-37.109,0.000
1727412988.903,-81.543,-39.551,-45.898,-56.152,0.000
1727412988.907,-54.199,-39.062,-38.086,-47.852,0.000
1727412988.911,-5.371,-58.594,-43.457,-32.227,0.000
1727412988.915,-12.207,-57.617,-59.570,-32.227,0.000
1727412988.919,-54.688,-34.668,-62.012,-39.551,0.000
1727412988.923,-89.844,-40.527,-51.758,-46.387,0.000
1727412988.927,-82.031,-50.781,-49.805,-48.828,0.000
1727412988.931,-30.762,-38.574,-49.805,-46.387,0.000
1727412988.935,-13.672,-39.551,-48.828,-41.992,0.000
1727412988.939,-52.734,-39.551,-52.734,-42.480,0.000
1727412988.943,-90.820,-39.551,-49.805,-51.270,0.000
1727412988.946,-71.289,-41.016,-44.434,-55.176,0.000
1727412988.950,-13.184,-32.227,-44.922,-39.062,0.000
1727412988.954,-0.977,-30.273,-52.246,-28.320,0.000
1727412988.958,-55.176,-39.062,-58.105,-44.922,0.000
1727412988.962,-95.703,-47.852,-57.617,-62.012,0.000
1727412988.966,-85.938,-39.062,-50.293,-63.477,0.000
1727412988.970,-31.250,-42.969,-46.875,-44.922,0.000
1727412988.974,1.465,-38.574,-57.129,-41.504,0.000
1727412988.978,-28.809,-27.832,-61.523,-46.875,0.000
1727412988.982,-80.078,-24.902,-56.152,-45.410,0.000
1727412988.986,-93.262,-30.273,-53.223,-48.828,0.000
1727412988.989,-27.344,-36.621,-51.270,-47.363,0.000
1727412988.993,20.020,-23.926,-53.711,-32.227,0.000
1727412988.997,-24.414,-23.926,-58.105,-30.762,0.000
1727412989.001,-86.426,-36.133,-56.641,-50.293,0.000
1727412989.005,-88.867,-44.434,-49.316,-55.176,0.000
1727412989.009,-23.438,-38.086,-41.992,-49.316,0.000
1727412989.013,10.254,-33.691,-48.828,-42.480,0.000
1727412989.017,-16.113,-43.945,-56.152,-37.598,0.000
1727412989.021,-81.543,-46.875,-58.105,-54.199,0.000
1727412989.025,-95.703,-47.363,-53.223,-58.105,0.000
1727412989.028,-34.668,-60.059,-44.922,-42.969,0.000
1727412989.032,9.277,-57.617,-39.551,-35.156,0.000
1727412989.036,-5.859,-44.434,-38.086,-30.273,0.000
1727412989.040,-68.359,-50.781,-48.340,-34.180,0.000
1727412989.044,-105.469,-62.500,-53.223,-56.641,0.000
1727412989.048,-63.477,-56.641,-52.246,-62.988,0.000
1727412989.052,-6.348,-56.641,-46.387,-50.293,0.000
1727412989.056,-14.648,-55.664,-39.062,-43.457,0.000
1727412989.060,-65.430,-59.082,-36.621,-49.805,0.000
1727412989.064,-103.027,-60.059,-35.156,-65.430,0.000
1727412989.068,-79.590,-53.711,-31.250,-55.176,0.000
1727412989.071,-13.184,-54.199,-32.715,-28.809,0.000
1727412989.075,-12.695,-56.152,-36.133,-29.785,0.000
1727412989.079,-76.660,-57.129,-38.574,-41.992,0.000
1727412989.083,-114.746,-53.711,-41.992,-56.641,0.000
1727412989.087,-70.801,-44.434,-35.156,-53.711,0.000
1727412989.091,-6.348,-41.504,-32.715,-37.109,0.000
1727412989.095,-2.930,-41.016,-37.109,-27.344,0.000
1727412989.099,-54.688,-39.551,-40.039,-31.250,0.000
1727412989.103,-97.168,-42.480,-41.992,-47.363,0.000
1727412989.107,-73.242,-55.176,-33.203,-38.574,0.000
1727412989.110,-23.438,-55.664,-35.645,-30.762,0.000
1727412989.114,5.859,-41.504,-41.992,-34.668,0.000
1727412989.118,-40.039,-41.992,-48.340,-41.504,0.000
1727412989.122,-105.957,-38.086,-48.340,-53.711,0.000
1727412989.126,-97.168,-40.527,-38.086,-57.129,0.000
1727412989.130,-27.344,-43.457,-34.668,-40.527,0.000
1727412989.134,14.160,-36.621,-40.527,-29.297,0.000
1727412989.138,-35.645,-39.551,-48.828,-37.109,0.000
1727412989.142,-102.051,-38.574,-46.387,-53.711,0.000
1727412989.146,-84.961,-34.180,-38.574,-54.688,0.000
1727412989.150,-12.207,-35.645,-34.668,-34.180,0.000
1727412989.153,5.371,-41.992,-42.969,-31.250,0.000
1727412989.157,-48.828,-41.016,-53.711,-44.922,0.000
1727412989.161,-97.168,-38.574,-55.664,-58.105,0.000
1727412989.165,-85.449,-40.527,-41.016,-55.176,0.000
1727412989.169,-32.227,-38.574,-30.273,-45.410,0.000
1727412989.173,9.766,-43.945,-36.133,-30.762,0.000
1727412989.177,-5.859,-50.781,-47.852,-31.250,0.000
1727412989.181,-70.801,-47.852,-47.363,-50.293,0.000
1727412989.185,-97.168,-42.969,-43.457,-59.570,0.000
1727412989.189,-36.133,-41.504,-38.574,-46.387,0.000
1727412989.193,9.277,-39.551,-37.109,-35.156,0.000
1727412989.196,-20.020,-45.898,-41.992,-24.902,0.000
1727412989.200,-81.543,-42.969,-36.133,-40.039,0.000
1727412989.204,-87.891,-34.180,-27.832,-51.270,0.000
1727412989.208,-24.414,-32.715,-30.273,-32.227,0.000
1727412989.212,5.371,-31.250,-37.598,-26.855,0.000
1727412989.216,-19.043,-38.574,-37.109,-24.902,0.000
1727412989.220,-68.848,-40.527,-40.039,-35.645,0.000
1727412989.224,-92.773,-40.039,-43.457,-45.410,0.000
1727412989.228,-57.617,-38.574,-42.480,-40.039,0.000
1727412989.232,-3.906,-42.480,-39.551,-37.109,0.000
1727412989.236,-16.113,-45.898,-40.527,-40.527,0.000
1727412989.239,-83.496,-49.316,-42.480,-48.340,0.000
1727412989.243,-115.723,-46.387,-41.504,-55.176,0.000
1727412989.247,-77.148,-48.828,-40.039,-50.781,0.000
1727412989.251,-16.602,-70.312,-52.246,-47.363,0.000
1727412989.255,-29.297,-89.355,-72.754,-60.059,0.000
1727412989.259,-98.633,-96.191,-76.660,-77.637,0.000
1727412989.263,-138.184,-80.078,-77.148,-90.332,0.000
1727412989.267,-96.191,-77.637,-74.219,-82.031,0.000
1727412989.271,-38.086,-93.750,-73.730,-65.430,0.000
1727412989.275,-31.738,-100.098,-79.102,-61.523,0.000
1727412989.278,-77.148,-85.938,-78.613,-63.965,0.000
1727412989.282,-134.766,-79.102,-85.449,-83.496,0.000
1727412989.286,-105.469,-84.473,-83.984,-81.543,0.000
1727412989.290,-47.363,-80.566,-76.172,-76.660,0.000
1727412989.294,-44.922,-85.938,-79.590,-74.219,0.000
1727412989.298,-85.449,-82.520,-84.961,-76.172,0.000
1727412989.302,-123.047,-70.312,-76.172,-79.102,0.000
1727412989.306,-100.586,-71.289,-65.430,-79.590,0.000
1727412989.310,-39.062,-60.547,-62.012,-75.195,0.000
1727412989.314,-10.254,-76.172,-59.570,-55.664,0.000
1727412989.318,-57.129,-87.402,-65.918,-52.734,0.000
1727412989.321,-115.723,-75.195,-67.871,-66.406,0.000
1727412989.325,-93.750,-64.453,-58.105,-69.824,0.000
1727412989.329,-22.461,-66.895,-51.758,-53.711,0.000
1727412989.333,4.883,-66.406,-54.199,-38.086,0.000
1727412989.337,-29.297,-58.594,-53.223,-41.992,0.000
1727412989.341,-72.754,-53.223,-49.316,-56.152,0.000
1727412989.345,-75.195,-55.664,-45.410,-52.246,0.000
1727412989.349,-25.391,-60.547,-41.016,-34.668,0.000
1727412989.353,1.465,-62.012,-46.875,-37.109,0.000
1727412989.357,-35.645,-66.406,-51.758,-42.480,0.000
1727412989.361,-92.285,-66.406,0.000,-51.758,0.000
1727412989.364,-102.051,-62.988,0.000,-69.336,0.000
1727412989.368,-48.340,-66.895,0.000,-70.312,0.000
1727412989.372,3.418,-94.727,0.000,-57.129,0.000
1727412989.376,-31.738,-109.375,0.000,-54.199,0.000
1727412989.380,-87.402,-102.051,0.000,-50.781,0.000
1727412989.384,-93.750,-97.168,0.000,-57.617,0.000
1727412989.388,-43.945,-100.586,0.000,-54.688,0.000
1727412989.392,7.324,-107.910,0.000,-32.715,0.000
1727412989.396,-23.926,-106.445,0.000,-39.062,0.000
1727412989.400,-87.891,-113.281,0.000,-59.082,0.000
1727412989.403,-121.094,-118.652,0.000,-62.500,0.000
1727412989.407,0.000,-103.516,-55.176,-52.246,0.000
1727412989.411,0.000,-103.516,-57.617,-46.387,0.000
1727412989.415,0.000,-106.934,-63.965,-53.223,0.000
1727412989.419,0.000,-106.445,-65.430,-62.012,0.000
1727412989.423,0.000,-119.629,-57.129,-66.895,0.000
1727412989.427,0.000,-106.445,-49.805,-57.617,0.000
1727412989.431,0.000,-97.168,-47.852,-45.898,0.000
1727412989.435,0.000,-111.816,-59.082,-44.434,0.000
1727412989.439,0.000,-115.234,-67.871,-55.664,0.000
1727412989.443,0.000,-106.445,-55.176,-70.312,0.000
1727412989.446,0.000,-92.285,-42.969,-51.758,0.000
1727412989.450,0.000,-87.891,-43.457,-35.645,0.000
1727412989.454,-5.371,-90.820,-48.828,-36.133,0.000
1727412989.458,-65.918,-82.031,-54.688,-40.527,0.000
1727412989.462,-100.586,-89.355,-57.129,-48.828,0.000
1727412989.466,-44.922,-86.426,-47.363,-40.039,0.000
1727412989.470,7.324,-76.172,-46.875,-33.203,0.000
1727412989.474,-8.301,-80.078,-53.711,-29.297,0.000
1727412989.478,-47.363,-62.012,-47.363,-20.508,0.000
1727412989.482,-74.707,-47.852,-46.875,-16.602,0.000
1727412989.486,-73.730,-49.316,-52.734,-41.992,0.000
1727412989.489,-15.137,-57.129,-47.363,-40.527,0.000
1727412989.493,15.625,-59.082,-44.434,-16.113,0.000
1727412989.497,-37.598,-50.781,-53.223,-24.902,0.000
1727412989.501,-95.703,-47.852,-58.105,-44.922,0.000
1727412989.505,-83.008,-47.852,-51.758,-38.574,0.000
1727412989.509,-14.648,-44.922,-48.828,-22.461,0.000
1727412989.513,3.418,-44.922,-48.828,-21.973,0.000
1727412989.517,-38.574,-42.480,-51.758,-24.902,0.000
1727412989.521,-80.078,-40.039,-51.758,-29.297,0.000
1727412989.525,-65.430,-55.176,-43.945,-28.809,0.000
1727412989.528,-14.648,-57.129,-39.062,-20.996,0.000
1727412989.532,-15.137,-48.828,-49.805,-33.691,0.000
1727412989.536,-40.527,-39.551,-60.547,-36.621,0.000
1727412989.540,-83.008,-35.156,-51.758,-40.039,0.000
1727412989.544,-88.867,-39.551,-40.039,-51.270,0.000
1727412989.548,-28.809,-42.969,-39.551,-42.480,0.000
1727412989.552,7.324,-40.527,-40.039,-29.297,0.000
1727412989.556,-31.250,-33.691,-46.387,-37.598,0.000
1727412989.560,-93.262,-39.551,-57.129,-51.758,0.000
1727412989.564,-90.820,-48.828,-58.594,-58.105,0.000
1727412989.568,-40.039,-48.340,-61.035,-54.688,0.000
1727412989.571,-1.953,-42.969,-61.523,-50.293,0.000
1727412989.575,-8.789,-47.363,-64.941,-54.199,0.000
1727412989.579,-73.730,-48.828,-65.918,-63.965,0.000
1727412989.583,-102.539,-34.180,-64.941,-68.848,0.000
1727412989.587,-41.504,-26.367,-56.152,-53.711,0.000
1727412989.591,-2.441,-31.738,-56.641,-44.434,0.000
1727412989.595,-27.832,-37.598,-68.359,-51.758,0.000
1727412989.599,-78.613,-32.715,-71.777,-59.082,0.000
1727412989.603,-100.586,-27.832,-66.895,-58.105,0.000
1727412989.607,-45.410,-36.133,-64.941,-48.340,0.000
1727412989.611,16.113,-32.227,-65.430,-29.785,0.000
1727412989.614,16.113,-19.531,-64.453,-20.020,0.000
1727412989.618,-43.457,-13.184,-60.059,-19.043,0.000
1727412989.622,-83.984,-17.090,-48.340,-28.320,0.000
1727412989.626,-39.551,-26.367,-46.387,-32.227,0.000
1727412989.630,32.227,-28.809,-54.199,-23.438,0.000
1727412989.634,4.395,-31.738,-57.129,-22.461,0.000
1727412989.638,-65.918,-35.645,-53.223,-32.715,0.000
1727412989.642,-94.727,-24.902,-44.922,-41.016,0.000
1727412989.646,-56.641,-18.555,-35.156,-25.879,0.000
1727412989.650,0.488,-20.508,-27.832,-0.977,0.000
1727412989.653,4.883,-23.438,-36.133,-5.371,0.000
1727412989.657,-46.875,-30.762,-47.363,-26.855,0.000
1727412989.661,-96.680,-28.809,-42.969,-38.574,0.000
1727412989.665,-70.312,-25.391,-42.480,-45.410,0.000
1727412989.669,-14.160,-28.809,-49.316,-41.992,0.000
1727412989.673,4.395,-35.156,-55.664,-31.250,0.000
1727412989.677,-23.438,-37.598,-53.711,-23.438,0.000
1727412989.681,-85.938,-33.691,-54.199,-41.992,0.000
1727412989.685,-74.707,-34.668,-49.316,-40.527,0.000
1727412989.689,-1.953,-40.527,-39.551,-26.367,0.000
1727412989.693,4.883,-30.273,-37.598,-26.367,0.000
1727412989.696,-41.016,-30.762,-36.621,-23.926,0.000
1727412989.700,-87.402,-35.156,-34.668,-31.250,0.000
1727412989.704,-80.566,-33.203,-35.645,-38.574,0.000
1727412989.708,-25.879,-40.527,-40.039,-35.645,0.000
1727412989.712,0.977,-42.480,-41.504,-27.344,0.000
1727412989.716,-30.273,-37.109,-44.922,-19.531,0.000
1727412989.720,-78.125,-32.227,-49.316,-25.391,0.000
1727412989.724,-82.031,-29.297,-51.270,-36.133,0.000
1727412989.728,-19.531,-27.832,-47.363,-34.180,0.000
1727412989.732,14.160,-25.879,-46.387,-19.531,0.000
1727412989.736,-17.090,-23.926,-50.781,-9.277,0.000
1727412989.739,-72.266,-13.184,-55.176,-20.996,0.000
1727412989.743,-71.289,-21.973,-50.293,-31.738,0.000
1727412989.747,-4.883,-40.527,-46.875,-20.996,0.000
1727412989.751,16.113,-39.551,-51.270,-16.602,0.000
1727412989.755,-13.672,-27.344,-49.316,-18.555,0.000
1727412989.759,-65.918,-19.043,-44.434,-29.785,0.000
1727412989.763,-80.566,-23.438,-35.645,-38.574,0.000
1727412989.767,-21.484,-21.484,-27.832,-24.902,0.000
1727412989.771,19.531,-12.207,-32.715,-22.949,0.000
1727412989.775,-2.930,-17.090,-40.527,-30.273,0.000
1727412989.778,-64.453,-24.414,-43.945,-34.668,0.000
1727412989.782,-79.102,-19.043,-33.691,-40.527,0.000
1727412989.786,-25.391,-17.578,-25.391,-37.109,0.000
1727412989.790,12.207,-23.438,-30.762,-33.691,0.000
1727412989.794,1.465,-32.715,-29.785,-25.391,0.000
1727412989.798,-53.711,-22.461,-34.668,-20.996,0.000
1727412989.802,-88.379,-20.508,-35.156,-34.180,0.000
1727412989.806,-49.805,-34.668,-29.785,-41.992,0.000
1727412989.810,13.672,-40.527,-27.832,-24.414,0.000
1727412989.814,4.883,-36.133,-36.621,-24.902,0.000
1727412989.818,-68.848,-35.645,-41.016,-44.434,0.000
1727412989.821,-104.004,-38.086,-40.039,-61.035,0.000
1727412989.825,-75.195,-45.410,-50.293,-58.105,0.000
1727412989.829,-14.648,-56.152,-46.387,-40.039,0.000
1727412989.833,-10.254,-59.082,-46.387,-41.016,0.000
1727412989.837,-53.711,-59.082,-48.340,-37.109,0.000
1727412989.841,-87.402,-50.293,-44.434,-38.574,0.000
1727412989.845,-60.059,-41.504,-37.109,-43.457,0.000
1727412989.849,-0.488,-52.246,-42.969,-34.180,0.000
1727412989.853,4.395,-47.852,-52.734,-26.367,0.000
1727412989.857,-46.387,-54.199,-55.664,-29.297,0.000
1727412989.861,-98.145,-64.941,-58.105,-59.570,0.000
1727412989.864,-83.984,-58.105,-56.152,-66.895,0.000
1727412989.868,-13.184,-61.523,-60.059,-53.223,0.000
1727412989.872,-6.348,-58.105,-67.871,-53.223,0.000
1727412989.876,-51.270,-51.270,-65.430,-51.270,0.000
1727412989.880,-77.148,-39.062,-53.223,-55.176,0.000
1727412989.884,-68.359,-28.320,-38.086,-45.410,0.000
1727412989.888,-14.160,-23.438,-36.133,-21.973,0.000
1727412989.892,9.277,-15.137,-45.410,-23.438,0.000
1727412989.896,-24.414,-20.508,-48.828,-24.902,0.000
1727412989.900,-59.570,-31.738,-47.363,-22.949,0.000
1727412989.903,-70.801,-33.203,-50.781,-34.668,0.000
1727412989.907,-25.879,-41.992,-46.875,-24.902,0.000
1727412989.911,10.742,-54.688,-43.945,-18.066,0.000
1727412989.915,-18.066,-50.293,-52.246,-18.066,0.000
1727412989.919,-81.543,-44.434,-54.199,-30.762,0.000
1727412989.923,-82.520,-42.969,-49.316,-39.551,0.000
1727412989.927,-8.789,-39.551,-42.969,-19.531,0.000
1727412989.931,26.367,-40.527,-37.598,-7.812,0.000
1727412989.935,-14.648,-42.480,-38.574,-16.602,0.000
1727412989.939,-75.684,-35.645,-36.133,-23.926,0.000
1727412989.943,-87.402,-27.344,-30.273,-29.297,0.000
1727412989.946,-31.738,-30.762,-38.086,-28.320,0.000
1727412989.950,13.184,-50.293,-47.852,-23.926,0.000
1727412989.954,-15.625,-49.805,-51.270,-25.879,0.000
1727412989.958,-80.566,-32.227,-57.129,-36.133,0.000
1727412989.962,-102.539,-31.250,-50.293,-51.758,0.000
1727412989.966,-45.898,-40.039,-48.340,-50.293,0.000
1727412989.970,5.859,-44.434,-50.293,-32.227,0.000
1727412989.974,-2.930,-42.969,-40.527,-21.973,0.000
1727412989.978,-65.430,-36.133,-39.062,-40.039,0.000
1727412989.982,-99.609,-30.273,-42.969,-49.805,0.000
1727412989.986,-52.246,-28.320,-42.480,-43.457,0.000
1727412989.989,3.418,-32.227,-44.434,-30.273,0.000
1727412989.993,-10.254,-22.949,-48.828,-37.109,0.000
1727412989.997,-64.453,-38.574,-44.922,-45.410,0.000
1727412990.001,-99.121,-41.016,-44.434,-52.246,0.000
1727412990.005,-55.176,-31.738,-32.715,-35.645,0.000
1727412990.009,0.977,-35.156,-28.320,-28.809,0.000
1727412990.013,-4.883,-34.180,-43.945,-40.527,0.000
1727412990.017,-59.082,-45.410,-56.152,-39.551,0.000
1727412990.021,-91.309,-40.527,-54.199,-51.270,0.000
1727412990.025,-58.105,-18.066,-50.293,-49.805,0.000
1727412990.029,-7.324,-12.207,-52.734,-35.645,0.000
1727412990.032,-4.883,-16.113,-58.594,-30.273,0.000
1727412990.036,-47.852,-20.508,-62.988,-30.273,0.000
1727412990.040,-97.656,-27.832,-61.523,-50.781,0.000
1727412990.044,-83.984,-31.250,-54.688,-55.664,0.000
1727412990.048,-4.883,-27.344,-53.223,-35.156,0.000
1727412990.052,22.461,-23.926,-53.711,-19.531,0.000
1727412990.056,-37.598,-16.602,-53.223,-32.715,0.000
1727412990.060,-90.820,-18.066,-55.664,-49.316,0.000
1727412990.064,-62.012,-28.320,-51.758,-37.109,0.000
1727412990.068,0.488,-25.391,-55.664,-26.855,0.000
1727412990.071,17.578,-19.531,-61.035,-20.508,0.000
1727412990.075,-25.879,-30.762,-57.617,-21.484,0.000
1727412990.079,-83.496,-34.180,-49.316,-33.203,0.000
1727412990.083,-67.383,-31.250,-42.480,-39.062,0.000
1727412990.087,-7.324,-34.180,-39.062,-34.668,0.000
1727412990.091,6.836,-40.527,-40.039,-27.832,0.000
1727412990.095,-16.113,-51.758,-43.457,-21.973,0.000
1727412990.099,-67.383,-35.156,-42.969,-39.062,0.000
1727412990.103,-88.379,-19.043,-47.852,-55.664,0.000
1727412990.107,-24.414,-37.109,-46.875,-40.039,0.000
1727412990.111,13.184,-41.992,-47.852,-31.250,0.000
1727412990.114,-18.555,-39.551,-53.711,-39.551,0.000
1727412990.118,-73.242,-42.480,-46.387,-52.734,0.000
1727412990.122,-85.449,-40.039,-35.156,-56.152,0.000
1727412990.126,-25.879,-36.133,-34.180,-43.945,0.000
1727412990.130,2.441,-47.363,-39.551,-38.086,0.000
1727412990.134,-24.902,-57.129,-40.527,-37.109,0.000
1727412990.138,-69.336,-47.852,-38.574,-38.574,0.000
1727412990.142,-95.215,-46.875,-38.574,-43.945,0.000
1727412990.146,-48.828,-55.176,-44.434,-40.527,0.000
1727412990.150,1.465,-52.734,-48.828,-28.809,0.000
1727412990.154,-14.160,-45.410,-45.898,-21.973,0.000
1727412990.157,-73.242,-47.852,-47.852,-31.250,0.000
1727412990.161,-92.773,-32.227,-49.805,-49.316,0.000
1727412990.165,-47.363,-36.133,-38.086,-43.945,0.000
1727412990.169,-0.488,-40.039,-38.574,-23.926,0.000
1727412990.173,-9.766,-36.621,-51.270,-18.555,0.000
1727412990.177,-57.129,-40.039,-52.246,-24.902,0.000
1727412990.181,-78.613,-36.621,-51.270,-40.039,0.000
1727412990.185,-43.945,-26.855,-52.246,-33.691,0.000
1727412990.189,2.930,-20.508,-47.363,-8.301,0.000
1727412990.193,7.812,-24.414,-39.551,-11.719,0.000
1727412990.196,-44.434,-32.715,-39.551,-33.203,0.000
1727412990.200,-91.309,-41.992,-39.551,-42.480,0.000
1727412990.204,-51.270,-40.527,-41.992,-27.344,0.000
1727412990.208,13.184,-35.156,-46.387,-10.742,0.000
1727412990.212,15.137,-33.203,-42.480,-12.207,0.000
1727412990.216,-32.227,-37.109,-41.992,-24.414,0.000
1727412990.220,-82.031,-40.039,-45.898,-41.504,0.000
1727412990.224,-41.992,-49.316,-31.250,-29.785,0.000
1727412990.228,43.945,-53.223,-23.438,-12.207,0.000
1727412990.232,42.480,-51.270,-32.227,-4.395,0.000
1727412990.236,-14.160,-44.434,-35.645,-17.090,0.000
1727412990.239,-51.270,-40.039,-30.762,-31.250,0.000
1727412990.243,-35.645,-37.598,-18.555,-13.672,0.000
1727412990.247,9.766,-38.574,-17.578,-8.789,0.000
1727412990.251,12.695,-42.480,-29.785,-18.555,0.000
1727412990.255,-35.645,-49.316,-32.715,-26.367,0.000
1727412990.259,-93.750,-62.012,-30.273,-37.109,0.000
1727412990.263,-92.773,-62.012,-26.855,-43.457,0.000
1727412990.267,-33.691,-53.223,-30.762,-39.551,0.000
1727412990.271,4.395,-51.270,-34.180,-30.273,0.000
1727412990.275,-22.461,-54.688,-37.109,-25.391,0.000
1727412990.279,-86.914,-67.871,-40.527,-40.527,0.000
1727412990.282,-101.562,-81.543,-43.945,-54.199,0.000
1727412990.286,-32.227,-83.496,-45.898,-30.273,0.000
1727412990.290,8.301,-70.312,-46.387,-27.832,0.000
1727412990.294,-30.273,-55.664,-48.828,-40.527,0.000
1727412990.298,-86.914,-57.617,-52.246,-40.527,0.000
1727412990.302,-87.402,-55.664,-62.500,-47.852,0.000
1727412990.306,-38.086,-59.570,-62.500,-47.852,0.000
1727412990.310,-6.348,-61.035,-56.152,-34.668,0.000
1727412990.314,-32.227,-61.523,-55.176,-38.086,0.000
1727412990.318,-87.402,-65.430,-53.711,-55.664,0.000
1727412990.321,-93.750,-58.594,-53.711,-55.176,0.000
1727412990.325,-40.039,-56.152,-53.223,-44.434,0.000
1727412990.329,0.977,-56.152,-53.223,-34.180,0.000
1727412990.333,-13.184,-60.059,-54.688,-38.574,0.000
1727412990.337,-75.195,-57.129,-54.199,-51.758,0.000
1727412990.341,-107.422,-55.664,-53.223,-58.105,0.000
1727412990.345,-49.316,-70.312,-47.852,-41.016,0.000
1727412990.349,20.996,-69.824,-34.180,-17.578,0.000
1727412990.353,5.371,-61.035,-34.180,-21.973,0.000
1727412990.357,-51.270,-63.477,-40.039,-30.273,0.000
1727412990.361,-69.336,-61.035,-36.133,-37.109,0.000
1727412990.364,-29.297,-59.570,-38.086,-27.832,0.000
1727412990.368,23.438,-57.617,-35.645,-8.301,0.000
1727412990.372,20.020,-52.246,-33.203,0.000,0.000
1727412990.376,-42.480,-49.316,-35.645,-12.695,0.000
1727412990.380,-77.148,-63.477,-27.832,-20.508,0.000
1727412990.384,-38.086,-64.941,-25.879,-24.902,0.000
1727412990.388,23.926,-58.594,-33.691,-20.996,0.000
1727412990.392,28.809,-64.941,-40.527,-16.602,0.000
1727412990.396,-29.297,-60.547,-40.527,-20.996,0.000
1727412990.400,-67.871,-50.293,-32.227,-22.461,0.000
1727412990.404,-33.691,-49.805,-23.438,-16.113,0.000
1727412990.407,25.391,-51.270,-27.832,-2.930,0.000
1727412990.411,21.973,-46.387,-40.039,-0.488,0.000
1727412990.415,-24.902,-44.434,-47.852,-11.719,0.000
1727412990.419,-61.035,-54.199,-47.852,-26.367,0.000
1727412990.423,-15.137,-56.152,-35.156,-22.949,0.000
1727412990.427,29.297,-48.340,-30.762,-11.230,0.000
1727412990.431,1.953,-55.176,-38.086,-21.484,0.000
1727412990.435,-40.039,-62.500,-38.574,-29.785,0.000
1727412990.439,-85.938,-57.129,-35.156,-32.227,0.000
1727412990.443,-76.660,-59.570,-36.621,-34.668,0.000
1727412990.446,-15.625,-73.242,-43.457,-22.461,0.000
1727412990.450,7.812,-82.520,-49.316,-23.926,0.000
1727412990.454,-28.809,-74.707,-45.898,-24.414,0.000
1727412990.458,-82.031,-63.965,-44.922,-30.762,0.000
1727412990.462,-91.309,-46.387,-46.387,-46.387,0.000
1727412990.466,-31.250,-38.086,-47.363,-41.992,0.000
1727412990.470,2.441,-45.898,-59.082,-41.016,0.000
1727412990.474,-37.598,-39.062,-73.242,-56.152,0.000
1727412990.478,-94.727,-53.223,-68.848,-60.059,0.000
1727412990.482,-103.027,-47.363,-45.898,-55.664,0.000
1727412990.486,0.000,-39.551,-40.039,-47.852,0.000
1727412990.489,0.000,-37.109,-48.340,-52.734,0.000
1727412990.493,0.000,-49.316,-49.805,-51.270,0.000
1727412990.497,0.000,-39.551,-15.137,-66.406,0.000
1727412990.501,0.000,-27.832,37.109,-102.539,0.000
1727412990.505,0.000,-4.883,33.203,-123.047,0.000
1727412990.509,0.000,-34.668,3.906,-136.719,0.000
1727412990.513,0.000,-24.414,-103.516,2.930,0.000
1727412990.517,0.000,-28.320,-109.375,80.078,0.000
1727412990.521,0.000,-9.277,5.371,-30.273,0.000
1727412990.525,0.000,138.672,17.578,-215.820,0.000
1727412990.529,0.000,42.480,-28.320,-297.363,0.000
1727412990.532,-169.434,-76.660,-8.301,-132.324,0.000
1727412990.536,63.965,-47.852,-59.082,95.703,0.000
1727412990.540,51.270,-7.812,-131.836,43.457,0.000
1727412990.544,211.426,-138.184,-104.004,162.598,0.000
1727412990.548,314.453,-127.930,-111.816,207.520,0.000
1727412990.552,212.402,-88.867,-118.164,115.234,0.000
1727412990.556,96.191,-82.031,-75.195,133.789,0.000
1727412990.560,-80.566,-12.695,-33.203,13.184,0.000
1727412990.564,-123.535,-3.906,-10.254,-55.664,0.000
1727412990.568,68.359,-54.688,-81.543,119.629,0.000
1727412990.571,62.988,-53.711,-76.172,127.441,0.000
1727412990.575,27.344,-87.891,-85.449,104.004,0.000
1727412990.579,0.000,-83.496,-125.000,153.320,0.000
1727412990.583,0.000,-56.641,-109.863,145.996,0.000
1727412990.587,0.000,-49.805,-99.609,115.234,0.000
1727412990.591,0.000,-62.988,-73.242,102.539,0.000
1727412990.595,0.000,-59.570,-79.102,83.984,0.000
1727412990.599,0.000,-46.875,-81.055,73.730,0.000
1727412990.603,0.000,-40.039,-62.988,86.426,0.000
1727412990.607,0.000,-52.246,-66.895,77.148,0.000
1727412990.611,0.000,-57.129,-67.871,58.105,0.000
1727412990.614,0.000,-45.898,-64.941,57.129,0.000
1727412990.618,0.000,-38.086,-65.918,39.551,0.000
1727412990.622,0.000,-48.828,-56.152,32.227,0.000
1727412990.626,32.715,-42.480,-61.523,48.340,0.000
1727412990.630,49.316,-39.062,-67.383,55.176,0.000
1727412990.634,11.719,-37.598,-67.871,60.059,0.000
1727412990.638,-53.711,-38.574,-76.172,29.785,0.000
1727412990.642,-53.711,-36.133,-69.336,12.695,0.000
1727412990.646,16.113,-24.902,-63.477,31.250,0.000
1727412990.650,50.781,-24.902,-65.430,39.062,0.000
1727412990.654,7.812,-23.926,-60.059,30.762,0.000
1727412990.657,-57.617,-17.578,-63.477,2.930,0.000
1727412990.661,-47.852,-13.184,-59.570,-4.883,0.000
1727412990.665,30.273,-6.348,-43.457,20.996,0.000
1727412990.669,51.758,-13.184,-50.781,27.344,0.000
1727412990.673,9.277,-26.367,-62.988,24.414,0.000
1727412990.677,-59.082,-28.809,-61.035,11.230,0.000
1727412990.681,-84.473,-30.273,-56.641,-15.137,0.000
1727412990.685,-19.043,-41.504,-50.781,0.488,0.000
1727412990.689,40.527,-26.367,-41.016,14.648,0.000
1727412990.693,22.949,-21.973,-32.227,16.602,0.000
1727412990.696,-39.551,-30.273,-33.691,18.066,0.000
1727412990.700,-71.289,-21.484,-21.973,2.930,0.000
1727412990.704,-11.719,-17.578,-11.230,-5.371,0.000
1727412990.708,22.949,-22.461,-20.508,-1.953,0.000
1727412990.712,-32.715,-26.855,-28.809,-9.277,0.000
1727412990.716,-50.781,-28.809,-31.250,-25.879,0.000
1727412990.720,-80.078,-33.203,-32.715,-28.809,0.000
1727412990.724,-62.500,-34.668,-27.832,-24.902,0.000
1727412990.728,6.836,-26.855,-17.090,-14.160,0.000
1727412990.732,-7.324,-32.227,-18.066,-11.230,0.000
1727412990.736,-70.312,-45.898,-20.996,-31.738,0.000
1727412990.739,-100.098,-40.527,-11.719,-37.598,0.000
1727412990.743,-64.453,-36.621,-8.789,-23.926,0.000
1727412990.747,0.977,-36.621,-9.277,-27.832,0.000
1727412990.751,-7.324,-29.297,-16.602,-36.133,0.000
1727412990.755,-75.195,-28.320,-28.809,-40.527,0.000
1727412990.759,-114.746,-33.691,-27.832,-62.988,0.000
1727412990.763,-72.266,-45.410,-20.996,-63.477,0.000
1727412990.767,0.000,-46.387,-20.020,-39.062,0.000
1727412990.771,0.000,-44.434,-24.902,-35.156,0.000
1727412990.775,0.000,-38.574,-28.809,-44.434,0.000
1727412990.779,0.000,-31.250,-24.414,-59.570,0.000
1727412990.782,0.000,-28.320,-33.203,-71.777,0.000
1727412990.786,0.000,-22.949,-38.086,-65.918,0.000
1727412990.790,0.000,-24.414,-38.574,-52.246,0.000
1727412990.794,0.000,-39.551,-41.016,-53.223,0.000
1727412990.798,0.000,-38.086,-39.551,-64.453,0.000
1727412990.802,0.000,-31.738,-31.250,-59.570,0.000
1727412990.806,0.000,-32.227,-22.949,-53.711,0.000
1727412990.810,0.000,-36.621,-32.715,-46.875,0.000
1727412990.814,-62.012,-32.715,-41.992,-52.246,0.000
1727412990.818,-99.121,-25.879,-43.945,-69.336,0.000
1727412990.822,-82.520,-23.926,-33.691,-58.594,0.000
1727412990.825,-6.836,-16.113,-23.438,-45.898,0.000
1727412990.829,23.926,-25.879,-19.043,-42.480,0.000
1727412990.833,-10.742,-16.602,-27.832,-27.832,0.000
1727412990.837,-83.008,-22.949,-31.738,-45.410,0.000
1727412990.841,-88.867,-39.551,-30.762,-58.594,0.000
1727412990.845,-16.113,-32.715,-32.227,-43.457,0.000
1727412990.849,-9.277,-28.809,-35.156,-44.922,0.000
1727412990.853,-54.688,-28.320,-38.086,-50.293,0.000
1727412990.857,-95.215,-27.344,-38.086,-57.617,0.000
1727412990.861,-93.750,-22.461,-31.250,-62.012,0.000
1727412990.864,-45.410,-19.531,-23.926,-57.129,0.000
1727412990.868,-11.230,-27.344,-23.926,-55.664,0.000
1727412990.872,-20.020,-41.992,-29.297,-59.082,0.000
1727412990.876,-85.938,-51.270,-39.551,-72.266,0.000
1727412990.880,-124.023,-49.316,-32.227,-82.031,0.000
1727412990.884,-76.660,-49.316,-23.438,-66.895,0.000
1727412990.888,-0.977,-52.734,-20.996,-38.086,0.000
1727412990.892,-20.020,-47.363,-32.227,-41.992,0.000
1727412990.896,-96.680,-46.875,-41.016,-69.824,0.000
1727412990.900,-114.746,-47.852,-37.109,-81.055,0.000
1727412990.904,-54.688,-42.969,-30.273,-65.430,0.000
1727412990.907,8.789,-43.457,-23.926,-47.363,0.000
1727412990.911,-11.719,-41.992,-34.180,-49.316,0.000
1727412990.915,-96.191,-43.945,-48.828,-66.895,0.000
1727412990.919,-139.160,-37.598,-36.621,-82.520,0.000
1727412990.923,-66.895,-42.969,-21.484,-67.871,0.000
1727412990.927,5.859,-56.641,-27.344,-40.039,0.000
1727412990.931,-8.789,-50.781,-36.133,-39.062,0.000
1727412990.935,-78.613,-40.527,-52.246,-66.895,0.000
1727412990.939,-119.629,-42.969,-48.828,-76.660,0.000
1727412990.943,-88.867,-32.715,-45.410,-79.102,0.000
1727412990.946,-17.578,-28.320,-46.875,-64.941,0.000
1727412990.950,-7.812,-48.340,-43.457,-46.387,0.000
1727412990.954,-68.848,-51.270,-57.129,-61.523,0.000
1727412990.958,-107.422,-56.641,-59.570,-78.613,0.000
1727412990.962,-81.543,-54.199,-48.340,-72.266,0.000
1727412990.966,-23.926,-47.363,-54.688,-64.453,0.000
1727412990.970,-13.672,-43.457,-62.012,-63.965,0.000
1727412990.974,-59.082,-41.016,-58.105,-63.477,0.000
1727412990.978,-90.820,-42.480,-49.805,-69.824,0.000
1727412990.982,-66.895,-38.574,-37.598,-59.082,0.000
1727412990.986,-8.301,-33.203,-40.527,-58.105,0.000
1727412990.989,12.207,-42.480,-55.176,-63.477,0.000
1727412990.993,-45.898,-48.340,-59.082,-67.383,0.000
1727412990.997,-115.723,-41.504,-48.340,-78.125,0.000
1727412991.001,-86.426,-28.320,-42.969,-67.383,0.000
1727412991.005,-8.301,-41.016,-39.062,-55.176,0.000
1727412991.009,8.301,-63.477,-45.898,-62.988,0.000
1727412991.013,-26.855,-50.781,-47.363,-53.223,0.000
1727412991.017,-85.449,-40.527,-41.016,-54.688,0.000
1727412991.021,-96.191,-44.922,-39.062,-69.824,0.000
1727412991.025,-31.250,-39.062,-41.504,-51.758,0.000
1727412991.029,7.324,-30.273,-47.363,-42.480,0.000
1727412991.032,-25.879,-38.574,-43.457,-48.828,0.000
1727412991.036,-90.332,-43.945,-38.086,-52.734,0.000
1727412991.040,-84.961,-44.922,-28.809,-52.246,0.000
1727412991.044,-28.320,-52.246,-30.762,-45.898,0.000
1727412991.048,-5.371,-62.012,-39.062,-39.551,0.000
1727412991.052,-26.855,-73.730,-37.598,-34.180,0.000
1727412991.056,-82.520,-72.266,-37.598,-43.457,0.000
1727412991.060,-92.285,-53.711,-37.598,-54.688,0.000
1727412991.064,-31.250,-42.969,-39.551,-57.129,0.000
1727412991.068,20.508,-52.246,-38.574,-45.898,0.000
1727412991.071,1.953,-51.270,-41.504,-36.133,0.000
1727412991.075,-79.590,-70.312,-41.016,-53.223,0.000
1727412991.079,-107.422,-67.871,-40.039,-61.035,0.000
1727412991.083,-33.691,-45.410,-36.621,-48.828,0.000
1727412991.087,18.555,-36.621,-34.180,-43.457,0.000
1727412991.091,-18.066,-28.809,-46.875,-49.805,0.000
1727412991.095,-89.844,-58.594,-45.898,-47.363,0.000
1727412991.099,-90.332,-57.617,-39.062,-52.246,0.000
1727412991.103,-35.645,-40.039,-38.574,-54.199,0.000
1727412991.107,5.859,-42.969,-43.945,-52.246,0.000
1727412991.111,0.488,-44.434,-44.922,-52.246,0.000
1727412991.114,-61.035,-39.062,-45.898,-55.664,0.000
1727412991.118,-99.609,-35.156,-42.480,-62.012,0.000
1727412991.122,-51.270,-38.086,-27.344,-52.734,0.000
1727412991.126,11.230,-35.156,-23.926,-39.062,0.000
1727412991.130,10.254,-34.668,-37.109,-31.250,0.000
1727412991.134,-43.457,-37.109,-44.922,-36.621,0.000
1727412991.138,-83.496,-41.016,-42.480,-47.852,0.000
1727412991.142,-64.453,-37.598,-37.109,-51.270,0.000
1727412991.146,-22.461,-39.551,-37.109,-42.480,0.000
1727412991.150,0.000,-48.340,-36.621,-31.250,0.000
1727412991.154,-46.387,-51.758,-42.969,-40.527,0.000
1727412991.157,-106.934,-53.711,-38.086,-59.570,0.000
1727412991.161,-65.918,-46.875,-23.926,-55.664,0.000
1727412991.165,-11.230,-47.852,-21.973,-37.109,0.000
1727412991.169,-3.906,-49.316,-23.926,-25.879,0.000
1727412991.173,-41.016,-50.293,-36.621,-29.297,0.000
1727412991.177,-95.703,-60.059,-39.062,-40.527,0.000
1727412991.181,-85.938,-56.641,-23.438,-45.410,0.000
1727412991.185,-21.484,-53.711,-29.785,-31.738,0.000
1727412991.189,3.906,-48.340,-41.016,-26.855,0.000
1727412991.193,-42.480,-48.828,-41.016,-42.969,0.000
1727412991.197,-95.215,-39.551,-36.621,-50.781,0.000
1727412991.200,-70.801,-8.301,-33.203,-41.992,0.000
1727412991.204,-10.742,9.277,-34.668,-33.691,0.000
1727412991.208,3.418,7.324,-36.133,-30.762,0.000
1727412991.212,-29.785,-4.883,-41.504,-28.809,0.000
1727412991.216,-81.543,-8.789,-44.434,-45.898,0.000
1727412991.220,-76.660,-4.883,-44.922,-55.664,0.000
1727412991.224,-41.016,0.000,-45.898,-48.340,0.000
1727412991.228,-10.742,-0.488,-41.992,-41.504,0.000
1727412991.232,-25.391,-4.883,-44.434,-32.715,0.000
1727412991.236,-83.984,-6.348,-51.270,-39.062,0.000
1727412991.239,-86.426,1.953,-42.969,-54.688,0.000
1727412991.243,-18.066,3.418,-34.180,-48.828,0.000
1727412991.247,27.344,-6.836,-33.691,-34.668,0.000
1727412991.251,-14.648,-7.324,-41.504,-42.480,0.000
1727412991.255,-84.961,-2.930,-53.223,-66.895,0.000
1727412991.259,-102.051,-2.930,-53.223,-70.801,0.000
1727412991.263,-41.992,-14.648,-44.922,-53.223,0.000
1727412991.267,3.906,-25.879,-45.898,-39.062,0.000
1727412991.271,-12.695,-13.184,-42.480,-38.574,0.000
1727412991.275,-67.383,-7.812,-42.969,-46.875,0.000
1727412991.279,-84.473,-15.625,-38.574,-50.781,0.000
1727412991.282,-43.457,-16.113,-32.715,-46.387,0.000
1727412991.286,-0.488,-19.043,-45.410,-42.480,0.000
1727412991.290,-9.766,-23.438,-52.246,-42.969,0.000
1727412991.294,-59.570,-12.695,-46.875,-37.598,0.000
1727412991.298,-91.797,-7.324,-38.086,-43.457,0.000
1727412991.302,-47.852,-20.508,-29.297,-32.227,0.000
1727412991.306,8.301,-20.508,-36.621,-21.973,0.000
1727412991.310,-10.254,-26.367,-45.410,-29.785,0.000
1727412991.314,-75.195,-29.297,-51.758,-31.250,0.000
1727412991.318,-97.168,-15.137,-45.898,-44.922,0.000
1727412991.322,-44.434,-22.461,-33.203,-44.434,0.000
1727412991.325,3.906,-41.016,-35.645,-29.785,0.000
1727412991.329,-1.465,-50.293,-41.992,-32.227,0.000
1727412991.333,-48.828,-46.387,-36.621,-32.227,0.000
1727412991.337,-91.309,-41.016,-31.738,-35.156,0.000
1727412991.341,-48.340,-46.387,-34.668,-36.133,0.000
1727412991.345,12.695,-35.645,-35.645,-29.297,0.000
1727412991.349,7.324,-16.602,-30.273,-18.555,0.000
1727412991.353,-46.875,-5.859,-35.156,-36.133,0.000
1727412991.357,-90.820,-1.953,-45.898,-49.805,0.000
1727412991.361,-67.383,0.977,-39.062,-46.387,0.000
1727412991.364,-5.371,12.207,-39.062,-39.062,0.000
1727412991.368,2.441,10.254,-41.992,-31.250,0.000
1727412991.372,-36.133,-5.371,-40.039,-26.367,0.000
1727412991.376,-66.406,-13.672,-39.551,-34.668,0.000
1727412991.380,-48.340,-8.301,-31.250,-30.762,0.000
1727412991.384,-3.418,-2.441,-33.691,-20.020,0.000
1727412991.388,14.160,-2.441,-45.898,-24.414,0.000
1727412991.392,-23.438,-7.324,-49.805,-26.367,0.000
1727412991.396,-83.008,-10.742,-56.641,-37.109,0.000
1727412991.400,-86.914,-17.090,-59.570,-46.875,0.000
1727412991.404,-23.438,-18.555,-48.340,-48.340,0.000
1727412991.407,20.996,-12.207,-42.480,-40.039,0.000
1727412991.411,-19.531,-6.836,-43.457,-23.926,0.000
1727412991.415,-84.961,-14.648,-45.898,-30.273,0.000
1727412991.419,-88.379,-33.203,-47.852,-42.969,0.000
1727412991.423,-31.250,-30.762,-47.363,-41.504,0.000
1727412991.427,-2.930,-22.949,-44.922,-38.086,0.000
1727412991.431,-23.438,-27.832,-39.551,-26.855,0.000
1727412991.435,-80.078,-31.250,-37.109,-32.715,0.000
1727412991.439,-98.145,-12.207,-31.738,-46.387,0.000
1727412991.443,-37.598,-13.184,-22.949,-25.391,0.000
1727412991.447,9.277,-29.297,-23.926,-12.695,0.000
1727412991.450,-27.344,-33.691,-33.203,-35.156,0.000
1727412991.454,-82.031,-28.320,-31.250,-43.457,0.000
1727412991.458,-86.914,-26.367,-26.367,-36.133,0.000
1727412991.462,-41.504,-25.879,-22.949,-35.645,0.000
1727412991.466,10.742,-34.668,-23.926,-36.133,0.000
1727412991.470,0.977,-51.758,-35.645,-32.715,0.000
1727412991.474,-78.613,-65.430,-49.805,-40.527,0.000
1727412991.478,-110.840,-77.637,-47.363,-56.152,0.000
1727412991.482,-49.316,-72.754,-42.480,-54.199,0.000
1727412991.486,-21.484,-65.430,-47.852,-45.898,0.000
1727412991.489,-20.020,-72.266,-47.363,-29.297,0.000
1727412991.493,-62.988,-63.477,-47.363,-26.367,0.000
1727412991.497,-116.211,-61.523,-45.898,-47.363,0.000
1727412991.501,-58.594,-64.941,-34.668,-38.086,0.000
1727412991.505,15.137,-56.641,-28.320,-10.742,0.000
1727412991.509,11.230,-52.734,-34.180,-10.742,0.000
1727412991.513,-31.738,-51.270,-39.062,-27.344,0.000
1727412991.517,-71.777,-45.898,-39.551,-33.203,0.000
1727412991.521,-51.758,-46.875,-42.480,-25.879,0.000
1727412991.525,-2.930,-43.945,-48.828,-16.113,0.000
1727412991.529,1.953,-43.945,-53.223,-17.578,0.000
1727412991.532,-46.387,-51.758,-53.223,-28.320,0.000
1727412991.536,-74.707,-55.664,-49.316,-32.227,0.000
1727412991.540,-52.734,-45.898,-38.574,-33.691,0.000
1727412991.544,-12.207,-32.715,-33.691,-20.508,0.000
1727412991.548,13.184,-34.180,-41.992,-14.648,0.000
1727412991.552,-37.598,-41.016,-53.223,-25.879,0.000
1727412991.556,-90.332,-34.180,-53.711,-49.316,0.000
1727412991.560,-57.617,-38.086,-41.504,-50.293,0.000
1727412991.564,6.348,-40.039,-40.039,-30.762,0.000
1727412991.568,13.184,-43.945,-45.410,-25.391,0.000
1727412991.572,-34.180,-51.758,-50.293,-37.109,0.000
1727412991.575,-84.961,-42.480,-52.246,-51.758,0.000
1727412991.579,-76.660,-56.641,-41.016,-55.664,0.000
1727412991.583,-10.742,-66.406,-32.227,-36.133,0.000
1727412991.587,20.020,-59.082,-29.785,-18.066,0.000
1727412991.591,-9.277,-61.523,-32.715,-19.531,0.000
1727412991.595,-61.035,-67.383,-38.574,-29.297,0.000
1727412991.599,-75.684,-69.824,-38.086,-37.598,0.000
1727412991.603,-30.273,-69.824,-40.039,-33.691,0.000
1727412991.607,18.066,-68.359,-47.363,-17.578,0.000
1727412991.611,-18.066,-73.242,-48.340,-27.344,0.000
1727412991.614,-84.473,-73.730,-47.852,-43.945,0.000
1727412991.618,-80.078,-60.547,-33.691,-43.457,0.000
1727412991.622,-22.461,-57.129,-30.273,-33.203,0.000
1727412991.626,9.277,-52.734,-39.062,-20.508,0.000
1727412991.630,-5.371,-43.457,-43.945,-24.414,0.000
1727412991.634,-54.688,-51.758,-44.922,-45.898,0.000
1727412991.638,-83.008,-62.012,-35.645,-53.711,0.000
1727412991.642,-41.016,-56.152,-38.086,-41.504,0.000
1727412991.646,6.348,-56.152,-45.410,-38.086,0.000
1727412991.650,-9.277,-60.059,-40.039,-22.461,0.000
1727412991.654,-65.918,-57.129,-37.109,-21.484,0.000
1727412991.657,-86.914,-50.781,-50.781,-43.457,0.000
1727412991.661,-39.551,-58.594,-59.570,-43.945,0.000
1727412991.665,14.160,-64.453,-56.152,-25.879,0.000
1727412991.669,3.418,-55.664,-59.570,-25.879,0.000
1727412991.673,-44.434,-46.387,-68.359,-34.180,0.000
1727412991.677,-63.477,-34.180,-63.965,-34.180,0.000
1727412991.681,-38.574,-33.203,-51.270,-21.973,0.000
1727412991.685,8.789,-34.668,-53.223,-15.137,0.000
1727412991.689,20.020,-33.691,-53.223,-7.324,0.000
1727412991.693,-38.574,-29.297,-47.852,-10.254,0.000
1727412991.697,-81.543,-26.367,-41.016,-28.320,0.000
1727412991.700,-37.598,-36.621,-37.598,-25.391,0.000
1727412991.704,28.809,-46.875,-41.992,-11.719,0.000
1727412991.708,32.715,-38.574,-42.480,-8.301,0.000
1727412991.712,-32.227,-41.016,-42.480,-10.254,0.000
1727412991.716,-78.613,-55.664,-44.434,-26.367,0.000
1727412991.720,-52.734,-52.246,-47.363,-29.785,0.000
1727412991.724,-3.418,-47.852,-45.410,-19.531,0.000
1727412991.728,8.301,-52.734,-43.945,-21.973,0.000
1727412991.732,-38.574,-59.570,-49.316,-19.531,0.000
1727412991.736,-90.820,-56.152,-43.457,-35.156,0.000
1727412991.739,-77.637,-56.152,-33.203,-46.875,0.000
1727412991.743,-13.184,-62.500,-36.133,-37.598,0.000
1727412991.747,-2.441,-69.824,-37.109,-22.949,0.000
1727412991.751,-44.922,-60.547,-41.992,-17.578,0.000
1727412991.755,-76.172,-43.945,-47.363,-40.527,0.000
1727412991.759,-68.848,-49.805,-44.434,-46.387,0.000
1727412991.763,-26.367,-62.012,-52.734,-52.734,0.000
1727412991.767,-6.836,-51.270,-55.176,-48.340,0.000
1727412991.771,-36.133,-64.941,-53.711,-36.133,0.000
1727412991.775,-91.797,-71.777,-60.059,-47.852,0.000
1727412991.779,-89.355,-44.922,-59.570,-57.617,0.000
1727412991.782,-33.203,-45.410,-61.035,-54.199,0.000
1727412991.786,14.648,-49.805,-62.500,-38.086,0.000
1727412991.790,-11.719,-46.387,-64.941,-32.715,0.000
1727412991.794,-75.195,-47.852,-65.918,-41.992,0.000
1727412991.798,-67.871,-38.086,-62.500,-50.293,0.000
1727412991.802,-5.371,-45.410,-61.523,-42.480,0.000
1727412991.806,26.367,-57.617,-67.871,-34.180,0.000
1727412991.810,4.395,-43.457,-73.242,-30.273,0.000
1727412991.814,-45.410,-33.691,-69.336,-31.250,0.000
1727412991.818,-57.617,-36.621,-69.336,-30.762,0.000
1727412991.822,-21.484,-35.156,-78.125,-27.344,0.000
1727412991.825,22.949,-22.461,-73.242,-26.367,0.000
1727412991.829,27.344,-19.043,-66.406,-26.855,0.000
1727412991.833,-43.457,-21.973,-71.289,-33.203,0.000
1727412991.837,-73.242,-23.438,-65.918,-40.039,0.000
1727412991.841,-9.277,-16.602,-49.316,-15.625,0.000
1727412991.845,0.000,-10.254,-47.363,5.371,0.000
1727412991.849,0.000,-24.414,-59.082,-4.395,0.000
1727412991.853,0.000,-29.785,-60.059,-16.113,0.000
1727412991.857,0.000,-30.762,-53.223,-26.855,0.000
1727412991.861,0.000,-31.738,-42.969,-19.531,0.000
1727412991.864,0.000,-24.902,-43.457,-6.348,0.000
1727412991.868,0.000,-31.250,-48.828,-5.371,0.000
1727412991.872,0.000,-32.715,-41.016,-9.766,0.000
1727412991.876,0.000,-24.902,-39.551,-14.160,0.000
1727412991.880,0.000,-27.344,-38.574,-7.324,0.000
1727412991.884,0.000,-35.645,-36.133,5.371,0.000
1727412991.888,0.000,-35.156,-41.504,4.883,0.000
1727412991.892,-26.855,-40.527,-42.969,0.977,0.000
1727412991.896,-64.941,-36.621,-39.551,0.000,0.000
1727412991.900,-37.598,-27.832,-39.551,-3.418,0.000
1727412991.904,19.043,-29.785,-38.086,1.465,0.000
1727412991.907,28.320,-39.062,-41.016,4.395,0.000
1727412991.911,-10.742,-37.109,-45.898,6.836,0.000
1727412991.915,-65.918,-32.227,-48.828,-17.578,0.000
1727412991.919,-55.176,-42.969,-53.711,-38.086,0.000
1727412991.923,14.160,-39.062,-49.316,-13.672,0.000
1727412991.927,37.109,-28.320,-46.387,4.883,0.000
1727412991.931,-17.090,-25.391,-51.270,-13.672,0.000
1727412991.935,-64.453,-28.320,-59.082,-25.879,0.000
1727412991.939,-37.109,-28.320,-59.082,-19.531,0.000
1727412991.943,9.277,-24.414,-57.129,-13.184,0.000
1727412991.947,23.438,-25.879,-60.059,-14.160,0.000
1727412991.950,-7.324,-24.414,-63.965,-10.742,0.000
1727412991.954,-50.781,-29.785,-64.453,-15.625,0.000
1727412991.958,-50.293,-32.715,-52.734,-20.508,0.000
1727412991.962,1.953,-22.949,-50.781,-11.230,0.000
1727412991.966,38.574,-25.879,-58.594,-8.301,0.000
1727412991.970,5.859,-39.062,-64.453,-5.859,0.000
1727412991.974,-56.641,-41.992,-65.430,-20.996,0.000
1727412991.978,-57.129,-41.992,-65.918,-42.969,0.000
1727412991.982,5.371,-45.898,-66.406,-30.273,0.000
1727412991.986,34.668,-44.922,-64.941,-17.578,0.000
1727412991.990,11.230,-38.086,-62.012,-12.695,0.000
1727412991.993,-38.574,7.812,-61.523,-14.160,0.000
1727412991.997,-48.340,74.707,-57.129,-19.531,0.000
1727412992.001,8.789,99.609,-52.246,0.488,0.000
1727412992.005,51.270,99.121,-53.711,14.648,0.000
1727412992.009,25.391,96.680,-51.270,6.836,0.000
1727412992.013,-35.645,92.285,-49.805,2.441,0.000
1727412992.017,-64.453,80.078,-47.852,0.977,0.000
1727412992.021,-10.742,68.848,-34.180,1.953,0.000
1727412992.025,47.852,68.359,-35.645,0.977,0.000
1727412992.029,28.809,65.430,-41.504,-1.953,0.000
1727412992.032,-30.762,63.477,-41.992,-11.719,0.000
1727412992.036,-50.293,69.336,-39.551,-12.207,0.000
1727412992.040,-0.977,80.566,-37.109,6.836,0.000
1727412992.044,48.828,61.035,-41.992,22.949,0.000
1727412992.048,53.711,48.340,-47.363,17.578,0.000
1727412992.052,-2.930,57.129,-48.828,3.906,0.000
1727412992.056,-57.129,49.805,-48.828,-11.719,0.000
1727412992.060,-14.648,39.551,-44.922,-3.906,0.000
1727412992.064,48.828,49.805,-37.109,11.230,0.000
1727412992.068,40.527,54.199,-40.527,4.395,0.000
1727412992.072,-20.508,43.457,-50.293,3.418,0.000
1727412992.075,-62.012,28.809,-51.758,-9.277,0.000
1727412992.079,-33.691,29.297,-53.711,-8.301,0.000
1727412992.083,21.973,33.203,-57.129,-1.465,0.000
1727412992.087,39.062,37.109,-55.176,2.441,0.000
1727412992.091,-17.578,31.250,-65.430,-0.488,0.000
1727412992.095,-70.801,17.090,-71.289,-18.066,0.000
1727412992.099,-43.457,18.066,-65.430,-17.578,0.000
1727412992.103,10.254,14.648,-70.312,-9.277,0.000
1727412992.107,29.297,3.906,-76.172,2.441,0.000
1727412992.111,-25.391,3.906,-73.730,-16.113,0.000
1727412992.114,-78.125,10.254,-64.453,-37.598,0.000
1727412992.118,-53.223,16.602,-62.012,-30.762,0.000
1727412992.122,8.789,2.441,-61.523,-20.020,0.000
1727412992.126,30.273,0.000,-64.941,-10.254,0.000
1727412992.130,-3.418,-1.465,-71.289,-0.977,0.000
1727412992.134,-46.387,-12.695,-67.383,-4.883,0.000
1727412992.138,-43.457,14.648,-52.246,-8.301,0.000
1727412992.142,21.973,30.273,-48.828,0.488,0.000
1727412992.146,66.895,5.371,-52.246,2.930,0.000
1727412992.150,14.160,-6.836,-56.152,-4.883,0.000
1727412992.154,-51.758,-2.441,-57.617,-8.301,0.000
1727412992.157,-52.246,1.953,-50.293,-10.742,0.000
1727412992.161,5.371,-1.953,-47.852,1.953,0.000
1727412992.165,37.109,-10.742,-45.410,18.066,0.000
1727412992.169,4.883,-22.949,-49.805,9.766,0.000
1727412992.173,-45.410,-33.203,-60.547,3.418,0.000
1727412992.177,-54.688,-44.922,-61.035,-6.348,0.000
1727412992.181,0.488,-53.223,-51.270,-16.113,0.000
1727412992.185,49.316,-45.898,-51.758,-6.348,0.000
1727412992.189,25.391,-45.410,-61.035,-0.488,0.000
1727412992.193,-44.434,-53.223,-63.965,-7.812,0.000
1727412992.197,-53.711,-50.781,-57.129,-5.371,0.000
1727412992.200,4.395,-47.363,-49.805,-1.953,0.000
1727412992.204,44.434,-51.270,-53.711,-6.348,0.000
1727412992.208,27.832,-51.270,-61.523,-8.301,0.000
1727412992.212,-25.879,-57.129,-70.312,-10.254,0.000
1727412992.216,-52.246,-66.895,-65.430,-15.137,0.000
1727412992.220,-3.906,-62.988,-51.758,-1.953,0.000
1727412992.224,49.805,-52.734,-46.387,13.184,0.000
1727412992.228,31.250,-54.688,-49.805,0.488,0.000
1727412992.232,-15.625,-55.176,-63.965,-19.531,0.000
1727412992.236,-49.805,-57.617,-68.359,-33.203,0.000
1727412992.239,-23.926,-53.711,-66.406,-22.461,0.000
1727412992.243,28.320,-49.805,-68.848,-1.953,0.000
1727412992.247,24.902,-52.734,-72.266,-4.395,0.000
1727412992.251,-26.367,-50.781,-74.707,-18.066,0.000
1727412992.255,-77.148,-53.223,-69.824,-26.855,0.000
1727412992.259,-43.945,-49.805,-67.871,-24.902,0.000
1727412992.263,25.879,-48.828,-67.383,-12.207,0.000
1727412992.267,23.926,-56.152,-72.266,-8.789,0.000
1727412992.271,-31.250,-65.430,-83.984,-27.832,0.000
1727412992.275,-76.660,-64.453,-83.984,-38.574,0.000
1727412992.279,-55.664,-61.035,-76.660,-37.109,0.000
1727412992.282,0.488,-57.617,-72.266,-29.785,0.000
1727412992.286,18.555,-62.012,-75.195,-18.555,0.000
1727412992.290,-30.762,-54.199,-74.707,-29.297,0.000
1727412992.294,-76.660,-42.969,-66.895,-38.086,0.000
1727412992.298,-49.805,-37.598,-59.570,-25.391,0.000
1727412992.302,8.301,-44.434,-59.082,-11.719,0.000
1727412992.306,30.762,-50.293,-62.988,-14.160,0.000
1727412992.310,-11.719,-48.340,-62.500,-14.160,0.000
1727412992.314,-65.430,-41.016,-59.082,-20.996,0.000
1727412992.318,-45.898,-44.922,-49.805,-20.508,0.000
1727412992.322,15.625,-56.152,-43.945,0.000,0.000
1727412992.325,38.086,-42.480,-44.922,6.348,0.000
1727412992.329,-1.953,-37.598,-47.852,5.371,0.000
1727412992.333,-60.059,-41.016,-41.016,-6.836,0.000
1727412992.337,-46.875,-32.715,-33.203,-8.301,0.000
1727412992.341,21.484,-29.785,-26.855,13.672,0.000
1727412992.345,49.805,-39.551,-23.926,22.949,0.000
1727412992.349,15.137,-48.828,-25.391,18.555,0.000
1727412992.353,-58.105,-56.152,-40.527,-13.184,0.000
1727412992.357,-60.547,-52.734,-47.363,-24.902,0.000
1727412992.361,16.113,-41.016,-34.668,-2.930,0.000
1727412992.365,45.410,-22.461,-31.250,6.836,0.000
1727412992.368,13.672,-20.996,-33.691,14.160,0.000
1727412992.372,-46.875,-36.621,-40.527,-3.418,0.000
1727412992.376,-74.707,-34.180,-46.387,-23.438,0.000
1727412992.380,-26.367,-32.715,-45.898,-9.277,0.000
1727412992.384,36.621,-44.434,-47.852,-1.953,0.000
1727412992.388,17.578,-41.992,-65.430,-14.160,0.000
1727412992.392,-52.734,-38.086,-72.266,-17.578,0.000
1727412992.396,-72.266,-39.551,-57.617,-27.344,0.000
1727412992.400,-23.438,-44.922,-50.781,-32.715,0.000
1727412992.404,16.602,-53.223,-57.617,-24.414,0.000
1727412992.407,-0.977,-43.945,-64.453,-26.367,0.000
1727412992.411,-62.012,-28.320,-64.453,-34.180,0.000
1727412992.415,-97.656,-32.715,-60.059,-35.645,0.000
1727412992.419,-44.434,-48.340,-60.547,-24.414,0.000
1727412992.423,17.090,-48.340,-60.547,-13.672,0.000
1727412992.427,13.672,-40.527,-56.641,-1.465,0.000
1727412992.431,-41.016,-32.227,-53.223,-8.789,0.000
1727412992.435,-72.266,-36.133,-51.758,-21.484,0.000
1727412992.439,-33.203,-45.410,-49.316,-20.508,0.000
1727412992.443,13.184,-47.363,-47.363,-18.555,0.000
1727412992.447,11.719,-43.945,-47.852,-15.625,0.000
1727412992.450,-16.602,-29.297,-48.340,-14.648,0.000
1727412992.454,0.000,-24.414,-40.527,-16.113,0.000
1727412992.458,0.000,-34.668,-37.109,-20.020,0.000
1727412992.462,0.000,-39.551,-30.273,7.812,0.000
1727412992.466,0.000,-38.086,-28.809,22.949,0.000
1727412992.470,0.000,-37.598,-33.691,3.906,0.000
1727412992.474,0.000,-38.086,-31.250,-9.766,0.000
1727412992.478,0.000,-24.902,-24.414,-4.395,0.000
1727412992.482,0.000,-27.344,-30.762,12.695,0.000
1727412992.486,0.000,-28.320,-34.180,11.719,0.000
1727412992.490,0.000,-19.043,-31.250,7.812,0.000
1727412992.493,0.000,-20.508,-32.227,1.465,0.000
1727412992.497,0.000,-25.879,-20.508,4.395,0.000
1727412992.501,29.785,-35.645,-13.672,17.090,0.000
1727412992.505,45.898,-43.457,-21.973,17.578,0.000
1727412992.509,-3.418,-45.898,-32.227,9.766,0.000
1727412992.513,-58.594,-38.086,-35.156,-2.930,0.000
1727412992.517,-50.781,-37.109,-30.762,-11.230,0.000
1727412992.521,-2.441,-39.062,-39.551,-14.160,0.000
1727412992.525,32.715,-39.551,-51.270,-9.766,0.000
1727412992.529,0.977,-35.156,-53.711,-7.324,0.000
1727412992.532,-69.824,-27.832,-42.969,-20.996,0.000
1727412992.536,-74.707,-32.227,-30.762,-31.250,0.000
1727412992.540,-9.277,-35.156,-32.715,-19.531,0.000
1727412992.544,27.344,-26.855,-29.785,-15.137,0.000
1727412992.548,-11.719,-27.832,-33.203,-20.508,0.000
1727412992.552,-69.824,-31.738,-42.969,-37.109,0.000
1727412992.556,-80.078,-31.738,-41.016,-52.246,0.000
1727412992.560,-26.855,-30.273,-42.969,-41.504,0.000
1727412992.564,23.438,-23.926,-46.875,-28.809,0.000
1727412992.568,-0.488,-22.461,-50.293,-22.949,0.000
1727412992.572,-65.918,-21.973,-59.570,-22.461,0.000
1727412992.575,-75.195,-25.391,-61.523,-36.621,0.000
1727412992.579,-25.391,-31.250,-54.688,-35.156,0.000
1727412992.583,12.207,-35.645,-49.805,-17.578,0.000
1727412992.587,2.441,-38.086,-49.805,-16.113,0.000
1727412992.591,-43.945,-22.461,-47.852,-20.020,0.000
1727412992.595,-72.754,-14.648,-39.551,-24.414,0.000
1727412992.599,-26.855,-26.367,-38.574,-19.043,0.000
1727412992.603,24.902,-33.203,-36.621,-5.859,0.000
1727412992.607,11.719,-34.180,-30.273,-2.441,0.000
1727412992.611,-41.016,-31.738,-28.320,-14.648,0.000
1727412992.615,-73.730,-29.297,-24.414,-24.902,0.000
1727412992.618,-30.273,-22.949,-20.020,-14.160,0.000
1727412992.622,28.809,-25.879,-25.879,-14.648,0.000
1727412992.626,32.715,-42.480,-28.809,-15.625,0.000
1727412992.630,-25.391,-34.180,-29.785,-20.020,0.000
1727412992.634,-56.641,-23.438,-24.414,-31.250,0.000
1727412992.638,-33.203,-33.691,-22.949,-35.156,0.000
1727412992.642,16.113,-37.109,0.000,-22.949,0.000
1727412992.646,27.832,-28.809,0.000,-6.348,0.000
1727412992.650,-32.227,-24.902,0.000,-15.625,0.000
1727412992.654,-79.590,-22.461,0.000,-38.574,0.000
1727412992.657,-33.691,-21.973,0.000,-20.996,0.000
1727412992.661,28.320,-22.949,0.000,-1.953,0.000
1727412992.665,27.832,-31.738,0.000,-1.465,0.000
1727412992.669,-26.367,-38.086,0.000,-20.020,0.000
1727412992.673,-73.242,-36.133,0.000,-38.086,0.000
1727412992.677,-49.316,-28.809,0.000,-12.695,0.000
1727412992.681,1.953,-14.648,0.000,-3.418,0.000
1727412992.685,20.020,-15.137,0.000,-29.297,0.000
1727412992.689,-17.578,-29.785,-51.270,-38.086,0.000
1727412992.693,-76.660,-33.203,-43.457,-31.250,0.000
1727412992.697,-73.730,-22.461,-44.922,-37.598,0.000
1727412992.700,-7.324,-21.484,-45.410,-30.273,0.000
1727412992.704,29.297,-21.973,-38.086,-19.531,0.000
1727412992.708,-1.953,-23.438,-42.969,-23.926,0.000
1727412992.712,-57.129,-29.297,-49.805,-28.320,0.000
1727412992.716,-68.359,-23.926,-40.527,-29.297,0.000
1727412992.720,-13.184,-24.902,-33.691,-18.555,0.000
1727412992.724,21.973,-33.203,-38.086,-11.719,0.000
1727412992.728,-15.625,-39.062,-51.758,-21.973,0.000
1727412992.732,-80.078,-38.574,-51.758,-37.598,0.000
1727412992.736,-84.961,-48.828,-37.598,-43.457,0.000
1727412992.740,-22.949,-50.293,-27.832,-31.250,0.000
1727412992.743,31.250,-35.156,-27.344,-11.719,0.000
1727412992.747,-0.488,-32.715,-29.785,-5.859,0.000
1727412992.751,-78.613,-48.340,-31.250,-20.020,0.000
1727412992.755,-96.191,-50.781,-24.902,-36.133,0.000
1727412992.759,-40.527,-37.109,-23.926,-32.227,0.000
1727412992.763,15.625,-28.320,-30.762,-15.625,0.000
1727412992.767,9.766,-33.203,-35.645,-5.371,0.000
1727412992.771,-61.035,-35.645,-44.434,-27.832,0.000
1727412992.775,-89.355,-26.855,-34.668,-36.133,0.000
1727412992.779,-30.762,-17.578,-24.902,-12.207,0.000
1727412992.783,24.414,-24.414,-30.762,-2.441,0.000
1727412992.786,22.461,-34.180,-22.949,-10.254,0.000
1727412992.790,-30.273,-29.297,-19.043,-30.273,0.000
1727412992.794,-61.035,-20.508,-24.414,-38.574,0.000
1727412992.798,-24.414,-10.742,-24.902,-37.598,0.000
1727412992.802,22.949,-9.277,-27.344,-32.715,0.000
1727412992.806,25.879,-15.137,-31.738,-25.879,0.000
1727412992.810,-27.344,-19.531,-28.809,-31.250,0.000
1727412992.814,-77.148,-16.602,-19.531,-31.738,0.000
1727412992.818,-42.969,-13.184,-16.602,-28.320,0.000
1727412992.822,6.836,-14.160,-23.438,-39.062,0.000
1727412992.825,-9.766,-20.996,-31.738,-32.715,0.000
1727412992.829,0.000,-34.668,-32.715,-26.367,0.000
1727412992.833,0.000,-37.598,-28.320,-41.504,0.000
1727412992.837,0.000,-33.691,-25.879,-48.340,0.000
1727412992.841,0.000,-29.785,-22.461,-31.738,0.000
1727412992.845,0.000,-17.090,-24.902,-24.414,0.000
1727412992.849,0.000,-20.508,-34.180,-31.738,0.000
1727412992.853,0.000,-34.180,-32.227,-49.805,0.000
1727412992.857,0.000,-35.156,-30.273,-52.246,0.000
1727412992.861,0.000,-39.062,-39.062,-44.922,0.000
1727412992.865,0.000,-39.551,-45.410,-44.922,0.000
1727412992.868,0.000,-30.273,-40.039,-37.109,0.000
1727412992.872,0.000,-28.809,-31.738,-45.410,0.000
1727412992.876,-100.586,-27.344,-28.809,-58.594,0.000
1727412992.880,-42.480,-34.180,-36.133,-42.480,0.000
1727412992.884,-8.789,-44.434,-34.180,-31.250,0.000
1727412992.888,-26.367,-42.480,-32.715,-39.062,0.000
1727412992.892,-84.473,-36.621,-36.621,-44.434,0.000
1727412992.896,-89.355,-34.668,-30.762,-52.246,0.000
1727412992.900,-25.391,-34.668,-26.367,-39.062,0.000
1727412992.904,5.859,-33.203,-35.156,-22.949,0.000
1727412992.908,-20.508,-24.414,-45.898,-30.273,0.000
1727412992.911,-69.336,-18.555,-44.922,-35.156,0.000
1727412992.915,-73.242,-11.719,-36.621,-36.621,0.000
1727412992.919,-14.648,-8.301,-31.738,-23.438,0.000
1727412992.923,24.414,-0.977,-33.203,-16.113,0.000
1727412992.927,15.137,6.836,-30.762,-19.531,0.000
1727412992.931,-49.316,2.441,-26.855,-20.508,0.000
1727412992.935,-68.848,6.348,-22.461,-25.391,0.000
1727412992.939,-6.348,6.836,-17.578,-20.508,0.000
1727412992.943,44.922,3.418,-16.602,2.441,0.000
1727412992.947,34.668,5.859,-16.113,10.254,0.000
1727412992.950,-25.391,13.184,-15.625,-7.324,0.000
1727412992.954,-55.176,14.160,-18.555,-18.555,0.000
1727412992.958,-12.695,-2.441,-17.090,-15.625,0.000
1727412992.962,37.109,-0.488,-11.719,-4.883,0.000
1727412992.966,30.762,16.113,-3.906,2.441,0.000
1727412992.970,-26.855,3.906,-0.977,-9.766,0.000
1727412992.974,-48.828,-11.230,-9.766,-32.227,0.000
1727412992.978,-15.625,-18.555,-13.672,-23.926,0.000
1727412992.982,12.695,-24.414,-5.859,-11.719,0.000
1727412992.986,9.766,-18.066,-9.766,-13.184,0.000
1727412992.990,-41.016,-22.949,-18.555,-15.137,0.000
1727412992.993,-96.191,-35.645,-15.625,-25.879,0.000
1727412992.997,-57.129,-52.734,-15.137,-33.203,0.000
1727412993.001,6.348,-66.895,-19.043,-33.691,0.000
1727412993.005,1.465,-71.289,-27.344,-26.367,0.000
1727412993.009,-41.992,-76.660,-33.691,-37.109,0.000
1727412993.013,-88.379,-78.125,-29.297,-52.734,0.000
1727412993.017,-62.988,-60.547,-23.926,-36.621,0.000
1727412993.021,10.254,-52.246,-26.367,-24.414,0.000
1727412993.025,23.438,-62.012,-31.250,-31.250,0.000
1727412993.029,-33.691,-76.172,-38.574,-30.273,0.000
1727412993.033,-93.262,-77.148,-35.156,-30.762,0.000
