timestamps,TP9,AF7,AF8,TP10,Right AUX
1727575616.280,-54.688,-49.805,-37.109,-36.621,0.000
1727575616.284,-25.391,-52.734,-31.250,-10.742,0.000
1727575616.288,-12.695,-46.387,-46.387,-24.414,0.000
1727575616.292,-6.348,-45.410,-42.969,-26.367,0.000
1727575616.296,-53.711,-57.617,-37.109,-50.293,0.000
1727575616.299,-59.570,-52.734,-36.621,-31.250,0.000
1727575616.303,-30.273,-39.062,-32.227,2.441,0.000
1727575616.307,-18.066,-39.062,-31.738,-5.371,0.000
1727575616.311,6.348,-25.879,-34.668,-22.461,0.000
1727575616.315,-30.273,-38.574,-46.387,-44.434,0.000
1727575616.319,-52.734,-54.688,-52.246,-26.855,0.000
1727575616.323,-15.625,-26.367,-36.133,10.742,0.000
1727575616.323,-15.625,-26.367,-36.133,10.742,0.000
1727575616.327,-9.766,-21.484,-28.320,-6.836,0.000
1727575616.331,4.395,-33.203,-44.922,-25.879,0.000
1727575616.334,-11.230,-41.992,-45.898,-17.090,0.000
1727575616.338,-45.410,-50.781,-30.273,-5.371,0.000
1727575616.342,-23.926,-40.527,-32.715,10.254,0.000
1727575616.346,-16.602,-40.039,-48.340,-4.883,0.000
1727575616.350,-0.977,-45.410,-41.992,-11.719,0.000
1727575616.354,-23.926,-32.227,-32.715,-18.555,0.000
1727575616.358,-65.918,-32.227,-30.273,-14.648,0.000
1727575616.362,-31.738,-43.945,-28.809,23.926,0.000
1727575616.366,-9.766,-40.039,-30.762,16.602,0.000
1727575616.370,1.953,-36.133,-32.227,-3.418,0.000
1727575616.374,-6.836,-39.062,-38.086,-17.578,0.000
1727575616.378,-58.594,-35.156,-40.527,-35.645,0.000
1727575616.381,-39.551,-20.020,-29.297,-3.418,0.000
1727575616.385,-11.719,-12.695,-19.531,2.441,0.000
1727575616.389,10.254,-18.066,-27.832,-23.438,0.000
1727575616.393,4.395,-45.410,-43.945,-47.852,0.000
1727575616.397,-53.711,-53.711,-45.410,-69.824,0.000
1727575616.401,-50.293,-20.020,-37.598,-36.621,0.000
1727575616.405,-29.297,-18.555,-33.691,-23.926,0.000
1727575616.409,-4.395,-49.805,-41.504,-35.156,0.000
1727575616.413,-8.789,-43.457,-41.504,-42.480,0.000
1727575616.417,-59.570,-35.645,-40.039,-56.641,0.000
1727575616.421,-56.152,-34.180,-44.434,-26.855,0.000
1727575616.425,-41.016,-28.320,-40.039,-10.742,0.000
1727575616.429,-28.320,-17.578,-39.551,-27.832,0.000
1727575616.433,-15.137,-27.832,-45.410,-37.109,0.000
1727575616.437,-51.758,-49.805,-50.781,-55.176,0.000
1727575616.440,-48.340,-32.227,-40.039,-29.297,0.000
1727575616.444,-20.020,-19.531,-33.203,-1.953,0.000
1727575616.448,-15.137,-29.785,-36.621,-8.789,0.000
1727575616.452,8.301,-35.156,-35.645,-9.277,0.000
1727575616.456,-26.855,-33.203,-34.180,-24.902,0.000
1727575616.460,-52.246,-15.137,-30.273,-13.184,0.000
1727575616.464,-31.250,-5.859,-35.645,9.277,0.000
1727575616.468,-25.879,-14.160,-45.410,-8.789,0.000
1727575616.472,-0.977,-21.484,-41.016,-20.020,0.000
1727575616.476,-20.020,-39.062,-36.133,-40.039,0.000
1727575616.480,-61.523,-27.832,-43.945,-36.621,0.000
1727575616.483,-33.691,-29.785,-36.133,-0.977,0.000
1727575616.487,-0.488,-55.664,-30.762,-0.977,0.000
1727575616.491,1.953,-48.828,-45.410,-27.344,0.000
1727575616.495,-37.109,-50.781,-50.781,-52.734,0.000
1727575616.499,-73.242,-56.152,-46.387,-59.082,0.000
1727575616.503,-49.805,-32.227,-39.062,-32.715,0.000
1727575616.507,-42.480,-23.926,-38.086,-41.504,0.000
1727575616.511,-13.672,-30.273,-34.668,-49.316,0.000
1727575616.515,-6.836,-45.410,-40.527,-45.410,0.000
1727575616.519,-59.570,-54.688,-42.969,-53.223,0.000
1727575616.523,-53.711,-32.715,-34.180,-26.367,0.000
1727575616.526,-28.809,-18.555,-41.016,-18.066,0.000
1727575616.530,-16.602,-30.273,-48.828,-34.180,0.000
1727575616.534,-23.438,-34.180,-47.852,-46.875,0.000
1727575616.538,-50.293,-32.227,-41.504,-39.062,0.000
1727575616.542,-48.828,-28.320,-43.945,-10.254,0.000
1727575616.546,-42.969,-24.902,-45.898,-12.695,0.000
1727575616.550,-27.344,-14.160,-44.922,-34.180,0.000
1727575616.554,-15.137,-36.621,-55.176,-37.598,0.000
1727575616.558,-67.871,-56.641,-55.664,-48.340,0.000
1727575616.562,-78.613,-21.484,-46.387,-28.809,0.000
1727575616.565,-34.180,-14.648,-41.504,-15.625,0.000
1727575616.569,-11.719,-21.973,-43.457,-27.344,0.000
1727575616.573,-9.277,-31.250,-38.086,-30.273,0.000
1727575616.577,-53.711,-37.109,-39.551,-57.617,0.000
1727575616.581,-66.406,-23.438,-38.574,-31.738,0.000
1727575616.585,-25.879,-27.344,-31.738,-5.859,0.000
1727575616.589,-7.812,-49.805,-38.086,-22.949,0.000
1727575616.593,-6.348,-38.086,-40.039,-37.598,0.000
1727575616.597,-58.594,-16.602,-44.922,-77.637,0.000
1727575616.601,-62.500,-31.250,-40.527,-41.504,0.000
1727575616.605,-21.484,-39.551,-28.320,7.324,0.000
1727575616.608,-9.277,-40.039,-24.902,-25.879,0.000
1727575616.612,8.789,-35.645,-31.250,-38.574,0.000
1727575616.616,-34.668,-29.785,-47.852,-55.176,0.000
1727575616.620,-68.359,-43.457,-50.293,-47.852,0.000
1727575616.624,-39.062,-55.176,-34.180,-7.324,0.000
1727575616.628,-15.137,-59.082,-33.203,-24.902,0.000
1727575616.632,-4.395,-62.500,-38.086,-41.016,0.000
1727575616.636,-37.598,-59.082,-46.387,-49.805,0.000
1727575616.640,-65.918,-42.969,-37.598,-41.016,0.000
1727575616.643,-41.992,-32.715,-14.648,-10.254,0.000
1727575616.647,-29.785,-28.320,-25.879,-24.902,0.000
1727575616.651,-22.949,-21.973,-35.645,-50.293,0.000
1727575616.655,-42.480,-29.297,-33.691,-72.754,0.000
1727575616.659,-76.660,-30.273,-37.109,-72.266,0.000
1727575616.663,-55.176,-32.715,-33.203,-25.391,0.000
1727575616.667,-32.227,-37.598,-31.738,-14.648,0.000
1727575616.671,-7.812,-31.738,-28.809,-27.832,0.000
1727575616.675,-14.160,-38.574,-36.133,-38.086,0.000
1727575616.679,-51.758,-53.223,-39.551,-42.969,0.000
1727575616.682,-36.621,-24.902,-34.668,-14.160,0.000
1727575616.686,-22.461,6.836,-38.086,-15.625,0.000
1727575616.690,-0.488,-7.324,-38.574,-32.227,0.000
1727575616.694,15.625,-21.484,-45.410,-35.645,0.000
1727575616.698,-24.902,-9.766,-46.387,-51.270,0.000
1727575616.702,-36.133,-5.859,-42.969,-15.625,0.000
1727575616.706,-6.836,-22.949,-38.086,15.137,0.000
1727575616.710,14.648,-27.344,-35.156,-13.184,0.000
1727575616.713,22.949,-32.227,-40.527,-29.297,0.000
1727575616.717,-23.926,-40.039,-52.246,-41.016,0.000
1727575616.721,-31.250,-28.809,-41.992,-16.602,0.000
1727575616.725,-25.391,-29.785,-36.621,-1.465,0.000
1727575616.729,-25.391,-29.297,-34.668,-23.926,0.000
1727575616.733,-7.812,-16.602,-44.922,-37.109,0.000
1727575616.737,-57.129,-20.020,-51.270,-62.500,0.000
1727575616.741,-64.453,-30.273,-38.086,-41.992,0.000
1727575616.745,-39.551,-23.438,-39.551,-16.113,0.000
1727575616.749,-19.043,-27.832,-42.480,-27.344,0.000
1727575616.753,5.371,-28.320,-41.992,-35.645,0.000
1727575616.757,-45.898,-30.762,-40.527,-57.617,0.000
1727575616.761,-66.406,-38.574,-37.109,-43.457,0.000
1727575616.764,-39.062,-31.738,-36.621,-5.371,0.000
1727575616.768,-20.508,-40.039,-34.180,-19.043,0.000
1727575616.772,-0.488,-23.926,-40.527,-29.785,0.000
1727575616.776,-28.809,-26.367,-40.527,-45.410,0.000
1727575616.780,-63.965,-41.504,-42.480,-54.199,0.000
1727575616.784,-50.293,-38.086,-47.363,-20.508,0.000
1727575616.788,-43.457,-41.992,-45.410,-28.320,0.000
1727575616.792,-15.625,-46.387,-41.504,-52.246,0.000
1727575616.796,-23.438,-55.176,-48.340,-57.617,0.000
1727575616.800,-68.359,-41.016,-48.828,-55.664,0.000
1727575616.804,-50.293,-12.207,-36.621,-34.668,0.000
1727575616.807,-40.039,-12.695,-39.062,-40.527,0.000
1727575616.811,-22.461,-16.602,-46.875,-49.805,0.000
1727575616.815,-16.602,-25.391,-49.805,-55.664,0.000
1727575616.819,-59.082,-19.531,-46.875,-62.500,0.000
1727575616.823,-37.598,-7.812,-31.250,-16.113,0.000
1727575616.827,-18.555,-34.668,-38.086,-11.230,0.000
1727575616.831,3.906,-39.062,-50.293,-26.367,0.000
1727575616.835,5.859,-5.859,-42.480,-27.344,0.000
1727575616.839,-42.969,-12.695,-36.621,-33.203,0.000
1727575616.843,-37.109,-22.461,-32.715,2.930,0.000
1727575616.847,-20.996,-30.762,-32.227,4.883,0.000
1727575616.850,-10.254,-25.879,-36.133,-21.973,0.000
1727575616.854,-14.160,-25.879,-39.062,-38.086,0.000
1727575616.858,-53.223,-33.203,-45.410,-49.316,0.000
1727575616.862,-50.293,-24.414,-41.992,-10.742,0.000
1727575616.866,-33.203,-22.461,-31.250,-6.836,0.000
1727575616.870,-9.766,-40.039,-41.992,-31.738,0.000
1727575616.874,-7.324,-51.270,-48.828,-33.203,0.000
1727575616.878,-58.594,-40.527,-43.945,-56.641,0.000
1727575616.882,-62.012,-16.113,-33.691,-40.527,0.000
1727575616.886,-31.250,-9.277,-32.715,-11.230,0.000
1727575616.890,-11.230,-32.715,-31.738,-25.879,0.000
1727575616.893,6.836,-29.297,-25.879,-39.551,0.000
1727575616.897,-43.457,-37.598,-32.715,-58.105,0.000
1727575616.901,-67.383,-46.875,-33.203,-35.645,0.000
1727575616.905,-42.969,-24.414,-30.762,-4.883,0.000
1727575616.909,-20.508,-23.438,-33.203,-14.160,0.000
1727575616.913,-0.977,-23.926,-38.574,-26.855,0.000
1727575616.917,-51.758,-32.715,-52.246,-60.059,0.000
1727575616.921,-64.453,-51.758,-45.898,-41.016,0.000
1727575616.925,-36.133,-22.461,-33.203,-7.812,0.000
1727575616.929,-29.297,-9.766,-41.992,-22.461,0.000
1727575616.933,-5.371,-21.484,-42.480,-31.738,0.000
1727575616.936,-18.066,-29.785,0.000,-51.758,0.000
1727575616.940,-46.875,-27.344,0.000,-62.500,0.000
1727575616.944,-22.461,-11.719,0.000,-19.531,0.000
1727575616.948,-19.531,-2.930,0.000,-9.277,0.000
1727575616.952,-20.020,-8.789,0.000,-32.715,0.000
1727575616.956,-26.367,-29.785,0.000,-51.270,0.000
1727575616.960,-55.176,-30.273,0.000,-60.059,0.000
1727575616.964,-32.227,-21.973,0.000,-6.836,0.000
1727575616.968,-17.090,-12.207,0.000,4.883,0.000
1727575616.972,0.000,1.953,0.000,-25.879,0.000
1727575616.975,-0.977,-16.602,0.000,-35.645,0.000
1727575616.979,-38.086,-40.039,0.000,-25.879,0.000
1727575616.983,-31.250,-12.207,-22.949,-0.488,0.000
1727575616.987,-12.207,4.883,-35.156,5.859,0.000
1727575616.991,8.301,2.441,-46.387,-2.441,0.000
1727575616.995,-3.906,-11.719,-51.758,-26.367,0.000
1727575616.999,-55.664,-38.574,-47.363,-53.223,0.000
1727575617.003,-37.109,-21.973,-35.156,-22.949,0.000
1727575617.007,-18.066,-27.344,-42.480,-12.695,0.000
1727575617.011,-17.090,-63.477,-49.316,-21.973,0.000
1727575617.014,-11.719,-34.668,-46.387,-35.156,0.000
1727575617.018,-45.410,-30.273,-52.734,-56.641,0.000
1727575617.022,-45.410,-26.367,-42.969,-30.273,0.000
1727575617.026,-23.438,0.977,-29.785,-1.465,0.000
1727575617.030,-20.508,0.977,-31.250,-26.367,0.000
1727575617.034,-12.695,-19.043,-42.969,-48.340,0.000
1727575617.038,-36.621,-35.645,-47.363,-48.340,0.000
1727575617.042,-51.758,-15.137,-38.574,-35.156,0.000
1727575617.046,-27.832,-10.742,-38.086,-12.207,0.000
1727575617.049,-9.766,-26.855,-47.852,-28.809,0.000
1727575617.053,8.789,-31.250,-53.711,-43.457,0.000
1727575617.057,-32.715,-35.156,-50.293,-49.316,0.000
1727575617.061,-69.336,-21.484,-44.922,-44.434,0.000
1727575617.065,-43.457,-16.113,-44.922,-20.996,0.000
1727575617.069,-27.832,-33.691,-44.434,-18.066,0.000
1727575617.073,-15.625,-27.832,-50.293,-26.367,0.000
1727575617.077,-31.250,-17.090,-56.152,-48.340,0.000
1727575617.081,-60.547,-30.762,-50.293,-50.781,0.000
1727575617.084,-47.852,-28.809,-37.109,-19.531,0.000
1727575617.088,-19.531,-26.367,-39.062,-18.066,0.000
1727575617.092,-3.418,-24.902,-46.387,-32.227,0.000
1727575617.096,-31.250,-34.668,-50.293,-44.434,0.000
1727575617.100,-63.965,-47.852,-50.293,-46.387,0.000
1727575617.104,-47.852,-16.602,-38.086,-16.602,0.000
1727575617.108,-20.996,-16.113,-35.645,-21.484,0.000
1727575617.112,9.766,-39.062,-37.598,-32.715,0.000
1727575617.116,-3.906,-40.527,-45.410,-36.621,0.000
1727575617.120,-60.059,-38.574,-46.387,-52.246,0.000
1727575617.124,-48.340,-33.203,0.000,-15.625,0.000
1727575617.128,-10.254,-28.320,0.000,5.371,0.000
1727575617.131,5.859,-18.066,0.000,-13.672,0.000
1727575617.135,-12.207,-32.227,0.000,-41.016,0.000
1727575617.139,-73.242,-53.711,0.000,-63.965,0.000
1727575617.143,-59.570,-43.945,0.000,-17.090,0.000
1727575617.147,-38.574,-31.250,0.000,-1.953,0.000
1727575617.151,-23.926,-28.320,0.000,-29.297,0.000
1727575617.155,-6.348,-29.297,0.000,-41.992,0.000
1727575617.159,-52.734,-43.457,0.000,-48.828,0.000
1727575617.163,-56.641,-31.738,0.000,-14.160,0.000
1727575617.167,-23.926,-19.043,0.000,-7.812,0.000
1727575617.171,-20.508,-20.996,-37.109,-35.156,0.000
1727575617.175,-19.043,-21.973,-45.898,-41.504,0.000
1727575617.178,-38.086,-25.391,-43.457,-45.410,0.000
1727575617.182,-39.062,-24.902,-46.387,-14.648,0.000
1727575617.186,-20.020,-20.508,-42.969,15.137,0.000
1727575617.190,-11.230,-14.648,-42.969,-2.441,0.000
1727575617.194,11.230,-18.066,-47.363,-13.672,0.000
1727575617.198,-27.832,-23.926,-52.734,-40.039,0.000
1727575617.202,-50.781,-26.367,-48.828,-23.926,0.000
1727575617.206,-28.809,-13.184,-45.410,9.277,0.000
1727575617.210,-24.902,-13.184,-46.875,-18.066,0.000
1727575617.214,-3.906,-41.504,-41.992,-43.945,0.000
1727575617.218,-28.809,-46.387,-52.246,-61.523,0.000
1727575617.221,-72.266,-34.180,-46.875,-55.176,0.000
1727575617.225,-52.246,-19.043,-23.926,-25.879,0.000
1727575617.229,-23.438,-16.113,-40.527,-29.297,0.000
1727575617.233,-2.930,-23.438,-43.945,-48.340,0.000
1727575617.237,-41.992,-29.785,-26.855,-76.172,0.000
1727575617.241,-72.266,-21.973,-10.742,-58.594,0.000
1727575617.245,-31.250,-26.367,-19.043,1.465,0.000
1727575617.249,-13.672,-43.945,-40.039,-2.930,0.000
1727575617.253,-41.504,-25.391,-14.648,-56.641,0.000
1727575617.257,-36.621,-17.578,-24.902,-41.504,0.000
1727575617.260,-34.668,-36.133,-48.828,-17.090,0.000
1727575617.264,-5.371,-35.645,-36.133,7.812,0.000
1727575617.268,14.160,-27.832,-42.969,7.812,0.000
1727575617.272,9.766,-28.320,-51.758,-12.695,0.000
1727575617.276,-2.930,-6.348,-41.992,-28.320,0.000
1727575617.280,-59.570,-27.344,-31.250,-51.270,0.000
1727575617.284,-74.219,-49.316,-44.434,-20.020,0.000
1727575617.288,-138.184,-32.715,19.531,-50.781,0.000
1727575617.292,-131.348,-26.855,43.457,-92.773,0.000
1727575617.296,10.742,-43.945,-64.941,1.465,0.000
1727575617.300,-123.535,-4.395,4.395,-72.754,0.000
1727575617.303,-63.965,-28.320,19.043,-31.738,0.000
1727575617.307,84.473,-72.266,-77.148,84.473,0.000
1727575617.311,0.000,-28.809,20.020,-111.816,0.000
1727575617.315,0.000,-41.504,57.129,-153.809,0.000
1727575617.319,0.000,-73.242,-5.371,-97.168,0.000
1727575617.323,0.000,14.648,-5.371,-153.320,0.000
1727575617.327,0.000,-50.781,-83.496,65.918,0.000
1727575617.331,0.000,-47.363,-91.309,17.578,0.000
1727575617.335,0.000,38.574,-52.734,-123.047,0.000
1727575617.339,0.000,-83.496,-55.664,-14.160,0.000
1727575617.342,0.000,-108.398,-109.375,56.641,0.000
1727575617.346,0.000,-28.320,-84.961,67.871,0.000
1727575617.350,0.000,-56.152,57.129,-191.406,0.000
1727575617.354,0.000,-91.797,-31.250,-162.109,0.000
1727575617.358,-145.508,-94.727,-144.531,-56.152,0.000
1727575617.362,-39.551,-127.930,-163.086,75.195,0.000
1727575617.366,37.598,-87.402,-80.078,101.562,0.000
1727575617.370,-38.574,-97.168,-27.832,6.836,0.000
1727575617.374,130.859,-73.730,-144.043,59.082,0.000
1727575617.378,165.527,-83.008,-150.391,104.004,0.000
1727575617.381,19.531,-111.816,-86.914,52.734,0.000
1727575617.385,-47.852,-47.852,-134.766,39.551,0.000
1727575617.389,107.910,-86.914,-114.746,115.234,0.000
1727575617.393,125.000,-76.660,14.160,44.434,0.000
1727575617.397,83.008,-84.961,-32.715,-10.254,0.000
1727575617.401,106.445,-88.867,-108.887,29.785,0.000
1727575617.405,-21.973,15.137,-104.980,29.297,0.000
1727575617.409,-18.555,-70.801,-67.383,44.434,0.000
1727575617.413,83.496,-86.914,-73.242,18.066,0.000
1727575617.416,64.453,-79.590,-108.398,-3.418,0.000
1727575617.420,66.406,-113.770,-79.102,13.672,0.000
1727575617.424,76.660,-86.426,-32.715,67.383,0.000
1727575617.428,27.832,-50.293,-82.031,55.664,0.000
1727575617.432,12.695,-41.992,-77.637,1.953,0.000
1727575617.436,53.223,-76.172,-73.242,-0.488,0.000
1727575617.440,-21.484,-104.004,-81.055,-32.715,0.000
1727575617.444,28.809,-119.629,-39.551,42.480,0.000
1727575617.448,57.129,-55.664,-39.551,44.434,0.000
1727575617.452,35.645,-25.391,-50.293,-14.160,0.000
1727575617.456,95.215,-19.531,-64.941,10.742,0.000
1727575617.460,0.488,-29.297,-51.270,-13.672,0.000
1727575617.464,-52.734,-24.902,-7.324,-34.668,0.000
1727575617.467,-3.906,-20.508,-27.832,0.000,0.000
1727575617.471,18.066,-47.852,-65.918,4.395,0.000
1727575617.475,45.410,-58.594,-43.945,-11.719,0.000
1727575617.479,-20.996,-56.152,19.531,-72.266,0.000
1727575617.483,-55.664,-23.926,-51.270,-48.340,0.000
1727575617.487,27.832,-40.527,-69.824,48.828,0.000
1727575617.491,2.441,-39.551,-38.086,28.320,0.000
1727575617.495,-69.336,-11.230,-28.320,-58.594,0.000
1727575617.498,0.488,-72.754,-27.344,-33.691,0.000
1727575617.502,-14.648,-76.660,-32.227,-15.137,0.000
1727575617.506,-33.203,-68.848,-14.160,3.906,0.000
1727575617.510,-0.488,-42.480,-22.949,2.441,0.000
1727575617.514,55.664,-29.785,-24.414,-10.742,0.000
1727575617.518,21.484,-49.805,-21.484,-9.277,0.000
1727575617.522,-38.574,-48.340,-33.203,-9.766,0.000
1727575617.526,-5.859,-38.086,-31.738,13.672,0.000
1727575617.530,5.859,-39.551,-39.551,3.418,0.000
1727575617.534,9.766,-60.547,-40.527,-2.441,0.000
1727575617.538,3.906,-58.105,-29.785,-18.555,0.000
1727575617.541,-41.016,-31.250,-29.785,-34.668,0.000
1727575617.545,-24.414,-17.578,-29.297,1.953,0.000
1727575617.549,-8.789,-22.461,-27.344,12.695,0.000
1727575617.553,-5.859,-28.809,-31.250,-6.836,0.000
1727575617.557,-3.906,-33.203,-32.715,-36.621,0.000
1727575617.561,-36.621,-33.691,-28.320,-44.922,0.000
1727575617.565,-29.785,-4.883,-26.367,-7.324,0.000
1727575617.569,-11.230,11.230,-22.949,3.906,0.000
1727575617.573,10.742,3.906,-22.949,-5.859,0.000
1727575617.577,7.324,-13.672,-38.574,-31.738,0.000
1727575617.581,-41.992,-46.875,-41.016,-50.293,0.000
1727575617.585,-37.598,-28.809,-26.855,-20.996,0.000
1727575617.588,-8.301,-13.672,-25.879,-6.836,0.000
1727575617.592,6.836,-21.484,-28.809,-17.578,0.000
1727575617.596,1.465,-16.602,-31.250,-28.320,0.000
1727575617.600,-41.016,-23.438,-36.621,-41.992,0.000
1727575617.604,-46.387,-20.508,-32.715,-24.414,0.000
1727575617.608,-30.762,-6.348,-24.902,-11.719,0.000
1727575617.612,-20.020,-5.371,-27.344,-18.555,0.000
1727575617.616,-7.812,-10.742,-28.809,-32.227,0.000
1727575617.620,-44.922,-13.184,-29.297,-58.105,0.000
1727575617.624,-50.781,-16.602,-26.855,-17.578,0.000
1727575617.628,-18.555,-7.812,-23.438,19.043,0.000
1727575617.631,-1.465,6.836,-21.484,-9.766,0.000
1727575617.635,4.395,6.348,-25.879,-21.484,0.000
1727575617.639,-54.199,-19.043,-37.598,-48.828,0.000
1727575617.643,-64.453,-21.973,-25.879,-25.391,0.000
1727575617.647,-33.691,0.488,-7.324,11.230,0.000
1727575617.651,-31.250,-10.742,-13.184,-4.395,0.000
1727575617.655,-7.324,-15.625,-26.855,-18.066,0.000
1727575617.659,-29.297,-14.648,-27.344,-50.781,0.000
1727575617.663,-66.895,-9.766,-22.949,-39.551,0.000
1727575617.667,-36.133,9.277,-26.367,5.371,0.000
1727575617.671,-11.719,6.836,-29.785,0.000,0.000
1727575617.674,4.883,12.207,-21.484,-12.207,0.000
1727575617.678,-12.207,-3.418,-18.066,-30.273,0.000
1727575617.682,-62.500,-11.719,-22.949,-45.898,0.000
1727575617.686,-67.871,7.324,-25.879,-17.578,0.000
1727575617.690,-42.480,2.930,-14.160,-6.836,0.000
1727575617.694,3.906,-15.137,-13.672,-3.906,0.000
1727575617.698,-12.695,-48.828,-29.297,-31.738,0.000
1727575617.702,-68.359,-60.059,-34.668,-62.500,0.000
1727575617.706,-48.828,-44.922,-26.367,-31.738,0.000
1727575617.710,-28.320,-32.227,-28.809,-20.020,0.000
1727575617.713,-21.973,-29.297,-33.691,-32.715,0.000
1727575617.717,-34.668,-39.551,-30.273,-46.387,0.000
1727575617.721,-68.359,-31.250,-33.691,-66.406,0.000
1727575617.725,-62.012,-8.301,-42.480,-44.434,0.000
1727575617.729,-40.039,-15.625,-32.715,-15.625,0.000
1727575617.733,-11.230,-16.602,-26.367,-33.203,0.000
1727575617.737,-1.465,-21.973,-30.273,-45.898,0.000
1727575617.741,-55.664,-34.668,-40.527,-62.988,0.000
1727575617.745,-71.289,-20.996,-41.504,-49.316,0.000
1727575617.748,-48.828,-20.996,-37.598,-26.855,0.000
1727575617.752,-29.785,-26.855,-31.738,-34.180,0.000
1727575617.756,-8.789,-28.809,-33.203,-38.574,0.000
1727575617.760,-50.293,-41.992,-42.480,-52.734,0.000
1727575617.764,-65.918,-19.531,-33.691,-33.203,0.000
1727575617.768,-47.363,-0.488,-27.832,-9.766,0.000
1727575617.772,-36.133,-17.578,-30.273,-29.785,0.000
1727575617.776,-20.508,-26.855,-30.273,-52.246,0.000
1727575617.780,-43.945,-20.508,-37.598,-72.266,0.000
1727575617.784,-54.199,-20.020,-34.180,-41.016,0.000
1727575617.787,-40.039,-17.578,-28.809,-9.766,0.000
1727575617.791,-39.551,-11.230,-28.809,-42.480,0.000
1727575617.795,3.906,-20.996,-23.926,-46.387,0.000
1727575617.799,-16.113,-31.738,-34.668,-62.500,0.000
1727575617.803,-67.871,-27.832,-39.551,-59.082,0.000
1727575617.807,-51.270,-8.789,-38.086,-24.414,0.000
1727575617.811,-30.273,-3.418,-36.621,-28.809,0.000
1727575617.815,-10.742,-12.207,-35.156,-26.855,0.000
1727575617.819,-33.203,-26.367,-40.527,-49.316,0.000
1727575617.823,-77.637,-22.461,-41.992,-77.637,0.000
1727575617.826,-52.246,-7.324,-32.715,-38.086,0.000
1727575617.830,-18.066,-13.184,-33.203,-15.625,0.000
1727575617.834,-9.766,-27.344,-38.574,-39.551,0.000
1727575617.838,-33.691,-36.133,-48.340,-67.383,0.000
1727575617.842,-72.754,-20.996,-55.176,-70.801,0.000
1727575617.846,-46.875,-20.996,-47.363,-19.043,0.000
1727575617.850,-22.461,-40.039,-38.574,-15.137,0.000
1727575617.854,-16.602,-14.648,-35.156,-45.898,0.000
1727575617.858,-21.484,-13.184,-37.109,-43.457,0.000
1727575617.862,-72.754,-30.273,-43.457,-57.617,0.000
1727575617.865,-63.965,-14.648,-34.180,-24.902,0.000
1727575617.869,-31.250,-1.465,-33.203,-12.207,0.000
1727575617.873,-21.973,-4.395,-44.434,-47.852,0.000
1727575617.877,-20.020,-18.066,-41.504,-49.805,0.000
1727575617.881,-65.918,-32.715,-41.016,-57.617,0.000
1727575617.885,-68.848,-20.020,-37.598,-45.898,0.000
1727575617.889,-38.086,-10.254,-29.785,-25.391,0.000
1727575617.893,-18.066,-32.227,-40.527,-35.156,0.000
1727575617.897,-5.859,-31.250,-48.828,-47.363,0.000
1727575617.901,-60.059,-25.879,-43.457,-69.336,0.000
1727575617.905,-83.984,-13.672,-43.945,-45.898,0.000
1727575617.909,-53.223,-24.414,-43.945,-20.508,0.000
1727575617.912,-32.715,-34.668,-38.086,-48.828,0.000
1727575617.916,-15.137,-22.461,-39.062,-67.871,0.000
1727575617.920,-56.152,-32.227,-46.387,-76.660,0.000
1727575617.924,-77.637,-27.344,-47.363,-61.523,0.000
1727575617.928,-48.828,-12.207,-42.969,-27.344,0.000
1727575617.932,-44.922,-10.742,-49.316,-45.410,0.000
1727575617.936,-24.414,-30.273,-46.387,-65.918,0.000
1727575617.940,-37.109,-53.223,-37.598,-75.684,0.000
1727575617.944,-70.801,-36.133,-36.133,-64.941,0.000
1727575617.948,-59.082,-12.207,-32.227,-22.461,0.000
1727575617.952,-52.734,-32.227,-41.504,-33.203,0.000
1727575617.956,-14.648,-43.457,-47.852,-46.875,0.000
1727575617.959,-17.090,-29.297,-39.551,-56.152,0.000
1727575617.963,-59.082,-28.320,-36.621,-58.594,0.000
1727575617.967,-46.875,-24.414,-37.598,-26.367,0.000
1727575617.971,-26.855,-24.414,-41.992,-23.926,0.000
1727575617.975,-14.648,-28.809,-37.109,-41.016,0.000
1727575617.979,-32.715,-28.809,-32.715,-53.711,0.000
1727575617.983,-66.895,-31.738,-43.457,-54.688,0.000
1727575617.987,-45.898,-38.574,-41.504,-19.043,0.000
1727575617.991,-28.320,-18.066,-32.227,-19.531,0.000
1727575617.995,-20.508,-8.789,-28.809,-36.133,0.000
1727575617.999,-20.020,-47.363,-40.527,-38.086,0.000
1727575618.002,-58.105,-42.480,-43.945,-52.734,0.000
1727575618.006,-64.941,-15.625,-32.227,-21.973,0.000
1727575618.010,-43.945,-24.414,-30.762,-9.766,0.000
1727575618.014,-24.414,-35.645,-35.156,-26.855,0.000
1727575618.018,-30.762,-37.109,-32.227,-59.570,0.000
1727575618.022,-75.195,-44.922,-30.273,-71.289,0.000
1727575618.026,-64.941,-36.621,-28.320,-24.414,0.000
1727575618.030,-34.668,-36.133,-23.438,-4.395,0.000
1727575618.034,-4.883,-40.039,-17.578,-7.812,0.000
1727575618.038,7.324,-22.461,-25.879,-29.785,0.000
1727575618.042,-42.969,-33.203,-41.504,-60.547,0.000
1727575618.045,-45.898,-37.598,-33.203,-22.949,0.000
1727575618.049,-22.949,-6.836,-17.578,-0.977,0.000
1727575618.053,-13.184,-12.695,-21.484,-18.066,0.000
1727575618.057,1.465,-27.344,-33.203,-30.273,0.000
1727575618.061,-41.992,-33.691,-37.598,-47.363,0.000
1727575618.065,-61.523,-24.414,-33.203,-31.738,0.000
1727575618.069,-37.109,-17.090,-34.668,-7.812,0.000
1727575618.073,-25.391,-30.273,-40.527,-29.297,0.000
1727575618.077,0.488,-24.414,-43.457,-40.527,0.000
1727575618.081,-27.832,-37.598,-47.363,-55.664,0.000
1727575618.084,-54.688,-43.457,-45.410,-49.316,0.000
1727575618.088,-28.320,-31.250,-41.504,-5.859,0.000
1727575618.092,-15.137,-23.926,-30.273,-12.695,0.000
1727575618.096,-4.883,-16.602,-29.785,-27.344,0.000
1727575618.100,-32.227,-39.062,-33.203,-39.062,0.000
1727575618.104,-60.547,-42.969,-30.273,-38.574,0.000
1727575618.108,-37.109,-23.438,-32.715,-7.324,0.000
1727575618.112,-18.066,-23.926,-32.715,-14.648,0.000
1727575618.116,2.441,-28.320,-29.785,-32.715,0.000
1727575618.120,-19.531,-37.109,-29.297,-40.039,0.000
1727575618.123,-62.012,-33.203,-25.879,-35.156,0.000
1727575618.127,-48.340,-20.996,-17.578,-7.324,0.000
1727575618.131,-36.133,-31.738,-26.367,-12.695,0.000
1727575618.135,-13.184,-40.527,-30.762,-29.785,0.000
1727575618.139,-11.719,-26.367,-28.809,-50.293,0.000
1727575618.143,-56.641,-28.320,-28.320,-47.852,0.000
1727575618.147,-40.039,-24.414,-24.902,-9.277,0.000
1727575618.151,-19.531,-13.672,-28.809,-15.137,0.000
1727575618.155,-8.789,-8.789,-32.715,-32.715,0.000
1727575618.158,-10.254,-15.625,-42.480,-47.852,0.000
1727575618.162,-41.992,-31.250,-43.945,-52.734,0.000
1727575618.166,-38.086,-9.277,-26.855,-11.230,0.000
1727575618.170,-25.879,13.184,-26.367,-0.977,0.000
1727575618.174,-0.488,-14.648,-35.156,-9.277,0.000
1727575618.178,6.836,-38.574,-43.457,-6.836,0.000
1727575618.182,-39.551,-33.203,-44.434,-32.227,0.000
1727575618.186,-46.387,-12.207,-33.203,-23.926,0.000
1727575618.190,-28.320,-18.066,-29.785,-0.488,0.000
1727575618.194,-17.090,-36.133,-27.344,-11.230,0.000
1727575618.198,-15.625,-23.438,-35.645,-34.180,0.000
1727575618.201,-60.547,-18.555,-40.039,-45.410,0.000
1727575618.205,-60.547,-31.250,-28.320,-6.348,0.000
1727575618.209,-32.227,-19.531,-25.879,8.301,0.000
1727575618.213,-22.461,-10.742,-26.855,-18.066,0.000
1727575618.217,-18.066,-36.133,-31.738,-34.668,0.000
1727575618.221,-66.406,-55.664,-44.922,-59.082,0.000
1727575618.225,-81.543,-45.898,-42.969,-41.504,0.000
1727575618.229,-51.270,-18.555,-27.344,-11.719,0.000
1727575618.233,-27.832,-17.578,-27.344,-30.273,0.000
1727575618.236,2.441,-20.996,-30.273,-32.715,0.000
1727575618.240,-38.086,-35.156,-30.762,-49.316,0.000
1727575618.244,-81.543,-38.086,-31.738,-52.246,0.000
1727575618.248,-54.199,-23.438,-29.297,-9.766,0.000
1727575618.252,-26.367,-26.367,-21.973,-7.812,0.000
1727575618.256,-9.766,-26.367,-19.043,-31.738,0.000
1727575618.260,-23.438,-22.461,-35.645,-49.805,0.000
1727575618.264,-60.059,-24.414,-33.203,-45.898,0.000
1727575618.267,-38.574,-21.484,-25.879,-0.488,0.000
1727575618.271,-15.137,-15.625,-31.738,0.977,0.000
1727575618.275,-0.977,-8.789,-34.668,-25.879,0.000
1727575618.279,-12.695,-23.926,-46.875,-41.016,0.000
1727575618.283,-62.012,-36.621,-51.758,-45.898,0.000
1727575618.287,-57.129,-9.766,-47.852,-17.578,0.000
1727575618.291,-38.086,6.348,-50.293,-16.113,0.000
1727575618.295,-9.277,-8.789,-51.270,-30.273,0.000
1727575618.299,-6.836,-26.367,-58.594,-41.504,0.000
1727575618.303,-50.293,-24.414,-53.223,-53.223,0.000
1727575618.307,-39.062,-9.766,-37.598,-17.090,0.000
1727575618.311,-9.766,-14.648,-38.574,0.977,0.000
1727575618.314,7.324,-27.832,-41.016,-22.461,0.000
1727575618.318,4.883,-13.672,-41.992,-37.598,0.000
1727575618.322,-48.828,-7.812,-42.480,-51.758,0.000
1727575618.326,-50.293,-22.949,-34.668,-19.043,0.000
1727575618.330,-25.879,-21.484,-29.785,1.465,0.000
1727575618.334,-17.578,-6.348,-30.762,-28.809,0.000
1727575618.338,-2.441,-13.184,-33.203,-50.781,0.000
1727575618.342,-43.457,-31.250,-39.062,-68.359,0.000
1727575618.346,-63.477,-26.855,-39.062,-43.457,0.000
1727575618.350,-40.039,-14.160,-43.945,-18.555,0.000
1727575618.354,-35.156,-24.902,-38.086,-32.715,0.000
1727575618.358,-26.855,-37.598,-33.203,-42.969,0.000
1727575618.361,-57.617,-43.945,-38.574,-60.547,0.000
1727575618.365,-72.754,-36.133,-36.133,-43.945,0.000
1727575618.369,-54.199,-22.949,-34.180,-21.973,0.000
1727575618.373,-41.504,-36.621,-38.086,-32.715,0.000
1727575618.377,-22.461,-36.133,-37.109,-43.945,0.000
1727575618.381,-49.805,-24.414,-35.156,-65.918,0.000
1727575618.385,-66.406,-22.461,-38.574,-48.340,0.000
1727575618.389,-30.762,-15.625,-34.668,-12.695,0.000
1727575618.393,-20.996,-18.066,-37.598,-35.645,0.000
1727575618.397,-13.184,-14.648,-45.410,-53.223,0.000
1727575618.400,-33.691,-33.691,-52.246,-56.152,0.000
1727575618.404,-68.848,-45.410,-53.711,-54.688,0.000
1727575618.408,-51.270,-32.715,-47.363,-15.625,0.000
1727575618.412,-26.855,-28.809,-43.457,-10.254,0.000
1727575618.416,-2.441,-32.227,-39.062,-20.996,0.000
1727575618.420,-10.742,-42.480,-46.875,-34.180,0.000
1727575618.424,-44.922,-16.113,-43.945,-50.781,0.000
1727575618.428,-29.785,-3.418,-35.156,-18.555,0.000
1727575618.432,-8.789,-27.344,-45.410,-7.324,0.000
1727575618.436,5.859,-20.996,-47.852,-30.273,0.000
1727575618.440,-2.441,-25.879,-38.574,-44.434,0.000
1727575618.443,-55.176,-40.527,-41.016,-49.805,0.000
1727575618.447,-47.852,-35.645,-34.180,-13.184,0.000
1727575618.451,-34.180,-33.203,-21.973,-8.301,0.000
1727575618.455,-25.879,-41.016,-20.996,-25.879,0.000
1727575618.459,-10.254,-42.969,-29.297,-29.785,0.000
1727575618.463,-59.082,-50.293,-30.273,-41.992,0.000
1727575618.467,-68.359,-49.805,-22.461,-17.578,0.000
1727575618.471,-43.457,-40.527,-15.137,-3.906,0.000
1727575618.475,-30.273,-40.039,-13.184,-27.344,0.000
1727575618.479,-20.020,-45.410,-20.996,-41.016,0.000
1727575618.482,-63.477,-51.758,-31.738,-53.711,0.000
1727575618.486,-56.152,-35.156,-26.367,-19.043,0.000
1727575618.490,-28.320,-33.691,-14.648,6.836,0.000
1727575618.494,-19.043,-41.992,-26.855,-12.695,0.000
1727575618.498,-7.324,-44.434,-40.527,-27.832,0.000
1727575618.502,-48.828,-40.527,-41.504,-54.688,0.000
1727575618.506,-61.035,-33.203,-31.738,-30.762,0.000
1727575618.510,-32.227,-49.316,-28.809,11.230,0.000
1727575618.514,-15.625,-36.621,-29.785,-20.508,0.000
1727575618.518,8.301,-20.508,-35.645,-39.551,0.000
1727575618.521,-20.020,-29.785,-47.363,-49.805,0.000
1727575618.525,-43.945,-26.855,-43.945,-29.297,0.000
1727575618.529,-21.973,-12.695,-35.645,3.418,0.000
1727575618.533,-11.719,-18.555,-41.992,-19.531,0.000
1727575618.537,9.277,-33.691,-47.852,-23.926,0.000
1727575618.541,-18.066,-34.668,-51.270,-44.434,0.000
1727575618.545,-56.641,-25.879,-46.875,-46.875,0.000
1727575618.549,-24.902,-21.484,-38.574,-9.277,0.000
1727575618.553,-5.371,-23.926,-36.621,-6.836,0.000
1727575618.557,-6.348,-8.789,-40.039,-29.785,0.000
1727575618.560,-28.320,-19.531,-41.504,-54.199,0.000
1727575618.564,-58.594,-33.203,-43.457,-46.875,0.000
1727575618.568,-43.945,-11.719,-38.574,-8.301,0.000
1727575618.572,-24.902,-4.883,-36.133,-11.719,0.000
1727575618.576,-5.371,-2.930,-41.992,-24.902,0.000
1727575618.580,-11.719,-18.066,-37.109,-43.457,0.000
1727575618.584,-43.457,-28.320,-31.738,-57.129,0.000
1727575618.588,-27.832,-15.625,-23.926,-11.719,0.000
1727575618.592,-11.230,-29.785,-16.602,-1.465,0.000
1727575618.596,-3.906,-39.062,-28.320,-32.227,0.000
1727575618.600,-16.113,-50.781,-43.457,-50.293,0.000
1727575618.604,-65.918,-42.969,-42.969,-65.918,0.000
1727575618.608,-57.617,-10.254,-30.762,-26.367,0.000
1727575618.611,-28.809,-5.859,-29.297,-2.441,0.000
1727575618.615,-13.672,-12.207,-33.691,-28.809,0.000
1727575618.619,-18.555,-12.207,-37.109,-38.574,0.000
1727575618.623,0.000,-21.973,-39.551,-49.805,0.000
1727575618.627,0.000,-27.832,-32.715,-17.578,0.000
1727575618.631,0.000,-34.668,-28.320,0.000,0.000
1727575618.635,0.000,-40.527,-28.320,-25.391,0.000
1727575618.639,0.000,-30.762,-39.551,-35.156,0.000
1727575618.642,0.000,-32.715,-51.270,-53.711,0.000
1727575618.646,0.000,-26.367,-32.227,-24.902,0.000
1727575618.650,0.000,-8.301,-22.461,3.418,0.000
1727575618.654,0.000,-22.949,-36.133,-23.926,0.000
1727575618.658,0.000,-37.598,-48.340,-38.086,0.000
1727575618.662,0.000,-26.367,-52.734,-54.199,0.000
1727575618.666,0.000,-20.020,-40.527,-30.273,0.000
1727575618.670,-17.090,-8.789,-34.180,-4.395,0.000
1727575618.674,0.488,-18.066,-30.273,-20.020,0.000
1727575618.678,4.883,-26.855,-30.762,-26.855,0.000
1727575618.682,-26.367,-32.227,-41.992,-53.711,0.000
1727575618.686,-55.664,-40.527,-40.527,-47.852,0.000
1727575618.689,-38.574,-38.574,-28.320,4.395,0.000
1727575618.693,-27.344,-32.227,-29.785,4.883,0.000
1727575618.697,-12.207,-20.996,-37.109,-31.250,0.000
1727575618.701,-32.227,-37.598,-32.715,-57.617,0.000
1727575618.705,-57.617,-40.039,-26.855,-48.340,0.000
1727575618.709,-34.180,-15.137,-25.879,-10.254,0.000
1727575618.713,-17.090,-25.879,-33.691,-7.324,0.000
1727575618.717,-4.395,-33.203,-33.691,-30.762,0.000
1727575618.721,-19.531,-28.809,-34.180,-50.293,0.000
1727575618.725,-66.895,-32.715,-43.457,-54.688,0.000
1727575618.729,-53.711,-24.414,-44.434,-21.973,0.000
1727575618.732,-20.508,-34.180,-36.133,-7.812,0.000
1727575618.736,-2.930,-36.133,-34.180,-18.555,0.000
1727575618.740,-13.672,-25.391,-42.969,-42.969,0.000
1727575618.744,-60.547,-28.320,-44.922,-59.082,0.000
1727575618.748,-52.734,-44.434,-41.504,-11.719,0.000
1727575618.752,-34.668,-27.344,-38.086,0.488,0.000
1727575618.756,-20.020,-19.531,-37.109,-18.555,0.000
1727575618.760,-6.348,-39.062,-42.969,-19.531,0.000
1727575618.764,-52.246,-40.039,-45.410,-33.691,0.000
1727575618.768,-54.688,-24.414,-34.180,-10.742,0.000
1727575618.772,-26.855,-16.113,-39.551,0.977,0.000
1727575618.776,-0.488,-16.602,-50.781,-6.836,0.000
1727575618.780,8.301,-23.438,-45.898,-7.812,0.000
1727575618.784,-38.574,-36.133,-45.410,-37.109,0.000
1727575618.788,-53.223,-18.066,-40.527,-18.555,0.000
1727575618.791,-22.949,-12.695,-31.250,9.766,0.000
1727575618.795,-11.230,-30.762,-36.621,-12.207,0.000
1727575618.799,-11.719,-22.461,-38.574,-32.227,0.000
1727575618.803,-42.969,-34.180,-40.039,-53.711,0.000
1727575618.807,-62.988,-40.039,-43.945,-42.969,0.000
1727575618.811,-48.340,-28.809,-44.922,-16.602,0.000
1727575618.815,-25.391,-29.785,-40.527,-21.484,0.000
1727575618.819,0.000,-23.926,-40.527,-30.762,0.000
1727575618.823,-30.273,-35.156,-43.457,-54.688,0.000
1727575618.827,-62.500,-25.391,-39.062,-53.223,0.000
1727575618.830,-50.293,-11.230,-41.016,-27.832,0.000
1727575618.834,-20.996,-43.457,-39.062,-26.855,0.000
1727575618.838,10.254,-50.781,-36.133,-32.227,0.000
1727575618.842,-14.160,-37.109,-40.039,-48.828,0.000
1727575618.846,-54.199,-20.508,-37.598,-50.781,0.000
1727575618.850,-36.621,-14.160,-33.203,-14.160,0.000
1727575618.854,-9.277,-31.738,-37.598,-4.883,0.000
1727575618.858,3.418,-21.973,-35.156,-34.180,0.000
1727575618.862,-27.832,-35.156,-36.621,-48.340,0.000
1727575618.866,-62.500,-47.363,-42.969,-45.410,0.000
1727575618.869,-35.645,-25.879,-40.039,-17.090,0.000
1727575618.873,-24.902,-16.602,-42.969,-13.184,0.000
1727575618.877,-22.949,-15.625,-46.875,-40.527,0.000
1727575618.881,-17.090,-36.133,-48.828,-52.734,0.000
1727575618.885,-56.641,-53.223,-51.270,-51.758,0.000
1727575618.889,-55.176,-29.785,-41.992,-24.902,0.000
1727575618.893,-34.180,-16.602,-38.086,-20.020,0.000
1727575618.897,-13.672,-28.320,-36.621,-37.109,0.000
1727575618.901,-6.836,-40.039,-37.598,-44.922,0.000
1727575618.904,-47.363,-37.598,-39.551,-47.852,0.000
1727575618.908,-55.176,-25.879,-38.574,-21.973,0.000
1727575618.912,-38.086,-30.762,-40.527,-13.184,0.000
1727575618.916,-16.602,-32.715,-37.598,-35.156,0.000
1727575618.920,-12.207,-29.785,-41.504,-52.246,0.000
1727575618.924,-53.223,-42.969,-49.805,-66.406,0.000
1727575618.928,-60.059,-40.527,-42.480,-43.945,0.000
1727575618.932,-40.039,-27.344,-33.203,-11.719,0.000
1727575618.936,-22.461,-23.926,-38.574,-26.855,0.000
1727575618.940,-7.324,-23.438,-49.805,-41.016,0.000
1727575618.944,-42.480,-51.270,-56.152,-46.875,0.000
1727575618.947,-67.871,-41.992,-51.758,-42.480,0.000
1727575618.951,-45.898,-12.695,-40.527,-24.902,0.000
1727575618.955,-27.344,-17.578,-41.504,-42.480,0.000
1727575618.959,-0.488,-24.902,-41.992,-45.898,0.000
1727575618.963,-39.062,-31.738,-37.109,-52.734,0.000
1727575618.967,-64.941,-30.762,-34.668,-45.898,0.000
1727575618.971,-29.785,-28.809,-33.691,-5.371,0.000
1727575618.975,-3.906,-26.367,-32.227,-1.953,0.000
1727575618.979,19.043,-16.113,-32.715,-10.742,0.000
1727575618.982,-19.043,-37.109,-44.434,-36.133,0.000
1727575618.986,-55.664,-41.992,-43.457,-35.645,0.000
1727575618.990,-42.480,-29.785,-36.621,-16.113,0.000
1727575618.994,-28.320,-27.832,-36.621,-36.133,0.000
1727575618.998,-7.324,-33.691,0.000,-39.551,0.000
1727575619.002,-22.949,-59.082,0.000,-49.805,0.000
1727575619.006,-56.152,-58.594,0.000,-53.223,0.000
1727575619.010,-41.992,-28.320,0.000,-13.672,0.000
1727575619.014,-33.691,-18.066,0.000,-3.906,0.000
1727575619.018,-9.277,-25.391,0.000,-16.602,0.000
1727575619.022,-7.812,-33.691,0.000,-36.621,0.000
1727575619.026,-54.199,-32.227,0.000,-56.152,0.000
1727575619.029,-54.688,-21.484,0.000,-23.438,0.000
1727575619.033,-16.113,-25.391,0.000,-9.277,0.000
1727575619.037,1.465,-9.766,0.000,-31.250,0.000
1727575619.041,-16.113,-14.648,0.000,-55.664,0.000
1727575619.046,-65.430,-48.828,-46.875,-60.059,0.000
1727575619.049,-64.453,-41.016,-35.645,-5.371,0.000
1727575619.053,-41.016,-18.066,-29.785,5.859,0.000
1727575619.057,-21.484,-24.902,-33.691,-24.902,0.000
1727575619.061,-1.953,-48.340,-39.062,-30.762,0.000
1727575619.065,-51.270,-51.758,-42.480,-49.805,0.000
1727575619.069,-72.266,-30.273,-40.527,-34.180,0.000
1727575619.073,-43.945,-19.531,-40.527,-9.766,0.000
1727575619.077,-18.555,-27.344,-40.039,-27.832,0.000
1727575619.081,1.465,-40.527,-36.621,-39.062,0.000
1727575619.085,-32.227,-27.832,-37.109,-53.711,0.000
1727575619.089,-40.039,-8.301,-31.738,-31.738,0.000
1727575619.092,-6.836,-14.648,-34.668,-6.348,0.000
1727575619.096,3.418,-17.578,-41.504,-28.809,0.000
1727575619.100,13.184,-20.508,-41.016,-35.156,0.000
1727575619.104,-19.043,-38.574,-40.527,-36.621,0.000
1727575619.108,-51.270,-28.320,-43.945,-39.062,0.000
1727575619.112,-22.949,-36.133,-31.250,0.488,0.000
1727575619.116,-1.465,-37.109,-30.762,-3.906,0.000
1727575619.120,4.883,-18.066,-38.086,-31.738,0.000
1727575619.124,-29.297,-46.387,-41.504,-37.109,0.000
1727575619.128,-53.711,-44.922,-38.086,-19.531,0.000
1727575619.132,-31.250,-4.395,-38.086,-4.883,0.000
1727575619.135,-7.812,-13.672,-39.551,-17.578,0.000
1727575619.139,16.602,-40.039,-40.039,-15.625,0.000
1727575619.143,-10.742,-32.715,-40.039,-34.180,0.000
1727575619.147,-54.688,-22.461,-35.645,-38.086,0.000
1727575619.151,-41.992,-26.367,-37.598,-5.371,0.000
1727575619.155,-25.391,-41.016,-41.504,-3.906,0.000
1727575619.159,-3.906,-41.992,-38.574,-19.531,0.000
1727575619.163,-14.160,-30.273,-41.504,-45.410,0.000
1727575619.167,-62.012,-30.762,-47.363,-46.875,0.000
1727575619.171,-48.340,-41.504,-38.574,3.418,0.000
1727575619.174,-25.879,-30.762,-29.297,2.441,0.000
1727575619.178,-18.555,-29.785,-35.156,-22.461,0.000
1727575619.182,-8.301,-42.969,-44.922,-26.855,0.000
1727575619.186,0.000,-37.109,-46.875,-39.551,0.000
1727575619.190,0.000,-18.555,-36.133,-12.695,0.000
1727575619.194,0.000,-34.668,-36.133,0.488,0.000
1727575619.198,0.000,-39.551,-42.969,-13.672,0.000
1727575619.202,0.000,-23.926,-43.945,-37.598,0.000
1727575619.206,0.000,-26.367,-51.270,-62.500,0.000
1727575619.210,0.000,-24.414,-39.062,-14.160,0.000
1727575619.214,0.000,-29.297,-32.715,10.254,0.000
1727575619.217,0.000,-31.738,-35.156,-23.438,0.000
1727575619.221,0.000,-26.367,-27.832,-34.180,0.000
1727575619.225,0.000,-37.598,-39.062,-42.480,0.000
1727575619.229,0.000,-28.809,-39.062,-13.184,0.000
1727575619.233,-18.066,-2.441,-27.344,4.883,0.000
1727575619.237,-6.836,-14.160,-29.785,-19.043,0.000
1727575619.241,12.695,-22.461,-37.109,-32.715,0.000
1727575619.245,-31.250,-25.391,-44.434,-56.152,0.000
1727575619.249,-56.641,-36.133,-36.621,-40.039,0.000
1727575619.252,-41.016,-25.391,-24.902,-10.254,0.000
1727575619.256,-29.297,-23.438,-25.391,-23.926,0.000
1727575619.260,0.488,-33.691,-27.344,-25.879,0.000
1727575619.264,-35.156,-23.438,-23.926,-40.527,0.000
1727575619.268,-63.965,-15.625,-26.367,-41.504,0.000
1727575619.272,-37.598,-22.949,-27.832,-6.836,0.000
1727575619.276,-29.785,-24.902,-27.832,-10.742,0.000
1727575619.280,-7.324,-29.785,-31.738,-25.879,0.000
1727575619.284,-23.438,-47.363,-41.016,-35.156,0.000
1727575619.288,-57.617,-43.457,-42.969,-25.879,0.000
1727575619.291,-36.133,-23.926,-38.086,-6.836,0.000
1727575619.295,-26.855,-25.391,-38.086,-15.137,0.000
1727575619.299,1.953,-33.203,-41.504,-28.809,0.000
1727575619.303,4.883,-50.781,-47.363,-37.109,0.000
1727575619.307,-45.410,-44.922,-44.434,-40.039,0.000
1727575619.311,-39.551,-27.344,-38.086,-6.348,0.000
1727575619.315,-16.602,-31.250,-39.551,-2.930,0.000
1727575619.319,16.602,-43.457,-39.062,-15.625,0.000
1727575619.323,7.324,-47.852,-36.133,-25.391,0.000
1727575619.327,-53.223,-46.387,-37.109,-43.945,0.000
1727575619.331,-46.875,-28.320,-34.180,-14.160,0.000
1727575619.335,-26.367,-19.531,-34.668,-5.859,0.000
1727575619.338,-26.367,-35.156,-40.039,-32.227,0.000
1727575619.342,-31.250,-43.457,-46.387,-45.898,0.000
1727575619.346,-71.777,-49.805,-50.781,-60.059,0.000
1727575619.350,-71.777,-52.734,-48.828,-19.531,0.000
1727575619.354,-47.852,-41.504,-43.457,2.441,0.000
1727575619.358,-27.344,-43.945,-35.156,-12.207,0.000
1727575619.362,-0.488,-44.922,-36.133,-30.273,0.000
1727575619.366,-41.504,-36.133,-40.039,-49.316,0.000
1727575619.370,-55.176,-22.949,-37.598,-15.625,0.000
1727575619.373,-25.391,-15.137,-35.156,12.695,0.000
1727575619.377,-12.695,-19.531,-34.180,-18.555,0.000
1727575619.381,3.906,-24.902,-39.062,-45.410,0.000
1727575619.385,-29.785,-35.645,-39.551,-60.059,0.000
1727575619.389,-48.340,-29.297,-29.785,-35.645,0.000
1727575619.393,-19.531,-11.719,-23.926,-9.277,0.000
1727575619.397,9.766,-24.902,-23.438,-21.484,0.000
1727575619.401,15.625,-17.090,-28.320,-32.227,0.000
1727575619.405,-36.133,-26.367,-43.457,-58.594,0.000
1727575619.409,-50.293,-55.664,-34.668,-39.551,0.000
1727575619.412,-23.438,-33.691,-24.414,-3.418,0.000
1727575619.416,-17.578,-18.066,-38.574,-35.645,0.000
1727575619.420,0.488,-22.949,-45.898,-49.316,0.000
1727575619.424,-29.785,-39.551,-47.852,-48.340,0.000
1727575619.428,-66.406,-35.645,-47.852,-37.598,0.000
1727575619.432,-32.715,-14.648,-35.156,0.488,0.000
1727575619.436,-12.695,-22.461,-37.109,7.324,0.000
1727575619.440,3.906,-28.320,-46.875,-19.043,0.000
1727575619.444,-15.137,-35.645,-44.434,-44.434,0.000
1727575619.448,-62.500,-38.086,-41.504,-45.410,0.000
1727575619.452,-39.062,-35.156,-33.691,-8.789,0.000
1727575619.456,-16.602,-36.621,-33.203,4.883,0.000
1727575619.459,-7.812,-16.602,-36.133,-19.043,0.000
1727575619.463,-19.531,-24.902,-33.203,-41.992,0.000
1727575619.467,-57.129,-41.016,-28.809,-41.016,0.000
1727575619.471,-48.340,-25.879,-27.832,-6.836,0.000
1727575619.475,-40.527,-32.227,-39.062,-12.207,0.000
1727575619.479,-31.250,-43.457,-37.598,-41.504,0.000
1727575619.483,-19.043,-47.363,-34.180,-50.293,0.000
1727575619.487,-51.758,-48.828,-42.969,-55.664,0.000
1727575619.491,-49.805,-31.250,-40.039,-18.555,0.000
1727575619.495,-24.902,-23.438,-40.039,-3.906,0.000
1727575619.499,-0.488,-34.668,-46.387,-13.672,0.000
1727575619.502,-1.465,-34.668,-46.387,-24.902,0.000
1727575619.506,-53.223,-34.668,-49.805,-50.781,0.000
1727575619.510,-41.016,-38.086,-44.434,-18.555,0.000
1727575619.514,-16.602,-29.785,-39.551,5.859,0.000
1727575619.518,-11.230,-26.367,-42.480,-22.461,0.000
1727575619.522,6.836,-30.273,-43.457,-35.156,0.000
1727575619.526,-45.898,-43.945,-49.316,-47.852,0.000
1727575619.530,-62.012,-33.203,-50.781,-37.598,0.000
1727575619.534,-21.484,-27.832,-43.945,-4.883,0.000
1727575619.538,-7.812,-27.344,-41.016,-17.578,0.000
1727575619.542,2.930,-29.785,-40.527,-19.531,0.000
1727575619.545,-29.785,-43.457,-51.270,-31.250,0.000
1727575619.549,-62.012,-23.926,-50.781,-46.387,0.000
1727575619.553,-27.832,-20.508,-35.156,-10.742,0.000
1727575619.557,-20.020,-21.484,-37.598,-16.602,0.000
1727575619.561,-6.836,-3.906,-48.340,-42.480,0.000
1727575619.565,-24.902,-35.156,-48.828,-51.270,0.000
1727575619.569,-63.965,-52.246,-43.457,-46.387,0.000
1727575619.573,-42.969,-33.203,-38.086,-16.602,0.000
1727575619.577,-25.879,-21.484,-38.086,-23.438,0.000
1727575619.581,-3.418,-31.738,-40.527,-42.969,0.000
1727575619.584,-33.203,-40.527,-41.992,-68.359,0.000
1727575619.588,-77.637,-41.504,-41.016,-53.711,0.000
1727575619.592,-51.758,-31.738,-36.621,-6.348,0.000
1727575619.596,-38.086,-20.020,-32.715,-25.879,0.000
1727575619.600,-14.648,-24.414,-30.273,-34.668,0.000
1727575619.604,-22.949,-37.598,-35.645,-39.062,0.000
1727575619.608,-66.406,-36.133,-39.551,-55.664,0.000
1727575619.612,-39.062,-14.648,-27.832,-8.301,0.000
1727575619.616,-11.719,-18.066,-27.344,0.977,0.000
1727575619.620,1.465,-26.367,-35.156,-24.414,0.000
1727575619.623,0.977,-32.715,-34.668,-35.156,0.000
1727575619.627,-44.434,-37.109,-35.156,-45.410,0.000
1727575619.631,-43.457,-22.949,-36.621,-8.301,0.000
1727575619.635,-19.531,-30.762,-40.527,13.184,0.000
1727575619.639,0.488,-22.949,-32.227,-6.348,0.000
1727575619.643,7.812,-3.418,-32.227,-21.973,0.000
1727575619.647,-40.039,-31.738,-44.434,-35.645,0.000
1727575619.651,-42.480,-25.879,-41.504,-1.953,0.000
1727575619.655,-6.348,-4.883,0.000,6.348,0.000
1727575619.658,-5.371,-11.230,0.000,-19.043,0.000
1727575619.662,-1.953,-17.578,0.000,-26.367,0.000
1727575619.666,-32.715,-23.438,0.000,-46.875,0.000
1727575619.670,-48.828,-18.555,0.000,-24.414,0.000
1727575619.674,-20.996,-18.066,0.000,0.488,0.000
1727575619.678,-2.930,-27.344,0.000,-15.625,0.000
1727575619.682,4.395,-21.973,0.000,-21.484,0.000
1727575619.686,-35.645,-19.531,0.000,-44.922,0.000
1727575619.690,-56.641,-18.555,0.000,-32.715,0.000
1727575619.694,-34.180,-18.066,0.000,2.930,0.000
1727575619.698,-23.438,-20.996,0.000,-2.441,0.000
1727575619.702,-0.488,-18.066,-29.297,-5.859,0.000
1727575619.706,-29.785,-40.527,-29.785,-21.484,0.000
1727575619.709,-61.523,-38.574,-34.180,-18.555,0.000
1727575619.713,-39.551,-19.531,-32.227,1.465,0.000
1727575619.717,-23.438,-37.109,-31.250,-20.020,0.000
1727575619.721,1.953,-34.668,-43.945,-30.762,0.000
1727575619.725,-23.926,-47.363,-57.617,-34.668,0.000
1727575619.729,-62.500,-36.621,-46.875,-39.062,0.000
1727575619.733,-33.203,-14.160,-36.621,-19.043,0.000
1727575619.737,-19.043,-16.602,-42.480,-16.602,0.000
1727575619.741,-2.930,-6.836,-41.504,-24.414,0.000
1727575619.745,-21.973,-21.973,-44.922,-42.480,0.000
1727575619.748,-70.312,-40.527,-49.805,-47.852,0.000
1727575619.752,-53.711,-35.156,-44.434,-16.602,0.000
1727575619.756,-34.180,-32.715,-41.992,-18.066,0.000
1727575619.760,-13.184,-26.855,-38.574,-30.762,0.000
1727575619.764,-8.301,-35.645,-41.504,-38.086,0.000
1727575619.768,-56.641,-50.293,-47.852,-51.270,0.000
1727575619.772,-53.223,-26.855,-42.969,-27.832,0.000
1727575619.776,-30.273,-8.789,-39.551,-30.273,0.000
1727575619.780,-13.184,-4.395,-43.945,-41.016,0.000
1727575619.783,1.465,-35.156,-52.246,-26.367,0.000
1727575619.787,-35.156,-49.805,-49.316,-38.574,0.000
1727575619.791,-28.809,-22.461,-38.574,-13.672,0.000
1727575619.795,-3.906,-17.578,-38.086,1.953,0.000
1727575619.799,4.883,-27.832,-41.016,-19.043,0.000
1727575619.803,0.977,-25.391,-42.480,-30.273,0.000
1727575619.807,-46.387,-31.250,-44.922,-46.875,0.000
1727575619.811,-47.852,-33.691,-39.551,-17.578,0.000
1727575619.815,-17.578,-38.086,-37.109,15.625,0.000
1727575619.819,2.930,-28.320,-37.598,7.812,0.000
1727575619.823,18.555,-20.996,-27.344,0.000,0.000
1727575619.826,-22.461,-40.527,-35.156,-28.809,0.000
1727575619.830,-43.945,-21.973,-36.621,-18.555,0.000
1727575619.834,-18.066,9.766,-27.344,6.836,0.000
1727575619.838,-13.184,-4.395,-35.156,-11.230,0.000
1727575619.842,2.441,-23.438,-37.598,-17.578,0.000
1727575619.846,-20.020,-22.461,-43.945,-41.504,0.000
1727575619.850,-53.223,-12.207,-44.434,-41.016,0.000
1727575619.854,-40.039,-2.441,-37.598,-12.695,0.000
1727575619.858,-11.230,-7.324,-35.645,-16.602,0.000
1727575619.862,8.301,-13.184,-35.156,-19.531,0.000
1727575619.866,-22.949,-26.367,-39.062,-37.598,0.000
1727575619.869,-65.430,-19.531,-36.621,-41.992,0.000
1727575619.873,-30.762,-17.578,-29.297,5.371,0.000
1727575619.877,3.906,-12.207,-29.785,4.395,0.000
1727575619.881,15.625,-0.488,-29.297,-19.531,0.000
1727575619.885,-1.953,-23.438,-37.598,-37.598,0.000
1727575619.889,0.000,-33.203,-39.062,-54.688,0.000
1727575619.893,0.000,-10.254,-27.344,-19.531,0.000
1727575619.897,0.000,-1.953,-29.297,-7.812,0.000
1727575619.901,0.000,-7.812,-33.203,-23.926,0.000
1727575619.905,0.000,-25.391,-35.156,-43.945,0.000
1727575619.909,0.000,-33.203,-41.504,-55.176,0.000
1727575619.912,0.000,-16.602,-38.086,-10.254,0.000
1727575619.916,0.000,-16.113,-35.156,13.184,0.000
1727575619.920,0.000,-29.785,-36.621,-5.859,0.000
1727575619.924,0.000,-21.484,-42.480,-29.785,0.000
1727575619.928,0.000,-31.738,-42.480,-43.457,0.000
1727575619.932,0.000,-23.438,-34.668,-11.230,0.000
1727575619.935,-46.875,-8.301,-34.180,2.441,0.000
1727575619.939,-34.180,-15.137,-38.086,-14.160,0.000
1727575619.943,-21.973,-23.438,-41.016,-23.438,0.000
1727575619.947,-11.719,-36.621,-43.945,-39.551,0.000
1727575619.951,-12.207,-25.391,-34.180,-7.812,0.000
1727575619.954,-39.551,-20.508,-32.227,18.066,0.000
1727575619.958,-29.785,-28.320,-40.039,-16.602,0.000
1727575619.962,0.488,-47.852,-39.551,-26.855,0.000
1727575619.966,20.020,-51.270,-37.109,-36.133,0.000
1727575619.970,5.859,-24.902,-30.762,-28.809,0.000
1727575619.974,-43.945,-30.762,-35.156,-11.230,0.000
1727575619.978,-43.457,-41.992,-41.504,-26.367,0.000
1727575619.982,-11.230,-30.273,-44.434,-36.133,0.000
1727575619.986,-39.062,-36.621,-46.387,-52.246,0.000
1727575619.990,-49.805,-35.156,-42.969,-38.574,0.000
1727575619.993,-33.203,-28.320,-37.598,-12.207,0.000
1727575619.997,-24.902,-35.645,-41.016,-30.273,0.000
1727575620.001,-6.836,-34.180,-42.969,-42.969,0.000
1727575620.005,-34.668,-37.109,-45.410,-55.664,0.000
1727575620.009,-58.594,-46.875,-46.387,-34.668,0.000
1727575620.013,-33.203,-17.578,-39.062,-5.859,0.000
1727575620.017,-29.785,-7.812,-38.574,-20.508,0.000
1727575620.021,1.953,-26.367,-39.551,-26.855,0.000
1727575620.025,-15.625,-41.992,-36.621,-44.434,0.000
1727575620.028,-68.359,-40.527,-41.016,-50.293,0.000
1727575620.032,-45.898,-40.039,-38.574,-12.207,0.000
1727575620.036,-29.297,-52.246,-41.016,-20.020,0.000
1727575620.040,0.977,-37.598,-47.852,-38.086,0.000
1727575620.044,-0.977,-35.156,-52.246,-53.223,0.000
1727575620.048,-53.223,-49.316,-53.223,-53.711,0.000
1727575620.052,-43.945,-32.715,-44.922,-3.418,0.000
1727575620.056,-26.855,-15.625,-35.645,-2.441,0.000
1727575620.060,-3.418,-14.648,-30.762,-31.738,0.000
1727575620.064,0.488,-28.320,-36.621,-35.645,0.000
1727575620.068,-53.711,-46.387,-44.434,-37.598,0.000
1727575620.071,-44.922,-38.086,-38.086,0.488,0.000
1727575620.075,-27.344,-23.926,-33.691,11.230,0.000
1727575620.079,-16.602,-25.391,-38.086,-16.602,0.000
1727575620.083,7.324,-28.320,-38.086,-27.344,0.000
1727575620.087,-34.180,-28.320,-34.668,-37.109,0.000
1727575620.091,-41.016,-26.855,-27.832,-16.113,0.000
1727575620.095,-26.367,-23.438,-28.809,-6.348,0.000
1727575620.099,-24.414,-26.367,-36.133,-25.879,0.000
1727575620.103,-10.254,-25.391,-39.551,-36.621,0.000
1727575620.106,-45.898,-31.738,-46.875,-49.805,0.000
1727575620.110,-48.340,-41.992,-41.504,-32.227,0.000
1727575620.114,-20.508,-36.133,-36.621,-18.555,0.000
1727575620.118,-12.695,-18.555,-35.645,-22.949,0.000
1727575620.122,0.000,-22.461,-32.715,-23.926,0.000
1727575620.126,0.000,-34.180,-38.574,-35.645,0.000
1727575620.130,0.000,-25.879,-36.621,-23.926,0.000
1727575620.134,0.000,-21.973,-32.715,-1.953,0.000
1727575620.137,0.000,-24.414,-39.062,-18.555,0.000
1727575620.141,0.000,-36.621,-42.969,-29.785,0.000
1727575620.145,0.000,-39.062,-41.504,-43.945,0.000
1727575620.149,0.000,-24.902,-28.809,-28.809,0.000
1727575620.153,0.000,-19.043,-26.367,12.207,0.000
1727575620.157,0.000,-22.461,-43.457,-4.395,0.000
1727575620.161,0.000,-14.648,-36.621,-20.508,0.000
1727575620.165,0.000,-17.090,-30.762,-35.645,0.000
1727575620.169,-59.082,-33.203,-35.645,-42.969,0.000
1727575620.173,-39.551,-28.809,-35.156,-11.719,0.000
1727575620.177,-23.926,-19.531,-34.180,-14.648,0.000
1727575620.181,0.977,-32.715,-34.180,-21.973,0.000
1727575620.185,-20.508,-47.852,-44.434,-36.621,0.000
1727575620.188,-66.406,-50.781,-43.457,-47.363,0.000
1727575620.192,-38.086,-36.133,-35.645,-9.277,0.000
1727575620.196,-22.949,-26.855,-39.062,-11.719,0.000
1727575620.200,-8.301,-37.109,-42.969,-30.762,0.000
1727575620.204,-2.441,-52.734,-45.410,-36.133,0.000
1727575620.208,-59.082,-40.527,-43.457,-51.758,0.000
1727575620.212,-58.594,-20.996,-37.598,-23.926,0.000
1727575620.216,-19.043,-28.320,-40.527,-1.465,0.000
1727575620.220,2.441,-35.156,-40.527,-12.695,0.000
1727575620.224,-0.488,-34.180,-40.039,-32.715,0.000
1727575620.228,-51.758,-37.109,-47.363,-53.223,0.000
1727575620.231,-59.570,-43.457,-46.387,-23.926,0.000
1727575620.235,-35.645,-44.434,-47.852,-15.137,0.000
1727575620.239,-16.113,-39.062,-44.922,-34.180,0.000
1727575620.243,-5.371,-33.203,-48.340,-52.246,0.000
1727575620.247,-45.898,-52.246,-59.570,-68.848,0.000
1727575620.251,-59.570,-34.180,-47.363,-38.086,0.000
1727575620.255,-37.598,-4.395,-33.203,-5.859,0.000
1727575620.259,-11.230,-21.973,-40.039,-24.414,0.000
1727575620.263,2.930,-28.809,0.000,-40.039,0.000
1727575620.267,-33.203,-34.180,0.000,-43.945,0.000
1727575620.271,-43.457,-23.438,0.000,-20.996,0.000
1727575620.274,-20.996,-19.531,0.000,6.836,0.000
1727575620.278,-13.184,-39.062,0.000,-17.090,0.000
1727575620.282,3.418,-44.922,0.000,-29.297,0.000
1727575620.286,-26.855,-40.527,0.000,-43.945,0.000
1727575620.290,-53.711,-31.738,0.000,-41.016,0.000
1727575620.294,-25.879,-21.484,0.000,-3.418,0.000
1727575620.298,-14.160,-4.395,0.000,-7.812,0.000
1727575620.302,7.812,-0.488,0.000,-16.113,0.000
1727575620.306,-14.648,-23.926,0.000,-39.551,0.000
1727575620.310,-55.176,-27.344,-44.922,-50.781,0.000
1727575620.314,-34.180,-9.277,-40.527,-13.672,0.000
1727575620.317,-16.602,-20.508,-34.668,-14.648,0.000
1727575620.321,-0.977,-36.133,-36.621,-27.832,0.000
1727575620.325,-18.066,-41.992,-33.203,-42.480,0.000
1727575620.329,-63.477,-40.039,-34.180,-50.293,0.000
1727575620.333,-41.504,-20.020,-33.691,-12.207,0.000
1727575620.337,-18.066,-26.367,-39.062,-9.766,0.000
1727575620.341,0.488,-33.203,-34.668,-11.719,0.000
1727575620.345,-11.719,-26.855,-32.227,-35.645,0.000
1727575620.349,-62.012,-37.598,-41.992,-60.059,0.000
1727575620.353,-49.805,-31.738,-37.598,-20.020,0.000
1727575620.356,-26.855,-17.090,-29.785,2.441,0.000
1727575620.360,-4.395,-14.160,-26.855,-14.160,0.000
1727575620.364,-6.348,-25.879,-31.738,-31.250,0.000
1727575620.368,-53.223,-35.156,-35.156,-45.410,0.000
1727575620.372,-46.387,-26.855,-33.203,-13.672,0.000
1727575620.376,-27.832,-24.902,-35.156,9.766,0.000
1727575620.380,-17.090,-33.691,-36.133,-10.742,0.000
1727575620.384,-6.836,-51.758,-43.945,-23.438,0.000
1727575620.388,-51.270,-35.156,-41.016,-42.480,0.000
1727575620.392,-55.664,-11.719,-36.133,-33.203,0.000
1727575620.396,-28.320,-30.762,-39.062,-15.625,0.000
1727575620.399,-24.414,-32.715,-41.504,-33.203,0.000
1727575620.403,-15.625,-36.133,-41.504,-39.551,0.000
1727575620.407,-44.922,-48.828,-41.016,-50.293,0.000
1727575620.411,-60.059,-34.668,-37.598,-24.902,0.000
1727575620.415,-41.016,-14.160,-38.574,0.000,0.000
1727575620.419,-23.438,-15.625,-39.062,-22.461,0.000
1727575620.423,6.836,-30.273,-40.527,-37.109,0.000
1727575620.427,-17.090,-42.969,-49.805,-49.316,0.000
1727575620.431,-59.570,-30.273,-48.828,-32.715,0.000
1727575620.435,-45.898,-15.625,-38.086,-12.207,0.000
1727575620.438,-13.672,-22.461,-40.039,-20.996,0.000
1727575620.442,10.254,-24.902,-44.434,-26.855,0.000
1727575620.446,-25.391,-35.645,-42.969,-40.527,0.000
1727575620.450,-58.105,-29.785,-37.109,-24.902,0.000
1727575620.454,-42.480,-19.531,-28.809,7.812,0.000
1727575620.458,-18.555,-30.762,-30.762,-7.324,0.000
1727575620.462,12.695,-21.973,-29.785,-24.902,0.000
1727575620.466,-20.996,-28.809,-31.738,-41.992,0.000
1727575620.470,-67.383,-43.457,-37.109,-43.457,0.000
1727575620.473,-41.504,-21.973,-26.855,-0.488,0.000
1727575620.477,-25.879,-9.277,-24.414,-12.695,0.000
1727575620.481,-4.883,-25.391,-31.738,-42.969,0.000
1727575620.485,-9.766,-46.875,-39.062,-53.223,0.000
1727575620.489,-41.992,-42.480,-45.410,-47.852,0.000
1727575620.493,-26.855,-11.719,-28.320,-8.301,0.000
1727575620.497,-21.484,-13.672,-36.133,-8.789,0.000
1727575620.501,-7.324,-26.855,-50.781,-37.109,0.000
1727575620.505,-4.395,-33.691,-47.363,-46.875,0.000
1727575620.508,-50.781,-32.715,-50.293,-55.664,0.000
1727575620.512,-55.664,-16.602,-44.434,-30.273,0.000
1727575620.516,-22.949,-36.621,-38.574,-10.254,0.000
1727575620.520,3.418,-42.480,-37.109,-21.484,0.000
1727575620.524,0.977,-30.762,-35.156,-33.691,0.000
1727575620.528,-62.988,-36.621,-41.504,-67.871,0.000
1727575620.532,-72.266,-26.855,-46.387,-47.363,0.000
1727575620.536,-41.992,-22.461,-33.203,-14.648,0.000
1727575620.540,-23.438,-21.484,-33.203,-34.668,0.000
1727575620.544,-2.441,-29.785,-46.387,-37.109,0.000
1727575620.548,-35.645,-35.156,-41.016,-38.086,0.000
1727575620.552,-49.316,-14.648,-23.438,-11.719,0.000
1727575620.555,-30.762,-14.648,-26.855,3.418,0.000
1727575620.559,-21.484,-23.926,-41.504,-21.484,0.000
1727575620.563,-0.977,-27.832,-43.457,-31.250,0.000
1727575620.567,-38.574,-26.855,-45.410,-52.246,0.000
1727575620.571,-68.359,-10.254,-42.480,-33.203,0.000
1727575620.575,-26.855,-19.043,-27.344,12.695,0.000
1727575620.579,-2.441,-37.598,-23.926,-9.277,0.000
1727575620.583,4.883,-24.902,-25.879,-31.250,0.000
1727575620.587,-34.668,-25.391,-33.691,-46.387,0.000
1727575620.591,0.000,-36.133,-38.086,-40.527,0.000
1727575620.595,0.000,-27.344,-35.645,-12.207,0.000
1727575620.598,0.000,-18.066,-34.668,-15.625,0.000
1727575620.602,0.000,-15.137,-39.062,-32.227,0.000
1727575620.606,0.000,-38.086,-39.551,-45.898,0.000
1727575620.610,0.000,-48.340,-41.992,-39.551,0.000
1727575620.614,0.000,-26.855,-39.551,-3.418,0.000
1727575620.618,0.000,-19.531,-42.480,-0.977,0.000
1727575620.622,0.000,-30.762,-41.504,-11.719,0.000
1727575620.626,0.000,-24.414,-41.992,-41.016,0.000
1727575620.630,0.000,-0.977,-43.457,-62.988,0.000
1727575620.634,0.000,-15.137,-33.691,-15.137,0.000
1727575620.638,-16.113,-38.574,-34.668,-2.441,0.000
1727575620.642,3.906,-35.156,-40.527,-31.250,0.000
1727575620.645,-4.395,-25.391,-39.062,-36.133,0.000
1727575620.649,-48.828,-29.785,-35.645,-31.250,0.000
1727575620.653,-37.109,-31.250,-35.156,-11.719,0.000
1727575620.657,-20.508,-17.090,-40.039,-10.254,0.000
1727575620.661,-8.789,-10.742,-37.109,-33.691,0.000
1727575620.665,-1.953,-22.461,-38.086,-46.387,0.000
1727575620.669,-45.410,-35.156,-46.387,-41.504,0.000
1727575620.673,-47.363,-13.184,-30.762,-11.719,0.000
1727575620.677,-16.113,-13.184,-24.902,5.371,0.000
1727575620.681,0.488,-29.785,-36.621,-9.277,0.000
1727575620.684,3.906,-29.297,-34.668,-23.926,0.000
1727575620.688,-41.504,-29.297,-39.551,-49.805,0.000
1727575620.692,-40.527,-21.484,-37.109,-26.855,0.000
1727575620.696,-16.113,-21.973,-34.668,0.488,0.000
1727575620.700,-2.441,-25.391,-38.574,-12.207,0.000
1727575620.704,2.441,-22.461,-45.410,-34.180,0.000
1727575620.708,-40.039,-43.945,-56.152,-63.965,0.000
1727575620.712,-47.852,-47.363,-45.410,-39.551,0.000
1727575620.716,-27.344,-24.902,-37.598,-3.906,0.000
1727575620.720,-24.414,-13.184,-41.504,-22.949,0.000
1727575620.724,-10.254,-16.113,-43.945,-33.691,0.000
1727575620.727,-34.180,-40.039,-45.410,-41.016,0.000
1727575620.731,-62.012,-33.691,-35.645,-31.250,0.000
1727575620.735,-46.875,-17.578,-38.574,-4.395,0.000
1727575620.739,-38.086,-33.691,-44.434,-20.020,0.000
1727575620.743,-14.648,-37.598,-44.434,-39.062,0.000
1727575620.747,-30.273,-38.574,-44.434,-45.898,0.000
1727575620.751,-63.965,-31.738,-44.434,-37.109,0.000
1727575620.755,-41.016,-28.809,-38.086,-14.648,0.000
1727575620.759,-28.809,-44.922,-34.180,-21.973,0.000
1727575620.763,-12.207,-21.484,-42.969,-29.785,0.000
1727575620.766,-20.508,-29.785,-40.527,-41.504,0.000
1727575620.770,-54.688,-37.109,-39.062,-46.387,0.000
1727575620.774,-38.574,-6.836,-34.180,-13.184,0.000
1727575620.778,-24.414,-7.812,-29.297,-6.836,0.000
1727575620.782,1.953,-19.531,-33.203,-17.090,0.000
1727575620.786,-14.160,-33.203,-45.410,-31.738,0.000
1727575620.790,-69.336,-32.227,-42.480,-42.480,0.000
1727575620.794,-42.969,-29.785,-29.297,1.953,0.000
1727575620.798,-21.973,-40.039,-34.180,10.742,0.000
1727575620.802,-6.836,-47.363,-42.969,-20.020,0.000
1727575620.805,-11.230,-51.270,-41.504,-37.598,0.000
1727575620.809,-54.688,-45.410,-31.738,-48.340,0.000
1727575620.813,-46.387,-31.250,-28.320,-19.043,0.000
1727575620.817,-27.344,-30.273,-36.133,-12.695,0.000
1727575620.821,-10.254,-31.738,-34.180,-26.855,0.000
1727575620.825,-5.859,-34.668,-32.715,-29.297,0.000
1727575620.829,-50.293,-44.434,-36.621,-47.852,0.000
1727575620.833,-50.293,-43.457,-30.762,-28.809,0.000
1727575620.837,-27.832,-32.227,-38.086,-8.789,0.000
1727575620.840,-15.137,-23.926,-42.480,-26.855,0.000
1727575620.844,-5.859,-28.809,-46.875,-42.480,0.000
1727575620.848,-39.551,-54.688,-49.316,-51.758,0.000
1727575620.852,-44.434,-23.926,-35.645,-21.484,0.000
1727575620.856,-14.648,-4.395,-26.855,4.395,0.000
1727575620.860,3.906,-21.973,-33.691,-15.625,0.000
1727575620.864,18.066,-18.555,-42.969,-32.227,0.000
1727575620.868,-29.785,-36.133,-41.504,-49.805,0.000
1727575620.872,-42.480,-43.945,-36.133,-23.926,0.000
1727575620.876,-14.648,-28.809,-34.668,14.160,0.000
1727575620.880,-16.113,-26.855,-35.156,-6.836,0.000
1727575620.884,-0.488,-28.809,-45.898,-23.438,0.000
1727575620.888,-28.320,-38.574,-52.246,-38.574,0.000
1727575620.891,-64.453,-47.363,-46.387,-35.645,0.000
1727575620.895,-43.945,-29.785,-43.457,-3.418,0.000
1727575620.899,-25.879,-20.996,-44.434,-17.090,0.000
1727575620.903,-6.348,-21.484,-41.504,-30.273,0.000
1727575620.907,-22.949,-40.527,-41.016,-33.691,0.000
1727575620.911,-75.195,-49.805,-43.457,-39.062,0.000
1727575620.915,-60.547,-48.828,-36.133,-11.230,0.000
1727575620.919,-33.203,-46.875,-43.457,-17.578,0.000
1727575620.923,-7.812,-34.668,-41.992,-36.621,0.000
1727575620.927,-12.207,-35.156,-33.203,-44.434,0.000
1727575620.931,-62.500,-38.086,-39.062,-46.387,0.000
1727575620.935,-62.988,-29.297,-39.062,-22.461,0.000
1727575620.938,-35.645,-23.438,-34.180,-8.789,0.000
1727575620.942,-7.324,-21.484,-31.738,-20.020,0.000
1727575620.946,-16.113,-25.391,-35.645,-50.293,0.000
1727575620.950,-51.270,-42.480,-36.133,-53.223,0.000
1727575620.954,-36.133,-40.527,-32.715,-1.953,0.000
1727575620.958,-27.344,-19.531,-40.527,-11.230,0.000
1727575620.962,-15.625,-28.809,-45.410,-33.203,0.000
1727575620.966,0.000,-40.527,-40.039,-24.414,0.000
1727575620.970,0.000,-40.039,-44.434,-42.969,0.000
1727575620.974,0.000,-18.555,-38.574,-13.184,0.000
1727575620.978,0.000,-10.254,-33.691,5.859,0.000
1727575620.981,0.000,-24.414,-48.828,-17.578,0.000
1727575620.985,0.000,-32.715,-47.852,-27.344,0.000
1727575620.989,0.000,-41.504,-37.109,-48.340,0.000
1727575620.993,0.000,-28.320,-27.344,-23.926,0.000
1727575620.997,0.000,-19.531,-39.062,16.113,0.000
1727575621.001,0.000,-22.461,-39.551,7.812,0.000
1727575621.005,0.000,-14.160,-31.738,-12.695,0.000
1727575621.009,0.000,-29.297,-37.598,-29.785,0.000
1727575621.013,-65.918,-37.109,-32.227,-19.531,0.000
1727575621.017,-35.645,-28.320,-30.762,4.883,0.000
1727575621.021,-19.043,-32.227,-37.598,-13.184,0.000
1727575621.024,14.648,-29.785,-29.297,-13.672,0.000
1727575621.028,-9.766,-40.527,-31.738,-20.508,0.000
1727575621.032,-44.434,-35.156,-35.156,-12.695,0.000
1727575621.036,-24.414,-4.395,-31.250,2.930,0.000
1727575621.040,-26.367,-10.254,-49.805,-27.832,0.000
1727575621.044,3.418,-38.086,-47.852,-37.109,0.000
1727575621.048,-1.465,-29.785,-47.363,-45.898,0.000
1727575621.052,-46.387,-15.625,-48.340,-41.016,0.000
1727575621.056,-27.344,-4.395,-28.809,-2.441,0.000
1727575621.060,-7.324,-2.441,-38.574,-4.883,0.000
1727575621.064,-1.465,-4.395,-46.875,-20.996,0.000
1727575621.067,-25.879,-17.578,-46.875,-39.551,0.000
1727575621.071,-58.105,-33.203,-47.363,-44.434,0.000
1727575621.075,-32.715,-14.648,-38.086,2.930,0.000
1727575621.079,-16.602,-18.066,-34.668,-3.906,0.000
1727575621.083,2.441,-20.020,-40.527,-30.762,0.000
1727575621.087,8.789,-27.832,-45.898,-27.832,0.000
1727575621.091,-41.504,-25.879,-47.852,-44.922,0.000
1727575621.095,-43.457,-13.184,-38.086,-15.625,0.000
1727575621.099,-35.645,-15.625,-36.621,-0.977,0.000
1727575621.103,-18.555,-13.184,-38.086,-21.484,0.000
1727575621.106,-8.789,-37.109,-36.621,-37.598,0.000
1727575621.110,-42.480,-56.152,-48.828,-51.270,0.000
1727575621.114,-39.551,-28.809,-47.363,-20.508,0.000
1727575621.118,-10.742,-13.184,-41.504,-2.930,0.000
1727575621.122,-1.465,-9.277,-43.457,-35.156,0.000
1727575621.126,-30.273,-25.391,-38.574,-51.270,0.000
1727575621.130,-62.988,-55.664,-36.621,-49.805,0.000
1727575621.134,-44.922,-42.480,-32.227,-0.977,0.000
1727575621.138,-28.809,-12.695,-35.156,16.602,0.000
1727575621.142,-17.090,-29.297,-31.738,-22.949,0.000
1727575621.146,-34.668,-25.391,0.000,-72.266,0.000
1727575621.149,-106.445,14.648,-9.277,-103.516,0.000
1727575621.154,0.000,-15.137,-11.719,-46.387,0.000
1727575621.158,0.000,-27.832,30.273,-36.133,0.000
1727575621.161,0.000,14.160,22.461,-83.008,0.000
1727575621.165,0.000,-38.574,-26.367,-68.848,0.000
1727575621.169,0.000,-67.871,-38.574,-51.758,0.000
1727575621.173,0.000,-27.832,-20.996,-31.738,0.000
1727575621.177,0.000,0.000,-42.480,-57.617,0.000
1727575621.181,0.000,-9.277,-72.266,-36.621,0.000
1727575621.185,0.000,8.789,-25.391,-47.363,0.000
1727575621.189,0.000,-53.223,79.102,-113.281,0.000
1727575621.193,0.000,-8.789,-44.434,-83.984,0.000
1727575621.197,0.000,61.035,-165.527,-80.566,0.000
1727575621.200,4.883,-44.922,-94.727,32.715,0.000
1727575621.204,110.352,-33.203,-83.984,128.906,0.000
1727575621.208,120.605,-75.195,-136.719,91.797,0.000
1727575621.212,84.473,-101.562,-143.555,58.105,0.000
1727575621.216,-74.707,-96.191,-32.227,-3.906,0.000
1727575621.220,-93.262,-105.469,54.199,-79.102,0.000
1727575621.224,-19.531,-2.441,-48.340,-36.621,0.000
1727575621.228,-33.691,0.000,-104.492,18.066,0.000
1727575621.232,65.918,-125.000,-117.676,104.004,0.000
1727575621.236,-11.719,-102.539,-92.285,34.668,0.000
1727575621.239,-11.719,-113.770,-46.387,-21.973,0.000
1727575621.243,82.520,-102.051,-113.281,82.520,0.000
1727575621.247,61.035,-98.633,-99.121,86.914,0.000
1727575621.251,53.223,-80.566,-79.102,24.902,0.000
1727575621.255,32.227,-44.922,-83.496,29.297,0.000
1727575621.259,-1.953,-50.781,-57.129,39.062,0.000
1727575621.263,76.660,-65.430,-68.359,32.227,0.000
1727575621.267,48.828,-102.539,-49.805,4.395,0.000
1727575621.270,-28.809,-154.785,-55.664,-19.531,0.000
1727575621.274,-8.789,-91.797,-44.922,3.418,0.000
1727575621.278,42.969,-75.684,-50.781,64.941,0.000
1727575621.282,53.223,-134.277,-85.938,69.824,0.000
1727575621.286,-24.414,-82.031,-86.426,-30.762,0.000
1727575621.290,4.395,-138.672,-51.270,-52.246,0.000
1727575621.294,-4.883,-159.180,-17.578,-8.789,0.000
1727575621.298,-62.988,-94.727,-36.621,15.625,0.000
1727575621.302,34.180,-79.590,-56.152,-3.418,0.000
1727575621.306,28.809,-64.453,-35.156,-70.312,0.000
1727575621.310,11.230,-86.914,-64.453,-5.371,0.000
1727575621.314,25.391,-101.562,-87.891,56.641,0.000
1727575621.317,21.484,-71.289,-76.660,5.371,0.000
1727575621.321,10.742,-67.383,-57.129,1.953,0.000
1727575621.325,-5.371,-112.793,-41.504,20.508,0.000
1727575621.329,7.812,-145.996,-15.625,-18.066,0.000
1727575621.333,-58.105,-108.887,3.906,-84.961,0.000
1727575621.337,-85.938,-101.074,-1.465,-44.434,0.000
1727575621.337,-85.938,-101.074,-1.465,-44.434,0.000
1727575621.341,53.223,-114.258,-66.406,48.340,0.000
1727575621.345,98.633,-97.656,-103.516,34.668,0.000
1727575621.349,15.137,-96.680,-76.172,-37.109,0.000
1727575621.353,-73.730,-114.746,-57.617,-49.316,0.000
1727575621.357,-93.750,-73.242,-47.363,-3.418,0.000
1727575621.361,-47.363,-67.383,-53.223,-12.207,0.000
1727575621.364,67.383,-91.797,-35.156,-3.418,0.000
1727575621.368,60.547,-95.215,-40.039,-8.789,0.000
1727575621.372,-28.320,-94.727,-50.781,-37.109,0.000
1727575621.376,-14.648,-83.496,-26.367,-0.488,0.000
1727575621.380,4.395,-61.035,-20.996,19.043,0.000
1727575621.384,29.785,-50.781,-26.367,-13.184,0.000
1727575621.388,23.438,-61.523,-27.832,-26.855,0.000
1727575621.392,-39.551,-65.918,-41.504,-39.062,0.000
1727575621.396,-47.852,-53.223,-38.086,-15.137,0.000
1727575621.400,-22.461,-53.711,-28.320,2.441,0.000
1727575621.404,-1.953,-50.781,-32.715,-12.695,0.000
1727575621.407,-12.207,-41.992,-41.016,-29.785,0.000
1727575621.411,-48.340,-58.105,-43.945,-48.828,0.000
1727575621.415,-37.109,-61.035,-33.691,-30.273,0.000
1727575621.419,-10.254,-53.711,-32.715,-13.672,0.000
1727575621.423,1.953,-25.879,-40.039,-29.785,0.000
1727575621.427,6.348,-25.879,-43.945,-29.785,0.000
1727575621.431,-39.062,-55.176,-51.758,-42.969,0.000
1727575621.435,-51.270,-43.945,-50.781,-29.297,0.000
1727575621.439,-26.855,-19.043,-45.410,-1.465,0.000
1727575621.443,-12.207,-24.414,-43.457,-18.555,0.000
1727575621.447,0.000,-41.504,-36.621,-37.109,0.000
1727575621.450,-35.156,-38.574,-40.039,-49.316,0.000
1727575621.454,-47.363,-17.578,-41.016,-22.461,0.000
1727575621.458,-30.273,-11.719,-37.109,-4.883,0.000
1727575621.462,-12.207,-26.367,-45.410,-21.973,0.000
1727575621.466,8.301,-11.230,-42.969,-22.949,0.000
1727575621.470,-26.367,-6.836,-34.668,-42.969,0.000
1727575621.474,-46.875,-11.230,-27.832,-30.762,0.000
1727575621.478,-26.367,2.441,-19.043,6.836,0.000
1727575621.482,-12.207,2.441,-18.066,-6.348,0.000
1727575621.486,-0.488,-4.395,-15.137,-26.855,0.000
1727575621.489,-22.949,-27.832,-9.277,-40.039,0.000
1727575621.493,-66.406,-43.945,-16.113,-30.273,0.000
1727575621.497,-46.875,-26.367,-19.531,-0.488,0.000
1727575621.501,-24.414,-7.324,-25.879,-19.043,0.000
1727575621.505,-7.324,-7.324,-33.691,-39.551,0.000
1727575621.509,-12.207,-15.137,-33.691,-35.156,0.000
1727575621.513,-60.059,18.066,-22.461,-51.758,0.000
1727575621.517,-35.645,26.855,-18.066,-32.227,0.000
1727575621.521,-18.066,3.906,-20.996,-25.879,0.000
1727575621.525,-5.859,8.789,-28.809,-48.340,0.000
1727575621.528,-9.277,-3.418,-31.738,-59.082,0.000
1727575621.532,-60.059,-8.789,-34.180,-71.777,0.000
1727575621.536,-48.340,-2.441,-27.832,-21.973,0.000
1727575621.540,-29.785,-0.977,-25.879,3.418,0.000
1727575621.544,-14.648,7.324,-29.785,-25.879,0.000
1727575621.548,-10.254,-12.695,-28.809,-46.875,0.000
1727575621.552,-59.570,-39.551,-34.180,-53.223,0.000
1727575621.556,-55.176,-2.441,-27.832,-5.371,0.000
1727575621.560,-15.625,16.602,-25.391,10.742,0.000
1727575621.564,-13.184,-4.395,-30.762,-33.203,0.000
1727575621.567,-23.438,-18.066,-31.738,-50.293,0.000
1727575621.571,-55.176,-21.484,-41.992,-49.316,0.000
1727575621.575,-51.270,-6.836,-36.133,-18.555,0.000
1727575621.579,-34.668,0.488,-25.879,-4.883,0.000
1727575621.583,-22.461,1.953,-32.227,-24.902,0.000
1727575621.587,-0.977,0.000,-34.180,-34.180,0.000
1727575621.591,-39.062,-25.391,-33.691,-47.363,0.000
1727575621.595,-54.199,-12.695,-29.785,-23.926,0.000
1727575621.599,-26.855,3.418,-37.109,-6.348,0.000
1727575621.602,-32.227,0.488,-26.855,-24.902,0.000
1727575621.606,9.277,13.672,-25.879,-20.996,0.000
1727575621.610,-4.395,0.488,-38.574,-41.992,0.000
1727575621.614,-46.875,12.695,-33.691,-42.969,0.000
1727575621.618,-32.227,21.484,-29.297,-11.230,0.000
1727575621.622,-33.203,5.371,-34.180,-33.203,0.000
1727575621.626,-23.926,-2.930,-41.992,-51.758,0.000
1727575621.630,-30.273,-21.484,-35.645,-62.988,0.000
1727575621.634,-61.523,-13.672,-28.320,-56.641,0.000
1727575621.637,-51.270,-1.953,-30.273,-21.973,0.000
1727575621.641,-40.527,-16.113,-28.809,-40.039,0.000
1727575621.645,-1.953,-4.395,-25.879,-32.715,0.000
1727575621.649,-9.277,1.953,-25.879,-42.480,0.000
1727575621.653,-62.500,-16.602,-28.809,-63.477,0.000
1727575621.657,-43.457,-17.578,-24.902,-16.113,0.000
1727575621.661,-17.090,-9.766,-28.320,-2.930,0.000
1727575621.665,3.418,-1.465,-21.484,-12.207,0.000
1727575621.669,-7.324,-6.836,-23.926,-28.320,0.000
1727575621.673,-58.105,-14.648,-32.715,-46.387,0.000
1727575621.677,-43.945,-3.906,-19.043,-4.395,0.000
1727575621.681,-20.996,-0.977,-14.160,9.277,0.000
1727575621.684,-20.996,12.207,-26.855,-19.043,0.000
1727575621.688,-12.207,-16.113,-31.250,-33.691,0.000
1727575621.692,-49.805,-30.762,-26.855,-51.758,0.000
1727575621.696,-50.293,1.953,-20.996,-20.508,0.000
1727575621.700,-28.320,6.348,-26.367,-0.977,0.000
1727575621.704,-16.602,-2.930,-32.227,-19.531,0.000
1727575621.708,-13.672,-3.418,-24.902,-29.785,0.000
1727575621.712,-59.570,5.371,-35.645,-45.898,0.000
1727575621.716,0.000,-5.371,-34.180,-6.836,0.000
1727575621.720,0.000,-8.789,-24.414,5.859,0.000
1727575621.724,0.000,-2.441,-33.203,-28.809,0.000
1727575621.728,0.000,-11.719,-36.621,-41.992,0.000
1727575621.731,0.000,-8.301,-44.434,-68.848,0.000
1727575621.735,0.000,-11.230,-40.039,-56.152,0.000
1727575621.739,0.000,-9.277,-22.461,-16.113,0.000
1727575621.743,0.000,4.395,-15.625,-26.367,0.000
1727575621.747,0.000,-13.672,-22.949,-35.645,0.000
1727575621.751,0.000,-22.949,-34.180,-55.664,0.000
1727575621.755,0.000,-0.488,-25.391,-57.617,0.000
1727575621.759,0.000,-14.648,-16.602,-6.836,0.000
1727575621.763,-31.250,-24.902,-25.879,-7.324,0.000
1727575621.767,-11.719,-13.184,-29.297,-28.320,0.000
1727575621.771,-43.457,-12.207,-27.344,-66.895,0.000
1727575621.774,-63.965,-10.254,-25.879,-50.781,0.000
1727575621.778,-33.691,-12.695,-25.391,-6.348,0.000
1727575621.782,-31.738,-17.578,-26.367,-26.855,0.000
1727575621.786,2.441,-8.789,-23.438,-41.992,0.000
1727575621.790,2.930,-28.320,-23.438,-53.711,0.000
1727575621.794,-39.062,-47.852,-25.391,-37.598,0.000
1727575621.798,-32.715,-11.230,-17.090,-7.324,0.000
1727575621.802,-16.113,-1.465,-17.578,-15.625,0.000
1727575621.806,3.906,-15.137,-25.391,-24.902,0.000
1727575621.810,-15.137,-17.578,0.000,-39.551,0.000
1727575621.814,-57.617,-13.672,0.000,-47.363,0.000
1727575621.817,-50.293,-8.301,0.000,-10.742,0.000
1727575621.821,-32.227,-16.113,0.000,-10.254,0.000
1727575621.825,-10.742,-10.254,0.000,-31.738,0.000
1727575621.829,-18.066,-7.812,0.000,-47.852,0.000
1727575621.833,-73.242,-14.160,0.000,-70.312,0.000
1727575621.837,-64.941,-28.809,0.000,-30.762,0.000
1727575621.841,-41.016,-35.645,0.000,-19.043,0.000
1727575621.845,-20.996,-10.742,0.000,-47.852,0.000
1727575621.849,-8.789,-12.695,0.000,-61.035,0.000
1727575621.853,-62.988,-27.832,0.000,-68.359,0.000
1727575621.856,-64.453,-21.484,-46.875,-25.391,0.000
1727575621.860,-40.039,-22.949,-42.480,-22.461,0.000
1727575621.864,-31.738,-22.461,-42.480,-54.688,0.000
1727575621.868,-21.484,-11.719,-44.434,-68.359,0.000
1727575621.872,-54.199,-21.484,-49.316,-83.496,0.000
1727575621.876,-69.824,-22.949,-38.574,-55.664,0.000
1727575621.880,-46.387,-17.578,-28.809,-23.438,0.000
1727575621.884,-29.297,-26.855,-36.133,-21.484,0.000
1727575621.888,-10.742,-26.367,-33.691,-34.180,0.000
1727575621.892,-42.969,-24.902,-33.691,-66.895,0.000
1727575621.895,-49.805,-30.762,-36.133,-42.969,0.000
1727575621.899,-22.949,-30.762,-25.391,-10.742,0.000
1727575621.903,-18.555,-26.367,-15.625,-21.484,0.000
1727575621.907,1.465,-30.273,-24.902,-20.996,0.000
1727575621.911,-19.043,-45.410,-38.086,-38.086,0.000
1727575621.915,-44.434,-29.785,-36.133,-32.227,0.000
1727575621.919,-21.973,-6.348,-26.367,11.230,0.000
1727575621.923,0.488,-15.137,-22.461,12.695,0.000
1727575621.927,22.461,-33.691,-20.508,4.883,0.000
1727575621.931,-7.324,-44.922,-27.344,-20.020,0.000
1727575621.934,-62.988,-22.461,-38.086,-47.852,0.000
1727575621.938,-46.387,-20.996,-32.227,-8.789,0.000
1727575621.942,-32.715,-29.785,-34.668,-5.371,0.000
1727575621.946,-10.742,-23.926,-38.574,-25.879,0.000
1727575621.950,-17.090,-31.738,-40.527,-44.434,0.000
1727575621.954,-58.594,-38.574,-42.480,-54.199,0.000
1727575621.958,-57.129,-32.227,-38.086,-21.484,0.000
1727575621.962,-52.246,-31.738,-39.062,-21.973,0.000
1727575621.966,-33.691,-31.738,-40.039,-40.527,0.000
1727575621.969,-40.527,-41.992,-47.363,-73.242,0.000
1727575621.973,-80.078,-71.289,-44.922,-77.637,0.000
1727575621.977,-75.195,-32.715,-31.250,-40.039,0.000
1727575621.981,-47.363,-13.672,-32.715,-30.273,0.000
1727575621.985,-20.020,-37.598,-29.785,-38.086,0.000
1727575621.989,-20.508,-29.297,-30.273,-55.664,0.000
1727575621.993,-58.105,-26.855,-27.344,-65.918,0.000
1727575621.997,0.000,-14.160,-21.484,-32.715,0.000
1727575622.001,0.000,-13.672,-24.902,-14.648,0.000
1727575622.004,0.000,-20.508,-27.344,-31.250,0.000
1727575622.008,0.000,-22.461,-31.738,-42.969,0.000
1727575622.012,0.000,-27.344,-37.109,-61.523,0.000
1727575622.016,0.000,-37.109,-34.668,-31.250,0.000
1727575622.020,0.000,-20.508,-28.320,-1.465,0.000
1727575622.024,0.000,-1.953,-23.438,-13.184,0.000
1727575622.028,0.000,-14.160,-15.137,-7.324,0.000
1727575622.032,0.000,-41.504,-17.090,-13.184,0.000
1727575622.036,0.000,-27.832,-12.207,-0.977,0.000
1727575622.040,0.000,-14.160,1.465,19.531,0.000
1727575622.044,8.789,-31.738,2.441,6.836,0.000
1727575622.048,20.020,-22.461,-13.672,0.488,0.000
1727575622.051,-28.320,-24.902,-22.461,-20.020,0.000
1727575622.055,-53.223,-30.273,-20.020,-17.578,0.000
1727575622.059,-21.973,-26.367,-15.625,2.441,0.000
1727575622.063,-16.113,-29.785,-17.578,-14.160,0.000
1727575622.067,-7.812,-33.203,-24.414,-28.809,0.000
1727575622.071,-27.832,-34.180,-32.715,-55.664,0.000
1727575622.075,-68.848,-41.992,-40.527,-53.711,0.000
1727575622.079,-61.035,-34.668,-44.434,-16.113,0.000
1727575622.083,-41.992,-18.555,-43.945,-32.715,0.000
1727575622.087,-17.090,-18.066,-45.898,-59.082,0.000
1727575622.091,-31.738,-43.457,-54.688,-73.730,0.000
1727575622.095,-63.965,-41.504,-47.852,-65.918,0.000
1727575622.098,-56.641,-26.855,-39.062,-32.227,0.000
1727575622.102,-42.480,-39.062,-51.270,-36.621,0.000
1727575622.106,-20.508,-37.598,-56.641,-49.316,0.000
1727575622.110,-28.320,-44.922,-55.176,-60.547,0.000
1727575622.114,-81.055,-29.297,-61.035,-77.148,0.000
1727575622.118,-67.871,-15.137,-52.734,-31.738,0.000
1727575622.122,-23.438,-42.480,-42.969,1.465,0.000
1727575622.126,-6.348,-26.855,-41.016,-10.742,0.000
1727575622.130,-13.184,-21.973,-44.434,-34.180,0.000
1727575622.134,-58.594,-52.246,-45.898,-47.363,0.000
1727575622.138,-51.758,-40.527,-30.273,-7.812,0.000
1727575622.141,-26.367,-23.926,-17.090,13.184,0.000
1727575622.145,-8.301,-27.832,-14.648,7.324,0.000
1727575622.149,7.324,-35.645,-17.090,4.883,0.000
1727575622.153,-32.227,-41.504,-20.996,-10.254,0.000
1727575622.157,-37.598,-26.367,-11.719,15.137,0.000
1727575622.161,-8.301,-12.207,-10.742,25.879,0.000
1727575622.165,6.836,-24.902,-22.461,-1.465,0.000
1727575622.169,17.578,-40.527,-28.809,-8.301,0.000
1727575622.173,-18.555,-25.879,-24.902,-26.855,0.000
1727575622.177,-29.297,-8.301,-17.090,-8.301,0.000
1727575622.181,-16.113,-3.418,-25.391,11.719,0.000
1727575622.184,-6.348,1.953,-23.438,-9.766,0.000
1727575622.188,21.973,-0.977,-22.949,-20.996,0.000
1727575622.192,-18.555,-6.836,-42.969,-44.922,0.000
1727575622.196,-43.945,-18.066,-44.922,-34.668,0.000
1727575622.200,-24.902,-21.973,-41.016,-11.230,0.000
1727575622.204,-27.832,-29.297,-47.852,-33.691,0.000
1727575622.208,-14.648,-30.273,-55.176,-53.223,0.000
1727575622.212,-42.969,-50.781,-59.570,-65.430,0.000
1727575622.216,-68.848,-35.156,-54.199,-53.711,0.000
1727575622.220,-40.039,-5.859,-42.480,-32.227,0.000
1727575622.223,-41.992,-28.320,-46.387,-56.152,0.000
1727575622.227,-31.738,-41.992,-53.223,-64.453,0.000
1727575622.231,-44.922,-48.828,-55.176,-67.383,0.000
1727575622.235,-89.844,-47.363,-57.129,-67.383,0.000
1727575622.239,-79.102,-41.504,-55.664,-38.574,0.000
1727575622.243,-61.523,-52.734,-58.105,-45.410,0.000
1727575622.247,-33.691,-68.359,-55.176,-42.969,0.000
1727575622.251,-44.922,-56.641,-50.293,-59.570,0.000
1727575622.255,-97.168,-44.922,-63.965,-76.172,0.000
1727575622.259,-78.125,-55.664,-66.895,-27.832,0.000
1727575622.263,-50.781,-39.062,-55.176,-12.695,0.000
1727575622.266,-35.156,-17.090,-51.270,-39.062,0.000
1727575622.270,-29.297,-31.738,-57.617,-51.758,0.000
1727575622.274,-63.477,-48.340,-57.617,-45.410,0.000
1727575622.278,0.000,-34.668,-48.340,-14.648,0.000
1727575622.282,0.000,-22.461,-44.434,-8.301,0.000
1727575622.286,0.000,-21.973,-45.898,-26.367,0.000
1727575622.290,0.000,-21.484,-52.246,-41.992,0.000
1727575622.294,0.000,-24.902,-52.246,-50.293,0.000
1727575622.298,0.000,-13.184,-40.527,-15.137,0.000
1727575622.301,0.000,-21.973,-27.344,13.184,0.000
1727575622.305,0.000,-25.391,-31.250,-12.207,0.000
1727575622.309,0.000,-22.461,-35.645,-31.738,0.000
1727575622.313,0.000,-35.645,-41.016,-52.246,0.000
1727575622.317,0.000,-32.715,-43.457,-37.109,0.000
1727575622.321,0.000,-25.391,-46.387,-20.020,0.000
1727575622.325,-44.434,-15.137,-48.828,-42.969,0.000
1727575622.329,-23.926,-25.391,-48.340,-55.176,0.000
1727575622.333,-50.781,-53.711,-56.152,-68.359,0.000
1727575622.337,-77.148,-43.457,-56.641,-51.758,0.000
1727575622.340,-73.730,-19.043,-52.246,-27.344,0.000
1727575622.344,-56.152,-20.996,-57.617,-45.898,0.000
1727575622.348,-28.320,-38.574,-57.617,-60.547,0.000
1727575622.352,-47.852,-39.551,-54.688,-67.383,0.000
1727575622.356,-75.195,-10.742,-47.852,-50.781,0.000
1727575622.360,-54.688,4.395,-46.875,-11.719,0.000
1727575622.364,-35.645,-24.902,-50.781,-20.996,0.000
1727575622.368,-11.230,-28.809,-47.363,-39.551,0.000
1727575622.372,-36.621,-24.414,-50.293,-61.523,0.000
1727575622.375,-73.242,-37.109,-47.363,-60.059,0.000
1727575622.379,-46.387,-17.090,-43.457,-22.461,0.000
1727575622.383,-33.691,-10.742,-42.969,-34.668,0.000
1727575622.387,-17.090,-14.160,-41.992,-51.758,0.000
1727575622.391,-18.066,-30.273,-47.852,-56.641,0.000
1727575622.395,-48.340,-44.434,-46.387,-51.758,0.000
1727575622.399,-41.504,-22.461,-37.109,-15.137,0.000
1727575622.403,-32.227,-11.719,-34.668,-21.484,0.000
1727575622.407,2.930,-29.785,-32.227,-39.551,0.000
1727575622.411,11.719,-27.344,-36.621,-46.387,0.000
1727575622.414,-42.969,-31.250,-45.898,-41.504,0.000
1727575622.419,-30.762,-24.902,-35.645,5.371,0.000
1727575622.422,0.488,-12.695,-24.902,18.066,0.000
1727575622.426,19.531,-11.719,-22.949,-9.766,0.000
1727575622.430,24.902,-19.043,-25.879,-12.207,0.000
1727575622.434,-11.719,-28.809,-23.438,-13.672,0.000
1727575622.438,-9.277,-16.602,-13.184,13.672,0.000
1727575622.442,10.742,-2.930,-11.719,29.297,0.000
1727575622.446,10.742,0.000,-19.531,-4.395,0.000
1727575622.450,18.555,-24.902,-27.832,-15.625,0.000
1727575622.454,-19.531,-54.688,-34.668,-18.066,0.000
1727575622.458,-47.363,-28.809,-30.273,-12.207,0.000
1727575622.461,-40.039,-19.043,-33.203,-14.160,0.000
1727575622.465,-31.738,-30.273,-37.109,-34.180,0.000
1727575622.469,-16.113,-30.762,-38.574,-36.133,0.000
1727575622.473,-54.688,-30.273,-43.945,-60.547,0.000
1727575622.477,-77.637,-21.484,-40.039,-44.922,0.000
1727575622.481,-49.805,-22.949,-41.992,-9.766,0.000
1727575622.485,-28.809,-20.996,-44.434,-38.086,0.000
1727575622.489,-2.930,-12.207,-43.457,-52.734,0.000
1727575622.493,-39.062,-21.973,-47.852,-68.848,0.000
1727575622.497,-56.152,-31.738,-49.805,-56.152,0.000
1727575622.501,-26.855,-15.625,-45.898,-14.648,0.000
1727575622.505,-16.113,-14.160,-41.504,-17.578,0.000
1727575622.508,11.230,-21.484,-42.480,-19.043,0.000
1727575622.512,-18.066,-35.156,-45.898,-43.457,0.000
1727575622.516,-57.129,-28.320,-45.410,-49.316,0.000
1727575622.520,-39.551,-9.766,-36.133,-9.766,0.000
1727575622.524,-26.367,-23.926,-37.109,-16.113,0.000
1727575622.528,12.207,-33.203,-51.758,-22.949,0.000
1727575622.532,-11.719,-45.410,-52.734,-35.645,0.000
1727575622.536,-64.941,-45.898,-45.410,-44.434,0.000
1727575622.540,-36.133,-31.250,-37.598,-1.465,0.000
1727575622.544,-9.277,-45.898,-40.039,6.836,0.000
1727575622.548,6.836,-28.809,-31.250,-6.348,0.000
1727575622.551,-1.953,-21.973,-33.203,-21.973,0.000
1727575622.555,-48.340,-39.551,-41.016,-42.969,0.000
1727575622.559,0.000,-21.973,-35.156,-21.484,0.000
1727575622.563,0.000,-14.160,-36.133,-10.254,0.000
1727575622.567,0.000,-29.297,-39.551,-16.113,0.000
1727575622.571,0.000,-43.945,-37.598,-30.273,0.000
1727575622.575,0.000,-34.180,-31.250,-45.410,0.000
1727575622.579,0.000,-17.578,-32.227,-20.020,0.000
1727575622.583,0.000,-20.996,-39.062,-7.324,0.000
1727575622.587,0.000,-34.180,-45.410,-32.715,0.000
1727575622.591,0.000,-33.691,-44.922,-52.246,0.000
1727575622.594,0.000,-25.879,-39.062,-73.242,0.000
1727575622.598,0.000,-23.438,-38.086,-53.223,0.000
1727575622.602,0.000,-32.715,-42.969,-28.809,0.000
1727575622.606,-23.926,-21.484,-35.645,-37.109,0.000
1727575622.610,-5.371,-2.441,-41.504,-41.992,0.000
1727575622.614,-46.875,-26.367,-56.152,-54.199,0.000
1727575622.618,-66.895,-24.414,-50.293,-44.922,0.000
1727575622.622,-46.387,-9.766,-41.992,-29.297,0.000
1727575622.626,-19.531,-13.672,-40.039,-40.527,0.000
1727575622.630,3.906,-17.578,-48.340,-39.062,0.000
1727575622.633,-36.133,-37.109,-54.199,-45.898,0.000
1727575622.637,-71.777,-22.461,-47.852,-43.457,0.000
1727575622.641,-39.062,-12.207,-47.852,-10.742,0.000
1727575622.645,-18.066,-31.250,-45.410,-16.113,0.000
1727575622.649,3.906,-34.668,-39.551,-36.133,0.000
1727575622.653,-19.531,-33.691,-44.922,-40.039,0.000
1727575622.657,-48.340,-23.438,-46.387,-32.227,0.000
1727575622.661,-18.555,-10.742,-41.992,-6.348,0.000
1727575622.665,-9.766,-6.836,-43.945,-19.043,0.000
1727575622.669,21.973,-1.465,-49.316,-19.531,0.000
1727575622.672,9.277,-30.273,-51.270,-22.461,0.000
1727575622.676,-49.316,-43.457,-52.734,-22.949,0.000
1727575622.680,-38.086,-15.625,-42.480,18.066,0.000
1727575622.684,-22.461,-7.324,-38.574,-2.930,0.000
1727575622.688,-12.695,-27.832,-41.504,-30.273,0.000
1727575622.692,-39.062,-37.109,-43.457,-39.551,0.000
1727575622.696,-78.613,-27.344,-41.504,-45.898,0.000
1727575622.700,-58.105,-7.324,-30.762,-23.926,0.000
1727575622.704,-37.109,-14.160,-34.180,-24.902,0.000
1727575622.707,-16.113,-20.508,-39.062,-38.086,0.000
1727575622.711,-26.367,-24.414,-40.039,-52.246,0.000
1727575622.715,-71.289,-31.250,-45.898,-68.848,0.000
1727575622.719,-53.223,-41.504,-40.527,-31.250,0.000
1727575622.723,-26.367,-50.293,-37.598,-4.883,0.000
1727575622.727,-3.906,-15.625,-39.551,-23.926,0.000
1727575622.731,0.977,-13.672,-39.062,-51.270,0.000
1727575622.735,-53.711,-28.320,-38.574,-68.848,0.000
1727575622.739,-54.199,-12.207,-34.668,-32.715,0.000
1727575622.743,-27.832,-5.859,-34.180,-15.137,0.000
1727575622.746,-18.555,-19.531,-41.016,-40.039,0.000
1727575622.750,-13.184,-31.250,-49.805,-49.805,0.000
1727575622.754,-54.688,-33.691,-55.664,-67.871,0.000
1727575622.758,-54.199,-22.461,-46.387,-39.062,0.000
1727575622.762,-21.973,-22.461,-38.086,-7.812,0.000
1727575622.766,-14.160,-33.203,-42.969,-29.785,0.000
1727575622.770,-1.465,-36.133,-45.410,-35.156,0.000
1727575622.774,-41.992,-30.273,-48.340,-47.852,0.000
1727575622.778,-68.359,-22.949,-47.852,-32.227,0.000
1727575622.782,-31.738,-21.484,-42.480,4.883,0.000
1727575622.785,-16.602,-19.531,-47.363,-6.348,0.000
1727575622.789,14.160,-17.090,-42.480,-12.207,0.000
1727575622.793,-15.625,-38.574,-43.945,-23.438,0.000
1727575622.797,-44.922,-37.598,-48.828,-15.625,0.000
1727575622.801,-28.809,-18.555,-45.410,-3.906,0.000
1727575622.805,-13.672,-28.809,-40.039,-19.043,0.000
1727575622.809,21.973,-31.738,-34.180,-20.020,0.000
1727575622.813,-6.348,-30.273,-44.434,-40.039,0.000
1727575622.817,-49.805,-22.461,-40.527,-39.551,0.000
1727575622.821,-24.902,-16.113,-22.461,4.883,0.000
1727575622.825,-11.719,-24.414,-25.879,-1.465,0.000
1727575622.829,1.953,-31.250,-34.180,-22.461,0.000
1727575622.832,-13.184,-25.879,-39.062,-46.387,0.000
1727575622.836,-62.012,-23.438,-41.504,-54.199,0.000
1727575622.840,-45.410,-16.113,-28.809,-11.719,0.000
1727575622.844,-23.438,-15.137,-25.391,-11.719,0.000
1727575622.848,-6.348,-14.648,-31.250,-35.645,0.000
1727575622.852,-10.742,-16.113,-28.809,-47.852,0.000
1727575622.856,-55.664,-45.898,-32.715,-54.199,0.000
1727575622.860,-56.641,-26.367,-30.273,-24.902,0.000
1727575622.864,-26.855,-3.418,-24.902,-5.859,0.000
1727575622.868,4.395,-14.160,-27.832,-22.949,0.000
1727575622.872,4.883,-26.855,-37.109,-37.109,0.000
1727575622.876,-44.434,-27.344,-39.551,-39.551,0.000
1727575622.879,-48.340,-4.395,-30.762,-26.367,0.000
1727575622.883,-30.273,-12.207,-38.086,-23.438,0.000
1727575622.887,-13.672,-27.832,-44.922,-22.949,0.000
1727575622.891,-9.766,-19.043,-40.039,-38.086,0.000
1727575622.895,-55.664,-13.184,-45.898,-62.988,0.000
1727575622.899,-52.734,-21.484,-48.340,-27.832,0.000
1727575622.903,-24.414,-18.066,-47.852,-12.695,0.000
1727575622.907,-13.672,-18.555,-46.387,-33.203,0.000
1727575622.911,-0.977,-20.508,-40.039,-22.949,0.000
1727575622.915,-36.133,-21.973,-46.387,-34.668,0.000
1727575622.919,-38.574,-30.273,-43.945,-10.742,0.000
1727575622.922,-24.902,-13.672,-36.621,1.953,0.000
1727575622.926,-10.742,-2.441,-33.203,-24.414,0.000
1727575622.930,7.812,-3.906,-29.297,-33.691,0.000
1727575622.934,-29.785,-18.555,-29.297,-48.828,0.000
1727575622.938,-44.434,-23.926,-24.902,-33.203,0.000
1727575622.942,-24.414,-18.555,-28.809,-7.812,0.000
1727575622.946,-20.996,-21.973,-30.762,-22.461,0.000
1727575622.950,-6.348,-13.672,-27.832,-32.715,0.000
1727575622.954,-26.367,-28.809,-33.691,-39.551,0.000
1727575622.958,-65.430,-30.273,-32.715,-32.715,0.000
1727575622.962,-34.668,-23.438,-27.832,9.277,0.000
1727575622.965,-12.695,-27.344,-28.320,5.371,0.000
1727575622.969,0.000,-9.766,-22.949,-18.555,0.000
1727575622.973,-17.578,-21.484,-29.297,-30.762,0.000
1727575622.977,-44.434,-48.340,-30.273,-22.461,0.000
1727575622.981,0.000,-26.367,-23.438,4.883,0.000
1727575622.985,0.000,-23.926,-27.832,-8.301,0.000
1727575622.989,0.000,-37.109,-38.086,-28.320,0.000
1727575622.993,0.000,-32.715,-47.363,-41.016,0.000
1727575622.997,0.000,-29.785,-41.992,-36.621,0.000
1727575623.001,0.000,-14.160,-35.645,3.906,0.000
1727575623.004,0.000,-13.672,-43.945,2.441,0.000
1727575623.008,0.000,-24.902,-53.711,-15.625,0.000
1727575623.012,0.000,-17.578,-54.688,-33.691,0.000
1727575623.016,0.000,-18.066,-52.246,-47.363,0.000
1727575623.020,0.000,-14.648,-41.016,-5.371,0.000
1727575623.024,0.000,-15.137,-42.969,-2.930,0.000
1727575623.028,-16.602,-7.812,-50.293,-37.109,0.000
1727575623.032,-18.066,-18.555,-48.340,-40.039,0.000
1727575623.036,-48.828,-44.434,-47.363,-39.062,0.000
1727575623.040,-28.809,-25.391,-36.621,-5.371,0.000
1727575623.043,-19.043,-15.137,-33.203,2.441,0.000
1727575623.047,-16.602,-31.250,-37.598,-19.531,0.000
1727575623.051,-3.906,-48.340,-41.992,-33.691,0.000
1727575623.055,-44.922,-49.316,-43.945,-58.594,0.000
1727575623.059,-56.641,-29.785,-27.344,-30.762,0.000
1727575623.063,-27.832,-27.344,-14.648,7.812,0.000
1727575623.067,-13.184,-28.809,-22.949,-0.977,0.000
1727575623.071,4.883,-19.043,-28.809,-16.602,0.000
1727575623.075,-39.062,-25.879,-33.203,-49.805,0.000
1727575623.079,-63.965,-17.090,-28.809,-29.785,0.000
1727575623.083,-31.250,-7.812,-24.902,11.719,0.000
1727575623.087,-8.789,-21.484,-29.785,-15.625,0.000
1727575623.091,11.230,-35.645,-30.762,-30.273,0.000
1727575623.094,-30.273,-51.270,-37.598,-44.434,0.000
1727575623.098,-65.430,-59.570,-44.922,-34.668,0.000
1727575623.102,-37.109,-28.320,-39.062,-7.812,0.000
1727575623.106,-20.508,-19.043,-41.992,-31.250,0.000
1727575623.110,4.395,-40.039,-46.387,-47.852,0.000
1727575623.114,-16.602,-41.992,-50.781,-59.570,0.000
1727575623.118,-60.059,-23.438,-53.223,-49.316,0.000
1727575623.122,-42.969,-15.137,-42.969,-2.441,0.000
1727575623.126,-15.137,-27.344,-44.434,1.465,0.000
1727575623.129,2.930,-25.879,-48.828,-20.996,0.000
1727575623.133,-23.438,-30.273,-47.852,-38.574,0.000
1727575623.137,-59.570,-42.969,-48.340,-45.410,0.000
1727575623.141,-37.598,-40.527,-42.969,-10.254,0.000
1727575623.145,-30.273,-31.738,-36.621,-9.277,0.000
1727575623.149,-13.672,-23.926,-30.762,-28.809,0.000
1727575623.153,-11.230,-24.902,-31.250,-40.527,0.000
1727575623.157,-58.105,-48.340,-36.133,-53.711,0.000
1727575623.161,-57.617,-30.762,-26.855,-16.602,0.000
1727575623.165,-25.879,-6.348,-19.531,-11.719,0.000
1727575623.169,1.953,-29.297,-22.461,-20.020,0.000
1727575623.173,-6.836,-30.273,-29.785,-23.926,0.000
1727575623.176,-59.082,-29.297,-36.621,-49.316,0.000
1727575623.180,-45.898,-24.414,-28.809,-22.461,0.000
1727575623.184,-22.949,-23.926,-28.320,4.883,0.000
1727575623.188,-2.930,-34.180,-30.762,-1.465,0.000
1727575623.192,10.254,-35.156,-37.109,-10.742,0.000
1727575623.196,-42.480,-39.062,-47.852,-50.293,0.000
1727575623.200,-44.434,-35.156,-41.992,-30.273,0.000
1727575623.204,-24.414,-43.457,-40.527,3.418,0.000
1727575623.208,-22.461,-34.180,-41.016,-30.273,0.000
1727575623.212,-6.348,-34.180,-43.945,-52.246,0.000
1727575623.216,0.000,-54.199,-48.828,-69.336,0.000
1727575623.220,0.000,-41.992,-36.133,-43.457,0.000
1727575623.223,0.000,-26.367,-25.879,-8.301,0.000
1727575623.227,0.000,-24.414,-36.133,-24.902,0.000
1727575623.231,0.000,-36.133,-40.527,-34.180,0.000
1727575623.235,0.000,-59.570,-42.969,-45.898,0.000
1727575623.239,0.000,-46.387,-41.504,-31.250,0.000
1727575623.243,0.000,-18.555,-25.879,-0.977,0.000
1727575623.247,0.000,-26.855,-38.574,-12.695,0.000
1727575623.251,0.000,-26.855,-43.945,-12.695,0.000
1727575623.255,0.000,-23.438,-31.250,-27.832,0.000
1727575623.259,0.000,-23.438,-30.762,-34.180,0.000
1727575623.263,-33.203,-16.113,-30.273,2.930,0.000
1727575623.266,-21.484,-27.344,-28.809,-7.812,0.000
1727575623.270,10.742,-33.203,-36.621,-42.480,0.000
1727575623.274,0.977,-39.551,-37.598,-50.293,0.000
1727575623.278,-58.105,-48.340,-36.621,-45.410,0.000
1727575623.282,-49.805,-38.086,-32.715,-21.484,0.000
1727575623.286,-29.785,-22.949,-29.785,-27.832,0.000
1727575623.290,-4.395,-30.762,-27.832,-35.156,0.000
1727575623.294,-1.953,-53.223,-31.738,-33.691,0.000
1727575623.298,-50.293,-28.809,-31.738,-51.758,0.000
1727575623.302,-43.945,-5.859,-26.855,-8.301,0.000
1727575623.305,-17.090,-20.996,-29.297,8.301,0.000
1727575623.309,0.000,-24.414,-30.762,-18.066,0.000
1727575623.313,0.000,-26.855,-34.668,-28.320,0.000
1727575623.317,0.000,-36.133,-37.598,-36.621,0.000
1727575623.321,0.000,-30.273,-28.809,-7.812,0.000
1727575623.325,0.000,-21.484,-28.320,0.977,0.000
1727575623.329,0.000,-14.648,-30.762,-18.555,0.000
1727575623.333,0.000,-22.949,-35.645,-41.016,0.000
1727575623.337,0.000,-47.852,-40.039,-47.363,0.000
1727575623.341,0.000,-30.762,-38.574,-9.766,0.000
1727575623.345,0.000,-8.789,-41.504,-9.277,0.000
1727575623.348,0.000,-23.438,-43.457,-34.180,0.000
1727575623.352,0.000,-32.227,-41.992,-38.086,0.000
1727575623.356,-42.480,-34.180,-44.922,-56.152,0.000
1727575623.360,-54.688,-29.297,-40.527,-32.227,0.000
1727575623.364,-35.645,-24.414,-37.109,-6.836,0.000
1727575623.368,-28.809,-42.480,-42.969,-28.809,0.000
1727575623.372,-6.836,-44.434,-41.016,-36.133,0.000
1727575623.376,-34.668,-47.363,-41.016,-48.828,0.000
1727575623.380,-59.082,-39.062,-39.551,-47.363,0.000
1727575623.384,-31.738,-38.086,-29.785,-12.207,0.000
1727575623.387,-17.090,-37.109,-38.086,-17.578,0.000
1727575623.391,0.000,-25.391,-40.039,-27.832,0.000
1727575623.395,-30.273,-39.551,-36.621,-41.016,0.000
1727575623.399,-50.293,-48.340,-38.086,-26.855,0.000
1727575623.403,-37.598,-16.602,-31.738,-8.301,0.000
1727575623.407,-30.762,-23.438,-30.273,-16.602,0.000
1727575623.411,8.789,-39.551,-35.645,-19.043,0.000
1727575623.415,-13.672,-42.969,-39.551,-41.504,0.000
1727575623.419,-52.734,-41.504,-36.621,-43.457,0.000
1727575623.423,-34.668,-27.344,-33.691,-15.137,0.000
1727575623.426,-26.855,-40.527,-39.551,-18.066,0.000
1727575623.430,-2.930,-44.922,-40.039,-24.414,0.000
1727575623.434,-18.555,-31.250,-39.062,-37.109,0.000
1727575623.438,-64.941,-32.715,-43.945,-46.875,0.000
1727575623.442,-41.504,-34.180,-37.109,-11.230,0.000
1727575623.446,-25.391,-30.273,-36.133,-3.418,0.000
1727575623.450,-14.648,-20.508,-39.551,-18.066,0.000
1727575623.454,-11.719,-36.133,-42.480,-36.621,0.000
1727575623.458,-48.340,-48.340,-47.363,-60.059,0.000
1727575623.461,-44.922,-31.250,-36.621,-28.809,0.000
1727575623.465,-20.996,-29.297,-32.715,-8.789,0.000
1727575623.469,1.465,-33.691,-36.621,-22.949,0.000
1727575623.473,-8.301,-41.016,-38.574,-31.738,0.000
1727575623.477,-61.035,-29.785,-42.480,-59.570,0.000
1727575623.481,-63.965,-13.184,-36.621,-38.086,0.000
1727575623.485,-32.227,-15.137,-36.133,-10.254,0.000
1727575623.489,-10.254,-17.090,-45.410,-41.016,0.000
1727575623.493,-2.930,-28.809,-44.922,-42.969,0.000
1727575623.496,-45.410,-37.598,-41.016,-44.434,0.000
1727575623.500,-61.523,-23.926,-39.551,-32.227,0.000
1727575623.504,-36.133,-13.184,-37.598,-6.348,0.000
1727575623.508,-17.090,-8.301,-35.645,-22.949,0.000
1727575623.512,-5.371,-16.602,-42.480,-46.875,0.000
1727575623.516,-35.156,-41.016,-53.711,-54.688,0.000
1727575623.520,-47.852,-28.320,-47.363,-21.484,0.000
1727575623.524,-19.043,2.441,-36.133,4.883,0.000
1727575623.528,-13.672,-4.883,-37.109,-15.137,0.000
1727575623.532,-4.883,-24.902,-42.969,-24.414,0.000
1727575623.536,-37.598,-34.180,-45.410,-54.199,0.000
1727575623.539,-68.359,-26.367,-41.992,-53.711,0.000
1727575623.543,-44.434,-18.555,-46.387,-17.090,0.000
1727575623.547,-28.320,-25.879,-50.293,-24.902,0.000
1727575623.551,-8.301,-17.578,-40.527,-24.902,0.000
1727575623.555,-29.785,-22.461,-40.039,-36.133,0.000
1727575623.559,-60.059,-34.668,-41.992,-37.598,0.000
1727575623.563,-35.645,-36.133,-38.086,-11.230,0.000
1727575623.567,-32.227,-35.645,-43.457,-31.738,0.000
1727575623.571,-13.672,-21.973,-46.875,-54.199,0.000
1727575623.575,-20.508,-36.621,-43.457,-46.875,0.000
1727575623.579,-65.430,-63.965,-44.922,-30.762,0.000
1727575623.583,-45.898,-37.598,-29.785,-0.488,0.000
1727575623.586,-34.668,-21.484,-30.273,1.465,0.000
1727575623.590,-10.742,-25.879,-41.016,-22.461,0.000
1727575623.594,-14.160,-33.691,-40.039,-35.156,0.000
1727575623.598,-73.730,-41.016,-42.480,-41.504,0.000
1727575623.602,-65.918,-32.227,-40.527,-14.648,0.000
1727575623.606,-43.457,-27.832,-41.504,-19.531,0.000
1727575623.610,-19.043,-26.367,-39.062,-43.945,0.000
1727575623.614,-15.625,-23.438,-35.645,-44.434,0.000
1727575623.618,-66.895,-23.926,-39.062,-53.223,0.000
1727575623.622,-55.176,-29.297,-33.203,-18.066,0.000
1727575623.626,-31.738,-26.367,-23.438,-2.441,0.000
1727575623.630,-12.695,-13.184,-20.996,-24.414,0.000
1727575623.633,9.766,-20.020,-24.902,-32.227,0.000
1727575623.637,-29.297,-48.340,-37.598,-42.480,0.000
1727575623.641,-40.039,-29.785,-33.691,-10.254,0.000
1727575623.645,-21.484,-4.883,-25.879,14.160,0.000
1727575623.649,-15.625,-15.625,-35.156,-14.160,0.000
1727575623.653,4.395,-28.320,-36.621,-24.902,0.000
1727575623.657,-28.809,-33.691,-43.457,-45.410,0.000
1727575623.661,-56.152,-26.367,-47.852,-41.992,0.000
1727575623.665,-31.738,-24.414,-39.062,-6.836,0.000
1727575623.669,-14.160,-47.852,-46.875,-8.789,0.000
1727575623.673,-6.836,-35.645,-51.270,-29.297,0.000
1727575623.676,-41.504,-35.645,-48.828,-54.688,0.000
1727575623.680,-66.406,-41.992,-47.852,-35.156,0.000
1727575623.684,-41.504,-33.203,-43.945,-0.977,0.000
1727575623.688,-23.438,-29.297,-45.410,-19.043,0.000
1727575623.692,2.441,-19.043,-48.340,-34.668,0.000
1727575623.696,-20.020,-42.480,-53.711,-45.898,0.000
1727575623.700,-55.176,-43.945,-51.270,-37.109,0.000
1727575623.704,-27.344,-25.391,-42.480,-1.953,0.000
1727575623.708,-14.648,-30.273,-38.574,-0.977,0.000
1727575623.712,2.930,-35.645,-34.668,-10.254,0.000
1727575623.716,-17.090,-39.551,-41.992,-34.668,0.000
1727575623.719,-57.617,-20.508,-43.457,-45.898,0.000
1727575623.723,-33.203,-10.742,-35.645,-9.277,0.000
1727575623.727,-22.461,-33.691,-39.062,-13.184,0.000
1727575623.731,-16.602,-34.180,-47.363,-33.691,0.000
1727575623.735,-14.648,-27.832,-50.293,-49.805,0.000
1727575623.739,-60.547,-20.508,-45.410,-55.664,0.000
1727575623.743,-38.574,-19.531,-35.645,-6.348,0.000
1727575623.747,-2.930,-27.344,-33.203,5.859,0.000
1727575623.751,9.766,-26.855,-31.738,-15.137,0.000
1727575623.755,2.441,-31.250,-41.992,-22.949,0.000
1727575623.758,-46.875,-44.922,-50.293,-24.414,0.000
1727575623.762,-44.434,-14.160,-35.156,7.812,0.000
1727575623.766,-21.973,3.418,-28.809,18.066,0.000
1727575623.770,-6.836,-14.160,-30.762,3.418,0.000
1727575623.774,-3.906,-13.672,-41.504,-19.043,0.000
1727575623.778,-45.898,-17.578,-48.828,-40.039,0.000
1727575623.782,-44.434,-27.344,-45.898,-12.207,0.000
1727575623.786,-32.227,-31.738,-46.387,-1.953,0.000
1727575623.790,-22.949,-29.785,-46.387,-21.973,0.000
1727575623.794,-7.324,-29.297,-50.781,-30.273,0.000
1727575623.797,-44.434,-40.527,-49.316,-48.340,0.000
1727575623.801,-43.457,-39.062,-41.016,-14.648,0.000
1727575623.805,-13.672,-20.020,-37.598,13.672,0.000
1727575623.809,-7.324,-18.555,-38.574,-16.113,0.000
1727575623.813,12.695,-31.250,-39.062,-29.297,0.000
1727575623.817,-27.832,-60.059,-48.340,-52.246,0.000
1727575623.821,-60.059,-51.270,-42.969,-45.410,0.000
1727575623.825,-42.969,-24.902,-34.668,-10.742,0.000
1727575623.829,-24.902,-28.320,-38.086,-15.137,0.000
1727575623.832,-2.441,-28.320,-34.668,-28.320,0.000
1727575623.836,-29.785,-41.992,-40.527,-44.434,0.000
1727575623.840,-63.477,-43.945,-42.969,-33.691,0.000
1727575623.844,-30.273,-33.203,-27.832,6.836,0.000
1727575623.848,-9.277,-36.621,-21.484,5.859,0.000
1727575623.852,13.672,-16.602,-24.902,-8.789,0.000
1727575623.856,-1.465,-7.812,-31.738,-35.645,0.000
1727575623.860,-48.340,-11.719,-35.156,-41.504,0.000
1727575623.864,-29.785,-25.879,-26.855,12.207,0.000
1727575623.868,-17.090,-18.555,-29.785,9.766,0.000
1727575623.871,-2.930,-10.254,-36.133,-17.090,0.000
1727575623.875,-11.230,-27.344,-36.133,-35.156,0.000
1727575623.879,-45.410,-35.156,-40.039,-41.016,0.000
1727575623.883,-32.715,-19.043,-31.738,0.488,0.000
1727575623.887,-27.832,-13.184,-30.273,2.441,0.000
1727575623.891,-10.742,-11.719,-48.340,-25.879,0.000
1727575623.895,-10.742,-20.996,-52.246,-36.133,0.000
1727575623.899,-56.641,-16.602,-41.992,-52.246,0.000
1727575623.903,-45.410,-3.418,-43.945,-30.762,0.000
1727575623.907,-37.109,-20.020,-53.223,-25.879,0.000
1727575623.910,-18.066,-30.273,-51.270,-32.227,0.000
1727575623.914,0.000,-23.926,-45.410,-37.598,0.000
1727575623.918,-45.898,-33.691,-42.480,-62.500,0.000
1727575623.922,-44.922,-33.203,-37.109,-36.621,0.000
1727575623.926,-13.672,-16.113,-35.645,-4.395,0.000
1727575623.930,2.930,-20.508,-37.598,-7.324,0.000
1727575623.934,18.066,-34.180,-38.086,-10.742,0.000
1727575623.938,-14.648,-40.527,-36.133,-16.113,0.000
1727575623.942,-37.109,-25.879,-24.414,2.441,0.000
1727575623.946,-14.648,-10.742,-28.320,20.996,0.000
1727575623.950,8.301,-33.691,-34.668,6.836,0.000
1727575623.954,23.926,-55.664,-35.156,0.488,0.000
1727575623.957,-19.043,-39.551,-36.621,-28.320,0.000
1727575623.961,-41.016,-25.879,-27.344,-14.648,0.000
1727575623.965,-24.414,-20.508,-20.020,10.742,0.000
1727575623.969,-10.254,-23.926,-21.484,-15.625,0.000
1727575623.973,1.465,-29.785,-24.414,-39.062,0.000
1727575623.977,-34.180,-36.621,-30.273,-64.941,0.000
1727575623.981,-50.781,-29.785,-26.367,-44.922,0.000
1727575623.985,-26.367,-24.414,-17.578,-1.465,0.000
1727575623.989,-15.137,-25.879,-22.949,-15.137,0.000
1727575623.993,6.836,-26.367,-32.715,-34.180,0.000
1727575623.997,-20.996,-48.340,-45.898,-54.199,0.000
1727575624.001,-57.617,-47.363,-44.434,-52.734,0.000
1727575624.004,-38.086,-10.254,-32.227,-10.742,0.000
1727575624.008,-31.738,-10.742,-39.062,-15.625,0.000
1727575624.012,-13.184,-21.973,-45.898,-39.062,0.000
1727575624.016,-28.320,-27.832,-52.246,-47.852,0.000
1727575624.020,-66.406,-23.926,-51.270,-41.504,0.000
1727575624.024,-41.992,-15.625,-42.480,-6.348,0.000
1727575624.028,-25.879,-26.855,-54.199,-14.160,0.000
1727575624.032,-8.789,-30.273,-51.758,-31.250,0.000
1727575624.036,-8.789,-34.668,-50.781,-40.039,0.000
1727575624.040,-51.758,-38.574,-64.453,-44.434,0.000
1727575624.044,-39.062,-30.762,-55.664,6.836,0.000
1727575624.047,-32.715,-9.277,-41.504,6.348,0.000
1727575624.051,-25.391,-20.020,-40.527,-25.879,0.000
1727575624.055,-14.648,-38.574,-48.828,-37.598,0.000
1727575624.059,-64.453,-38.086,-50.781,-59.570,0.000
1727575624.063,-64.941,-28.320,-41.992,-27.832,0.000
1727575624.067,-29.297,-23.438,-39.062,-12.695,0.000
1727575624.071,-4.883,-32.227,-43.945,-41.504,0.000
1727575624.075,-6.836,-28.320,-44.434,-41.992,0.000
1727575624.079,-54.199,-38.574,-41.992,-51.758,0.000
1727575624.083,-67.383,-35.645,-32.227,-29.297,0.000
1727575624.086,-45.410,-27.832,-26.367,4.395,0.000
1727575624.090,-33.691,-35.645,-26.855,-19.043,0.000
1727575624.094,-12.695,-30.762,-21.484,-40.039,0.000
1727575624.098,-46.875,-42.969,-23.926,-51.758,0.000
1727575624.102,-59.570,-45.410,-25.879,-34.668,0.000
1727575624.106,-27.344,-28.809,-25.879,-1.465,0.000
1727575624.110,-15.625,-27.344,-31.738,-9.766,0.000
1727575624.114,15.137,-35.156,-29.785,-16.602,0.000
1727575624.118,-21.484,-41.504,-36.621,-31.250,0.000
1727575624.122,-49.316,-31.250,-36.133,-26.367,0.000
1727575624.126,-25.391,-12.207,-31.738,-9.766,0.000
1727575624.129,-17.090,-19.043,-36.133,-30.273,0.000
1727575624.133,25.879,-38.574,-39.551,-22.949,0.000
1727575624.137,-6.348,-30.273,-36.133,-42.969,0.000
1727575624.141,-63.477,-24.414,-32.715,-43.457,0.000
1727575624.145,-40.039,-23.438,-37.109,-7.324,0.000
1727575624.149,-25.879,-12.207,-44.922,-22.461,0.000
1727575624.153,0.000,-11.230,-40.039,-35.645,0.000
1727575624.157,0.000,-26.855,-36.133,-39.551,0.000
1727575624.161,0.000,-35.645,-41.504,-43.457,0.000
1727575624.165,0.000,-18.066,-37.109,-13.672,0.000
1727575624.168,0.000,-14.160,-36.133,-2.930,0.000
1727575624.172,0.000,-20.508,-40.039,-16.113,0.000
1727575624.176,0.000,-38.086,-47.363,-41.504,0.000
1727575624.180,0.000,-52.734,-52.246,-41.016,0.000
1727575624.184,0.000,-20.508,-40.039,1.953,0.000
1727575624.188,0.000,-19.043,-37.109,4.395,0.000
1727575624.192,0.000,-41.992,-40.527,-25.391,0.000
1727575624.196,0.000,-40.039,-37.109,-36.621,0.000
1727575624.200,-50.293,-37.598,-33.691,-41.016,0.000
1727575624.203,-54.199,-37.109,-31.738,-9.766,0.000
1727575624.207,-30.273,-38.574,-25.391,8.301,0.000
1727575624.211,-20.996,-43.457,-26.367,-22.461,0.000
1727575624.215,-16.602,-52.246,-33.691,-32.227,0.000
1727575624.219,-53.223,-57.129,-36.621,-40.527,0.000
1727575624.223,-55.176,-50.293,-29.297,-8.789,0.000
1727575624.227,-27.832,-26.855,-17.578,18.066,0.000
1727575624.231,-10.742,-15.137,-18.555,-4.883,0.000
1727575624.235,2.441,-16.602,-28.809,-19.043,0.000
1727575624.239,-35.645,-37.109,-31.250,-45.898,0.000
1727575624.243,-51.270,-25.879,-32.715,-27.344,0.000
1727575624.246,-22.949,-22.461,-35.645,-2.441,0.000
1727575624.250,-8.301,-39.551,-40.039,-26.367,0.000
1727575624.254,4.395,-29.297,-41.504,-27.832,0.000
1727575624.258,-26.855,-32.227,-42.480,-35.156,0.000
1727575624.262,-41.504,-31.738,-43.457,-37.109,0.000
1727575624.266,-18.066,-29.297,-42.480,-1.465,0.000
1727575624.270,-6.836,-34.180,-40.039,-0.977,0.000
1727575624.274,9.766,-22.949,-42.480,-20.508,0.000
1727575624.277,-18.555,-28.320,-49.805,-52.246,0.000
1727575624.281,-51.758,-35.156,-53.711,-41.016,0.000
1727575624.285,-29.297,-20.996,-43.457,0.000,0.000
1727575624.289,-10.254,-12.207,-37.598,-11.719,0.000
1727575624.293,9.277,-22.949,-42.480,-20.996,0.000
1727575624.297,-14.648,-42.480,-47.852,-32.715,0.000
1727575624.301,-57.129,-26.855,-44.434,-35.645,0.000
1727575624.305,-35.156,-17.090,-40.039,-2.930,0.000
1727575624.309,-19.531,-28.320,-43.457,2.441,0.000
1727575624.313,-12.207,-31.738,-46.387,-3.906,0.000
1727575624.317,-22.461,-42.969,-45.898,-33.203,0.000
1727575624.321,-66.895,-48.340,-43.457,-46.875,0.000
1727575624.325,-67.871,-39.062,-35.156,-7.324,0.000
1727575624.328,-40.527,-35.645,-27.344,5.371,0.000
1727575624.332,-4.395,-32.227,-18.555,-4.883,0.000
1727575624.336,-14.648,-35.156,-27.832,-33.691,0.000
1727575624.340,-62.988,-52.246,-32.227,-46.387,0.000
1727575624.344,-51.758,-43.945,-23.926,-7.324,0.000
1727575624.348,-25.879,-32.715,-22.461,-6.348,0.000
1727575624.352,-9.277,-36.621,-27.344,-26.367,0.000
1727575624.356,-10.254,-42.480,-35.156,-40.039,0.000
1727575624.360,-57.617,-44.434,-40.039,-56.641,0.000
1727575624.364,-56.641,-34.668,-32.715,-27.832,0.000
1727575624.368,-31.738,-20.508,-26.855,-17.578,0.000
1727575624.372,-14.160,-27.344,-33.203,-35.645,0.000
1727575624.375,-5.371,-31.738,-38.086,-46.387,0.000
1727575624.379,-51.270,-26.367,-40.039,-66.406,0.000
1727575624.383,-52.734,-22.461,-36.621,-29.297,0.000
1727575624.387,0.000,-20.020,-26.855,3.906,0.000
1727575624.391,0.000,-14.648,-25.391,-17.578,0.000
1727575624.395,0.000,-13.672,-31.738,-27.832,0.000
1727575624.399,0.000,-34.668,-40.039,-44.434,0.000
1727575624.403,0.000,-37.109,-42.969,-33.691,0.000
1727575624.407,0.000,-29.785,-40.527,-6.348,0.000
1727575624.411,0.000,-24.414,-45.410,-26.367,0.000
1727575624.415,0.000,-17.578,-51.758,-36.621,0.000
1727575624.418,0.000,-33.691,-63.965,-48.828,0.000
1727575624.422,0.000,-18.555,-54.199,-34.668,0.000
1727575624.426,0.000,-3.906,-42.969,-8.789,0.000
1727575624.430,0.000,-26.367,-47.852,-33.203,0.000
1727575624.433,-9.277,-32.227,-46.875,-40.527,0.000
1727575624.437,3.418,-41.504,-51.270,-53.223,0.000
1727575624.441,7.324,-36.621,-53.223,-44.922,0.000
1727575624.445,-33.691,-21.484,-41.992,2.441,0.000
1727575624.449,-47.363,-25.879,-38.086,-11.230,0.000
1727575624.453,-20.020,-31.250,-40.527,-29.297,0.000
1727575624.457,-18.555,-34.180,-42.969,-41.504,0.000
1727575624.460,-1.465,-34.668,-42.480,-45.898,0.000
1727575624.464,-24.902,-25.391,-31.738,-7.324,0.000
1727575624.468,-52.246,-16.602,-27.344,-12.695,0.000
1727575624.472,-36.133,-27.832,-34.668,-21.484,0.000
1727575624.476,-20.020,-53.223,-39.551,-25.391,0.000
1727575624.480,-60.547,-54.199,-31.250,-36.133,0.000
1727575624.484,-42.969,-32.227,-17.090,3.906,0.000
1727575624.488,-28.320,-31.738,-14.648,2.441,0.000
1727575624.492,-23.438,-35.645,-24.902,-22.949,0.000
1727575624.496,-18.066,-43.457,-26.367,-41.992,0.000
1727575624.499,-61.035,-40.039,-21.484,-61.035,0.000
1727575624.503,-55.664,-23.438,-17.090,-17.090,0.000
1727575624.507,-39.062,-31.738,-20.996,-3.906,0.000
1727575624.511,-32.227,-23.438,-19.043,-33.203,0.000
1727575624.515,-14.160,-17.090,-19.043,-41.504,0.000
1727575624.519,-51.758,-26.855,-28.320,-55.664,0.000
1727575624.523,-58.105,-12.695,-25.391,-23.438,0.000
1727575624.527,-35.156,-6.348,-21.973,-0.488,0.000
1727575624.531,-11.719,-8.301,-27.832,-27.344,0.000
1727575624.535,10.254,-15.625,-34.668,-35.156,0.000
1727575624.538,-34.180,-27.832,-40.527,-54.688,0.000
1727575624.542,-50.293,-16.113,-32.227,-29.297,0.000
1727575624.546,-20.508,-11.230,-29.785,6.836,0.000
1727575624.550,-0.977,-28.809,-37.109,-8.789,0.000
1727575624.554,13.184,-30.762,-47.852,-19.043,0.000
1727575624.558,-28.809,-23.438,-48.828,-46.875,0.000
1727575624.562,-56.152,-18.066,-41.016,-43.457,0.000
1727575624.566,-27.832,-20.996,-40.527,-2.441,0.000
1727575624.570,-14.648,-24.414,-46.875,-12.207,0.000
1727575624.574,4.883,-19.531,-53.223,-32.227,0.000
1727575624.577,-27.344,-32.715,-54.199,-51.758,0.000
1727575624.581,-58.105,-35.156,-48.828,-43.945,0.000
1727575624.585,-26.855,-19.043,-33.691,-8.301,0.000
1727575624.589,-6.836,-22.461,-32.715,-11.719,0.000
1727575624.593,6.348,-21.973,-41.016,-25.391,0.000
1727575624.597,-20.020,-47.852,-50.293,-34.668,0.000
1727575624.601,-51.758,-40.527,-42.480,-34.668,0.000
1727575624.605,-30.273,-11.719,-29.785,-12.207,0.000
1727575624.609,-9.277,-22.949,-34.668,-12.207,0.000
1727575624.613,25.391,-35.156,-32.227,-10.254,0.000
1727575624.617,7.324,-32.227,-30.273,-29.785,0.000
1727575624.620,-50.293,-31.738,-36.133,-37.109,0.000
1727575624.624,-30.273,-26.367,-33.691,3.418,0.000
1727575624.628,-7.812,-22.949,-31.738,4.395,0.000
1727575624.632,-5.371,-29.297,-32.715,-20.508,0.000
1727575624.636,-14.160,-37.598,-32.715,-34.668,0.000
1727575624.640,-59.082,-50.293,-34.668,-41.016,0.000
1727575624.644,-50.293,-40.039,-33.203,-9.766,0.000
1727575624.648,-30.762,-23.926,-32.227,-13.672,0.000
1727575624.652,-22.461,-21.484,-35.156,-35.156,0.000
1727575624.655,-14.648,-39.551,-39.062,-39.551,0.000
1727575624.659,-60.059,-48.340,-39.062,-54.199,0.000
1727575624.663,-58.105,-26.855,-24.902,-25.391,0.000
1727575624.667,-32.715,-12.207,-22.949,-9.277,0.000
1727575624.671,-7.324,-22.949,-26.855,-26.855,0.000
1727575624.675,-1.465,-20.020,-25.879,-39.062,0.000
1727575624.679,-52.246,-23.438,-35.645,-62.500,0.000
1727575624.683,-59.570,-27.344,-41.016,-37.598,0.000
1727575624.687,-26.367,-30.762,-38.086,0.488,0.000
1727575624.691,-2.441,-29.297,-37.598,-5.371,0.000
1727575624.695,15.137,-16.602,-39.062,-14.160,0.000
1727575624.699,-15.625,-23.438,-37.598,-26.367,0.000
1727575624.702,-33.691,-36.133,-42.480,-11.719,0.000
1727575624.706,-9.766,-20.020,-40.039,1.465,0.000
1727575624.710,-11.230,-20.020,-36.133,-20.996,0.000
1727575624.714,0.000,-35.156,0.000,-28.320,0.000
1727575624.718,-36.621,-36.133,0.000,-46.387,0.000
1727575624.722,-62.012,-31.738,0.000,-37.598,0.000
1727575624.726,-43.457,-33.203,0.000,-1.465,0.000
1727575624.730,-32.715,-47.852,0.000,-8.789,0.000
1727575624.734,-9.277,-43.945,0.000,-24.414,0.000
1727575624.738,-35.645,-48.340,0.000,-44.434,0.000
1727575624.742,-73.242,-46.875,0.000,-46.387,0.000
1727575624.746,-55.664,-40.039,0.000,-6.836,0.000
1727575624.749,-36.621,-40.039,0.000,-5.371,0.000
1727575624.753,-14.648,-18.555,0.000,-31.738,0.000
1727575624.757,-30.762,-31.250,0.000,-52.246,0.000
1727575624.761,-79.102,-51.270,-45.410,-57.617,0.000
1727575624.765,-61.035,-30.273,-35.645,-30.762,0.000
1727575624.769,-31.250,-21.973,-37.109,-31.250,0.000
1727575624.773,-3.906,-35.156,-45.898,-41.992,0.000
1727575624.777,1.953,-41.504,-46.387,-47.852,0.000
1727575624.781,-54.688,-35.156,-43.945,-50.781,0.000
1727575624.785,-53.711,-7.324,-34.180,-16.113,0.000
1727575624.789,-28.809,-6.348,-29.785,-11.719,0.000
1727575624.793,-13.672,-23.438,-38.574,-26.855,0.000
1727575624.796,-12.695,-25.879,-40.039,-41.992,0.000
1727575624.800,-59.570,-33.691,-42.480,-62.012,0.000
1727575624.804,-62.500,-26.855,-43.457,-32.715,0.000
1727575624.808,-27.344,-18.555,-36.621,-10.742,0.000
1727575624.812,-5.859,-16.113,-34.180,-20.508,0.000
1727575624.816,-7.812,-12.207,-42.969,-36.133,0.000
1727575624.820,-54.199,-30.273,-51.758,-54.199,0.000
1727575624.824,-50.293,-25.879,-44.922,-20.020,0.000
1727575624.828,-30.273,-13.672,-41.504,-10.742,0.000
1727575624.832,-25.391,-32.227,-43.945,-28.809,0.000
1727575624.836,-7.324,-36.133,-47.852,-19.531,0.000
1727575624.839,-39.062,-33.691,-45.410,-27.344,0.000
1727575624.843,-59.082,-17.090,-40.039,-13.672,0.000
1727575624.847,-28.809,-25.879,-36.621,9.766,0.000
1727575624.851,-17.578,-40.039,-39.062,-10.254,0.000
1727575624.855,-14.160,-33.691,-40.527,-28.320,0.000
1727575624.859,-53.223,-36.621,-44.922,-46.387,0.000
1727575624.863,-71.289,-37.109,-39.062,-16.113,0.000
1727575624.867,-35.645,-37.109,-29.297,16.113,0.000
1727575624.871,-23.438,-38.574,-34.668,-16.113,0.000
1727575624.875,0.488,-31.250,-34.180,-17.578,0.000
1727575624.878,-12.207,-36.621,-31.738,-26.367,0.000
1727575624.882,-50.293,-48.828,-34.180,-28.320,0.000
1727575624.886,-30.762,-21.484,-25.879,5.859,0.000
1727575624.890,-20.996,-12.207,-27.832,-11.230,0.000
1727575624.894,-3.906,-23.438,-32.715,-31.250,0.000
1727575624.898,-23.926,-20.020,-41.016,-52.246,0.000
1727575624.902,0.000,-26.855,-37.598,-44.922,0.000
1727575624.906,0.000,-31.250,-31.250,-0.488,0.000
1727575624.910,0.000,-30.762,-38.086,-10.254,0.000
1727575624.914,0.000,-22.461,-36.621,-21.973,0.000
1727575624.918,0.000,-25.879,-36.621,-31.250,0.000
1727575624.921,0.000,-31.738,-38.574,-44.434,0.000
1727575624.925,0.000,-26.367,-34.668,-9.277,0.000
1727575624.929,0.000,-24.902,-31.738,-0.488,0.000
1727575624.933,0.000,-15.137,-28.809,-22.949,0.000
1727575624.937,0.000,-28.320,-35.156,-31.738,0.000
1727575624.941,0.000,-45.410,-47.852,-43.457,0.000
1727575624.945,0.000,-21.973,-45.410,-18.066,0.000
1727575624.949,-31.250,-15.625,-33.203,-6.836,0.000
1727575624.953,-10.254,-20.996,-37.598,-19.043,0.000
1727575624.956,-9.766,-17.090,-54.688,-41.016,0.000
1727575624.960,-44.434,-24.414,-48.828,-49.805,0.000
1727575624.964,-50.293,-13.184,-41.016,-25.879,0.000
1727575624.968,-29.785,-8.301,-48.340,-12.695,0.000
1727575624.972,4.883,-15.137,-43.457,-18.555,0.000
1727575624.976,20.020,-12.695,-38.574,-29.785,0.000
1727575624.980,-22.949,-26.367,-39.062,-41.992,0.000
1727575624.984,-37.109,-31.250,-44.434,-25.879,0.000
1727575624.988,-15.137,-36.621,-40.039,11.230,0.000
1727575624.992,-6.836,-21.973,-31.250,-0.488,0.000
1727575624.995,5.371,-17.578,-34.180,-23.926,0.000
1727575624.999,-32.227,-36.133,-39.062,-37.598,0.000
1727575625.003,-56.152,-29.785,-36.621,-17.578,0.000
1727575625.007,-30.762,-13.184,-24.414,13.184,0.000
1727575625.011,-17.090,-5.859,-31.738,-7.324,0.000
1727575625.015,6.836,-15.625,-39.062,-22.461,0.000
1727575625.019,-25.391,-24.414,-41.504,-40.527,0.000
1727575625.023,-62.012,-24.414,-41.992,-42.480,0.000
1727575625.027,-34.668,-17.090,-34.180,-10.742,0.000
1727575625.031,-16.602,-12.207,-32.227,-15.137,0.000
1727575625.034,1.465,-9.766,-29.785,-29.785,0.000
1727575625.038,-14.160,-22.949,-29.785,-49.316,0.000
1727575625.042,-54.688,-33.203,-40.039,-49.316,0.000
1727575625.046,-36.621,-30.273,-39.062,-4.883,0.000
1727575625.050,-17.090,-16.113,-29.297,-0.977,0.000
1727575625.054,11.719,-9.766,-37.109,-25.879,0.000
1727575625.058,2.441,-32.715,-51.758,-53.711,0.000
1727575625.062,-50.293,-42.480,-50.781,-58.594,0.000
1727575625.066,-40.039,-25.391,-37.109,-24.414,0.000
1727575625.070,-27.344,-19.531,-38.574,-23.438,0.000
1727575625.074,-5.371,-31.250,-43.945,-28.809,0.000
1727575625.078,8.789,-47.363,-45.410,-26.367,0.000
1727575625.082,-45.410,-41.504,-45.410,-40.039,0.000
1727575625.085,-38.086,-9.766,-43.945,-15.137,0.000
1727575625.089,-25.879,-3.418,-46.387,-0.977,0.000
1727575625.093,-4.883,-23.438,-36.133,-5.859,0.000
1727575625.097,9.766,-24.414,-32.227,-26.855,0.000
1727575625.101,-44.922,-35.156,-39.551,-51.758,0.000
1727575625.105,-36.133,-42.969,-44.434,-15.625,0.000
1727575625.109,-17.578,-32.715,-39.062,-0.977,0.000
1727575625.113,-9.766,-27.344,-34.668,-27.344,0.000
1727575625.117,-5.859,-28.809,-38.574,-41.504,0.000
1727575625.121,-52.246,-47.363,-42.969,-55.176,0.000
1727575625.125,-59.570,-33.203,-37.109,-26.367,0.000
1727575625.129,-34.668,-15.625,-30.273,-1.953,0.000
1727575625.132,-19.043,-32.715,-32.227,-27.344,0.000
1727575625.136,-2.930,-37.598,-38.086,-34.668,0.000
1727575625.140,-41.992,-34.180,-46.387,-47.363,0.000
1727575625.144,-67.871,-16.602,-38.086,-27.344,0.000
1727575625.148,-38.086,-13.184,-31.738,-0.977,0.000
1727575625.152,-15.625,-30.762,-38.574,-29.785,0.000
1727575625.156,-0.977,-36.133,-40.039,-36.621,0.000
1727575625.160,-30.273,-36.133,-44.922,-53.711,0.000
1727575625.164,-56.641,-29.785,-40.039,-51.270,0.000
1727575625.168,-32.227,-30.273,-29.297,-4.395,0.000
1727575625.172,-20.508,-19.531,-28.320,-15.137,0.000
1727575625.175,3.906,-6.348,-33.691,-39.551,0.000
1727575625.179,-10.742,-22.461,-38.574,-48.828,0.000
1727575625.183,0.000,-23.926,-36.621,-41.992,0.000
1727575625.187,0.000,-7.324,-30.762,-0.488,0.000
1727575625.191,0.000,-15.625,-29.785,2.930,0.000
1727575625.195,0.000,-29.785,-30.762,-16.113,0.000
1727575625.199,0.000,-40.527,-32.715,-32.715,0.000
1727575625.203,0.000,-42.480,-32.227,-32.227,0.000
1727575625.207,0.000,-23.926,-26.367,4.883,0.000
1727575625.211,0.000,-24.902,-29.785,11.719,0.000
1727575625.215,0.000,-35.156,-31.738,-15.625,0.000
1727575625.218,0.000,-19.043,-34.668,-50.781,0.000
1727575625.222,0.000,-34.668,-43.945,-57.129,0.000
1727575625.226,0.000,-39.551,-35.645,-10.254,0.000
1727575625.230,-26.855,-18.555,-35.645,-2.441,0.000
1727575625.234,-13.672,-13.672,-37.109,-20.508,0.000
1727575625.238,-19.043,-12.207,-38.086,-35.645,0.000
1727575625.242,-48.340,-36.133,-41.504,-44.922,0.000
1727575625.246,-32.715,-33.203,-34.668,-2.930,0.000
1727575625.250,-15.137,-14.160,-34.668,2.441,0.000
1727575625.254,-0.977,-24.414,-34.180,-20.996,0.000
1727575625.258,10.254,-33.691,-32.715,-14.648,0.000
1727575625.261,-38.086,-20.508,-32.227,-40.527,0.000
1727575625.265,-47.363,-19.043,-25.879,-25.879,0.000
