timestamps,TP9,AF7,AF8,TP10,Right AUX
1727413292.053,-45.410,-42.480,-69.824,-53.711,0.000
1727413292.057,-71.289,-44.922,-67.871,-49.805,0.000
1727413292.061,-88.867,-44.434,-63.965,-52.246,0.000
1727413292.065,-67.383,-43.945,-60.059,-53.223,0.000
1727413292.069,-32.227,-43.457,-55.664,-49.805,0.000
1727413292.073,-33.203,-39.062,-55.176,-41.504,0.000
1727413292.077,-62.500,-40.527,-55.664,-36.133,0.000
1727413292.081,-82.520,-41.504,-62.500,-45.898,0.000
1727413292.085,-63.965,-47.363,-70.312,-56.641,0.000
1727413292.088,-24.414,-48.340,-67.871,-51.758,0.000
1727413292.092,-30.273,-31.250,-60.547,-57.617,0.000
1727413292.096,-49.316,-41.504,-55.176,-57.129,0.000
1727413292.100,-67.871,-48.828,-56.641,-57.617,0.000
1727413292.104,-60.547,-42.969,-53.223,-59.082,0.000
1727413292.108,-22.461,-40.039,-46.387,-44.922,0.000
1727413292.112,-30.273,-40.527,-59.082,-51.758,0.000
1727413292.116,-66.406,-42.480,-62.988,-48.340,0.000
1727413292.120,-84.473,-39.062,-51.270,-41.504,0.000
1727413292.124,-78.613,-39.551,-52.734,-54.199,0.000
1727413292.128,-47.852,-43.457,-53.223,-43.945,0.000
1727413292.131,-22.949,-39.551,-50.781,-26.855,0.000
1727413292.135,-53.223,-49.805,-50.293,-14.160,0.000
1727413292.139,-82.031,-51.758,-51.758,-24.414,0.000
1727413292.143,-53.711,-44.922,-45.898,-39.551,0.000
1727413292.147,-12.207,-45.898,-35.156,-21.484,0.000
1727413292.151,-12.695,-40.527,-41.504,-13.184,0.000
1727413292.155,-35.156,-32.715,-47.852,-27.832,0.000
1727413292.159,-60.547,-24.902,-49.316,-31.738,0.000
1727413292.163,-59.570,-37.109,-51.270,-40.527,0.000
1727413292.167,-16.113,-44.434,-49.316,-36.621,0.000
1727413292.171,4.883,-39.551,-52.246,-16.602,0.000
1727413292.174,-23.926,-42.969,-49.805,-12.207,0.000
1727413292.178,-58.105,-42.480,-49.805,-26.855,0.000
1727413292.182,-76.172,-48.828,-58.105,-37.598,0.000
1727413292.186,-43.457,-52.734,-53.223,-32.227,0.000
1727413292.190,-7.324,-49.805,-48.828,-24.902,0.000
1727413292.194,-27.832,-51.758,-55.176,-23.438,0.000
1727413292.198,-64.941,-49.316,-52.734,-33.691,0.000
1727413292.202,-74.707,-46.387,-41.992,-47.852,0.000
1727413292.206,-39.062,-50.293,-42.969,-41.504,0.000
1727413292.210,-7.812,-47.852,-43.457,-29.785,0.000
1727413292.214,-33.691,-48.340,-50.293,-31.738,0.000
1727413292.217,-75.684,-56.152,-54.199,-41.504,0.000
1727413292.221,-81.543,-51.270,-45.898,-53.223,0.000
1727413292.225,-37.598,-48.340,-43.945,-41.504,0.000
1727413292.229,-16.113,-52.734,-43.457,-36.133,0.000
1727413292.233,-37.109,-48.340,-43.945,-41.504,0.000
1727413292.237,-58.105,-45.410,-44.434,-45.410,0.000
1727413292.241,-74.219,-45.410,-46.387,-55.176,0.000
1727413292.245,-47.852,-35.645,-41.504,-55.664,0.000
1727413292.249,-13.184,-41.504,-46.875,-45.898,0.000
1727413292.253,-30.273,-51.270,-64.941,-47.852,0.000
1727413292.257,-63.477,-44.434,-72.266,-44.922,0.000
1727413292.260,-69.824,-40.527,-63.477,-44.922,0.000
1727413292.264,-40.527,-33.691,-62.988,-45.898,0.000
1727413292.268,0.977,-26.855,-73.242,-28.809,0.000
1727413292.272,-1.465,-24.902,-69.336,-13.672,0.000
1727413292.276,-40.039,-23.438,-59.570,-16.113,0.000
1727413292.280,-64.941,-26.367,-49.316,-30.762,0.000
1727413292.284,-43.945,-26.855,-43.945,-39.551,0.000
1727413292.288,4.395,-27.832,-41.504,-34.180,0.000
1727413292.292,-6.836,-32.227,-34.668,-30.762,0.000
1727413292.296,-49.316,-37.109,-33.203,-28.320,0.000
1727413292.300,-67.871,-41.992,-36.133,-39.551,0.000
1727413292.303,-54.199,-52.246,-35.156,-50.781,0.000
1727413292.307,-18.066,-59.082,-28.809,-34.668,0.000
1727413292.311,-16.113,-51.270,-26.367,-29.785,0.000
1727413292.315,-51.270,-67.871,-25.879,-35.645,0.000
1727413292.319,-76.172,-80.078,-29.785,-39.062,0.000
1727413292.323,-67.383,-72.266,-34.668,-47.852,0.000
1727413292.327,-23.438,-67.383,-36.133,-42.480,0.000
1727413292.331,-11.230,-70.312,-35.156,-24.414,0.000
1727413292.335,-50.781,-73.242,-41.016,-26.855,0.000
1727413292.339,-76.660,-67.383,-54.199,-33.691,0.000
1727413292.342,-72.266,-54.688,-55.176,-47.363,0.000
1727413292.346,-31.250,-54.199,-45.410,-45.410,0.000
1727413292.350,-18.066,-57.129,-46.875,-36.621,0.000
1727413292.354,-52.246,-51.758,-58.594,-40.527,0.000
1727413292.358,-77.637,-60.059,-62.500,-47.852,0.000
1727413292.362,-65.430,-58.105,-60.059,-44.434,0.000
1727413292.366,-12.207,-40.527,-56.641,-28.320,0.000
1727413292.370,0.977,-45.410,-50.781,-24.414,0.000
1727413292.374,-40.039,-51.270,-50.293,-32.227,0.000
1727413292.378,-76.172,-53.711,-61.523,-36.621,0.000
1727413292.381,-77.637,-52.246,-59.082,-42.480,0.000
1727413292.385,-38.086,-49.805,-52.246,-38.086,0.000
1727413292.389,-14.648,-56.152,-59.082,-32.227,0.000
1727413292.393,-28.809,-49.805,-63.477,-29.297,0.000
1727413292.397,-61.523,-49.805,-68.848,-21.973,0.000
1727413292.401,-66.895,-62.012,-63.965,-32.715,0.000
1727413292.405,-36.133,-48.340,-57.617,-38.086,0.000
1727413292.409,-13.184,-45.410,-56.641,-26.367,0.000
1727413292.413,-26.367,-52.246,-53.711,-31.250,0.000
1727413292.417,-48.828,-51.758,-50.293,-36.621,0.000
1727413292.421,-70.312,-55.664,-44.922,-42.969,0.000
1727413292.424,-50.781,-52.734,-38.086,-39.062,0.000
1727413292.428,-5.371,-44.922,-39.551,-28.320,0.000
1727413292.432,-16.113,-47.852,-43.945,-24.902,0.000
1727413292.436,-57.617,-49.316,-47.363,-29.785,0.000
1727413292.440,-67.871,-44.434,-51.270,-41.016,0.000
1727413292.444,-43.945,-40.039,-44.922,-35.156,0.000
1727413292.448,-14.160,-41.992,-43.457,-31.738,0.000
1727413292.452,-16.602,-48.828,-45.898,-27.344,0.000
1727413292.456,-48.828,-44.922,-53.223,-31.250,0.000
1727413292.460,-64.453,-44.434,-56.152,-40.527,0.000
1727413292.463,-54.688,-45.898,-53.711,-41.504,0.000
1727413292.467,-19.043,-40.039,-52.246,-38.086,0.000
1727413292.471,-13.184,-38.574,-61.035,-40.527,0.000
1727413292.475,-54.199,-51.270,-68.848,-43.945,0.000
1727413292.479,-77.148,-46.875,-66.406,-44.434,0.000
1727413292.483,-53.711,-49.316,-56.641,-40.527,0.000
1727413292.487,-16.602,-61.035,-60.547,-38.574,0.000
1727413292.491,-17.578,-63.965,-71.777,-44.922,0.000
1727413292.495,-45.898,-57.617,-68.848,-37.598,0.000
1727413292.499,-69.824,-57.129,-62.988,-42.969,0.000
1727413292.503,-59.570,-50.293,-63.965,-56.152,0.000
1727413292.506,-11.230,-36.133,-61.035,-39.062,0.000
1727413292.510,3.418,-40.527,-55.176,-23.926,0.000
1727413292.514,-32.227,-38.574,-51.758,-14.648,0.000
1727413292.518,-61.035,-39.551,-51.758,-18.555,0.000
1727413292.522,-50.293,-36.621,-54.688,-38.574,0.000
1727413292.526,-14.160,-34.668,-54.199,-43.457,0.000
1727413292.530,-4.395,-43.457,-62.500,-39.551,0.000
1727413292.534,-30.762,-44.922,-64.941,-30.762,0.000
1727413292.538,-53.223,-35.156,-65.430,-36.133,0.000
1727413292.542,-61.035,-37.109,-65.430,-47.852,0.000
1727413292.546,-26.855,-56.641,-46.387,-36.133,0.000
1727413292.550,6.836,-54.688,-32.715,-11.230,0.000
1727413292.553,-15.137,-37.109,-49.805,-0.977,0.000
1727413292.557,-46.387,-22.949,-65.430,-18.066,0.000
1727413292.561,-59.570,-16.602,-57.617,-49.316,0.000
1727413292.565,-28.809,-3.906,-60.059,-62.500,0.000
1727413292.569,-5.371,-11.230,-75.195,-59.570,0.000
1727413292.573,-43.457,-10.742,-83.496,-79.590,0.000
1727413292.577,-79.102,0.488,-93.262,-96.680,0.000
1727413292.581,-87.891,6.348,-101.074,-102.051,0.000
1727413292.585,-62.988,15.625,-102.539,-115.723,0.000
1727413292.589,-41.504,14.160,-108.398,-111.816,0.000
1727413292.593,-62.988,12.695,-120.605,-101.562,0.000
1727413292.596,-88.379,14.160,-125.488,-104.980,0.000
1727413292.600,-95.215,21.973,-120.117,-110.840,0.000
1727413292.604,-71.777,27.832,-118.164,-113.770,0.000
1727413292.608,-39.551,17.578,-122.070,-110.840,0.000
1727413292.612,-49.316,11.719,-124.023,-95.703,0.000
1727413292.616,-82.520,18.066,-127.930,-95.703,0.000
1727413292.620,-91.797,26.855,-126.953,-106.934,0.000
1727413292.624,-61.523,37.109,-126.465,-104.492,0.000
1727413292.628,-25.391,36.621,-129.395,-84.473,0.000
1727413292.632,-23.438,18.555,-127.930,-66.895,0.000
1727413292.635,-43.457,10.254,-127.930,-62.012,0.000
1727413292.639,-72.754,11.230,-122.070,-67.383,0.000
1727413292.643,-70.312,20.020,-118.652,-72.754,0.000
1727413292.647,-20.020,9.277,-115.723,-53.711,0.000
1727413292.651,-1.953,7.812,-118.164,-48.340,0.000
1727413292.655,-43.457,-1.953,-116.211,-48.828,0.000
1727413292.659,-70.312,-6.836,-113.770,-50.293,0.000
1727413292.663,-46.875,-0.488,-114.746,-61.035,0.000
1727413292.667,-3.906,0.488,-106.445,-51.270,0.000
1727413292.671,0.488,6.348,-101.074,-28.809,0.000
1727413292.675,-33.203,9.766,-95.703,-31.738,0.000
1727413292.678,-47.363,10.254,-90.820,-51.270,0.000
1727413292.682,-30.762,-1.953,-93.750,-49.316,0.000
1727413292.686,5.859,-4.395,-97.168,-26.855,0.000
1727413292.690,31.250,1.953,-95.215,-20.020,0.000
1727413292.694,-3.418,0.977,-84.961,-12.207,0.000
1727413292.698,-50.293,1.465,-72.754,-21.484,0.000
1727413292.702,-45.410,9.766,-79.590,-44.922,0.000
1727413292.706,0.977,-1.953,-78.125,-34.180,0.000
1727413292.710,14.160,-14.160,-71.777,-26.367,0.000
1727413292.714,-18.066,-15.625,-72.754,-27.832,0.000
1727413292.717,-38.086,-14.648,-69.824,-17.090,0.000
1727413292.721,-41.992,-18.066,-71.289,-23.438,0.000
1727413292.725,-16.602,-18.066,-77.637,-27.832,0.000
1727413292.729,8.789,-16.602,-83.984,-26.855,0.000
1727413292.733,-19.043,-20.508,-75.195,-25.391,0.000
1727413292.737,-51.758,-20.996,-68.359,-27.344,0.000
1727413292.741,-55.176,-9.766,-73.730,-40.527,0.000
1727413292.745,-29.785,1.953,-63.477,-41.992,0.000
1727413292.749,7.324,-20.020,-49.805,-33.203,0.000
1727413292.753,-20.508,-27.344,-57.129,-37.109,0.000
1727413292.757,-61.523,-11.230,-56.152,-40.527,0.000
1727413292.760,-60.547,-14.648,-52.734,-37.109,0.000
1727413292.764,-18.555,-28.809,-64.453,-35.156,0.000
1727413292.768,27.344,-40.039,-55.664,-22.949,0.000
1727413292.772,3.906,-34.180,-46.875,-14.160,0.000
1727413292.776,-42.969,-28.320,-61.035,-14.648,0.000
1727413292.780,-68.848,-18.555,-65.918,-27.344,0.000
1727413292.784,-46.875,-8.789,-61.035,-41.016,0.000
1727413292.788,2.930,-39.551,-61.035,-23.926,0.000
1727413292.792,-1.953,-44.922,-64.453,-10.254,0.000
1727413292.796,-29.297,-21.484,-61.523,-18.066,0.000
1727413292.799,-52.246,-22.461,-62.988,-39.551,0.000
1727413292.803,-41.016,-37.109,-67.871,-55.176,0.000
1727413292.807,-14.160,-30.273,-67.383,-46.875,0.000
1727413292.811,-20.020,-27.832,-67.383,-32.227,0.000
1727413292.815,-42.480,-36.133,-64.941,-27.832,0.000
1727413292.819,-58.105,-34.180,-55.664,-35.645,0.000
1727413292.823,-29.297,-29.785,-43.945,-32.227,0.000
1727413292.827,6.836,-26.367,-40.527,-6.836,0.000
1727413292.831,-6.836,-22.949,-48.340,-2.441,0.000
1727413292.835,-46.875,-21.484,-57.617,-28.320,0.000
1727413292.838,-47.852,-22.461,-53.223,-32.227,0.000
1727413292.842,-15.625,-24.902,-50.781,-27.832,0.000
1727413292.846,17.578,-28.320,-48.340,-23.926,0.000
1727413292.850,4.883,-28.320,-41.992,-20.996,0.000
1727413292.854,-36.621,-24.414,-46.875,-26.855,0.000
1727413292.858,-52.734,-27.832,-43.457,-20.508,0.000
1727413292.862,-42.480,-28.809,-38.086,-23.926,0.000
1727413292.866,2.441,-36.133,-39.062,-20.996,0.000
1727413292.870,13.672,-35.156,-53.711,-6.348,0.000
1727413292.874,-36.133,-38.086,-59.570,-5.859,0.000
1727413292.878,-64.453,-53.711,-57.617,-19.531,0.000
1727413292.882,-60.059,-46.875,-62.500,-41.016,0.000
1727413292.885,-20.020,-40.039,-58.105,-39.551,0.000
1727413292.889,0.000,-38.574,-51.270,-36.621,0.000
1727413292.893,-24.414,-30.273,-55.176,-39.551,0.000
1727413292.897,-50.781,-27.344,-57.617,-31.250,0.000
1727413292.901,-54.199,-36.133,-48.340,-36.621,0.000
1727413292.905,-12.695,-31.250,-44.434,-39.551,0.000
1727413292.909,5.859,-35.645,-49.805,-20.996,0.000
1727413292.913,-27.344,-45.898,-57.129,-15.137,0.000
1727413292.917,-56.641,-41.992,-62.012,-34.180,0.000
1727413292.921,-50.781,-41.016,-61.035,-41.504,0.000
1727413292.925,-2.930,-37.109,-49.316,-24.414,0.000
1727413292.928,13.672,-32.715,-50.293,-18.555,0.000
1727413292.932,-14.648,-51.270,-60.547,-20.020,0.000
1727413292.936,-44.434,-52.246,-58.594,-22.949,0.000
1727413292.940,-57.129,-40.039,-52.246,-32.715,0.000
1727413292.944,-33.203,-45.898,-55.176,-32.715,0.000
1727413292.948,-3.418,-45.898,-59.082,-24.414,0.000
1727413292.952,-26.367,-38.086,-62.012,-22.461,0.000
1727413292.956,-60.547,-44.922,-67.383,-21.484,0.000
1727413292.960,-61.523,-39.551,-61.523,-25.391,0.000
1727413292.964,-16.602,-39.062,-54.199,-24.902,0.000
1727413292.968,9.766,-41.992,-51.270,-24.902,0.000
1727413292.971,-21.484,-31.738,-59.570,-28.320,0.000
1727413292.975,-49.805,-44.434,-62.500,-15.625,0.000
1727413292.979,-59.082,-49.316,-55.176,-20.508,0.000
1727413292.983,-34.180,-41.504,-54.688,-36.133,0.000
1727413292.987,-5.859,-50.293,-59.082,-28.809,0.000
1727413292.991,-11.719,-45.898,-56.152,-21.484,0.000
1727413292.995,-42.969,-35.645,-45.898,-11.719,0.000
1727413292.999,-50.781,-39.062,-45.898,-2.441,0.000
1727413293.003,-24.902,-38.574,-57.129,-22.461,0.000
1727413293.007,1.953,-35.156,-60.547,-39.062,0.000
1727413293.011,-5.859,-32.715,-64.941,-31.738,0.000
1727413293.014,-43.457,-42.969,-65.918,-29.785,0.000
1727413293.018,-72.754,-41.016,-62.988,-38.086,0.000
1727413293.022,-45.410,-37.598,-63.965,-38.086,0.000
1727413293.026,3.418,-39.551,-63.965,-33.203,0.000
1727413293.030,1.465,-36.133,-56.641,-34.668,0.000
1727413293.034,-39.062,-34.668,-48.828,-26.367,0.000
1727413293.038,-62.988,-27.344,-59.570,-18.555,0.000
1727413293.042,-42.969,-41.016,-61.523,-24.414,0.000
1727413293.046,-4.395,-50.293,-60.547,-22.949,0.000
1727413293.050,12.695,-43.457,-59.570,-12.207,0.000
1727413293.053,-27.832,-27.344,-59.570,-19.531,0.000
1727413293.057,-60.547,-29.785,-65.918,-39.551,0.000
1727413293.061,-40.039,-42.480,-61.523,-50.293,0.000
1727413293.065,11.230,-39.062,-57.129,-29.297,0.000
1727413293.069,2.441,-26.367,-61.035,-24.414,0.000
1727413293.073,-48.828,-25.879,-59.082,-30.762,0.000
1727413293.077,-62.012,-46.875,-55.664,-28.809,0.000
1727413293.081,-63.477,-35.645,-57.129,-34.180,0.000
1727413293.085,-26.367,-25.879,-50.781,-28.809,0.000
1727413293.089,0.488,-36.133,-50.781,-22.949,0.000
1727413293.093,-19.043,-32.715,-61.035,-16.602,0.000
1727413293.096,-44.434,-36.621,-60.547,-15.625,0.000
1727413293.100,-43.945,-29.785,-59.570,-28.809,0.000
1727413293.104,-1.465,-12.695,-59.570,-37.109,0.000
1727413293.108,21.973,-19.043,-50.293,-17.578,0.000
1727413293.112,-10.742,-20.020,-51.270,6.348,0.000
1727413293.116,-60.059,-23.438,-65.430,-20.020,0.000
1727413293.120,-75.195,-38.086,-71.289,-52.246,0.000
1727413293.124,-26.855,-39.551,-70.312,-41.992,0.000
1727413293.128,-7.812,-32.715,-70.312,-35.156,0.000
1727413293.132,-32.715,-34.180,-66.895,-38.574,0.000
1727413293.135,-53.711,-46.875,-60.547,-28.320,0.000
1727413293.139,-62.988,-33.203,-52.734,-33.203,0.000
1727413293.143,-42.480,-24.902,-50.293,-44.922,0.000
1727413293.147,-6.836,-46.387,-47.363,-25.391,0.000
1727413293.151,-20.020,-46.875,-50.781,-22.461,0.000
1727413293.155,-56.641,-40.527,-64.453,-30.273,0.000
1727413293.159,-61.035,-41.504,-55.664,-41.504,0.000
1727413293.163,-37.598,-39.551,-48.828,-58.105,0.000
1727413293.167,-17.090,-33.691,-59.082,-46.387,0.000
1727413293.171,-24.414,-31.250,-48.340,-32.227,0.000
1727413293.175,-53.711,-34.668,-47.363,-34.180,0.000
1727413293.178,-68.848,-39.062,-55.664,-41.016,0.000
1727413293.182,-52.246,-41.992,-53.711,-51.270,0.000
1727413293.186,-18.555,-44.922,-59.082,-42.969,0.000
1727413293.190,-31.250,-36.133,-62.988,-39.551,0.000
1727413293.194,-61.035,-32.715,-59.082,-38.086,0.000
1727413293.198,-62.500,-43.945,-55.664,-36.621,0.000
1727413293.202,-46.875,-43.945,-55.664,-39.551,0.000
1727413293.206,-15.625,-40.039,-52.734,-35.645,0.000
1727413293.210,-13.184,-43.457,-56.641,-37.598,0.000
1727413293.214,-44.922,-42.969,-58.594,-36.133,0.000
1727413293.217,-58.594,-37.598,-52.246,-41.992,0.000
1727413293.221,-43.945,-41.504,-57.617,-50.781,0.000
1727413293.225,-3.906,-43.945,-52.246,-40.527,0.000
1727413293.229,1.465,-39.062,-49.805,-31.738,0.000
1727413293.233,-28.809,-33.691,-62.500,-22.949,0.000
1727413293.237,-58.594,-35.645,-66.406,-27.832,0.000
1727413293.241,-56.641,-35.156,-62.500,-41.992,0.000
1727413293.245,-6.348,-30.273,-49.805,-27.344,0.000
1727413293.249,-6.836,-38.574,-48.340,-20.020,0.000
1727413293.253,-42.480,-34.668,-54.199,-20.996,0.000
1727413293.257,-56.152,-39.062,-54.688,-32.715,0.000
1727413293.260,-55.176,-55.176,-53.711,-46.387,0.000
1727413293.264,-21.973,-48.340,-45.410,-37.598,0.000
1727413293.268,-7.324,-27.344,-47.363,-26.367,0.000
1727413293.272,-41.504,-35.645,-53.711,-8.301,0.000
1727413293.276,-83.984,-58.105,-33.203,-32.715,0.000
1727413293.280,-63.477,-38.574,-35.645,-47.852,0.000
1727413293.284,-15.625,-14.648,-52.734,-37.598,0.000
1727413293.288,-2.930,-27.832,-48.828,-34.180,0.000
1727413293.292,-55.664,-24.414,-73.242,-42.969,0.000
1727413293.296,-96.191,-33.203,-58.594,-69.336,0.000
1727413293.300,-75.684,-81.055,-20.996,-73.242,0.000
1727413293.303,-40.039,-85.938,-40.039,-31.738,0.000
1727413293.307,-28.320,-48.340,-59.570,-4.883,0.000
1727413293.311,-61.523,-11.230,-82.031,-41.992,0.000
1727413293.315,-78.125,-33.203,-49.805,-58.105,0.000
1727413293.319,-103.516,-25.879,-20.508,-76.172,0.000
1727413293.323,-112.305,-27.832,-26.855,-142.090,0.000
1727413293.327,-32.227,-67.383,-15.625,-135.254,0.000
1727413293.331,-44.434,-33.691,-41.992,-46.387,0.000
1727413293.335,-96.191,33.691,-88.379,2.441,0.000
1727413293.339,-40.527,-11.719,-92.773,20.508,0.000
1727413293.343,20.020,-73.242,-94.727,-47.363,0.000
1727413293.346,-44.434,-79.102,0.488,-81.055,0.000
1727413293.350,-90.820,-19.043,-48.828,-52.246,0.000
1727413293.354,-115.234,47.363,-149.902,-64.941,0.000
1727413293.358,-129.883,36.133,-127.441,-40.527,0.000
1727413293.362,-54.199,1.953,-147.461,57.129,0.000
1727413293.366,69.824,-96.191,-160.156,83.008,0.000
1727413293.370,117.676,-101.074,-86.426,71.777,0.000
1727413293.374,-20.508,17.090,-127.930,2.441,0.000
1727413293.378,-0.977,-74.707,-120.605,-11.719,0.000
1727413293.382,81.543,-111.816,-90.820,52.734,0.000
1727413293.386,-32.227,-27.344,-97.168,-29.785,0.000
1727413293.389,-34.668,-8.301,-138.672,5.859,0.000
1727413293.393,6.348,-34.668,-130.859,41.504,0.000
1727413293.397,2.441,-78.613,-117.676,28.320,0.000
1727413293.401,-25.879,-35.156,-157.715,7.812,0.000
1727413293.405,65.430,-59.082,-136.719,43.945,0.000
1727413293.409,98.633,-76.660,-117.188,63.477,0.000
1727413293.413,12.695,-37.598,-128.906,36.133,0.000
1727413293.417,-43.945,-49.316,-111.328,0.000,0.000
1727413293.421,-30.762,-31.250,-93.750,-31.738,0.000
1727413293.425,27.832,-20.020,-134.277,7.324,0.000
1727413293.428,35.156,-52.734,-118.164,8.789,0.000
1727413293.432,-1.953,-53.223,-107.910,4.395,0.000
1727413293.436,-28.809,-48.828,-113.770,8.301,0.000
1727413293.440,-22.461,-32.227,-104.004,-7.812,0.000
1727413293.444,19.531,3.906,-107.422,-18.066,0.000
1727413293.448,50.293,-31.250,-110.352,-7.324,0.000
1727413293.452,10.254,-46.387,-104.492,-3.418,0.000
1727413293.456,-44.922,-24.902,-98.145,-14.648,0.000
1727413293.460,-38.574,-33.203,-88.867,-22.461,0.000
1727413293.464,10.254,-38.086,-83.984,-15.625,0.000
1727413293.468,25.879,-31.250,-82.520,-2.441,0.000
1727413293.472,-3.418,-14.648,-86.426,-16.113,0.000
1727413293.475,-42.480,-14.648,-82.520,-25.391,0.000
1727413293.479,-61.523,-37.109,-67.383,-9.766,0.000
1727413293.483,-9.766,-30.762,-64.941,-11.230,0.000
1727413293.487,33.691,-15.137,-63.477,-17.578,0.000
1727413293.491,-7.812,-13.184,-67.383,-26.367,0.000
1727413293.495,-44.922,-23.926,-76.172,-28.320,0.000
1727413293.499,-60.059,-21.973,-71.289,-26.855,0.000
1727413293.503,-31.250,-30.273,-65.918,-41.016,0.000
1727413293.507,7.812,-32.715,-62.500,-34.180,0.000
1727413293.511,-21.973,-22.461,-51.758,-14.648,0.000
1727413293.515,-55.176,-32.715,-62.988,-22.461,0.000
1727413293.519,-59.570,-34.180,-76.172,-43.945,0.000
1727413293.522,-13.672,-32.715,-61.035,-22.949,0.000
1727413293.526,34.668,-29.785,-52.246,2.930,0.000
1727413293.530,9.766,-39.062,-56.641,-19.531,0.000
1727413293.534,-47.363,-43.457,-63.477,-35.645,0.000
1727413293.538,-64.941,-52.734,-56.641,-36.621,0.000
1727413293.542,-29.297,-62.500,-47.852,-46.387,0.000
1727413293.546,-6.348,-50.781,-58.594,-46.387,0.000
1727413293.550,-18.555,-66.895,-54.688,-32.715,0.000
1727413293.554,-48.828,-67.383,-43.457,-28.320,0.000
1727413293.558,-66.895,-54.199,-50.781,-40.039,0.000
1727413293.561,-39.551,-57.129,-57.129,-52.734,0.000
1727413293.565,-8.789,-56.641,-58.105,-43.945,0.000
1727413293.569,-32.715,-56.152,-57.617,-40.039,0.000
1727413293.573,-56.641,-63.965,-46.875,-39.551,0.000
1727413293.577,-57.617,-56.641,-49.316,-54.199,0.000
1727413293.581,-44.434,-47.852,-43.945,-61.523,0.000
1727413293.585,-11.230,-47.363,-28.809,-37.598,0.000
1727413293.589,-11.719,-41.992,-23.438,-28.809,0.000
1727413293.593,-52.734,-42.969,-31.250,-33.203,0.000
1727413293.597,-78.125,-42.480,-45.410,-41.992,0.000
1727413293.600,-42.969,-46.387,-35.645,-30.273,0.000
1727413293.604,3.906,-45.410,-32.715,-27.832,0.000
1727413293.608,-2.441,-45.410,-43.945,-40.527,0.000
1727413293.612,-33.691,-42.480,-44.434,-31.250,0.000
1727413293.616,-56.152,-36.133,-40.527,-28.320,0.000
1727413293.620,-55.664,-39.551,-38.574,-43.945,0.000
1727413293.624,-34.180,-42.480,-32.715,-33.691,0.000
1727413293.628,-27.344,-35.645,-29.297,-29.297,0.000
1727413293.632,-66.895,-24.414,-42.969,-44.434,0.000
1727413293.636,-95.703,-34.668,-43.945,-32.715,0.000
1727413293.639,-76.172,-38.086,-26.367,-31.250,0.000
1727413293.643,-31.738,-32.715,-41.992,-37.109,0.000
1727413293.647,-28.320,-40.527,-57.129,-37.109,0.000
1727413293.651,-56.641,-41.992,-40.039,-37.598,0.000
1727413293.655,-83.496,-24.414,-32.715,-37.109,0.000
1727413293.659,-82.031,-30.273,-39.062,-40.039,0.000
1727413293.663,-41.016,-49.316,-35.645,-34.180,0.000
1727413293.667,-16.113,-44.434,-38.086,-26.855,0.000
1727413293.671,-41.016,-38.574,-45.898,-25.879,0.000
1727413293.675,-87.402,-41.992,-42.969,-19.043,0.000
1727413293.679,-99.121,-45.410,-37.598,-40.039,0.000
1727413293.682,-59.570,-39.062,-30.273,-42.969,0.000
1727413293.686,-36.621,-36.621,-28.320,-34.668,0.000
1727413293.690,-53.711,-40.039,-33.691,-45.410,0.000
1727413293.694,-82.520,-33.691,-42.969,-48.828,0.000
1727413293.698,-91.309,-41.016,-41.992,-52.734,0.000
1727413293.702,-58.105,-54.688,-27.832,-49.805,0.000
1727413293.706,-31.250,-51.270,-35.156,-39.551,0.000
1727413293.710,-53.223,-45.410,-49.316,-35.645,0.000
1727413293.714,-81.055,-49.316,-43.945,-36.133,0.000
1727413293.718,-84.473,-62.500,-44.434,-34.668,0.000
1727413293.722,-52.246,-60.059,-45.898,-32.227,0.000
1727413293.725,-17.578,-46.875,-49.316,-42.480,0.000
1727413293.729,-37.598,-39.062,-48.340,-43.945,0.000
1727413293.733,-65.918,-39.062,-41.504,-41.504,0.000
1727413293.737,-72.266,-43.457,-44.922,-54.688,0.000
1727413293.741,-44.434,-40.527,-51.270,-59.570,0.000
1727413293.745,5.859,-31.738,-50.293,-45.898,0.000
1727413293.749,-4.395,-34.180,-42.480,-38.086,0.000
1727413293.753,-47.852,-35.156,-40.527,-32.715,0.000
1727413293.757,-69.336,-35.156,-48.340,-50.293,0.000
1727413293.761,-52.734,-37.598,-52.734,-65.430,0.000
1727413293.765,-18.066,-30.273,-45.410,-42.480,0.000
1727413293.768,-15.137,-37.598,-47.363,-35.156,0.000
1727413293.772,-50.293,-47.852,-55.176,-43.945,0.000
1727413293.776,-82.031,-45.898,-46.875,-49.316,0.000
1727413293.780,-60.059,-39.062,-38.086,-57.617,0.000
1727413293.784,-19.531,-41.992,-37.109,-42.480,0.000
1727413293.788,-25.391,-40.527,-46.387,-26.855,0.000
1727413293.792,-55.176,-39.062,-44.922,-28.809,0.000
1727413293.796,-75.684,-42.969,-40.527,-28.809,0.000
1727413293.800,-55.664,-38.086,-40.527,-23.438,0.000
1727413293.804,-31.738,-26.367,-44.434,-31.738,0.000
1727413293.807,-28.809,-49.316,-50.293,-39.551,0.000
1727413293.811,-52.734,-51.270,-49.316,-38.574,0.000
1727413293.815,-74.707,-31.250,-49.805,-41.992,0.000
1727413293.819,-62.988,-46.387,-43.945,-46.875,0.000
1727413293.823,-27.832,-57.129,-49.316,-50.293,0.000
1727413293.827,-31.250,-48.828,-55.664,-51.758,0.000
1727413293.831,-51.270,-38.086,-51.270,-40.039,0.000
1727413293.835,-61.523,-42.969,-46.387,-31.738,0.000
1727413293.839,-63.477,-25.391,-46.875,-35.645,0.000
1727413293.843,-22.461,9.766,-48.340,-33.203,0.000
1727413293.847,-14.160,16.602,-51.758,-30.762,0.000
1727413293.850,-48.828,13.184,-49.805,-35.645,0.000
1727413293.854,-76.660,7.812,-46.387,-36.621,0.000
1727413293.858,-74.707,10.254,-40.527,-48.828,0.000
1727413293.862,-35.156,6.836,-28.320,-44.922,0.000
1727413293.866,-11.230,0.000,-35.645,-21.973,0.000
1727413293.870,-24.414,-5.859,-45.410,-13.672,0.000
1727413293.874,-51.270,-12.207,-49.316,-16.113,0.000
1727413293.878,-55.664,-10.742,-50.781,-34.180,0.000
1727413293.882,-23.438,6.836,-43.945,-32.227,0.000
1727413293.886,-5.371,17.090,-48.828,-21.973,0.000
1727413293.889,-17.578,17.578,-47.363,-20.508,0.000
1727413293.893,-39.062,19.043,-41.504,-24.902,0.000
1727413293.897,-52.246,12.207,-49.316,-36.133,0.000
1727413293.901,-20.020,-3.418,-51.270,-32.715,0.000
1727413293.905,2.441,-1.465,-53.223,-26.367,0.000
1727413293.909,-13.184,19.531,-60.059,-21.973,0.000
1727413293.913,-36.621,16.113,-62.012,-19.043,0.000
1727413293.917,-60.547,-1.465,-55.176,-21.973,0.000
1727413293.921,-31.250,-11.230,-45.410,-17.090,0.000
1727413293.925,12.207,-2.930,-41.992,-27.344,0.000
1727413293.928,6.836,0.488,-41.504,-27.344,0.000
1727413293.932,-20.020,-3.906,-39.551,-16.602,0.000
1727413293.936,-47.363,-9.277,-37.598,-33.203,0.000
1727413293.940,-28.320,-2.441,-36.133,-36.621,0.000
1727413293.944,7.324,-1.953,-39.062,-30.762,0.000
1727413293.948,6.836,-16.602,-42.480,-20.020,0.000
1727413293.952,-32.715,-17.578,-41.016,-17.578,0.000
1727413293.956,-61.523,-20.020,-43.457,-38.086,0.000
1727413293.960,-50.293,-23.438,-47.363,-52.246,0.000
1727413293.964,-15.137,-18.555,-45.898,-30.762,0.000
1727413293.967,-10.742,-30.273,-45.410,-21.973,0.000
1727413293.971,-51.758,-28.809,-47.852,-45.898,0.000
1727413293.975,-69.336,-15.137,-50.293,-55.176,0.000
1727413293.979,-58.594,-20.996,-54.688,-61.523,0.000
1727413293.983,-30.273,-20.508,-67.871,-56.641,0.000
1727413293.987,-11.719,-26.367,-66.895,-35.645,0.000
1727413293.991,-40.039,-63.477,-60.547,-32.227,0.000
1727413293.995,-66.406,-80.078,-51.758,-33.203,0.000
1727413293.999,-57.617,-76.660,-41.504,-34.668,0.000
1727413294.003,-20.996,-83.008,-32.227,-47.363,0.000
1727413294.006,-13.184,-75.195,-40.527,-47.852,0.000
1727413294.010,-26.367,-75.684,-44.922,-33.691,0.000
1727413294.014,-54.688,-72.754,-46.387,-37.598,0.000
1727413294.018,-63.965,-58.105,-52.246,-51.270,0.000
1727413294.022,-17.090,-55.176,-46.387,-45.898,0.000
1727413294.026,11.230,-53.711,-30.273,-26.367,0.000
1727413294.030,-19.531,-45.410,-30.762,-11.230,0.000
1727413294.034,-51.270,-44.434,-44.922,-16.113,0.000
1727413294.038,-51.758,-55.664,-48.828,-34.668,0.000
1727413294.042,-29.297,-61.523,-48.340,-36.621,0.000
1727413294.046,-10.742,-59.082,-50.293,-38.574,0.000
1727413294.049,-29.785,-50.293,-57.129,-46.875,0.000
1727413294.053,-53.223,-53.711,-54.688,-31.738,0.000
1727413294.057,-46.875,-62.988,-46.875,-17.090,0.000
1727413294.061,-19.043,-50.293,-38.574,-26.855,0.000
1727413294.065,4.395,-47.363,-35.156,-20.508,0.000
1727413294.069,-20.508,-50.781,-40.527,-18.555,0.000
1727413294.073,-58.594,-43.945,-47.363,-41.504,0.000
1727413294.077,-64.453,-49.805,-49.316,-50.293,0.000
1727413294.081,-24.902,-54.688,-39.062,-45.410,0.000
1727413294.085,9.766,-50.293,-33.691,-37.109,0.000
1727413294.089,-17.090,-53.711,-46.387,-28.809,0.000
1727413294.092,-67.383,-47.363,-50.781,-34.668,0.000
1727413294.096,-62.988,-53.711,-43.457,-37.109,0.000
1727413294.100,-29.785,-54.199,-46.387,-28.320,0.000
1727413294.104,-11.719,-62.500,-45.410,-17.090,0.000
1727413294.108,-18.066,-55.664,-43.945,-30.762,0.000
1727413294.112,-41.992,-49.316,-39.551,-30.762,0.000
1727413294.116,-56.152,-47.852,-36.133,-26.367,0.000
1727413294.120,-32.227,-39.551,-39.551,-29.785,0.000
1727413294.124,-7.324,-40.039,-42.969,-34.180,0.000
1727413294.128,-19.531,-41.504,-47.363,-29.297,0.000
1727413294.132,-56.641,-41.016,-50.293,-30.762,0.000
1727413294.135,-80.078,-31.250,-54.688,-53.711,0.000
1727413294.139,-45.898,-43.945,-51.758,-42.969,0.000
1727413294.143,-4.395,-49.316,-47.852,-36.133,0.000
1727413294.147,-15.625,-29.785,-57.129,-43.457,0.000
1727413294.151,-51.758,-37.598,-66.895,-30.762,0.000
1727413294.155,-64.941,-41.016,-66.895,-44.434,0.000
1727413294.159,-32.715,-45.898,-58.594,-49.805,0.000
1727413294.163,7.324,-41.992,-59.570,-23.926,0.000
1727413294.167,-0.488,-27.832,-67.383,-28.320,0.000
1727413294.171,-42.480,-26.855,-70.312,-50.293,0.000
1727413294.175,-63.965,-48.828,-62.500,-45.410,0.000
1727413294.178,-46.875,-42.480,-55.664,-38.574,0.000
1727413294.182,-1.953,-36.133,-52.246,-29.785,0.000
1727413294.186,12.207,-45.898,-52.734,-18.066,0.000
1727413294.190,-20.020,-40.039,-63.477,-21.484,0.000
1727413294.194,-45.898,-35.645,-57.617,-22.949,0.000
1727413294.198,-34.668,-37.598,-50.293,-40.527,0.000
1727413294.202,-0.488,-37.109,-62.012,-46.875,0.000
1727413294.206,17.090,-59.082,-58.594,-20.996,0.000
1727413294.210,-15.625,-50.293,-50.293,-21.484,0.000
1727413294.214,-57.617,-31.738,-54.199,-33.203,0.000
1727413294.217,-39.062,-57.129,-47.852,-22.949,0.000
1727413294.221,1.953,-47.852,-48.828,-20.020,0.000
1727413294.225,16.113,-30.762,-47.852,-17.578,0.000
1727413294.229,-13.672,-33.203,-44.922,-16.113,0.000
1727413294.233,-55.176,-37.109,-47.852,-23.926,0.000
1727413294.237,-57.617,-49.316,-48.828,-28.809,0.000
1727413294.241,-24.902,-65.918,-52.734,-29.785,0.000
1727413294.245,-5.859,-62.012,-53.711,-19.531,0.000
1727413294.249,-22.949,-49.316,-53.711,-34.180,0.000
1727413294.253,-51.758,-48.828,-58.594,-39.062,0.000
1727413294.256,-61.523,-57.129,-59.570,-33.203,0.000
1727413294.260,-28.320,-55.176,-51.758,-42.480,0.000
1727413294.264,6.836,-52.734,-35.156,-38.574,0.000
1727413294.268,-29.297,-46.387,-48.828,-34.668,0.000
1727413294.272,-63.965,-48.340,-58.105,-35.156,0.000
1727413294.276,-58.594,-46.387,-45.410,-42.480,0.000
1727413294.280,-40.527,-39.551,-50.293,-51.270,0.000
1727413294.284,-9.277,-48.340,-49.316,-47.363,0.000
1727413294.288,-21.973,-50.293,-47.852,-54.688,0.000
1727413294.292,-50.293,-47.363,-48.340,-41.992,0.000
1727413294.296,-55.176,-43.945,-50.293,-38.086,0.000
1727413294.299,-34.668,-37.598,-55.176,-52.246,0.000
1727413294.303,13.672,-31.250,-59.570,-36.621,0.000
1727413294.307,15.625,-33.691,-58.594,-20.508,0.000
1727413294.311,-28.809,-31.738,-49.805,-25.391,0.000
1727413294.315,-56.152,-23.438,-49.805,-43.457,0.000
1727413294.319,-39.551,-36.621,-48.340,-45.410,0.000
1727413294.323,-0.488,-32.715,-43.945,-38.086,0.000
1727413294.327,-4.883,-28.320,-47.363,-20.508,0.000
1727413294.331,-47.852,-47.852,-47.363,-9.277,0.000
1727413294.335,-51.270,-39.062,-48.340,-20.508,0.000
1727413294.338,-33.691,-21.973,-51.758,-21.484,0.000
1727413294.342,-4.395,-20.020,-47.363,-18.066,0.000
1727413294.346,9.766,13.184,-57.129,-20.020,0.000
1727413294.350,-16.602,25.879,-65.430,-22.461,0.000
1727413294.354,-56.641,13.184,-58.105,-37.109,0.000
1727413294.358,-58.105,11.719,-43.457,-46.875,0.000
1727413294.362,-12.695,7.812,-41.992,-36.133,0.000
1727413294.366,-2.930,15.625,-46.875,-24.902,0.000
1727413294.370,-32.715,12.695,-49.316,-18.066,0.000
1727413294.374,-61.035,7.812,-49.316,-25.879,0.000
1727413294.377,-57.129,-0.977,-49.805,-46.875,0.000
1727413294.381,-15.625,-13.672,-51.758,-50.293,0.000
1727413294.385,-0.488,-9.766,-51.270,-29.785,0.000
1727413294.389,-36.621,-1.953,-46.875,-23.438,0.000
1727413294.393,-60.059,-10.254,-48.340,-29.297,0.000
1727413294.397,-47.363,-18.555,-51.270,-26.855,0.000
1727413294.401,-5.859,-21.973,-49.805,-28.320,0.000
1727413294.405,-2.441,-31.738,-57.617,-26.855,0.000
1727413294.409,-41.992,-42.480,-58.594,-30.762,0.000
1727413294.413,-68.848,-29.785,-57.617,-41.504,0.000
1727413294.417,-59.570,-24.902,-52.246,-26.855,0.000
1727413294.420,-16.113,-16.602,-42.969,-26.367,0.000
1727413294.424,6.836,-16.113,-42.969,-27.832,0.000
1727413294.428,-31.250,-22.949,-54.199,-31.738,0.000
1727413294.432,-62.500,-23.438,-58.594,-35.156,0.000
1727413294.436,-53.223,-25.391,-49.805,-36.621,0.000
1727413294.440,-17.578,-29.297,-49.316,-40.527,0.000
1727413294.444,1.953,-20.996,-50.781,-31.738,0.000
1727413294.448,-16.602,-12.695,-56.152,-22.461,0.000
1727413294.452,-51.270,-16.113,-58.594,-30.762,0.000
1727413294.456,-56.641,-23.926,-48.828,-33.203,0.000
1727413294.460,-20.508,-22.461,-48.828,-18.555,0.000
1727413294.463,6.348,-12.207,-52.734,-26.367,0.000
1727413294.467,-4.395,-13.184,-49.316,-32.227,0.000
1727413294.471,-28.320,-26.367,-45.410,-22.949,0.000
1727413294.475,-34.180,-39.551,-42.969,-23.926,0.000
1727413294.479,-16.113,-31.738,-41.016,-27.344,0.000
1727413294.483,-4.883,-26.367,-48.340,-26.367,0.000
1727413294.487,-19.531,-30.762,-61.523,-39.551,0.000
1727413294.491,-45.410,-29.785,-63.477,-28.320,0.000
1727413294.495,-58.594,-23.438,-58.594,-17.090,0.000
1727413294.499,-37.109,-16.113,-49.805,-28.320,0.000
1727413294.503,1.465,-34.180,-46.387,-15.137,0.000
1727413294.506,-2.441,-36.133,-48.340,-11.719,0.000
1727413294.510,-40.527,-27.344,-53.223,-28.320,0.000
1727413294.514,-58.105,-41.992,-47.363,-35.645,0.000
1727413294.518,-41.016,-38.086,-50.293,-39.551,0.000
1727413294.522,-10.254,-40.527,-56.152,-25.391,0.000
1727413294.526,-18.066,-49.805,-51.758,-9.277,0.000
1727413294.530,-44.434,-37.598,-56.152,-4.883,0.000
1727413294.534,-66.895,-37.109,-57.617,-17.578,0.000
1727413294.538,-54.688,-45.898,-52.246,-34.180,0.000
1727413294.542,-17.090,-47.363,-50.293,-28.809,0.000
1727413294.546,-19.531,-46.387,-48.828,-23.926,0.000
1727413294.549,-50.293,-41.504,-47.363,-29.297,0.000
1727413294.553,-68.848,-50.293,-50.781,-35.645,0.000
1727413294.557,-60.547,-57.129,-48.828,-48.340,0.000
1727413294.561,-22.461,-48.340,-44.434,-36.133,0.000
1727413294.565,-3.906,-53.223,-50.293,-18.555,0.000
1727413294.569,-50.293,-60.059,-57.129,-25.391,0.000
1727413294.573,-72.754,-61.035,-54.688,-26.367,0.000
1727413294.577,-55.176,-66.406,-51.758,-40.039,0.000
1727413294.581,-22.949,-67.383,-50.293,-41.992,0.000
1727413294.585,-7.812,-60.059,-49.805,-28.809,0.000
1727413294.588,-25.879,-56.152,-52.734,-22.461,0.000
1727413294.592,-48.828,-50.781,-57.617,-20.508,0.000
1727413294.596,-40.039,-41.504,-55.176,-23.438,0.000
1727413294.600,1.953,-38.086,-48.828,-20.508,0.000
1727413294.604,7.324,-40.039,-44.434,-5.371,0.000
1727413294.608,-8.789,-15.137,-41.016,1.465,0.000
1727413294.612,-24.414,-17.090,-42.969,-3.906,0.000
1727413294.616,-25.879,-30.762,-38.574,-25.879,0.000
1727413294.620,1.953,-21.973,-39.062,-22.949,0.000
1727413294.624,4.395,-21.484,-45.898,-14.648,0.000
1727413294.628,-15.625,-21.484,-50.781,-17.578,0.000
1727413294.631,-42.969,-21.484,-58.594,-24.902,0.000
1727413294.635,-45.410,-28.320,-52.734,-38.086,0.000
1727413294.639,-10.742,-34.180,-48.340,-34.180,0.000
1727413294.643,7.324,-36.133,-52.734,-20.996,0.000
1727413294.647,-11.230,-32.227,-56.152,-20.020,0.000
1727413294.651,-42.480,-28.320,-56.641,-25.879,0.000
1727413294.655,-63.477,-42.480,-52.734,-33.203,0.000
1727413294.659,-36.133,-41.504,-47.852,-41.992,0.000
1727413294.663,-3.906,-41.016,-50.781,-31.738,0.000
1727413294.667,-25.391,-45.898,-58.105,-27.832,0.000
1727413294.670,-62.500,-33.203,-60.547,-33.691,0.000
1727413294.674,-63.477,-18.555,-58.105,-30.273,0.000
1727413294.678,-26.855,-38.574,-49.805,-13.184,0.000
1727413294.682,7.812,-48.340,-49.805,-9.277,0.000
1727413294.686,-10.742,-43.457,-55.664,-15.625,0.000
1727413294.690,-53.223,-47.363,-56.152,-28.320,0.000
1727413294.694,-67.871,-44.434,-56.641,-46.387,0.000
1727413294.698,-42.969,-47.852,-53.711,-40.527,0.000
1727413294.702,-1.465,-50.781,-51.758,-8.789,0.000
1727413294.706,-1.465,-33.691,-54.199,-5.859,0.000
1727413294.709,-38.574,-29.297,-56.641,-21.973,0.000
1727413294.713,-72.266,-42.480,-52.246,-39.551,0.000
1727413294.717,-55.176,-43.457,-51.270,-42.969,0.000
1727413294.721,-6.348,-40.527,-54.688,-34.180,0.000
1727413294.725,-6.348,-45.410,-58.105,-27.344,0.000
1727413294.729,-38.574,-50.293,-63.965,-31.738,0.000
1727413294.733,-52.734,-62.988,-60.059,-41.504,0.000
1727413294.737,-45.898,-63.477,-53.711,-45.898,0.000
1727413294.741,-0.977,-55.176,-51.270,-27.832,0.000
1727413294.745,7.812,-58.105,-52.246,-22.949,0.000
1727413294.749,-35.645,-63.965,-56.641,-30.762,0.000
1727413294.752,-68.359,-55.664,-60.059,-32.715,0.000
1727413294.756,-38.086,-43.945,-55.664,-27.832,0.000
1727413294.760,2.441,-44.434,-55.664,-17.090,0.000
1727413294.764,-0.488,-46.387,-58.105,-15.137,0.000
1727413294.768,-36.621,-48.340,-61.523,-12.207,0.000
1727413294.772,-57.129,-57.617,-61.035,-7.324,0.000
1727413294.776,-48.828,-52.734,-53.223,-12.207,0.000
1727413294.780,-9.277,-42.969,-42.480,-21.973,0.000
1727413294.784,4.883,-41.504,-46.387,-23.926,0.000
1727413294.788,-35.645,-51.758,-50.781,-29.297,0.000
1727413294.792,-69.824,-62.988,-50.781,-37.109,0.000
1727413294.795,-62.500,-58.594,-60.059,-42.480,0.000
1727413294.799,-20.508,-50.293,-57.129,-41.016,0.000
1727413294.803,4.883,-49.316,-48.828,-21.973,0.000
1727413294.807,-29.785,-45.898,-54.199,-18.066,0.000
1727413294.811,-68.848,-44.922,-64.453,-33.691,0.000
1727413294.815,-66.406,-49.316,-62.500,-43.945,0.000
1727413294.819,-28.809,-44.922,-56.152,-44.434,0.000
1727413294.823,-9.766,-48.340,-58.105,-31.738,0.000
1727413294.827,-34.668,-46.387,-70.801,-23.438,0.000
1727413294.831,-66.406,-35.156,-75.684,-36.133,0.000
1727413294.835,-59.570,-45.410,-65.430,-44.922,0.000
1727413294.838,-20.996,-54.688,-57.129,-52.734,0.000
1727413294.842,-0.488,-50.781,-53.223,-47.852,0.000
1727413294.846,-20.996,-44.434,-57.617,-37.598,0.000
1727413294.850,-54.199,-51.758,-64.941,-38.574,0.000
1727413294.854,-63.965,-57.129,-66.406,-41.992,0.000
1727413294.858,-37.109,-46.387,-68.359,-40.527,0.000
1727413294.862,-3.906,-43.457,-68.359,-32.715,0.000
1727413294.866,-11.230,-40.039,-65.430,-18.066,0.000
1727413294.870,-45.410,-35.156,-57.617,-27.344,0.000
1727413294.874,-64.453,-42.969,-57.129,-38.574,0.000
1727413294.878,-48.340,-37.109,-61.523,-38.574,0.000
1727413294.881,-5.859,-32.227,-58.594,-41.016,0.000
1727413294.885,-5.859,-36.621,-60.059,-30.762,0.000
1727413294.889,-43.457,-37.598,-63.477,-23.438,0.000
1727413294.893,-58.105,-32.715,-57.129,-35.645,0.000
1727413294.897,-37.598,-29.785,-54.199,-25.879,0.000
1727413294.901,-0.488,-22.949,-56.152,-9.277,0.000
1727413294.905,-4.883,-14.160,-56.641,-18.066,0.000
1727413294.909,-47.363,-19.531,-56.641,-26.855,0.000
1727413294.913,-64.453,-22.461,-57.617,-30.762,0.000
1727413294.917,-49.316,-15.137,-62.012,-50.781,0.000
1727413294.921,-10.254,-17.578,-54.199,-46.875,0.000
1727413294.924,6.348,-28.809,-43.457,-18.066,0.000
1727413294.928,-24.414,-36.621,-51.270,-20.996,0.000
1727413294.932,-66.406,-44.434,-48.340,-31.738,0.000
1727413294.936,-62.500,-39.062,-43.457,-38.574,0.000
1727413294.940,-16.113,-32.227,-43.945,-21.973,0.000
1727413294.944,-12.695,-28.809,-40.527,-17.090,0.000
1727413294.948,-40.527,-32.227,-40.527,-38.086,0.000
1727413294.952,-62.988,-41.016,-44.922,-54.199,0.000
1727413294.956,-69.336,-43.945,-41.016,-59.570,0.000
1727413294.960,-40.527,-43.457,-35.156,-45.410,0.000
1727413294.963,-17.090,-43.457,-38.086,-35.156,0.000
1727413294.967,-40.527,-41.992,-44.434,-41.016,0.000
1727413294.971,-79.590,-47.852,-41.504,-40.039,0.000
1727413294.975,-71.289,-51.270,-51.270,-44.434,0.000
1727413294.979,-23.438,-50.293,-56.641,-36.621,0.000
1727413294.983,-8.789,-41.992,-53.711,-27.832,0.000
1727413294.987,-50.293,-27.344,-55.176,-37.109,0.000
1727413294.991,-77.637,-21.484,-53.223,-46.387,0.000
1727413294.995,-70.801,-26.855,-47.852,-45.410,0.000
1727413294.999,-25.391,-21.973,-52.246,-29.297,0.000
1727413295.003,9.277,-20.020,-51.270,-22.949,0.000
1727413295.006,-17.090,-19.043,-43.457,-28.320,0.000
1727413295.010,-61.035,-15.137,-56.152,-26.855,0.000
1727413295.014,-50.781,-11.719,-62.988,-31.738,0.000
1727413295.018,-19.531,-15.137,-59.570,-40.527,0.000
1727413295.022,-9.277,-25.879,-57.617,-31.738,0.000
1727413295.026,-20.508,-24.902,-53.711,-20.508,0.000
1727413295.030,-53.711,-12.207,-52.246,-17.090,0.000
1727413295.034,-62.012,-13.184,-47.852,-20.020,0.000
1727413295.038,-36.133,-17.578,-48.828,-23.926,0.000
1727413295.042,-0.488,-16.113,-55.176,-16.113,0.000
1727413295.045,2.441,-20.508,-54.199,-8.789,0.000
1727413295.049,-41.016,-25.391,-58.105,-11.230,0.000
1727413295.053,-67.383,-19.531,-57.617,-28.809,0.000
1727413295.057,-37.598,-10.254,-44.922,-43.457,0.000
1727413295.061,4.395,-16.602,-35.645,-29.297,0.000
1727413295.065,-0.488,-29.297,-41.504,-13.672,0.000
1727413295.069,-40.527,-25.391,-41.504,-20.508,0.000
1727413295.073,-64.941,-31.250,-40.039,-31.738,0.000
1727413295.077,-23.438,-28.809,-46.387,-21.484,0.000
1727413295.081,9.766,-19.531,-44.922,-11.719,0.000
1727413295.084,-3.418,-26.367,-49.316,-11.230,0.000
1727413295.088,-25.391,-34.180,-55.664,-20.020,0.000
1727413295.092,-53.223,-34.180,-52.246,-32.715,0.000
1727413295.096,-43.457,-37.109,-50.781,-33.691,0.000
1727413295.100,-2.930,-34.668,-49.805,-21.973,0.000
1727413295.104,0.488,-29.785,-44.434,-30.762,0.000
1727413295.108,-31.738,-28.809,-45.898,-35.156,0.000
1727413295.112,-56.641,-26.855,-54.199,-32.715,0.000
1727413295.116,-55.176,-37.109,-52.246,-46.387,0.000
1727413295.120,-16.602,-41.504,-57.617,-44.434,0.000
1727413295.124,1.465,-37.109,-61.035,-29.785,0.000
1727413295.127,-32.715,-37.109,-58.105,-24.902,0.000
1727413295.131,-59.082,-41.992,-57.129,-29.297,0.000
1727413295.135,-48.340,-42.480,-49.805,-33.691,0.000
1727413295.139,-14.160,-38.086,-42.969,-35.645,0.000
1727413295.143,-6.348,-37.109,-41.016,-35.156,0.000
1727413295.147,-35.645,-32.715,-41.992,-24.902,0.000
1727413295.151,-65.430,-30.273,-47.363,-32.227,0.000
1727413295.155,-49.316,-43.945,-46.387,-29.785,0.000
1727413295.159,-2.441,-42.480,-44.922,-20.996,0.000
1727413295.163,15.137,-29.297,-51.270,-10.742,0.000
1727413295.167,-16.113,-15.625,-48.828,-0.977,0.000
1727413295.170,-28.320,-23.438,-41.016,-3.906,0.000
1727413295.174,-25.879,-23.926,-47.363,-20.020,0.000
1727413295.178,-7.812,-22.461,-50.781,-17.090,0.000
1727413295.182,18.555,-27.344,-47.363,-0.488,0.000
1727413295.186,-5.371,-7.324,-50.293,-9.766,0.000
1727413295.190,-33.691,-20.996,-50.293,-15.625,0.000
1727413295.194,0.000,-36.621,-46.875,-26.367,0.000
1727413295.198,0.000,-35.156,-42.969,-30.762,0.000
1727413295.202,0.000,-35.645,-47.363,-19.531,0.000
1727413295.206,0.000,-33.203,-51.758,-22.461,0.000
1727413295.210,0.000,-47.852,-53.711,-21.484,0.000
1727413295.214,0.000,-45.898,-56.641,-28.809,0.000
1727413295.218,0.000,-28.320,-53.711,-36.133,0.000
1727413295.221,0.000,-32.715,-49.805,-24.414,0.000
1727413295.225,0.000,-42.480,-50.781,-15.137,0.000
1727413295.229,0.000,-44.434,-46.875,-27.344,0.000
1727413295.233,0.000,-50.293,-42.480,-30.762,0.000
1727413295.237,0.000,-52.734,-44.922,-27.344,0.000
1727413295.241,-35.156,-53.711,-51.758,-22.949,0.000
1727413295.245,-7.812,-68.848,-51.270,-31.250,0.000
1727413295.249,18.555,-59.570,-53.711,-44.922,0.000
1727413295.252,-6.836,-61.035,-48.340,-44.922,0.000
1727413295.256,-36.133,-63.477,-41.504,-37.109,0.000
1727413295.260,-47.363,-49.805,-48.828,-30.273,0.000
1727413295.264,-24.902,-49.316,-54.199,-31.250,0.000
1727413295.268,7.324,-48.340,-56.641,-20.996,0.000
1727413295.272,-16.602,-48.340,-50.293,-21.973,0.000
1727413295.276,-68.359,-46.875,-49.316,-43.457,0.000
1727413295.280,-83.008,-56.152,-58.105,-30.762,0.000
1727413295.284,-48.828,-58.594,-58.594,-12.207,0.000
1727413295.288,-14.160,-47.852,-52.246,-9.277,0.000
1727413295.292,-46.387,-52.246,-54.199,-23.438,0.000
1727413295.295,-41.504,-56.152,-51.758,-29.785,0.000
1727413295.299,0.977,-47.363,-51.758,-22.461,0.000
1727413295.303,1.465,-41.016,-55.664,-28.809,0.000
1727413295.307,-50.293,-49.316,-62.500,-31.738,0.000
1727413295.311,-83.008,-54.688,-62.500,-31.738,0.000
1727413295.315,-69.336,-50.293,-61.035,-29.297,0.000
1727413295.319,-31.250,-36.621,-62.500,-20.508,0.000
1727413295.323,-13.672,-25.391,-52.246,-10.254,0.000
1727413295.327,-29.297,-30.762,-45.410,0.000,0.000
1727413295.331,-55.664,-29.297,-49.316,-5.859,0.000
1727413295.334,-59.570,-20.996,-51.270,-27.344,0.000
1727413295.338,-16.602,-29.785,-43.457,-33.203,0.000
1727413295.342,1.953,-30.273,-49.805,-20.020,0.000
1727413295.346,-20.996,-30.273,-65.430,-18.555,0.000
1727413295.350,-46.387,-37.109,-60.059,-22.949,0.000
1727413295.354,-46.875,-33.691,-51.758,-25.879,0.000
1727413295.358,-10.254,-35.156,-48.828,-27.832,0.000
1727413295.362,15.625,-22.949,-43.945,-17.578,0.000
1727413295.366,-17.090,-24.902,-55.176,-24.414,0.000
1727413295.370,-57.129,-42.480,-64.941,-31.738,0.000
1727413295.374,-58.594,-47.363,-60.547,-34.668,0.000
1727413295.377,-27.832,-51.758,-57.617,-42.969,0.000
1727413295.381,-2.441,-53.223,-51.270,-35.645,0.000
1727413295.385,-32.715,-50.781,-53.711,-34.668,0.000
1727413295.389,-70.312,-59.570,-59.082,-43.945,0.000
1727413295.393,-70.312,-60.059,-55.176,-42.969,0.000
1727413295.397,-35.645,-54.688,-48.828,-34.180,0.000
1727413295.401,-0.488,-55.664,-47.363,-27.832,0.000
1727413295.405,-21.973,-58.594,-62.500,-18.066,0.000
1727413295.409,-54.688,-61.035,-57.129,-17.578,0.000
1727413295.413,-64.941,-47.852,-47.363,-34.668,0.000
1727413295.416,-37.598,-40.039,-49.316,-34.668,0.000
1727413295.420,-4.395,-52.734,-44.434,-33.203,0.000
1727413295.424,-23.438,-59.082,-49.316,-35.156,0.000
1727413295.428,-61.523,-57.129,-57.129,-28.320,0.000
1727413295.432,-57.617,-51.758,-56.152,-36.133,0.000
1727413295.436,-36.133,-43.945,-47.363,-44.922,0.000
1727413295.440,-0.488,-32.715,-47.852,-39.551,0.000
1727413295.444,7.812,-25.391,-53.711,-29.785,0.000
1727413295.448,-26.367,-29.785,-49.316,-21.973,0.000
1727413295.452,-54.199,-29.785,-43.457,-23.438,0.000
1727413295.455,-30.273,-33.691,-40.039,-33.203,0.000
1727413295.459,-0.488,-35.645,-44.922,-29.785,0.000
1727413295.463,-18.066,-33.203,-60.059,-30.273,0.000
1727413295.467,-40.527,-39.551,-62.988,-35.156,0.000
1727413295.471,-57.129,-43.457,-59.082,-34.180,0.000
1727413295.475,-47.363,-32.227,-50.293,-24.902,0.000
1727413295.479,1.465,-30.273,-49.805,-12.207,0.000
1727413295.483,9.277,-30.762,-55.176,-21.484,0.000
1727413295.487,-31.250,-26.855,-57.129,-23.438,0.000
1727413295.491,-52.246,-33.691,-56.152,-21.973,0.000
1727413295.494,-33.691,-43.457,-54.688,-24.902,0.000
1727413295.498,-5.859,-34.668,-48.828,-6.348,0.000
1727413295.502,9.766,-25.391,-48.828,-4.395,0.000
1727413295.506,-16.113,-41.504,-57.617,-16.602,0.000
1727413295.510,-50.293,-42.480,-61.523,-19.043,0.000
1727413295.514,-46.387,-41.504,-58.594,-27.344,0.000
1727413295.518,-18.555,-45.898,-62.500,-41.992,0.000
1727413295.522,0.000,-59.570,-62.988,-34.668,0.000
1727413295.526,-21.484,-53.223,-60.059,-30.273,0.000
1727413295.530,-59.082,-49.805,-63.965,-31.738,0.000
1727413295.534,-79.102,-56.152,-62.988,-46.875,0.000
1727413295.537,-46.875,-58.594,-57.129,-64.453,0.000
1727413295.541,-17.578,-58.105,-50.293,-45.898,0.000
1727413295.545,-23.438,-52.734,-47.363,-28.320,0.000
1727413295.549,-51.758,-51.758,-49.805,-33.691,0.000
1727413295.553,-61.035,-46.387,-55.664,-47.852,0.000
1727413295.557,-16.113,-42.480,-57.129,-48.828,0.000
1727413295.561,3.418,-48.340,-59.082,-35.645,0.000
1727413295.565,-26.855,-59.082,-69.336,-25.391,0.000
1727413295.569,-65.430,-58.105,-70.801,-39.062,0.000
1727413295.573,-81.055,-53.711,-70.312,-62.500,0.000
1727413295.577,-35.156,-58.594,-59.570,-46.387,0.000
1727413295.580,-14.648,-56.152,-69.336,-33.691,0.000
1727413295.584,-33.691,-81.543,-75.195,-27.344,0.000
1727413295.588,-55.176,-82.031,-69.336,-24.902,0.000
1727413295.592,-64.941,-66.406,-72.266,-31.250,0.000
1727413295.596,-39.062,-60.547,-71.777,-27.344,0.000
1727413295.600,10.254,-51.270,-72.754,-17.578,0.000
1727413295.604,2.441,-51.758,-70.312,-7.324,0.000
1727413295.608,-28.320,-49.316,-64.941,0.977,0.000
1727413295.612,-35.156,-48.340,-63.965,-6.836,0.000
1727413295.616,-12.207,-52.734,-62.500,-22.461,0.000
1727413295.620,15.137,-48.828,-59.570,-26.367,0.000
1727413295.623,-0.488,-39.062,-62.500,-22.949,0.000
1727413295.627,-37.109,-34.180,-63.965,-17.090,0.000
1727413295.631,-55.176,-47.852,-61.523,-21.973,0.000
1727413295.635,-18.555,-57.129,-62.012,-23.926,0.000
1727413295.639,22.949,-52.734,-54.688,-14.648,0.000
1727413295.643,11.719,-53.711,-50.293,1.953,0.000
1727413295.647,-28.320,-61.035,-48.828,-1.465,0.000
1727413295.651,-49.805,-49.805,-51.270,-29.785,0.000
1727413295.655,-32.227,-43.457,-54.199,-35.156,0.000
1727413295.659,7.324,-49.316,-47.852,-8.789,0.000
1727413295.662,9.766,-46.387,-47.363,-13.672,0.000
1727413295.666,-29.785,-52.246,-42.480,-18.555,0.000
1727413295.670,-53.711,-55.664,-40.039,-21.484,0.000
1727413295.674,-40.527,-55.176,-46.387,-29.785,0.000
1727413295.678,-5.371,-58.105,-51.758,-27.344,0.000
1727413295.682,-7.812,-54.688,-54.199,-29.297,0.000
1727413295.686,-43.457,-56.641,-61.523,-34.668,0.000
1727413295.690,-63.477,-54.688,-58.594,-27.344,0.000
1727413295.694,-61.523,-48.340,-46.387,-34.668,0.000
1727413295.698,-24.902,-68.359,-39.551,-33.203,0.000
1727413295.702,-2.930,-74.707,-43.945,-14.648,0.000
1727413295.705,-35.645,-68.359,-47.852,-24.902,0.000
1727413295.709,-63.477,-73.730,-46.875,-38.574,0.000
1727413295.713,-57.617,-73.730,-42.480,-54.688,0.000
1727413295.717,-20.020,-74.707,-39.551,-45.898,0.000
1727413295.721,-0.977,-66.895,-37.109,-23.438,0.000
1727413295.725,-27.832,-65.918,-38.574,-11.719,0.000
1727413295.729,-44.922,-64.941,-46.875,-13.672,0.000
1727413295.733,-35.156,-57.617,-54.688,-33.203,0.000
1727413295.737,-17.090,-50.293,-54.688,-30.762,0.000
1727413295.741,-2.930,-56.641,-46.387,-29.297,0.000
1727413295.744,-6.836,-62.988,-47.852,-28.320,0.000
1727413295.748,-40.039,-52.246,-47.852,-20.020,0.000
1727413295.752,-51.758,-42.480,-37.109,-26.367,0.000
1727413295.756,-18.066,-44.922,-40.527,-26.367,0.000
1727413295.760,-0.977,-40.039,-44.922,-14.648,0.000
1727413295.764,-9.277,-36.621,-41.992,-10.742,0.000
1727413295.768,-34.668,-41.016,-39.551,3.906,0.000
1727413295.772,-47.852,-39.062,-33.691,0.977,0.000
1727413295.776,-8.789,-34.180,-31.250,-8.789,0.000
1727413295.780,23.926,-23.926,-35.156,6.836,0.000
1727413295.784,-1.953,-19.531,-44.922,-4.883,0.000
1727413295.787,-39.062,-24.902,-51.758,-23.438,0.000
1727413295.791,-52.246,-24.902,-50.781,-33.691,0.000
1727413295.795,-16.113,-28.320,-45.410,-35.645,0.000
1727413295.799,25.391,-28.320,-50.293,-20.996,0.000
1727413295.803,3.906,-21.973,-59.082,-23.926,0.000
1727413295.807,-32.715,-20.508,-58.105,-28.809,0.000
1727413295.811,-34.180,-15.625,-43.457,-18.555,0.000
1727413295.815,-12.695,-14.648,-41.992,-19.043,0.000
1727413295.819,19.531,-20.508,-50.781,-19.043,0.000
1727413295.823,4.883,-15.625,-54.688,-20.020,0.000
1727413295.826,-49.805,-19.043,-55.664,-31.250,0.000
1727413295.830,-66.406,-14.160,-52.734,-45.410,0.000
1727413295.834,-37.598,-30.273,-45.410,-32.715,0.000
1727413295.838,-5.371,-47.852,-52.246,-24.902,0.000
1727413295.842,-14.160,-40.039,-56.152,-37.598,0.000
1727413295.846,-49.316,-37.598,-55.664,-30.273,0.000
1727413295.850,-71.289,-42.480,-49.316,-23.926,0.000
1727413295.854,-54.199,-44.434,-44.922,-35.645,0.000
1727413295.858,-18.555,-40.039,-56.641,-38.086,0.000
1727413295.861,-13.184,-45.410,-61.035,-27.832,0.000
1727413295.865,-48.340,-48.340,-59.570,-36.133,0.000
1727413295.869,-73.242,-45.898,-63.477,-39.551,0.000
1727413295.873,-55.664,-43.457,-56.152,-40.039,0.000
1727413295.877,-10.254,-34.180,-46.875,-41.504,0.000
1727413295.881,-0.488,-36.621,-49.316,-23.438,0.000
1727413295.885,-33.691,-34.180,-53.223,-15.137,0.000
1727413295.889,-50.293,-29.785,-53.711,-21.973,0.000
1727413295.893,-47.852,-36.621,-55.664,-37.109,0.000
1727413295.897,-11.230,-32.715,-61.035,-16.113,0.000
1727413295.901,6.836,-20.996,-62.500,0.488,0.000
1727413295.905,-34.180,-32.715,-59.570,-21.484,0.000
1727413295.908,-46.875,-33.691,-55.176,-28.320,0.000
1727413295.912,-35.156,-25.391,-44.434,-26.367,0.000
1727413295.916,-14.648,-32.715,-42.480,-22.461,0.000
1727413295.920,18.555,-32.715,-44.434,-5.371,0.000
1727413295.924,-0.488,-23.438,-42.969,-9.766,0.000
1727413295.928,-28.320,-20.508,-45.898,-1.465,0.000
1727413295.932,-31.738,-25.879,-41.992,-2.441,0.000
1727413295.936,-12.695,-31.250,-46.387,-27.344,0.000
1727413295.940,-0.488,-24.902,-50.293,-19.043,0.000
1727413295.944,-14.160,-25.391,-52.734,-12.695,0.000
1727413295.948,-30.762,-29.297,-46.387,-23.926,0.000
1727413295.951,-45.898,-27.344,-41.992,-27.344,0.000
1727413295.955,-24.414,-23.438,-38.574,-23.926,0.000
1727413295.959,21.973,-20.020,-40.527,-9.277,0.000
1727413295.963,4.395,-19.531,-50.293,-8.301,0.000
1727413295.967,-33.203,-21.484,-49.316,-13.672,0.000
1727413295.971,-37.598,-37.109,-39.062,-22.461,0.000
1727413295.975,-14.160,-49.316,-39.551,-21.484,0.000
1727413295.979,8.301,-49.316,-42.969,-8.301,0.000
1727413295.983,-10.254,-36.621,-51.758,-19.043,0.000
1727413295.987,-32.715,-39.062,-53.223,-18.066,0.000
1727413295.990,-49.805,-49.805,-44.922,-22.949,0.000
1727413295.994,-24.902,-48.828,-47.852,-30.762,0.000
1727413295.998,12.695,-46.875,-51.270,-23.926,0.000
1727413296.002,1.465,-49.316,-44.922,-12.695,0.000
1727413296.006,-29.297,-39.551,-52.246,-9.277,0.000
1727413296.010,-49.316,-31.738,-52.734,-12.207,0.000
1727413296.014,-28.809,-36.621,-51.758,-20.996,0.000
1727413296.018,8.789,-40.039,-55.176,-22.461,0.000
1727413296.022,-3.906,-51.270,-61.035,-20.508,0.000
1727413296.026,-50.293,-63.477,-62.988,-20.508,0.000
1727413296.030,-63.477,-60.059,-55.664,-15.625,0.000
1727413296.033,-55.664,-49.316,-62.988,-39.551,0.000
1727413296.037,-14.160,-48.340,-65.430,-42.969,0.000
1727413296.041,10.254,-51.758,-54.688,-23.438,0.000
1727413296.045,-22.949,-44.434,-53.223,-19.043,0.000
1727413296.049,-57.129,-47.852,-61.523,-23.926,0.000
1727413296.053,-43.945,-54.688,-58.594,-32.227,0.000
1727413296.057,1.465,-53.711,-43.457,-26.855,0.000
1727413296.061,20.996,-49.805,-45.898,-25.391,0.000
1727413296.065,-16.602,-52.246,-52.246,-18.066,0.000
1727413296.069,-61.035,-52.734,-46.387,-15.137,0.000
1727413296.073,-55.176,-52.734,-42.969,-19.043,0.000
1727413296.077,-14.160,-53.711,-42.480,-20.508,0.000
1727413296.080,15.137,-50.293,-40.527,-9.766,0.000
1727413296.084,-8.301,-44.922,-40.039,-1.953,0.000
1727413296.088,-39.551,-41.504,-38.086,-16.602,0.000
1727413296.092,-29.785,-41.016,-35.156,-26.367,0.000
1727413296.096,-3.418,-44.434,-38.086,-23.438,0.000
1727413296.100,11.230,-53.711,-42.969,-23.438,0.000
1727413296.104,-4.395,-64.941,-37.598,-29.785,0.000
1727413296.108,-45.898,-61.523,-36.621,-26.855,0.000
1727413296.112,-59.570,-59.570,-43.457,-29.297,0.000
1727413296.116,-24.902,-60.547,-46.387,-39.062,0.000
1727413296.120,-0.977,-63.477,-53.223,-34.668,0.000
1727413296.123,-25.391,-74.219,-53.711,-23.926,0.000
1727413296.127,-58.594,-71.289,-51.270,-22.949,0.000
1727413296.131,-57.617,-61.523,-49.316,-41.504,0.000
1727413296.135,-30.762,-58.105,-47.363,-41.992,0.000
1727413296.139,-10.254,-63.965,-52.734,-33.203,0.000
1727413296.143,-21.973,-72.754,-52.246,-31.738,0.000
1727413296.147,-48.340,-68.359,-52.246,-31.738,0.000
1727413296.151,-54.688,-70.801,-56.152,-36.133,0.000
1727413296.155,-36.133,-71.777,-53.711,-35.645,0.000
1727413296.159,-18.555,-74.219,-58.594,-37.109,0.000
1727413296.162,-23.926,-76.172,-60.059,-47.363,0.000
1727413296.166,-53.711,-74.219,-59.570,-45.898,0.000
1727413296.170,-76.172,-74.219,-60.059,-46.387,0.000
1727413296.174,-47.363,-77.637,-62.500,-38.574,0.000
1727413296.178,0.977,-69.824,-61.523,-22.949,0.000
1727413296.182,8.301,-64.453,-55.664,-19.531,0.000
1727413296.186,-19.043,-65.918,-56.152,-17.090,0.000
1727413296.190,-47.363,-64.453,-60.059,-23.438,0.000
1727413296.194,-30.762,-60.059,-57.617,-38.086,0.000
1727413296.198,19.531,-55.176,-47.852,-19.531,0.000
1727413296.201,13.184,-52.734,-49.316,-1.465,0.000
1727413296.205,-33.691,-49.805,-56.152,-13.184,0.000
1727413296.209,-52.246,-43.457,-46.875,-14.160,0.000
1727413296.213,-33.691,-52.734,-41.504,-12.207,0.000
1727413296.217,5.371,-55.664,-42.480,-12.207,0.000
1727413296.221,15.625,-38.574,-39.062,-1.953,0.000
1727413296.225,-4.883,-34.668,-41.504,0.000,0.000
1727413296.229,-39.551,-49.316,-49.316,-4.883,0.000
1727413296.233,-41.504,-49.805,-44.922,-12.695,0.000
1727413296.237,-2.930,-55.176,-46.387,-2.930,0.000
1727413296.241,12.695,-55.176,-56.152,-2.441,0.000
1727413296.244,-14.160,-49.316,-56.152,-9.766,0.000
1727413296.248,-45.410,-54.688,-52.734,-16.113,0.000
1727413296.252,-45.898,-52.246,-46.387,-31.250,0.000
1727413296.256,-3.906,-52.734,-40.039,-31.738,0.000
1727413296.260,20.020,-62.988,-35.156,-22.949,0.000
1727413296.264,-7.812,-66.895,-34.180,-8.789,0.000
1727413296.268,-37.598,-62.988,-45.898,-3.906,0.000
1727413296.272,-34.180,-66.895,-48.340,-21.484,0.000
1727413296.276,-2.441,-69.336,-49.316,-16.602,0.000
1727413296.280,4.395,-64.453,-60.059,-4.883,0.000
1727413296.284,-29.297,-67.383,-62.500,-15.137,0.000
1727413296.287,-60.547,-72.266,-60.059,-19.531,0.000
1727413296.291,-60.059,-73.242,-54.688,-31.738,0.000
1727413296.295,-29.297,-80.078,-48.828,-43.457,0.000
1727413296.299,-14.160,-78.125,-54.688,-45.410,0.000
1727413296.303,-35.645,-82.520,-60.547,-38.574,0.000
1727413296.307,-57.617,-83.008,-59.570,-32.227,0.000
1727413296.311,-68.359,-76.172,-58.594,-44.922,0.000
1727413296.315,-37.598,-72.754,-56.641,-39.062,0.000
1727413296.319,-11.230,-66.895,-55.664,-38.086,0.000
1727413296.323,-31.250,-73.730,-56.152,-37.598,0.000
1727413296.327,-58.594,-74.707,-64.453,-21.973,0.000
1727413296.330,-64.453,-72.266,-63.477,-38.086,0.000
1727413296.334,-43.945,-77.637,-62.988,-61.035,0.000
1727413296.338,-20.508,-79.102,-69.824,-51.758,0.000
1727413296.342,-19.531,-65.918,-65.918,-36.133,0.000
1727413296.346,-38.574,-53.223,-60.547,-21.973,0.000
1727413296.350,-51.270,-47.852,-54.199,-21.484,0.000
1727413296.354,-15.137,-34.668,-55.176,-31.250,0.000
1727413296.358,8.301,-32.715,-62.988,-30.273,0.000
1727413296.362,-18.066,-39.551,-63.965,-31.250,0.000
1727413296.366,-49.316,-39.062,-61.523,-32.715,0.000
1727413296.370,-64.941,-39.551,-62.012,-38.574,0.000
1727413296.373,-38.574,-48.828,-61.523,-36.621,0.000
1727413296.377,2.930,-46.387,-55.664,-27.832,0.000
1727413296.381,-3.906,-34.668,-60.059,-23.926,0.000
1727413296.385,-41.992,-28.320,-58.105,-20.996,0.000
1727413296.389,-62.500,-27.832,-50.293,-32.227,0.000
1727413296.393,-51.270,-33.691,-41.992,-33.203,0.000
1727413296.397,-3.906,-35.156,-38.574,-15.625,0.000
1727413296.401,5.859,-20.508,-49.805,-32.227,0.000
1727413296.405,-27.344,-13.184,-53.711,-33.691,0.000
1727413296.409,-50.781,-24.902,-44.434,-22.461,0.000
1727413296.413,-51.758,-36.621,-43.945,-47.363,0.000
1727413296.416,-13.672,-34.180,-51.270,-57.617,0.000
1727413296.420,2.930,-37.109,-50.781,-43.457,0.000
1727413296.424,-32.715,-35.645,-54.688,-40.527,0.000
1727413296.428,-58.594,-42.969,-54.688,-41.016,0.000
1727413296.432,-50.293,-54.688,-51.758,-35.156,0.000
1727413296.436,-21.484,-50.293,-51.758,-41.504,0.000
1727413296.440,-10.254,-55.176,-47.852,-45.410,0.000
1727413296.444,-48.828,-54.688,-43.945,-42.969,0.000
1727413296.448,-83.984,-45.410,-40.527,-40.527,0.000
1727413296.452,-76.660,-42.480,-38.574,-39.062,0.000
1727413296.455,-42.969,-49.805,-40.527,-27.832,0.000
1727413296.459,-32.715,-62.500,-49.805,-17.578,0.000
1727413296.463,-57.129,-69.824,-50.293,-28.809,0.000
1727413296.467,-78.125,-73.242,-50.293,-29.785,0.000
1727413296.471,-64.941,-52.246,-44.922,-18.066,0.000
1727413296.475,-31.250,-37.598,-41.016,-21.973,0.000
1727413296.479,-7.324,-45.898,-48.828,-22.949,0.000
1727413296.483,-16.113,-45.410,-52.246,-15.137,0.000
1727413296.487,-41.504,-40.527,-47.363,-14.160,0.000
1727413296.491,-39.062,-38.574,-42.480,-19.531,0.000
1727413296.495,1.953,-37.109,-49.316,-16.602,0.000
1727413296.498,25.391,-46.875,-45.898,-8.301,0.000
1727413296.502,2.441,-41.992,-41.016,-8.301,0.000
1727413296.506,-30.762,-38.574,-42.969,-5.859,0.000
1727413296.510,-33.691,-40.039,-39.062,-13.184,0.000
1727413296.514,8.301,-30.762,-30.273,-25.391,0.000
1727413296.518,31.738,-32.715,-29.785,-20.508,0.000
1727413296.522,7.324,-33.691,-38.086,-10.742,0.000
1727413296.526,-40.039,-34.180,-39.062,-8.789,0.000
1727413296.530,-58.105,-41.992,-33.203,-22.949,0.000
1727413296.534,-20.996,-32.227,-40.527,-31.250,0.000
1727413296.537,15.625,-23.926,-45.410,-14.648,0.000
1727413296.541,-2.930,-34.180,-42.480,-1.465,0.000
1727413296.545,-49.805,-40.527,-48.828,-8.789,0.000
1727413296.549,-60.547,-39.062,-54.199,-28.320,0.000
1727413296.553,-39.551,-34.668,-52.734,-41.992,0.000
1727413296.557,3.418,-41.992,-49.316,-36.133,0.000
1727413296.561,2.441,-45.410,-46.387,-24.902,0.000
1727413296.565,-41.016,-52.246,-48.828,-21.973,0.000
1727413296.569,-58.594,-55.664,-49.316,-36.621,0.000
1727413296.573,-28.809,-59.082,-43.457,-39.551,0.000
1727413296.576,4.395,-66.406,-49.316,-21.484,0.000
1727413296.580,-13.672,-59.082,-58.105,-29.297,0.000
1727413296.584,-48.340,-62.012,-61.523,-27.832,0.000
1727413296.588,-65.430,-63.477,-51.270,-31.250,0.000
1727413296.592,-59.570,-49.316,-46.387,-63.477,0.000
1727413296.596,-20.508,-54.199,-54.688,-49.805,0.000
1727413296.600,-6.348,-53.223,-55.664,-30.762,0.000
1727413296.604,-30.273,-47.363,-57.617,-26.367,0.000
1727413296.608,-45.898,-44.922,-49.316,-28.320,0.000
1727413296.612,-35.156,-49.805,-48.340,-38.086,0.000
1727413296.615,4.395,-50.781,-57.129,-37.598,0.000
1727413296.619,7.324,-46.875,-56.641,-26.367,0.000
1727413296.623,-23.438,-47.363,-55.664,-26.855,0.000
1727413296.627,-51.758,-39.062,-63.965,-36.133,0.000
1727413296.631,-56.152,-50.293,-65.918,-28.320,0.000
1727413296.635,-10.254,-59.570,-57.617,-13.184,0.000
1727413296.639,1.953,-41.016,-53.711,-26.367,0.000
1727413296.643,-34.180,-39.551,-47.852,-29.785,0.000
1727413296.647,-48.340,-34.180,-46.387,-22.949,0.000
1727413296.651,-43.457,-23.926,-46.875,-20.508,0.000
1727413296.655,-8.789,-38.574,-44.922,-17.090,0.000
1727413296.658,13.184,-44.434,-49.805,-19.043,0.000
1727413296.662,-17.578,-31.250,-52.734,-15.137,0.000
1727413296.666,-56.152,-31.250,-54.199,-20.020,0.000
1727413296.670,-56.152,-31.250,-58.105,-34.180,0.000
1727413296.674,-28.809,-36.621,-59.082,-36.621,0.000
1727413296.678,-3.418,-41.504,-59.082,-21.484,0.000
1727413296.682,-25.391,-48.828,-61.523,-11.719,0.000
1727413296.686,-59.570,-59.082,-66.406,-27.344,0.000
1727413296.690,-59.570,-57.129,-66.406,-43.945,0.000
1727413296.694,-20.508,-60.059,-65.430,-32.227,0.000
1727413296.698,6.348,-54.688,-71.777,-23.926,0.000
1727413296.701,-24.414,-43.945,-69.336,-27.344,0.000
1727413296.705,-57.617,-38.574,-65.430,-32.227,0.000
1727413296.709,-59.082,-40.039,-64.453,-46.387,0.000
1727413296.713,-39.551,-48.340,-67.383,-55.664,0.000
1727413296.717,-21.484,-54.688,-66.895,-36.133,0.000
1727413296.721,-27.344,-55.176,-71.777,-24.902,0.000
1727413296.725,-58.594,-52.246,-79.102,-30.273,0.000
1727413296.729,-80.566,-39.062,-73.730,-42.969,0.000
1727413296.733,-54.199,-28.809,-68.848,-51.270,0.000
1727413296.737,-17.090,-41.016,-66.406,-29.785,0.000
1727413296.741,0.000,-41.016,-65.918,-26.855,0.000
1727413296.744,0.000,-30.762,-65.918,-27.832,0.000
1727413296.748,0.000,-33.203,-58.105,-20.508,0.000
1727413296.752,0.000,-37.109,-51.270,-32.227,0.000
1727413296.756,0.000,-36.621,-51.758,-36.133,0.000
1727413296.760,0.000,-36.133,-54.688,-31.738,0.000
1727413296.764,0.000,-41.504,-56.152,-21.484,0.000
1727413296.768,0.000,-43.457,-50.781,-20.020,0.000
1727413296.772,0.000,-42.969,-49.805,-31.250,0.000
1727413296.776,0.000,-39.062,-54.199,-33.691,0.000
1727413296.780,0.000,-36.133,-51.758,-21.484,0.000
1727413296.784,0.000,-27.344,-51.758,-17.578,0.000
1727413296.787,-40.039,-23.926,-46.875,-22.461,0.000
1727413296.791,-32.227,-23.926,-46.875,-31.738,0.000
1727413296.795,0.000,-24.414,-52.246,-28.320,0.000
1727413296.799,10.742,-39.062,-47.363,-17.090,0.000
1727413296.803,-20.020,-32.715,-53.711,-11.230,0.000
1727413296.807,-50.293,-31.250,-63.477,-13.184,0.000
1727413296.811,-49.316,-37.109,-60.547,-30.273,0.000
1727413296.815,-14.648,-37.598,-56.152,-37.109,0.000
1727413296.819,-1.465,-43.457,-57.617,-22.461,0.000
1727413296.823,-31.250,-38.574,-61.035,-18.555,0.000
1727413296.827,-64.453,-34.180,-59.082,-23.438,0.000
1727413296.830,-50.293,-42.480,-62.988,-26.855,0.000
1727413296.834,-3.418,-46.387,-61.523,-27.832,0.000
1727413296.838,-3.906,-39.062,-55.176,-21.484,0.000
1727413296.842,-37.598,-31.738,-61.035,-13.184,0.000
1727413296.846,-58.594,-38.086,-62.012,-29.297,0.000
1727413296.850,-50.781,-49.805,-55.176,-32.227,0.000
1727413296.854,-19.531,-44.922,-54.199,-23.926,0.000
1727413296.858,5.859,-46.387,-56.152,-27.832,0.000
1727413296.862,-19.043,-46.387,-57.617,-22.949,0.000
1727413296.866,-58.594,-45.410,-55.176,-34.180,0.000
1727413296.869,-54.199,-44.922,-46.387,-42.969,0.000
1727413296.873,-32.715,-33.691,-47.852,-46.875,0.000
1727413296.877,0.000,-47.852,-51.758,-39.062,0.000
1727413296.881,-8.789,-55.664,-53.711,-30.762,0.000
1727413296.885,-52.246,-47.852,-56.152,-32.227,0.000
1727413296.889,-43.945,-53.223,-48.828,-36.621,0.000
1727413296.893,-5.859,-50.293,-41.016,-34.180,0.000
1727413296.897,19.531,-43.457,-46.875,-23.438,0.000
1727413296.901,0.000,-49.805,-51.758,-17.090,0.000
1727413296.905,-43.945,-51.758,-59.082,-18.555,0.000
1727413296.908,-56.152,-41.992,-59.082,-24.414,0.000
1727413296.912,-27.832,-43.945,-50.293,-30.273,0.000
1727413296.916,-7.812,-40.039,-52.246,-27.344,0.000
1727413296.920,-18.066,-31.738,-52.734,-23.438,0.000
1727413296.924,-31.738,-35.645,-51.270,-27.832,0.000
1727413296.928,-41.016,-38.574,-54.688,-33.691,0.000
1727413296.932,-25.391,-43.945,-60.059,-36.133,0.000
1727413296.936,1.465,-48.340,-57.617,-31.250,0.000
1727413296.940,-5.859,-46.387,-51.270,-26.367,0.000
1727413296.944,-31.250,-40.039,-53.223,-10.742,0.000
1727413296.948,-41.992,-34.180,-50.293,-9.277,0.000
1727413296.951,-27.344,-41.016,-51.758,-18.555,0.000
1727413296.955,8.301,-46.875,-61.035,-20.020,0.000
1727413296.959,6.836,-41.016,-62.500,-22.461,0.000
1727413296.963,-34.180,-36.621,-61.035,-22.949,0.000
1727413296.967,-57.617,-33.691,-67.871,-29.297,0.000
1727413296.971,-41.992,-41.504,-68.359,-35.645,0.000
1727413296.975,0.000,-51.270,-69.824,-33.691,0.000
1727413296.979,0.000,-49.316,-71.289,-21.484,0.000
1727413296.983,0.000,-43.457,-65.430,-16.602,0.000
1727413296.987,0.000,-43.945,-63.477,-23.926,0.000
1727413296.990,0.000,-49.316,-58.594,-38.574,0.000
1727413296.994,0.000,-38.574,-55.664,-44.922,0.000
1727413296.998,0.000,-29.297,-60.547,-43.945,0.000
1727413297.002,0.000,-41.992,-58.594,-35.645,0.000
1727413297.006,0.000,-45.898,-52.246,-45.410,0.000
1727413297.010,0.000,-45.410,-51.270,-48.340,0.000
1727413297.014,0.000,-42.480,-51.758,-39.062,0.000
1727413297.018,0.000,-38.086,-47.363,-36.621,0.000
1727413297.022,-30.273,-35.645,-43.945,-21.484,0.000
1727413297.026,-57.617,-35.645,-47.852,-5.859,0.000
1727413297.030,-57.129,-37.109,-50.781,-31.250,0.000
1727413297.033,-21.484,-39.551,-55.176,-47.363,0.000
1727413297.037,2.441,-42.480,-59.570,-33.691,0.000
1727413297.041,-30.273,-39.062,-59.082,-20.020,0.000
1727413297.045,-45.410,-32.715,-61.035,-13.184,0.000
1727413297.049,-28.320,-32.715,-55.176,-6.836,0.000
1727413297.053,0.488,-34.180,-47.852,-10.742,0.000
1727413297.057,9.277,-35.645,-48.340,-11.719,0.000
1727413297.061,-23.438,-39.551,-49.805,-16.113,0.000
1727413297.065,-57.129,-40.039,-48.828,-26.855,0.000
1727413297.069,-47.363,-38.574,-41.504,-21.484,0.000
1727413297.073,-10.742,-32.227,-37.109,-18.066,0.000
1727413297.076,18.066,-26.367,-40.527,-18.555,0.000
1727413297.080,-8.789,-19.043,-43.457,-12.207,0.000
1727413297.084,-50.781,-32.715,-47.363,-20.020,0.000
1727413297.088,-56.152,-39.062,-45.898,-30.762,0.000
1727413297.092,-36.133,-36.621,-42.969,-22.461,0.000
1727413297.096,-20.020,-38.086,-55.176,-20.508,0.000
1727413297.100,-25.391,-34.180,-57.617,-24.414,0.000
1727413297.104,-49.316,-28.320,-52.734,-33.203,0.000
1727413297.108,-70.801,-39.551,-51.758,-34.180,0.000
1727413297.112,-31.250,-35.156,-46.387,-26.367,0.000
1727413297.116,13.672,-30.273,-43.457,-31.250,0.000
1727413297.119,-1.953,-42.969,-45.410,-29.297,0.000
1727413297.123,-46.875,-40.527,-55.176,-28.320,0.000
1727413297.127,-71.289,-34.180,-63.477,-39.551,0.000
1727413297.131,-47.363,-32.715,-58.594,-45.898,0.000
1727413297.135,-8.789,-39.062,-50.293,-29.297,0.000
1727413297.139,-4.883,-40.527,-52.734,-29.297,0.000
1727413297.143,-37.598,-49.805,-50.781,-41.992,0.000
1727413297.147,-66.895,-45.898,-48.340,-35.645,0.000
1727413297.151,-62.988,-38.574,-45.898,-42.969,0.000
1727413297.155,-17.578,-45.410,-41.016,-30.273,0.000
1727413297.158,-13.184,-45.410,-39.551,-14.648,0.000
1727413297.163,-53.223,-49.805,-35.645,-30.762,0.000
1727413297.166,-71.777,-48.828,-33.691,-33.691,0.000
1727413297.170,-60.547,-45.898,-33.203,-32.715,0.000
1727413297.174,-22.949,-52.734,-41.016,-30.762,0.000
1727413297.178,-8.789,-51.758,-47.363,-28.320,0.000
1727413297.182,-48.828,-42.969,-48.340,-28.809,0.000
1727413297.186,-75.195,-40.527,-49.316,-27.344,0.000
1727413297.190,-56.641,-40.527,-44.922,-26.367,0.000
1727413297.194,-22.949,-46.875,-40.527,-18.066,0.000
1727413297.198,-4.883,-53.711,-34.180,-9.277,0.000
1727413297.202,-24.902,-42.969,-34.180,-10.742,0.000
1727413297.205,-41.992,-38.574,-37.598,-13.184,0.000
1727413297.209,-36.621,-43.457,-33.691,-21.973,0.000
1727413297.213,-4.395,-32.715,-31.738,-20.508,0.000
1727413297.217,14.648,-29.297,-39.062,-14.160,0.000
1727413297.221,-15.137,-31.738,-38.086,-10.254,0.000
1727413297.225,-35.156,-26.855,-31.250,-6.348,0.000
1727413297.229,-31.250,-33.203,-34.180,-19.531,0.000
1727413297.233,-2.441,-42.969,-37.598,-19.043,0.000
1727413297.237,7.812,-33.691,-41.504,-13.184,0.000
1727413297.241,-17.090,-28.320,-49.316,-7.812,0.000
1727413297.245,-37.598,-43.945,-49.316,-8.301,0.000
1727413297.248,-52.246,-42.969,-45.898,-14.160,0.000
1727413297.252,-29.297,-38.574,-45.898,-17.090,0.000
1727413297.256,-2.930,-55.664,-47.363,-22.461,0.000
1727413297.260,-20.508,-62.500,-53.223,-22.461,0.000
1727413297.264,-52.734,-47.852,-55.176,-37.109,0.000
1727413297.268,-64.941,-40.527,-53.711,-59.570,0.000
1727413297.272,-36.133,-48.340,-55.176,-62.012,0.000
1727413297.276,-7.324,-47.852,-57.129,-41.992,0.000
1727413297.280,-19.043,-47.363,-59.082,-37.598,0.000
1727413297.284,-53.223,-47.363,-54.688,-31.738,0.000
1727413297.287,-68.848,-44.922,-56.641,-45.410,0.000
1727413297.291,-43.945,-48.828,-57.617,-58.594,0.000
1727413297.295,-18.066,-51.758,-51.758,-43.945,0.000
1727413297.299,-35.645,-51.758,-56.152,-44.434,0.000
1727413297.303,-65.918,-50.293,-54.688,-45.898,0.000
1727413297.307,-77.148,-49.316,-45.410,-41.504,0.000
1727413297.311,-62.500,-51.270,-38.086,-46.387,0.000
1727413297.315,-18.066,-50.781,-36.621,-41.504,0.000
1727413297.319,-22.949,-45.410,-48.340,-42.480,0.000
1727413297.323,-53.223,-55.664,-51.758,-41.016,0.000
1727413297.326,-61.523,-63.477,-41.504,-33.691,0.000
1727413297.330,-48.340,-54.199,-36.133,-41.504,0.000
1727413297.334,-1.953,-45.410,-38.574,-33.203,0.000
1727413297.338,1.953,-41.016,-37.109,-31.250,0.000
1727413297.342,-38.086,-35.156,-42.480,-29.297,0.000
1727413297.346,-59.082,-38.086,-53.223,-25.879,0.000
1727413297.350,0.000,-46.875,-49.805,-26.855,0.000
1727413297.354,0.000,-43.945,-34.180,-11.719,0.000
1727413297.358,0.000,-39.062,-36.133,0.977,0.000
1727413297.362,0.000,-43.457,-35.645,7.324,0.000
1727413297.365,0.000,-36.133,-29.297,-9.766,0.000
1727413297.369,0.000,-21.973,-29.785,-25.879,0.000
1727413297.373,0.000,-25.391,-29.297,-15.137,0.000
1727413297.377,0.000,-28.320,-30.273,-14.648,0.000
1727413297.381,0.000,-34.180,-36.621,-14.648,0.000
1727413297.385,0.000,-45.410,-41.016,-9.766,0.000
1727413297.389,0.000,-57.617,-41.992,-15.137,0.000
1727413297.393,0.000,-57.617,-41.992,-22.461,0.000
1727413297.397,10.742,-51.758,-44.434,-20.996,0.000
1727413297.401,-30.762,-41.992,-46.387,-20.020,0.000
1727413297.405,-59.082,-41.504,-48.340,-26.367,0.000
1727413297.408,-55.176,-46.875,-48.828,-30.273,0.000
1727413297.412,-28.809,-47.363,-45.898,-37.109,0.000
1727413297.416,-18.555,-43.945,-48.340,-38.574,0.000
1727413297.420,-40.039,-48.828,-53.711,-33.203,0.000
1727413297.424,-64.453,-62.988,-52.734,-32.227,0.000
1727413297.428,-68.848,-62.988,-51.270,-41.016,0.000
1727413297.432,-38.574,-53.223,-45.898,-48.340,0.000
1727413297.436,-18.066,-50.781,-46.875,-50.781,0.000
1727413297.440,-25.391,-51.758,-58.105,-51.758,0.000
1727413297.444,-51.270,-51.758,-59.082,-48.828,0.000
1727413297.448,-77.148,-46.875,-56.152,-64.941,0.000
1727413297.452,-53.223,-46.387,-57.129,-61.035,0.000
1727413297.455,-15.137,-49.316,-56.641,-39.551,0.000
1727413297.459,-30.273,-46.875,-55.176,-31.738,0.000
1727413297.463,-71.777,-38.086,-55.176,-33.203,0.000
1727413297.467,-85.449,-40.039,-49.316,-55.664,0.000
1727413297.471,-52.734,-55.664,-45.410,-55.176,0.000
1727413297.475,-10.742,-25.391,-50.293,-31.250,0.000
1727413297.479,-19.531,-18.555,-44.434,-25.879,0.000
1727413297.483,-49.316,-44.434,-41.992,-24.902,0.000
1727413297.487,-63.477,-38.086,-35.645,-26.367,0.000
1727413297.491,-36.621,-32.715,-29.785,-20.996,0.000
1727413297.494,15.137,-25.391,-36.133,-12.207,0.000
1727413297.498,6.348,-17.090,-40.039,-16.602,0.000
1727413297.502,-40.039,-28.320,-42.969,-14.648,0.000
1727413297.506,-50.781,-32.715,-41.504,-14.160,0.000
1727413297.510,-25.879,-22.461,-41.504,-28.320,0.000
1727413297.514,4.883,-17.090,-41.504,-26.367,0.000
1727413297.518,-6.348,-7.324,-46.875,-18.066,0.000
1727413297.522,-35.156,-21.484,-59.570,-15.137,0.000
1727413297.526,-48.340,-30.273,-58.594,-24.902,0.000
1727413297.530,-34.180,-16.602,-58.105,-33.691,0.000
1727413297.534,-0.488,-18.555,-66.406,-34.180,0.000
1727413297.537,0.000,-26.367,-77.637,-40.039,0.000
1727413297.541,0.000,-28.320,-71.777,-35.156,0.000
1727413297.545,0.000,-10.742,-65.918,-33.203,0.000
1727413297.549,0.000,-6.348,-62.988,-41.504,0.000
1727413297.553,0.000,-15.625,-57.617,-41.016,0.000
1727413297.557,0.000,-32.715,-58.594,-36.133,0.000
1727413297.561,0.000,-38.086,-68.359,-35.645,0.000
1727413297.565,0.000,-42.969,-67.871,-31.738,0.000
1727413297.569,0.000,-47.363,-63.477,-41.992,0.000
1727413297.573,0.000,-43.457,-65.918,-45.410,0.000
1727413297.577,0.000,-39.551,-65.430,-31.250,0.000
1727413297.580,0.000,-27.832,-63.477,-27.344,0.000
1727413297.584,-61.035,-25.879,-60.059,-33.203,0.000
1727413297.588,-57.617,-34.180,-55.176,-50.293,0.000
1727413297.592,-14.160,-28.809,-55.664,-39.551,0.000
1727413297.596,3.906,-42.969,-46.875,-7.812,0.000
1727413297.600,-32.227,-44.922,-47.852,-29.297,0.000
1727413297.604,-66.406,-38.086,-55.664,-46.875,0.000
1727413297.608,-59.570,-41.504,-47.852,-35.645,0.000
1727413297.612,-17.578,-24.414,-44.922,-24.902,0.000
1727413297.616,8.301,-25.879,-53.223,-24.902,0.000
1727413297.619,-13.672,-35.645,-50.781,-15.625,0.000
1727413297.623,-58.105,-35.156,-56.641,-20.020,0.000
1727413297.627,-70.312,-33.203,-66.895,-37.598,0.000
1727413297.631,0.000,-38.574,-62.988,-31.738,0.000
1727413297.635,0.000,-45.898,-57.617,-26.855,0.000
1727413297.639,0.000,-39.062,-55.664,-29.785,0.000
1727413297.643,0.000,-27.344,-52.246,-26.855,0.000
1727413297.647,0.000,-22.949,-45.410,-28.320,0.000
1727413297.651,0.000,-32.227,-43.945,-21.484,0.000
1727413297.655,0.000,-29.785,-46.387,-14.648,0.000
1727413297.659,0.000,-29.785,-49.805,-19.043,0.000
1727413297.662,0.000,-34.668,-47.363,-23.926,0.000
1727413297.666,0.000,-32.227,-47.363,-34.180,0.000
1727413297.670,0.000,-36.621,-45.898,-38.086,0.000
1727413297.674,0.000,-31.738,-36.133,-24.902,0.000
1727413297.678,-16.113,-21.973,-46.875,-24.414,0.000
1727413297.682,-56.152,-34.180,-57.129,-30.273,0.000
1727413297.686,-56.641,-41.992,-52.246,-33.203,0.000
1727413297.690,-37.109,-42.969,-45.410,-44.922,0.000
1727413297.694,-15.625,-43.457,-36.621,-44.434,0.000
1727413297.698,-15.137,-39.062,-29.785,-31.250,0.000
1727413297.701,-40.527,-40.039,-29.297,-18.555,0.000
1727413297.705,-63.477,-37.598,-29.785,-31.738,0.000
1727413297.709,-45.898,-36.133,-33.691,-44.922,0.000
1727413297.713,-7.324,-45.410,-40.039,-41.992,0.000
1727413297.717,-9.766,-44.434,-52.246,-42.480,0.000
1727413297.721,-44.922,-53.711,-63.965,-33.691,0.000
1727413297.725,-70.801,-52.734,-60.059,-44.434,0.000
1727413297.729,-48.340,-31.738,-56.641,-58.105,0.000
1727413297.733,-4.395,-18.555,-44.922,-46.875,0.000
1727413297.737,-16.602,-29.785,-56.152,-50.781,0.000
1727413297.740,-61.035,-44.922,-14.648,-68.359,0.000
1727413297.744,-115.234,-42.969,-3.418,-83.008,0.000
1727413297.748,-96.680,-51.758,-28.320,-78.125,0.000
1727413297.752,-29.297,-23.926,-20.508,-62.012,0.000
1727413297.756,-53.711,-20.508,-83.496,-43.457,0.000
1727413297.760,-16.113,-78.125,-102.539,32.715,0.000
1727413297.764,-67.871,-68.848,9.766,-50.781,0.000
1727413297.768,-169.922,14.160,-2.930,-167.480,0.000
1727413297.772,-42.480,52.246,-122.070,-80.566,0.000
1727413297.776,-30.762,-32.715,-45.898,-63.477,0.000
1727413297.780,-2.441,-70.312,-56.641,-10.742,0.000
1727413297.783,74.219,-113.770,-98.633,63.965,0.000
1727413297.787,-29.297,52.734,-100.098,-13.672,0.000
1727413297.791,-186.523,97.168,-7.812,-147.949,0.000
1727413297.795,-44.434,-124.512,-1.465,-76.660,0.000
1727413297.799,59.082,-101.074,-124.023,32.715,0.000
1727413297.803,-14.648,24.414,-99.121,3.906,0.000
1727413297.807,-3.418,60.547,-119.141,41.504,0.000
1727413297.811,60.547,-100.098,-79.102,95.215,0.000
1727413297.815,142.090,-103.027,-111.816,83.496,0.000
1727413297.819,112.793,-45.410,-150.879,61.523,0.000
1727413297.823,14.160,-34.180,-101.074,4.395,0.000
1727413297.826,-64.453,7.324,-104.980,-26.367,0.000
1727413297.830,-6.348,-19.043,-127.441,1.953,0.000
1727413297.834,42.480,-50.781,-77.148,16.602,0.000
1727413297.838,26.855,-56.641,-91.309,41.992,0.000
1727413297.842,21.484,-33.203,-148.926,53.223,0.000
1727413297.846,7.812,-21.484,-115.234,15.137,0.000
1727413297.850,14.160,-35.645,-100.098,-11.719,0.000
1727413297.854,41.504,-52.246,-101.562,-3.906,0.000
1727413297.858,0.977,-32.227,-96.191,-25.391,0.000
1727413297.862,-83.008,-26.367,-90.332,-52.734,0.000
1727413297.866,-44.434,-59.082,-79.102,1.465,0.000
1727413297.869,13.184,-35.645,-91.309,27.832,0.000
1727413297.873,41.992,-20.020,-88.379,12.695,0.000
1727413297.877,27.832,-6.348,-83.008,9.766,0.000
1727413297.881,-9.277,-20.996,-78.125,6.348,0.000
1727413297.885,-47.363,-22.949,-82.031,-8.789,0.000
1727413297.889,-30.273,-19.531,-79.102,-14.160,0.000
1727413297.893,5.859,-33.691,-64.941,-12.207,0.000
1727413297.897,12.695,-32.227,-63.965,-2.441,0.000
1727413297.901,-9.766,-26.855,-65.430,-5.859,0.000
1727413297.905,-34.668,-21.484,-60.547,-16.113,0.000
1727413297.908,-16.602,-9.277,-56.641,-16.602,0.000
1727413297.912,0.000,-3.418,-59.082,-24.414,0.000
1727413297.916,0.000,-16.113,-62.012,-24.902,0.000
1727413297.920,0.000,-21.484,-56.641,-18.555,0.000
1727413297.924,0.000,-21.484,-47.363,-22.461,0.000
1727413297.928,0.000,-16.113,-47.363,-40.039,0.000
1727413297.932,0.000,-18.555,-48.828,-30.273,0.000
1727413297.936,0.000,-20.020,-51.758,-16.113,0.000
1727413297.940,0.000,-19.531,-58.105,-23.926,0.000
1727413297.944,0.000,-24.414,-52.734,-23.438,0.000
1727413297.948,0.000,-24.902,-46.875,-34.668,0.000
1727413297.951,0.000,-31.250,-45.410,-31.738,0.000
1727413297.955,0.000,-25.879,-43.945,-23.438,0.000
1727413297.959,-32.715,-27.832,-39.551,-23.438,0.000
1727413297.963,-60.547,-36.133,-42.969,-21.973,0.000
1727413297.967,-49.805,-32.227,-43.457,-21.973,0.000
1727413297.971,-18.555,-22.949,-43.457,-20.020,0.000
1727413297.975,-8.789,-31.738,-44.434,-32.227,0.000
1727413297.979,-20.996,-40.527,-42.480,-39.062,0.000
1727413297.983,-48.340,-33.203,-42.480,-34.668,0.000
1727413297.987,-62.988,-24.414,-41.992,-39.551,0.000
1727413297.990,-34.668,-27.344,-48.828,-49.316,0.000
1727413297.994,-3.418,-36.133,-59.570,-40.039,0.000
1727413297.998,-30.762,-40.527,-51.758,-22.949,0.000
1727413298.002,-78.613,-36.133,-43.457,-33.203,0.000
1727413298.006,-75.195,-19.043,-57.129,-54.199,0.000
1727413298.010,-40.039,-17.090,-56.641,-47.363,0.000
1727413298.014,-11.719,-35.156,-54.688,-45.898,0.000
1727413298.018,-21.484,-39.062,-49.805,-40.527,0.000
1727413298.022,-56.641,-35.645,-42.969,-38.086,0.000
1727413298.026,-62.012,-32.715,-43.945,-51.758,0.000
1727413298.030,-22.949,-26.367,-39.551,-42.480,0.000
1727413298.033,-2.930,-18.555,-36.621,-34.668,0.000
1727413298.037,-31.250,-22.461,-48.828,-47.852,0.000
1727413298.041,-61.523,-32.715,-55.664,-33.203,0.000
1727413298.045,-63.965,-29.297,-48.828,-34.668,0.000
1727413298.049,-31.738,-22.461,-44.434,-37.109,0.000
1727413298.053,-4.395,-23.438,-44.922,-37.598,0.000
1727413298.057,-20.508,-29.297,-47.852,-43.945,0.000
1727413298.061,-49.316,-38.086,-47.363,-41.504,0.000
1727413298.065,-66.895,-35.156,-41.504,-58.594,0.000
1727413298.069,-41.016,-26.855,-27.344,-48.340,0.000
1727413298.072,3.418,-22.949,-25.879,-19.043,0.000
1727413298.076,-6.836,-40.039,-27.832,-11.230,0.000
1727413298.080,-52.246,-46.875,-32.227,-17.578,0.000
1727413298.084,-70.312,-36.133,-39.551,-27.344,0.000
1727413298.088,-54.199,-41.504,-41.016,-38.086,0.000
1727413298.092,-21.973,-42.480,-41.504,-30.762,0.000
1727413298.096,-11.230,-35.645,-38.086,-16.113,0.000
1727413298.100,-40.527,-37.598,-42.480,-19.043,0.000
1727413298.104,-68.848,-42.969,-46.387,-22.461,0.000
1727413298.108,-64.453,-45.410,-41.016,-41.992,0.000
1727413298.111,-20.508,-43.457,-43.457,-41.016,0.000
1727413298.115,-19.043,-46.387,-49.805,-29.297,0.000
1727413298.119,-60.059,-53.223,-54.688,-41.992,0.000
1727413298.123,-88.867,-48.828,-51.758,-46.875,0.000
1727413298.127,-73.730,-39.062,-49.316,-53.711,0.000
1727413298.131,-17.090,-41.504,-40.039,-47.852,0.000
1727413298.135,-2.441,-45.898,-42.480,-35.645,0.000
1727413298.139,-35.645,-44.434,-45.898,-40.527,0.000
1727413298.143,-58.594,-45.410,-40.527,-39.551,0.000
1727413298.147,-58.105,-38.086,-44.922,-41.016,0.000
1727413298.151,-25.391,-38.086,-45.410,-44.434,0.000
1727413298.154,3.906,-47.852,-40.039,-27.832,0.000
1727413298.158,-33.203,-42.480,-37.109,-7.812,0.000
1727413298.162,-57.617,-31.738,-41.504,-11.230,0.000
1727413298.166,-46.387,-35.156,-34.180,-23.926,0.000
1727413298.170,-18.555,-42.480,-36.621,-19.531,0.000
1727413298.174,0.977,-49.805,-54.199,-22.949,0.000
1727413298.178,-33.203,-61.035,-54.688,-33.203,0.000
1727413298.182,-65.430,-59.570,-46.875,-25.391,0.000
1727413298.186,-57.129,-41.504,-41.992,-28.809,0.000
1727413298.190,-14.648,-29.785,-35.645,-26.367,0.000
1727413298.194,3.906,-34.180,-34.668,-21.973,0.000
1727413298.197,-23.926,-32.715,-41.016,-23.926,0.000
1727413298.201,-37.109,-33.691,-44.434,-27.832,0.000
1727413298.205,-41.504,-41.992,-37.598,-26.855,0.000
1727413298.209,-20.508,-49.316,-32.715,-27.344,0.000
1727413298.213,7.324,-49.316,-38.086,-30.273,0.000
1727413298.217,-15.137,-52.246,-39.551,-20.508,0.000
1727413298.221,-47.852,-46.875,-45.410,-3.418,0.000
1727413298.225,-57.129,-41.016,-41.016,-20.996,0.000
1727413298.229,-31.738,-50.293,-36.133,-49.805,0.000
1727413298.233,2.441,-55.176,-36.133,-35.156,0.000
1727413298.237,-7.812,-54.199,-40.527,-23.438,0.000
1727413298.240,-47.363,-45.898,-46.875,-22.949,0.000
1727413298.244,-58.105,-48.828,-45.410,-39.062,0.000
1727413298.248,-36.133,-51.270,-43.945,-54.199,0.000
1727413298.252,-7.324,-43.945,-47.852,-37.109,0.000
1727413298.256,-5.371,-48.340,-47.852,-24.414,0.000
1727413298.260,-38.574,-46.387,-51.270,-27.832,0.000
1727413298.264,-63.477,-52.246,-46.875,-35.645,0.000
1727413298.268,-51.270,-56.152,-45.410,-44.434,0.000
1727413298.272,-25.391,-62.012,-46.387,-20.508,0.000
1727413298.276,-19.531,-62.988,-46.875,-19.043,0.000
1727413298.280,-48.828,-57.617,-58.105,-44.922,0.000
1727413298.283,-73.730,-64.941,-60.547,-53.223,0.000
1727413298.287,-54.199,-52.246,-48.828,-47.852,0.000
1727413298.291,-12.695,-41.016,-42.969,-45.898,0.000
1727413298.295,-9.766,-50.293,-49.316,-41.016,0.000
1727413298.299,-57.617,-47.852,-52.734,-33.203,0.000
1727413298.303,-82.520,-36.621,-52.734,-33.203,0.000
1727413298.307,-55.176,-36.621,-44.922,-38.574,0.000
1727413298.311,-14.160,-47.852,-41.992,-43.945,0.000
1727413298.315,-8.301,-45.410,-47.852,-31.738,0.000
1727413298.319,-37.109,-39.551,-48.828,-38.574,0.000
1727413298.323,-58.594,-46.387,-43.457,-47.363,0.000
1727413298.326,-54.688,-36.133,-38.086,-30.762,0.000
1727413298.330,-17.578,-12.207,-38.086,-18.066,0.000
1727413298.334,6.348,-26.855,-39.062,-23.926,0.000
1727413298.338,-31.250,-35.156,-48.340,-25.391,0.000
1727413298.342,-60.059,-31.738,-48.828,-25.391,0.000
1727413298.346,-44.922,-32.715,-29.785,-33.691,0.000
1727413298.350,-20.508,-22.461,-26.855,-28.320,0.000
1727413298.354,-11.719,-21.973,-34.668,-13.184,0.000
1727413298.358,-17.090,-38.086,-35.156,-6.836,0.000
1727413298.362,-52.246,-34.668,-42.969,-21.484,0.000
1727413298.365,-72.754,-34.668,-38.574,-42.969,0.000
1727413298.369,-27.832,-37.109,-29.297,-42.480,0.000
1727413298.373,-9.277,-30.273,-43.945,-45.410,0.000
1727413298.377,-34.180,-38.574,-45.898,-41.016,0.000
1727413298.381,-48.828,-34.180,-35.645,-23.926,0.000
1727413298.385,-61.035,-24.902,-41.504,-43.945,0.000
1727413298.389,-32.715,-35.156,-39.551,-53.223,0.000
1727413298.393,-11.230,-44.922,-36.133,-34.668,0.000
1727413298.397,-34.668,-38.086,-49.316,-29.297,0.000
1727413298.401,-53.223,-46.387,-55.664,-29.297,0.000
1727413298.404,-61.523,-41.504,-45.410,-37.109,0.000
1727413298.408,-32.227,-17.578,-40.527,-41.992,0.000
1727413298.412,10.254,-15.625,-39.551,-27.344,0.000
1727413298.416,-13.184,-21.484,-42.969,-30.762,0.000
1727413298.420,-43.945,-31.738,-50.781,-37.109,0.000
1727413298.424,-51.270,-44.434,-41.992,-39.551,0.000
1727413298.428,-42.969,-31.250,-42.969,-44.434,0.000
1727413298.432,2.930,-22.461,-50.781,-23.926,0.000
1727413298.436,-8.301,-31.738,-49.316,-15.137,0.000
1727413298.440,-48.828,-36.621,-46.875,-22.461,0.000
1727413298.443,-58.594,-27.344,-47.852,-33.691,0.000
1727413298.447,-28.809,-21.973,-42.969,-41.016,0.000
1727413298.451,3.906,-34.668,-39.551,-17.578,0.000
1727413298.455,-0.977,-31.250,-40.527,-7.812,0.000
1727413298.459,-33.203,-19.531,-39.551,-12.695,0.000
1727413298.463,-47.852,-22.949,-39.062,-18.555,0.000
1727413298.467,-22.461,-16.113,-37.109,-20.508,0.000
1727413298.471,21.973,-12.207,-21.484,-9.766,0.000
1727413298.475,20.020,-20.020,-4.883,-17.578,0.000
1727413298.479,-19.043,-14.160,-2.930,-5.859,0.000
1727413298.483,-37.109,-3.906,-1.953,0.000,0.000
1727413298.487,-28.809,-10.254,4.395,-19.531,0.000
1727413298.490,9.277,-20.508,1.465,-25.879,0.000
1727413298.494,6.348,-23.438,-4.883,-21.973,0.000
1727413298.498,-53.223,-40.039,-7.324,-27.832,0.000
1727413298.502,-83.496,-54.688,-10.742,-44.922,0.000
1727413298.506,-63.965,-53.711,-12.207,-47.363,0.000
1727413298.510,-36.621,-41.992,-10.742,-30.273,0.000
1727413298.514,-22.461,-32.715,-17.090,-23.438,0.000
1727413298.518,-39.062,-34.180,-30.273,-29.785,0.000
1727413298.522,-67.383,-40.039,-35.156,-55.176,0.000
1727413298.526,-82.031,-42.480,-32.715,-65.430,0.000
1727413298.530,-47.852,-41.504,-31.738,-50.293,0.000
1727413298.533,-21.484,-49.316,-39.062,-49.805,0.000
1727413298.537,-40.527,-42.480,-45.410,-38.086,0.000
1727413298.541,-75.195,-29.785,-42.969,-28.320,0.000
1727413298.545,-73.730,-34.668,-31.250,-58.105,0.000
1727413298.549,-37.109,-45.410,-37.598,-66.895,0.000
1727413298.553,-18.555,-53.711,-50.293,-44.922,0.000
1727413298.557,-28.320,-46.875,-45.410,-27.344,0.000
1727413298.561,-57.129,-39.551,-40.039,-35.156,0.000
1727413298.565,-65.430,-33.203,-41.504,-45.898,0.000
1727413298.569,-34.180,-44.434,-42.480,-41.016,0.000
1727413298.573,-13.672,-50.293,-47.363,-27.344,0.000
1727413298.576,-35.156,-46.875,-57.617,-22.949,0.000
1727413298.580,-68.848,-45.898,-61.035,-36.133,0.000
1727413298.584,-81.543,-35.645,-56.152,-50.781,0.000
1727413298.588,-40.039,-38.574,-46.875,-41.016,0.000
1727413298.592,5.371,-37.109,-44.434,-18.555,0.000
1727413298.596,1.953,-42.969,-46.387,-18.555,0.000
1727413298.600,-40.039,-38.574,-48.828,-24.902,0.000
1727413298.604,-70.801,-33.203,-42.969,-31.738,0.000
1727413298.608,-45.410,-36.621,-43.457,-36.621,0.000
1727413298.612,-5.371,-38.574,-53.223,-26.855,0.000
1727413298.616,-1.465,-36.133,-53.711,-17.578,0.000
1727413298.619,-35.156,-28.809,-47.852,-15.137,0.000
1727413298.623,-47.852,-31.250,-48.828,0.488,0.000
1727413298.627,-27.344,-33.691,-51.270,-9.277,0.000
1727413298.631,1.953,-24.414,-48.340,-23.926,0.000
1727413298.635,-6.348,-23.438,-46.387,-9.766,0.000
1727413298.639,-48.340,-31.250,-46.387,-25.879,0.000
1727413298.643,-61.035,-48.828,-46.387,-34.668,0.000
1727413298.647,-34.668,-54.199,-43.945,-21.484,0.000
1727413298.651,-4.883,-41.992,-47.363,-27.832,0.000
1727413298.655,-4.883,-34.668,-54.199,-26.367,0.000
1727413298.658,-34.668,-38.574,-59.082,-16.602,0.000
1727413298.662,-58.105,-30.762,-62.500,-36.133,0.000
1727413298.666,-46.875,-29.297,-61.523,-32.227,0.000
1727413298.670,-5.859,-39.062,-62.500,-27.344,0.000
1727413298.674,-2.930,-44.434,-66.895,-42.480,0.000
1727413298.678,-32.227,-55.664,-63.965,-35.645,0.000
1727413298.682,-55.664,-52.734,-57.129,-39.551,0.000
1727413298.686,-55.664,-38.086,-55.664,-47.363,0.000
1727413298.690,-13.672,-49.316,-53.711,-32.715,0.000
1727413298.694,-2.930,-52.246,-54.688,-30.762,0.000
1727413298.698,-36.621,-44.434,-57.617,-24.902,0.000
1727413298.701,-55.664,-44.434,-63.965,-36.621,0.000
1727413298.705,-46.875,-44.922,-62.988,-38.086,0.000
1727413298.709,-11.230,-43.945,-54.688,-18.066,0.000
1727413298.713,3.906,-39.551,-54.688,-25.879,0.000
1727413298.717,-15.137,-48.340,-59.570,-29.297,0.000
1727413298.721,-47.363,-49.805,-64.941,-30.273,0.000
1727413298.725,-61.523,-42.969,-66.895,-28.320,0.000
1727413298.729,-4.395,-41.504,-55.664,-8.301,0.000
1727413298.733,27.832,-31.250,-41.992,0.977,0.000
1727413298.737,-0.488,-28.809,-41.016,11.230,0.000
1727413298.740,-26.367,-36.621,-42.969,1.465,0.000
1727413298.744,-29.297,-37.598,-42.969,-17.578,0.000
1727413298.748,1.465,-20.020,-41.992,-11.719,0.000
1727413298.752,32.715,-18.555,-42.480,0.488,0.000
1727413298.756,17.578,-29.785,-51.270,6.836,0.000
1727413298.760,-22.949,-38.086,-51.758,13.672,0.000
1727413298.764,-33.691,-35.156,-41.504,2.441,0.000
1727413298.768,-7.812,-27.832,-43.457,-10.254,0.000
1727413298.772,10.254,-26.367,-48.340,-8.789,0.000
1727413298.776,0.488,-37.109,-51.270,-18.555,0.000
1727413298.780,-25.391,-39.551,-57.617,-17.090,0.000
1727413298.783,-42.969,-39.551,-58.105,-8.301,0.000
1727413298.787,-9.766,-40.039,-45.898,-0.977,0.000
1727413298.791,27.344,-32.715,-44.922,-5.371,0.000
1727413298.795,12.207,-30.762,-61.035,-3.906,0.000
1727413298.799,-23.926,-33.203,-74.707,12.695,0.000
1727413298.803,-33.691,-27.832,-76.660,-5.859,0.000
1727413298.807,-7.812,-40.039,-75.684,-11.230,0.000
1727413298.811,20.020,-40.039,-73.730,7.324,0.000
1727413298.815,18.555,-27.832,-69.336,2.441,0.000
1727413298.819,-12.695,-30.273,-71.289,-4.395,0.000
1727413298.822,-27.832,-36.133,-73.730,3.906,0.000
1727413298.826,-1.465,-37.598,-72.754,9.766,0.000
1727413298.830,24.902,-25.391,-71.289,-0.488,0.000
1727413298.834,29.297,-27.832,-67.383,21.973,0.000
1727413298.838,-3.906,-24.902,-74.219,22.461,0.000
1727413298.842,-27.344,-22.461,-73.242,13.184,0.000
1727413298.846,3.906,-24.414,-63.965,23.438,0.000
1727413298.850,45.410,-27.344,-66.895,16.602,0.000
1727413298.854,47.852,-21.484,-72.754,21.973,0.000
1727413298.858,18.555,-19.043,-69.824,20.020,0.000
1727413298.861,-15.625,-26.855,-67.871,11.230,0.000
1727413298.865,4.395,-33.203,-66.895,16.113,0.000
1727413298.869,51.758,-31.250,-63.965,34.180,0.000
1727413298.873,53.711,-27.344,-58.594,34.668,0.000
1727413298.877,23.438,-35.645,-57.129,26.855,0.000
1727413298.881,-0.977,-26.855,-60.547,14.648,0.000
1727413298.885,9.766,-20.020,-53.223,18.066,0.000
1727413298.889,57.129,-18.066,-45.898,48.828,0.000
1727413298.893,64.941,-7.324,-56.641,58.105,0.000
1727413298.897,31.250,-5.859,-57.617,42.969,0.000
1727413298.901,5.859,-4.395,-53.711,41.992,0.000
1727413298.904,0.000,-11.230,-58.105,30.762,0.000
1727413298.908,42.480,-16.113,-54.688,18.555,0.000
1727413298.912,60.547,-14.160,-52.734,25.879,0.000
1727413298.916,33.691,-8.301,-55.176,40.039,0.000
1727413298.920,0.488,-16.113,-53.711,33.691,0.000
1727413298.924,-9.766,-26.367,-53.223,21.973,0.000
1727413298.928,36.621,-18.066,-56.641,36.133,0.000
1727413298.932,62.012,-8.301,-61.523,32.227,0.000
1727413298.936,27.344,-11.230,-60.059,35.645,0.000
1727413298.940,-3.906,-17.090,-62.012,35.156,0.000
1727413298.944,-4.395,-18.555,-63.965,19.531,0.000
1727413298.947,36.133,-24.414,-55.176,22.949,0.000
1727413298.951,74.707,-23.438,-52.246,29.785,0.000
1727413298.955,50.781,-21.484,-64.941,27.344,0.000
1727413298.959,2.441,-26.367,-68.848,27.832,0.000
1727413298.963,-1.953,-21.484,-60.547,21.973,0.000
1727413298.967,30.273,-14.648,-62.012,22.461,0.000
1727413298.971,59.570,-13.184,-67.871,35.156,0.000
1727413298.975,45.898,-17.578,-68.359,40.527,0.000
1727413298.979,4.883,-25.391,-63.965,52.734,0.000
1727413298.983,-4.883,-17.090,-59.082,45.410,0.000
1727413298.987,25.879,-9.766,-58.105,41.992,0.000
1727413298.990,67.871,-8.789,-51.758,50.293,0.000
1727413298.994,72.266,-15.625,-50.293,47.852,0.000
1727413298.998,33.691,-6.348,-51.270,42.969,0.000
1727413299.002,15.625,2.930,-46.387,51.270,0.000
1727413299.006,46.875,-3.906,-50.781,48.828,0.000
1727413299.010,69.824,3.906,-52.246,49.805,0.000
1727413299.014,72.266,-0.977,-52.734,52.246,0.000
1727413299.018,45.410,-12.207,-53.711,44.434,0.000
1727413299.022,19.043,-21.973,-51.270,54.688,0.000
1727413299.026,30.762,-24.902,-55.664,33.691,0.000
1727413299.030,69.824,-17.578,-60.547,34.180,0.000
1727413299.033,79.590,-11.719,-51.758,62.500,0.000
1727413299.037,41.504,-12.207,-48.828,66.895,0.000
1727413299.041,22.949,-14.160,-54.199,50.781,0.000
1727413299.045,36.133,-10.742,-50.293,39.062,0.000
1727413299.049,70.312,-5.371,-49.316,52.246,0.000
1727413299.053,76.660,-7.324,-46.875,50.781,0.000
1727413299.057,44.434,-10.254,-47.363,50.293,0.000
1727413299.061,18.066,-12.695,-51.758,41.504,0.000
1727413299.065,28.320,-24.414,-44.922,51.758,0.000
1727413299.069,63.965,-20.508,-41.992,49.805,0.000
1727413299.072,66.895,-21.973,-50.781,31.250,0.000
1727413299.076,33.691,-29.785,-59.570,34.180,0.000
1727413299.080,19.043,-36.621,-60.059,38.086,0.000
1727413299.084,21.484,-39.062,-54.688,35.156,0.000
1727413299.088,59.570,-36.621,-50.781,42.480,0.000
1727413299.092,83.008,-38.086,-53.223,54.199,0.000
1727413299.096,55.176,-34.668,-53.223,48.828,0.000
1727413299.100,30.762,-25.879,-51.758,42.480,0.000
1727413299.104,34.180,-35.645,-48.828,43.945,0.000
1727413299.108,62.500,-35.645,-46.875,48.340,0.000
1727413299.112,78.613,-31.738,-51.758,59.570,0.000
1727413299.115,66.895,-34.668,-50.293,51.758,0.000
1727413299.119,47.363,-29.785,-48.828,46.875,0.000
1727413299.123,37.598,-25.391,-44.922,50.781,0.000
1727413299.127,62.012,-26.855,-39.551,48.340,0.000
1727413299.131,83.496,-27.832,-48.828,60.059,0.000
1727413299.135,68.359,-27.832,-47.852,52.734,0.000
1727413299.139,36.621,-30.762,-42.969,52.246,0.000
1727413299.143,18.555,-27.344,-37.598,55.664,0.000
1727413299.147,51.758,-15.137,-8.301,57.617,0.000
1727413299.151,78.125,-9.766,-2.930,65.918,0.000
1727413299.154,71.777,-13.672,-6.348,72.754,0.000
1727413299.158,37.109,-24.902,-6.348,69.824,0.000
1727413299.162,20.508,-24.414,-6.348,55.176,0.000
1727413299.166,56.152,-13.672,-4.395,51.270,0.000
1727413299.170,101.562,-6.836,-6.836,62.012,0.000
1727413299.174,95.215,-11.719,-13.184,71.289,0.000
1727413299.178,48.340,-4.395,-12.695,71.289,0.000
1727413299.182,33.203,5.371,-7.812,73.242,0.000
1727413299.186,65.430,-1.465,-19.531,71.777,0.000
1727413299.190,99.121,-3.906,-36.621,79.102,0.000
1727413299.193,94.727,0.488,-35.156,90.332,0.000
1727413299.197,62.012,4.395,-43.457,92.773,0.000
1727413299.201,41.504,-2.441,-51.758,90.332,0.000
1727413299.205,63.965,-8.301,-41.992,78.613,0.000
1727413299.209,104.004,-7.324,-46.387,66.895,0.000
1727413299.213,90.332,-3.418,-50.781,60.059,0.000
1727413299.217,32.715,-2.441,-52.734,69.824,0.000
1727413299.221,13.184,-12.207,-50.781,57.129,0.000
1727413299.225,42.969,-42.480,-50.781,49.805,0.000
1727413299.229,95.703,-50.293,-57.129,60.547,0.000
1727413299.232,97.168,-41.992,-59.570,66.406,0.000
1727413299.236,55.176,-34.668,-64.941,64.941,0.000
1727413299.240,33.203,-39.062,-59.082,57.129,0.000
1727413299.244,45.410,-45.898,-53.711,61.035,0.000
1727413299.248,80.078,-39.062,-56.641,60.547,0.000
1727413299.252,72.754,-38.086,-59.082,59.570,0.000
1727413299.256,22.461,-36.133,-65.918,63.477,0.000
1727413299.260,19.531,-35.645,-59.570,58.594,0.000
1727413299.264,38.574,-37.109,-52.246,49.805,0.000
1727413299.268,74.707,-16.602,-58.594,55.664,0.000
1727413299.272,100.586,-28.809,-56.152,62.988,0.000
1727413299.275,68.359,-40.527,-51.758,73.730,0.000
1727413299.279,46.387,-16.113,-50.781,74.219,0.000
1727413299.283,52.246,0.977,-47.852,66.895,0.000
1727413299.287,91.309,8.789,-44.922,70.312,0.000
1727413299.291,114.258,12.695,-43.457,71.777,0.000
1727413299.295,83.008,19.043,-43.457,70.801,0.000
1727413299.299,55.664,9.766,-39.062,69.336,0.000
1727413299.303,60.059,6.348,-35.645,58.594,0.000
1727413299.307,94.727,17.578,-35.645,71.289,0.000
1727413299.311,110.840,18.555,-38.086,75.195,0.000
1727413299.315,75.195,16.113,-44.922,58.105,0.000
1727413299.318,45.898,26.367,-41.016,49.316,0.000
1727413299.322,47.852,14.160,-28.320,46.875,0.000
1727413299.326,83.008,5.859,-35.156,50.781,0.000
1727413299.330,109.863,13.672,-45.410,61.035,0.000
1727413299.334,73.730,16.602,-34.668,59.570,0.000
1727413299.338,39.551,7.812,-29.785,59.082,0.000
1727413299.342,45.898,8.301,-21.484,72.754,0.000
1727413299.346,65.918,9.766,-14.648,66.406,0.000
1727413299.350,87.402,0.488,-18.555,64.941,0.000
1727413299.354,77.637,5.859,-20.508,62.988,0.000
1727413299.358,30.762,14.648,-23.926,48.340,0.000
1727413299.361,4.883,10.742,-28.809,29.785,0.000
1727413299.365,26.855,1.953,-28.320,34.668,0.000
1727413299.369,75.195,15.137,-19.531,61.035,0.000
1727413299.373,67.871,37.109,-29.297,61.035,0.000
1727413299.377,21.973,24.414,-33.203,53.223,0.000
1727413299.381,-0.977,8.301,-28.320,38.086,0.000
1727413299.385,15.625,2.441,-31.250,17.090,0.000
1727413299.389,46.387,1.953,-34.180,21.973,0.000
1727413299.393,34.180,8.301,-34.180,27.344,0.000
1727413299.397,6.836,8.789,-33.203,37.109,0.000
1727413299.401,-9.277,12.695,-28.809,31.738,0.000
1727413299.404,4.395,19.043,-18.555,25.879,0.000
1727413299.408,53.223,24.902,-13.672,38.574,0.000
1727413299.412,67.871,15.625,-16.602,52.246,0.000
1727413299.416,27.832,10.254,-24.414,53.711,0.000
1727413299.420,2.930,11.230,-24.414,39.062,0.000
1727413299.424,25.879,46.387,-16.113,48.828,0.000
1727413299.428,53.223,83.496,-19.531,48.340,0.000
1727413299.432,53.711,77.637,-25.391,34.668,0.000
1727413299.436,37.109,62.500,-23.438,40.039,0.000
1727413299.440,24.902,52.734,-20.020,37.598,0.000
1727413299.443,40.527,62.012,-18.555,40.039,0.000
1727413299.447,63.477,70.312,-21.973,49.316,0.000
1727413299.451,67.383,64.453,-26.367,46.875,0.000
1727413299.455,49.316,54.199,-18.555,45.898,0.000
1727413299.459,37.598,47.363,-11.719,53.223,0.000
1727413299.463,31.738,43.945,-24.414,47.852,0.000
1727413299.467,61.523,36.133,-30.273,36.621,0.000
1727413299.471,84.473,45.898,-29.297,41.016,0.000
1727413299.475,46.875,56.641,-25.879,50.781,0.000
1727413299.479,16.113,55.664,-15.137,55.176,0.000
1727413299.483,25.391,49.316,-8.789,49.805,0.000
1727413299.486,57.617,32.227,-12.207,54.199,0.000
1727413299.490,75.684,39.551,-8.301,61.523,0.000
1727413299.494,52.246,41.016,-4.883,65.918,0.000
1727413299.498,16.602,34.668,-13.672,68.359,0.000
1727413299.502,9.277,38.574,-13.184,43.457,0.000
1727413299.506,42.480,39.551,-5.371,41.992,0.000
1727413299.510,72.754,34.668,-12.695,55.664,0.000
1727413299.514,57.129,30.762,-14.648,45.410,0.000
1727413299.518,17.090,35.645,-23.438,39.062,0.000
1727413299.522,1.953,31.250,-25.391,34.180,0.000
1727413299.525,34.668,24.902,-16.602,16.602,0.000
1727413299.529,54.688,29.785,-16.602,17.090,0.000
1727413299.533,32.227,26.367,-24.902,23.926,0.000
1727413299.537,-3.906,21.484,-30.273,22.949,0.000
1727413299.541,-11.719,29.297,-23.438,10.254,0.000
1727413299.545,21.973,34.668,-24.902,-0.488,0.000
1727413299.549,58.594,22.461,-32.227,16.113,0.000
1727413299.553,51.758,22.461,-32.227,20.508,0.000
1727413299.557,10.742,22.949,-28.320,19.531,0.000
1727413299.561,-15.625,16.602,-26.855,15.137,0.000
1727413299.565,8.789,6.836,-29.297,17.090,0.000
1727413299.569,56.641,5.371,-27.832,38.574,0.000
1727413299.572,52.734,6.348,-25.879,40.527,0.000
1727413299.576,12.695,0.977,-25.391,39.551,0.000
1727413299.580,-6.348,3.418,-19.043,30.762,0.000
1727413299.584,19.043,11.719,-13.184,38.574,0.000
1727413299.588,60.059,19.531,-11.719,55.176,0.000
1727413299.592,61.523,13.184,-17.578,43.945,0.000
1727413299.596,23.926,8.301,-20.996,41.504,0.000
1727413299.600,4.395,7.324,-14.648,46.387,0.000
1727413299.604,20.996,5.371,-17.578,35.645,0.000
1727413299.608,53.223,-4.395,-17.090,30.273,0.000
1727413299.611,65.918,-11.719,-15.137,43.945,0.000
1727413299.615,28.809,4.395,-22.461,40.039,0.000
1727413299.619,-0.488,16.113,-18.066,31.250,0.000
1727413299.623,14.648,8.301,-12.695,24.414,0.000
1727413299.627,61.523,3.906,-9.277,34.668,0.000
1727413299.631,64.941,11.230,-11.719,39.551,0.000
1727413299.635,10.742,3.906,-22.461,27.832,0.000
1727413299.639,-24.414,-11.230,-18.555,19.043,0.000
1727413299.643,-17.578,-0.488,-11.719,19.043,0.000
1727413299.647,28.809,3.418,-8.789,23.438,0.000
1727413299.651,46.387,-11.230,-17.578,12.207,0.000
1727413299.654,7.324,-19.043,-20.508,4.883,0.000
1727413299.658,-14.160,-13.184,-22.461,7.324,0.000
1727413299.662,-1.465,-6.836,-28.320,2.441,0.000
1727413299.666,32.715,-14.160,-19.043,16.113,0.000
1727413299.670,33.691,-19.531,-21.973,14.648,0.000
1727413299.674,11.230,-20.020,-26.367,7.812,0.000
1727413299.678,-2.930,-18.066,-16.602,15.625,0.000
1727413299.682,-8.789,-17.090,-16.113,3.418,0.000
1727413299.686,16.602,-19.043,-18.555,0.488,0.000
1727413299.690,34.668,-20.020,-20.020,4.395,0.000
1727413299.694,18.066,-17.578,-25.391,10.254,0.000
1727413299.697,-18.066,-20.508,-28.809,13.184,0.000
1727413299.701,-18.555,-24.414,-27.832,3.906,0.000
1727413299.705,7.812,-13.184,-32.227,-3.418,0.000
1727413299.709,35.156,-10.742,-37.598,0.977,0.000
1727413299.713,23.926,-15.137,-31.738,6.836,0.000
1727413299.717,-15.625,-16.602,-25.391,-0.488,0.000
1727413299.721,-22.461,-17.578,-16.602,-3.418,0.000
1727413299.725,4.883,-17.578,-14.648,-0.977,0.000
1727413299.729,37.109,-20.508,-15.137,13.672,0.000
1727413299.733,11.719,-24.414,-15.625,21.484,0.000
1727413299.737,-20.020,-25.391,-17.090,16.602,0.000
1727413299.740,-30.273,-21.484,-16.113,15.137,0.000
1727413299.744,-6.836,-12.207,-11.719,9.766,0.000
1727413299.748,44.434,-14.648,-12.207,7.324,0.000
1727413299.752,28.809,-17.578,-12.207,22.949,0.000
1727413299.756,-16.602,-2.441,-5.859,26.367,0.000
1727413299.760,-24.902,-12.207,-8.301,22.461,0.000
1727413299.764,-3.418,-29.785,-13.672,15.625,0.000
1727413299.768,23.926,-24.902,-19.531,8.789,0.000
1727413299.772,20.508,-23.926,-20.020,21.484,0.000
1727413299.776,-10.742,-18.066,-17.090,10.742,0.000
1727413299.780,-29.785,-12.695,-21.973,-2.441,0.000
1727413299.783,-15.625,-19.043,-22.949,-8.789,0.000
1727413299.787,7.324,-27.344,-24.414,-18.066,0.000
1727413299.791,10.254,-34.180,-25.879,-19.531,0.000
1727413299.795,-25.879,-33.691,-25.879,-16.113,0.000
1727413299.799,-51.758,-35.156,-31.738,-15.137,0.000
1727413299.803,-34.180,-28.320,-21.973,-18.555,0.000
1727413299.807,16.113,-8.789,-0.977,7.812,0.000
1727413299.811,32.227,-18.066,-5.371,12.695,0.000
1727413299.815,-6.836,-33.691,-18.555,6.348,0.000
1727413299.819,-40.039,-27.832,-19.531,-3.418,0.000
1727413299.822,-45.898,-22.461,-15.137,-24.902,0.000
1727413299.826,-5.859,-21.484,-14.648,-12.695,0.000
1727413299.830,26.367,-29.297,-19.043,-2.930,0.000
1727413299.834,-12.695,-37.109,-24.902,-7.812,0.000
1727413299.838,-32.227,-23.438,-26.855,-2.441,0.000
1727413299.842,-17.090,-18.066,-21.973,2.441,0.000
1727413299.846,20.996,-23.926,-11.230,0.488,0.000
1727413299.850,32.227,-20.508,-14.648,-9.277,0.000
1727413299.854,-7.324,-7.324,-27.344,-11.230,0.000
1727413299.858,-24.414,-23.438,-17.578,-0.977,0.000
1727413299.862,-24.902,-36.621,-17.090,5.371,0.000
1727413299.865,7.812,-28.320,-30.762,7.812,0.000
1727413299.869,31.250,-24.902,-35.645,-1.465,0.000
1727413299.873,4.883,-20.508,-33.203,-2.441,0.000
1727413299.877,-23.438,-8.301,-26.855,0.000,0.000
1727413299.881,-31.738,-5.859,-29.297,-12.695,0.000
1727413299.885,0.488,-13.184,-34.180,-11.230,0.000
1727413299.889,40.039,-28.320,-32.227,8.789,0.000
1727413299.893,19.043,-25.879,-24.414,15.137,0.000
1727413299.897,-20.996,-18.555,-18.555,11.719,0.000
1727413299.901,-36.133,-20.996,-22.949,-11.230,0.000
1727413299.904,-0.977,-11.230,-23.438,-10.254,0.000
1727413299.908,33.203,-11.230,-20.996,5.859,0.000
1727413299.912,2.930,-14.160,-25.879,-5.859,0.000
1727413299.916,-40.039,-3.906,-29.785,-14.160,0.000
1727413299.920,-38.574,-0.977,-31.738,-12.695,0.000
1727413299.924,-1.953,-5.371,-27.832,-15.137,0.000
1727413299.928,21.484,-32.715,-29.297,-7.324,0.000
1727413299.932,-5.859,-51.270,-45.898,-0.977,0.000
1727413299.936,-43.945,-43.945,-50.781,-12.207,0.000
1727413299.940,-46.387,-36.133,-43.457,-21.973,0.000
1727413299.943,-21.484,-24.902,-32.227,-13.672,0.000
1727413299.947,9.277,-20.996,-26.855,-0.488,0.000
1727413299.951,8.789,-34.668,-29.785,-5.371,0.000
1727413299.955,-24.902,-31.738,-33.691,-14.160,0.000
1727413299.959,-54.199,-21.973,-38.086,-22.461,0.000
1727413299.963,-24.414,-36.621,-40.039,-28.809,0.000
1727413299.967,10.742,-40.527,-41.504,-16.113,0.000
1727413299.971,-11.230,-34.668,-34.180,-17.090,0.000
1727413299.975,0.000,-41.992,-24.414,-19.531,0.000
1727413299.979,0.000,-41.992,-24.414,-8.789,0.000
1727413299.982,0.000,-44.922,-22.949,-13.184,0.000
1727413299.986,0.000,-51.270,-24.902,-13.184,0.000
1727413299.990,0.000,-46.387,-30.273,0.488,0.000
1727413299.994,0.000,-56.641,-32.715,-1.953,0.000
1727413299.998,0.000,-62.500,-26.855,-8.789,0.000
1727413300.002,0.000,-40.527,-26.855,-22.949,0.000
1727413300.006,0.000,-52.246,-28.809,-14.648,0.000
1727413300.010,0.000,-57.129,-28.809,-8.789,0.000
1727413300.014,0.000,-43.457,-29.785,-22.949,0.000
1727413300.018,0.000,-38.574,-30.762,-16.602,0.000
1727413300.022,-37.598,-41.992,-26.855,-8.301,0.000
1727413300.025,-1.465,-39.551,-23.438,-8.301,0.000
1727413300.029,18.555,-28.809,-26.855,-7.812,0.000
1727413300.033,0.488,-22.461,-24.414,-5.371,0.000
1727413300.037,-33.691,-28.320,-23.438,-0.488,0.000
1727413300.041,-52.734,-27.344,-23.926,-24.414,0.000
1727413300.045,-11.719,-22.461,-23.926,-33.691,0.000
1727413300.049,28.320,-20.996,-23.438,-12.207,0.000
1727413300.053,4.395,-11.230,-13.672,-8.301,0.000
1727413300.057,-22.461,-14.648,-5.371,-15.625,0.000
1727413300.061,-33.691,-8.301,-7.324,-29.785,0.000
1727413300.065,-14.648,-11.719,-11.230,-19.531,0.000
1727413300.069,8.301,-29.785,-14.160,-8.301,0.000
1727413300.072,-12.695,-24.902,-24.902,-14.160,0.000
1727413300.076,-44.434,-20.996,-27.344,-20.996,0.000
1727413300.080,-52.246,-16.602,-17.578,-35.156,0.000
1727413300.084,-27.344,-11.719,-13.672,-34.668,0.000
1727413300.088,1.953,-19.531,-17.090,-17.578,0.000
1727413300.092,-17.090,-17.578,-15.625,-13.184,0.000
1727413300.096,-50.781,-3.906,-15.137,-23.438,0.000
1727413300.100,-58.594,-20.508,-14.648,-21.973,0.000
1727413300.104,-31.738,-30.273,-16.602,-17.578,0.000
1727413300.108,-1.953,-24.902,-18.555,-19.043,0.000
1727413300.111,-12.207,-30.273,-25.879,-17.090,0.000
1727413300.115,0.000,-29.785,-35.156,-23.438,0.000
1727413300.119,0.000,-34.180,-18.555,-23.438,0.000
1727413300.123,0.000,-23.926,-11.230,-25.879,0.000
1727413300.127,0.000,-21.973,-17.090,-23.926,0.000
1727413300.131,0.000,-31.738,-18.066,-9.277,0.000
1727413300.135,0.000,-36.621,-20.508,-4.395,0.000
1727413300.139,0.000,-27.344,-8.789,-6.836,0.000
1727413300.143,0.000,-18.066,-10.254,-28.320,0.000
1727413300.147,0.000,-33.203,-22.461,-21.484,0.000
1727413300.151,0.000,-30.762,-19.531,-17.578,0.000
1727413300.154,0.000,-24.414,-15.137,-20.996,0.000
1727413300.158,0.000,-25.391,-18.066,-22.461,0.000
1727413300.162,-35.645,-30.762,-20.020,-30.273,0.000
1727413300.166,-6.348,-26.367,-18.066,-13.184,0.000
1727413300.170,0.000,-20.996,-9.277,-1.953,0.000
1727413300.174,-30.762,-12.695,-7.812,-5.371,0.000
1727413300.178,-60.547,-17.578,-12.695,-20.020,0.000
1727413300.182,-39.062,-27.832,-10.742,-29.785,0.000
1727413300.186,8.789,-28.320,-7.324,-13.184,0.000
1727413300.190,19.043,-23.438,-7.812,-1.953,0.000
1727413300.194,-18.066,-32.715,-10.742,-8.301,0.000
1727413300.197,-38.574,-37.109,-15.625,-15.625,0.000
1727413300.201,-28.320,-22.949,-14.160,-20.020,0.000
1727413300.205,0.977,-10.254,-12.695,-15.625,0.000
1727413300.209,15.137,-20.508,-16.113,-8.789,0.000
1727413300.213,-13.672,-25.391,-15.137,9.277,0.000
1727413300.217,-49.805,-26.855,-13.184,0.488,0.000
1727413300.221,-45.410,-23.926,-14.648,-24.902,0.000
1727413300.225,-5.859,-15.625,-27.344,-23.438,0.000
1727413300.229,-6.836,-19.043,-26.367,-20.020,0.000
1727413300.233,-26.855,-20.020,-17.090,-20.020,0.000
1727413300.236,-55.176,-21.484,-24.414,-29.785,0.000
1727413300.240,-70.312,-38.086,-32.715,-45.898,0.000
1727413300.244,-36.133,-30.762,-25.879,-43.457,0.000
1727413300.248,-6.348,-41.016,-23.438,-24.902,0.000
1727413300.252,-23.438,-55.176,-34.668,-19.043,0.000
1727413300.256,-49.316,-36.133,-35.156,-25.391,0.000
1727413300.260,-56.641,-23.926,-26.855,-37.598,0.000
1727413300.264,-18.066,-19.043,-21.973,-30.762,0.000
1727413300.268,17.090,-12.207,-17.090,-13.184,0.000
1727413300.272,-3.418,-23.926,-21.973,-14.648,0.000
1727413300.276,-42.969,-32.227,-31.738,-22.461,0.000
1727413300.279,-61.035,-35.156,-30.273,-31.250,0.000
1727413300.283,-27.344,-37.109,-31.738,-32.715,0.000
1727413300.287,2.441,-31.738,-31.250,-29.297,0.000
1727413300.291,-8.789,-27.344,-30.762,-30.273,0.000
1727413300.295,-42.969,-20.020,-32.227,-16.602,0.000
1727413300.299,-58.105,-9.277,-30.762,-20.996,0.000
1727413300.303,-10.254,-19.043,-25.391,-43.945,0.000
1727413300.307,26.855,-26.367,-11.719,-27.832,0.000
1727413300.311,-6.348,-16.602,-14.160,-16.602,0.000
1727413300.315,-34.668,-25.879,-19.531,-15.625,0.000
1727413300.318,-41.016,-25.391,-13.672,-27.344,0.000
1727413300.322,-23.438,-19.043,-15.625,-40.527,0.000
1727413300.326,13.184,-27.832,-20.020,-17.090,0.000
1727413300.330,-7.812,-27.832,-14.648,-18.066,0.000
1727413300.334,-54.199,-24.414,-17.578,-27.344,0.000
1727413300.338,-62.988,-31.738,-18.555,-27.832,0.000
1727413300.342,-42.480,-30.762,-17.090,-37.109,0.000
1727413300.346,-4.395,-24.902,-17.578,-30.762,0.000
1727413300.350,-2.441,-30.273,-22.461,-28.809,0.000
1727413300.354,-37.109,-27.832,-27.832,-30.762,0.000
1727413300.357,-60.547,-26.367,-18.066,-32.227,0.000
1727413300.361,-53.711,-18.555,-20.508,-47.852,0.000
1727413300.365,-22.949,-17.090,-28.320,-50.781,0.000
1727413300.369,-16.113,-34.180,-25.391,-33.203,0.000
1727413300.373,-49.316,-33.203,-29.785,-27.832,0.000
1727413300.377,-83.984,-33.203,-30.273,-47.363,0.000
1727413300.381,-77.148,-47.363,-26.367,-53.223,0.000
1727413300.385,-20.996,-43.945,-24.902,-36.621,0.000
1727413300.389,-11.719,-28.320,-24.414,-26.855,0.000
1727413300.393,-58.594,-29.785,-20.508,-20.508,0.000
1727413300.397,-76.172,-40.527,-17.578,-29.785,0.000
1727413300.400,-63.965,-42.480,-20.508,-47.363,0.000
1727413300.404,-36.133,-25.391,-30.273,-54.688,0.000
1727413300.408,-25.391,-31.250,-25.879,-43.457,0.000
1727413300.412,-49.316,-40.527,-17.090,-35.156,0.000
1727413300.416,-83.496,-36.621,-18.066,-34.180,0.000
1727413300.420,-84.961,-43.945,-15.625,-41.992,0.000
1727413300.424,-29.785,-42.969,-11.719,-38.086,0.000
1727413300.428,-9.766,-31.738,-10.742,-19.531,0.000
1727413300.432,-44.922,-30.762,-15.137,-13.672,0.000
1727413300.436,-64.453,-39.551,-24.414,-30.762,0.000
1727413300.440,-64.453,-36.133,-18.555,-42.480,0.000
1727413300.443,-39.062,-24.902,-20.020,-43.945,0.000
1727413300.447,-20.020,-41.992,-28.809,-43.945,0.000
1727413300.451,-41.016,-62.500,-30.762,-41.016,0.000
1727413300.455,-62.988,-54.199,-23.926,-43.945,0.000
1727413300.459,-62.988,-49.805,-20.508,-50.293,0.000
1727413300.463,-40.039,-52.734,-22.461,-44.434,0.000
1727413300.467,-19.531,-56.152,-24.414,-44.922,0.000
1727413300.471,-32.227,-51.758,-23.438,-48.340,0.000
1727413300.475,-55.176,-54.199,-16.113,-42.969,0.000
1727413300.479,-85.938,-51.270,-10.254,-55.176,0.000
1727413300.483,-72.266,-42.480,-11.719,-62.988,0.000
1727413300.486,-23.438,-54.199,-10.742,-50.781,0.000
1727413300.490,-32.227,-53.223,-18.555,-48.828,0.000
1727413300.494,-66.895,-50.781,-22.949,-42.480,0.000
1727413300.498,-84.473,-57.617,-20.020,-50.293,0.000
1727413300.502,-63.965,-48.828,-23.438,-48.828,0.000
1727413300.506,-22.461,-49.316,-17.090,-38.574,0.000
1727413300.510,-20.996,-47.852,-8.789,-35.645,0.000
1727413300.514,-65.918,-46.387,-8.789,-41.992,0.000
1727413300.518,-96.680,-56.641,-8.301,-45.898,0.000
1727413300.522,-63.965,-55.176,-8.789,-43.945,0.000
1727413300.526,-30.762,-50.293,-15.137,-56.641,0.000
1727413300.529,-27.832,-66.406,-14.160,-47.852,0.000
1727413300.533,-52.246,-50.781,-12.207,-27.832,0.000
1727413300.537,-82.520,-46.875,-11.230,-53.223,0.000
1727413300.541,-70.312,-64.453,-14.648,-69.336,0.000
1727413300.545,-30.273,-51.270,-19.043,-49.316,0.000
1727413300.549,-30.762,-50.293,-16.113,-47.363,0.000
1727413300.553,-65.430,-52.734,-24.414,-53.711,0.000
1727413300.557,-102.051,-51.270,-31.738,-71.777,0.000
1727413300.561,-79.102,-52.246,-31.250,-78.125,0.000
1727413300.565,-20.996,-56.641,-24.414,-55.176,0.000
1727413300.568,-24.902,-51.758,-21.484,-51.758,0.000
1727413300.572,-69.336,-42.969,-28.320,-52.246,0.000
1727413300.576,-92.285,-42.480,-25.879,-61.523,0.000
1727413300.580,-79.590,-41.016,-25.879,-75.195,0.000
1727413300.584,-32.227,-40.527,-23.438,-62.988,0.000
1727413300.588,-12.207,-41.504,-22.461,-47.363,0.000
1727413300.592,-42.480,-31.250,-26.855,-29.297,0.000
1727413300.596,-74.219,-23.438,-24.902,-39.062,0.000
1727413300.600,-71.777,-29.297,-22.949,-74.219,0.000
1727413300.604,-32.715,-38.574,-23.438,-67.383,0.000
1727413300.608,-32.227,-36.621,-26.855,-55.176,0.000
1727413300.611,-52.734,-39.062,-22.461,-47.852,0.000
1727413300.615,-69.824,-32.715,-15.625,-38.574,0.000
1727413300.619,-72.266,-38.574,-14.160,-46.875,0.000
1727413300.623,-45.410,-43.457,-18.555,-56.641,0.000
1727413300.627,-41.992,-45.898,-19.531,-49.316,0.000
1727413300.631,-43.945,-33.691,-17.090,-46.387,0.000
1727413300.635,-54.688,-25.879,-12.695,-33.203,0.000
1727413300.639,-60.547,-28.320,-8.301,-29.297,0.000
1727413300.643,-29.785,-31.738,-11.719,-35.645,0.000
1727413300.647,-6.836,-28.320,-9.277,-28.809,0.000
1727413300.650,-25.879,-22.461,-7.812,-30.273,0.000
1727413300.654,-55.176,-26.855,-10.742,-37.109,0.000
1727413300.658,-66.406,-27.344,-9.766,-48.340,0.000
1727413300.662,-41.504,-31.738,-10.254,-55.176,0.000
1727413300.666,-16.113,-37.109,-15.625,-46.387,0.000
1727413300.670,-33.691,-49.805,-27.832,-41.992,0.000
1727413300.674,-65.430,-48.340,-24.414,-63.477,0.000
1727413300.678,-77.637,-29.785,-14.160,-70.801,0.000
1727413300.682,-56.641,-39.551,-6.348,-57.617,0.000
1727413300.686,-36.621,-41.016,-10.254,-60.547,0.000
1727413300.689,-53.711,-41.016,-17.578,-59.570,0.000
1727413300.693,-83.496,-51.758,-19.043,-59.082,0.000
1727413300.697,-96.191,-47.363,-17.578,-70.801,0.000
1727413300.701,-74.707,-39.062,-17.090,-75.195,0.000
1727413300.705,-44.434,-43.945,-20.996,-67.871,0.000
1727413300.709,-58.105,-52.246,-25.879,-67.871,0.000
1727413300.713,-87.402,-49.316,-25.391,-60.059,0.000
1727413300.717,-98.145,-46.875,-21.973,-63.477,0.000
1727413300.721,-78.125,-45.410,-14.648,-73.730,0.000
1727413300.725,-43.945,-36.133,-15.625,-64.941,0.000
1727413300.728,-54.688,-35.156,-27.344,-68.848,0.000
1727413300.732,-82.031,-42.969,-29.785,-70.801,0.000
1727413300.736,-99.609,-39.551,-29.297,-72.266,0.000
1727413300.740,-80.566,-46.387,-24.902,-75.195,0.000
1727413300.744,-36.621,-55.664,-22.949,-61.523,0.000
1727413300.748,-29.297,-41.504,-35.645,-44.434,0.000
1727413300.752,-60.547,-28.320,-38.086,-37.598,0.000
1727413300.756,-84.961,-30.273,-23.926,-48.340,0.000
1727413300.760,-73.242,-36.133,-18.555,-60.059,0.000
1727413300.764,-32.227,-53.711,-19.043,-51.270,0.000
1727413300.768,-17.090,-42.480,-23.926,-40.527,0.000
1727413300.771,-46.875,-26.367,-27.832,-29.785,0.000
1727413300.775,-78.125,-28.809,-23.926,-36.133,0.000
1727413300.779,-76.172,-30.273,-20.020,-62.012,0.000
1727413300.783,-43.945,-37.598,-20.508,-60.547,0.000
1727413300.787,-24.902,-34.668,-23.438,-49.316,0.000
1727413300.791,-55.664,-29.785,-31.738,-51.270,0.000
1727413300.795,-94.238,-32.227,-31.738,-60.059,0.000
1727413300.799,-84.473,-31.738,-18.555,-78.125,0.000
1727413300.803,-45.410,-41.992,-9.766,-72.266,0.000
1727413300.807,-29.785,-36.621,-12.207,-58.594,0.000
1727413300.811,-57.129,-29.297,-23.438,-64.453,0.000
1727413300.814,-94.727,-37.109,-27.344,-68.848,0.000
1727413300.818,-96.191,-40.527,-20.508,-71.289,0.000
1727413300.822,-57.617,-36.621,-19.531,-76.660,0.000
1727413300.826,-39.062,-40.527,-28.320,-67.871,0.000
1727413300.830,-72.266,-47.852,-31.738,-62.988,0.000
1727413300.834,-99.609,-44.922,-28.809,-58.594,0.000
1727413300.838,-93.262,-41.992,-30.273,-67.383,0.000
1727413300.842,-63.477,-52.734,-30.762,-73.242,0.000
1727413300.846,-34.668,-55.176,-29.785,-62.012,0.000
1727413300.850,-62.500,-48.828,-29.785,-60.059,0.000
1727413300.854,-110.352,-48.828,-34.668,-62.988,0.000
1727413300.857,-119.141,-44.922,-39.062,-81.543,0.000
1727413300.861,-82.031,-57.129,-29.297,-74.707,0.000
1727413300.865,-37.109,-52.246,-26.855,-62.012,0.000
1727413300.869,-55.176,-53.711,-22.461,-62.500,0.000
1727413300.873,-95.215,-58.105,-24.414,-68.359,0.000
1727413300.877,-98.633,-55.664,-33.203,-80.566,0.000
1727413300.881,-75.684,-57.617,-28.320,-67.871,0.000
1727413300.885,-46.875,-47.363,-27.832,-64.941,0.000
1727413300.889,-53.711,-48.340,-31.250,-66.895,0.000
1727413300.893,-83.008,-51.758,-32.715,-60.059,0.000
1727413300.897,-87.891,-43.945,-29.785,-60.547,0.000
1727413300.900,-69.824,-23.438,-32.227,-68.848,0.000
1727413300.904,-33.203,-22.949,-40.039,-63.965,0.000
1727413300.908,-39.062,-42.480,-37.598,-56.152,0.000
1727413300.912,0.000,-42.969,-32.227,-56.641,0.000
1727413300.916,0.000,-36.133,-29.297,-57.617,0.000
1727413300.920,0.000,-29.297,-27.832,-62.500,0.000
1727413300.924,0.000,-32.227,-24.902,-37.109,0.000
1727413300.928,0.000,-34.180,-23.926,-28.320,0.000
1727413300.932,0.000,-29.297,-31.738,-55.664,0.000
1727413300.936,0.000,-32.715,-38.086,-62.012,0.000
1727413300.940,0.000,-30.762,-33.691,-58.105,0.000
1727413300.943,0.000,-31.738,-29.785,-54.688,0.000
1727413300.947,0.000,-25.391,-29.297,-56.641,0.000
1727413300.951,0.000,-22.461,-28.809,-56.152,0.000
1727413300.955,0.000,-37.109,-31.250,-57.617,0.000
1727413300.959,-83.984,-46.387,-32.227,-67.871,0.000
1727413300.963,-41.504,-40.527,-29.785,-69.824,0.000
1727413300.967,-28.320,-45.898,-25.391,-46.875,0.000
1727413300.971,-62.988,-52.734,-22.949,-43.945,0.000
1727413300.975,-99.121,-63.965,-22.949,-56.641,0.000
1727413300.979,-91.309,-63.965,-16.113,-68.848,0.000
1727413300.982,-42.969,-58.594,-10.254,-69.336,0.000
1727413300.986,-26.855,-61.523,-12.207,-46.387,0.000
1727413300.990,-73.242,-55.664,-19.531,-47.852,0.000
1727413300.994,-104.980,-51.758,-27.344,-67.871,0.000
1727413300.998,-110.840,-53.223,-29.297,-88.379,0.000
1727413301.002,-72.266,-58.105,-30.273,-89.844,0.000
1727413301.006,-43.945,-53.711,-43.457,-84.473,0.000
1727413301.010,-69.336,-51.270,-48.340,-70.801,0.000
1727413301.014,-99.609,-46.387,-44.922,-75.684,0.000
1727413301.018,-105.957,-56.641,-41.504,-83.008,0.000
1727413301.021,-70.312,-66.406,-39.062,-83.008,0.000
1727413301.025,-46.387,-66.895,-39.062,-76.660,0.000
