timestamps,TP9,AF7,AF8,TP10,Right AUX
1727575137.332,-76.660,-13.184,-33.203,-37.598,0.000
1727575137.336,-58.105,-11.230,-39.062,-4.395,0.000
1727575137.340,-39.551,-20.020,-39.551,-25.879,0.000
1727575137.344,0.977,-11.719,-35.156,-37.598,0.000
1727575137.348,-42.480,-26.367,-43.457,-52.246,0.000
1727575137.352,-73.730,-32.715,-39.062,-33.691,0.000
1727575137.356,-47.852,-13.672,-21.484,14.160,0.000
1727575137.360,-41.504,-9.766,-19.531,9.277,0.000
1727575137.364,-4.883,-21.973,-23.438,-4.395,0.000
1727575137.368,-23.926,-30.762,-39.062,-31.738,0.000
1727575137.371,-62.988,5.371,-39.551,-31.250,0.000
1727575137.375,-22.461,17.578,-24.902,24.414,0.000
1727575137.379,0.000,-2.930,-20.508,11.230,0.000
1727575137.383,0.000,-12.695,-26.855,-28.320,0.000
1727575137.387,0.000,-25.391,-41.504,-47.363,0.000
1727575137.391,0.000,-18.066,-45.410,-23.438,0.000
1727575137.395,0.000,-7.324,-36.133,22.949,0.000
1727575137.399,0.000,-16.113,-38.086,-7.324,0.000
1727575137.403,0.000,-13.184,-42.969,-34.180,0.000
1727575137.407,0.000,-10.742,-48.828,-60.547,0.000
1727575137.411,0.000,-29.785,-49.316,-46.875,0.000
1727575137.414,0.000,-20.996,-32.715,18.555,0.000
1727575137.418,0.000,3.906,-27.344,-3.418,0.000
1727575137.422,0.000,3.418,-34.180,-25.391,0.000
1727575137.426,3.906,-8.301,-36.133,-20.020,0.000
1727575137.430,-56.641,-15.625,-37.109,-40.039,0.000
1727575137.434,-58.105,-11.230,-34.668,-22.461,0.000
1727575137.438,-3.906,-23.438,-40.527,8.301,0.000
1727575137.442,15.625,-31.738,-38.086,-12.207,0.000
1727575137.446,-24.902,-36.133,-29.785,-59.082,0.000
1727575137.450,-76.660,-46.875,-26.855,-56.152,0.000
1727575137.454,-61.523,-52.734,-18.066,-3.906,0.000
1727575137.457,-39.062,-54.199,-16.602,5.371,0.000
1727575137.461,-25.391,-33.691,-12.695,-22.461,0.000
1727575137.465,3.906,-38.086,-3.418,-27.344,0.000
1727575137.469,-48.828,-58.105,-8.789,-28.320,0.000
1727575137.473,0.000,-46.387,2.441,8.789,0.000
1727575137.477,0.000,-34.180,11.719,25.879,0.000
1727575137.481,0.000,-53.223,3.906,5.371,0.000
1727575137.485,0.000,-53.223,3.418,0.000,0.000
1727575137.489,0.000,-45.410,-3.418,-10.742,0.000
1727575137.493,0.000,-41.016,1.465,12.207,0.000
1727575137.496,0.000,-32.715,2.441,18.066,0.000
1727575137.500,0.000,-48.340,-4.395,-10.742,0.000
1727575137.504,0.000,-41.504,-5.371,-10.742,0.000
1727575137.508,0.000,-19.531,-9.766,-25.391,0.000
1727575137.512,0.000,-8.301,-6.348,-3.906,0.000
1727575137.516,0.000,-5.371,-6.348,34.180,0.000
1727575137.520,10.742,-2.930,-8.789,10.742,0.000
1727575137.524,25.879,3.418,-13.184,-20.020,0.000
1727575137.528,-14.648,-21.484,-26.855,-32.227,0.000
1727575137.532,-40.039,-29.297,-16.602,4.883,0.000
1727575137.536,-17.578,-5.371,-4.883,43.457,0.000
1727575137.539,-4.883,-16.602,-5.371,11.719,0.000
1727575137.543,14.160,-31.738,-8.789,-10.742,0.000
1727575137.547,-3.418,-30.762,-23.438,-25.879,0.000
1727575137.551,-54.199,-6.836,-22.949,-25.879,0.000
1727575137.555,-45.410,0.977,-16.602,12.207,0.000
1727575137.559,-12.695,-23.438,-21.973,8.301,0.000
1727575137.563,11.230,-36.621,-23.926,-14.160,0.000
1727575137.567,-16.113,-47.363,-20.020,-33.203,0.000
1727575137.571,-48.340,-44.922,-20.020,-15.137,0.000
1727575137.575,-28.809,-37.109,-26.855,25.879,0.000
1727575137.579,-24.902,-41.504,-32.715,2.930,0.000
1727575137.582,-0.977,-41.016,-28.320,-14.160,0.000
1727575137.586,-18.555,-45.410,-23.926,-24.414,0.000
1727575137.590,-63.965,-52.246,-31.738,-31.738,0.000
1727575137.594,-37.109,-35.156,-24.414,-3.418,0.000
1727575137.598,-30.273,-25.879,-14.648,-6.348,0.000
1727575137.602,-6.836,-32.715,-20.996,-18.555,0.000
1727575137.606,-5.859,-29.297,-23.438,-39.551,0.000
1727575137.610,-58.594,-30.273,-20.020,-42.969,0.000
1727575137.614,0.000,-20.020,-18.066,10.742,0.000
1727575137.618,0.000,-24.902,-24.902,7.812,0.000
1727575137.621,0.000,-34.180,-28.320,-21.973,0.000
1727575137.625,0.000,-25.879,-31.738,-37.598,0.000
1727575137.629,0.000,-26.367,-37.598,-59.570,0.000
1727575137.633,0.000,-35.156,-26.855,-10.742,0.000
1727575137.637,0.000,-37.598,-27.344,12.695,0.000
1727575137.641,0.000,-1.465,-32.227,-16.602,0.000
1727575137.645,0.000,5.371,-21.973,-28.320,0.000
1727575137.649,0.000,-22.461,-28.320,-29.785,0.000
1727575137.653,0.000,-4.395,-28.320,9.766,0.000
1727575137.657,0.000,9.277,-18.555,9.766,0.000
1727575137.661,-49.316,-7.324,-27.344,-15.137,0.000
1727575137.664,-33.691,-13.672,-40.527,-25.879,0.000
1727575137.668,-6.348,-17.090,-42.480,-50.781,0.000
1727575137.672,-0.977,-8.789,-27.344,-19.531,0.000
1727575137.676,-61.523,-8.789,-16.602,22.461,0.000
1727575137.680,-47.363,-12.207,-18.555,17.578,0.000
1727575137.684,-5.859,-5.371,-30.762,-15.625,0.000
1727575137.688,14.648,-4.395,-38.086,-58.105,0.000
1727575137.692,23.926,-6.836,-32.227,-23.438,0.000
1727575137.696,-29.297,-14.648,-39.062,14.648,0.000
1727575137.700,-34.668,-3.906,-36.621,-16.113,0.000
1727575137.703,-2.930,4.883,-23.438,-35.156,0.000
1727575137.707,-16.602,-23.438,-33.203,-52.246,0.000
1727575137.711,-45.898,-30.762,-37.109,-30.762,0.000
1727575137.715,-24.414,-14.160,-27.832,0.977,0.000
1727575137.719,-5.859,-7.812,-32.715,-14.648,0.000
1727575137.723,23.926,-13.672,-27.344,-17.090,0.000
1727575137.727,-26.367,-34.668,-32.227,-42.969,0.000
1727575137.731,-78.613,-37.109,-39.062,-42.969,0.000
1727575137.735,-50.293,-16.602,-24.414,6.348,0.000
1727575137.739,-19.043,-30.762,-25.391,-2.441,0.000
1727575137.743,-2.930,-46.387,-38.086,-30.273,0.000
1727575137.746,-41.992,-27.832,-28.809,-58.594,0.000
1727575137.750,-64.941,-35.156,-22.461,-46.387,0.000
1727575137.754,0.000,-38.086,-29.297,-8.301,0.000
1727575137.758,0.000,-35.156,-33.203,-37.109,0.000
1727575137.762,0.000,-37.598,-41.016,-61.035,0.000
1727575137.766,0.000,-54.688,-44.922,-64.453,0.000
1727575137.770,0.000,-57.617,-35.645,-48.340,0.000
1727575137.774,0.000,-32.715,-34.668,1.465,0.000
1727575137.778,0.000,-20.020,-30.762,2.930,0.000
1727575137.782,0.000,-16.602,-23.438,-9.277,0.000
1727575137.786,0.000,-48.340,-40.527,-15.625,0.000
1727575137.789,0.000,-52.246,-35.645,-26.855,0.000
1727575137.793,0.000,-27.344,-21.973,1.953,0.000
1727575137.797,0.000,-35.645,-27.832,6.348,0.000
1727575137.801,-0.488,-36.133,-32.715,-24.902,0.000
1727575137.805,-5.859,-31.250,-36.133,-31.738,0.000
1727575137.809,-43.945,-32.227,-30.273,-19.531,0.000
1727575137.813,-30.762,-14.648,-25.879,10.742,0.000
1727575137.817,-3.418,-9.277,-21.484,11.719,0.000
1727575137.821,20.996,-24.414,-20.020,-3.906,0.000
1727575137.825,20.996,-29.297,-25.879,-18.555,0.000
1727575137.829,-30.273,-29.785,-28.809,-15.625,0.000
1727575137.832,-30.762,-16.113,-25.879,24.414,0.000
1727575137.836,-25.391,-1.465,-19.043,11.719,0.000
1727575137.840,-20.020,-19.531,-20.996,-16.113,0.000
1727575137.844,0.977,-26.367,-23.438,-31.738,0.000
1727575137.848,0.000,-27.832,-30.273,-49.316,0.000
1727575137.852,0.000,-25.879,-27.344,-20.996,0.000
1727575137.856,0.000,-32.715,-21.973,-4.883,0.000
1727575137.860,0.000,-28.320,-24.414,-21.484,0.000
1727575137.864,0.000,-20.508,-27.344,-38.574,0.000
1727575137.868,0.000,-34.180,-36.133,-56.641,0.000
1727575137.871,0.000,-31.738,-34.668,-28.320,0.000
1727575137.875,0.000,-30.273,-28.809,7.812,0.000
1727575137.879,0.000,-28.320,-32.227,-24.414,0.000
1727575137.883,0.000,-20.508,-36.133,-47.363,0.000
1727575137.887,0.000,-30.273,-37.598,-50.293,0.000
1727575137.891,0.000,-24.414,-29.785,-21.973,0.000
1727575137.895,-46.875,-10.742,-13.672,4.395,0.000
1727575137.899,-33.691,-19.043,-16.113,-31.738,0.000
1727575137.903,3.906,-33.203,-26.855,-44.922,0.000
1727575137.907,-31.738,-50.781,-30.273,-59.570,0.000
1727575137.911,-79.590,-41.992,-30.273,-40.527,0.000
1727575137.914,-44.922,-16.602,-26.855,9.766,0.000
1727575137.918,-13.184,-13.672,-29.297,-5.371,0.000
1727575137.922,8.789,-16.113,-33.203,-16.602,0.000
1727575137.926,-30.762,-17.090,-35.645,-38.574,0.000
1727575137.930,-71.289,-19.043,-37.598,-55.664,0.000
1727575137.934,-37.598,-11.230,-37.109,-6.836,0.000
1727575137.938,-22.461,-8.789,-42.480,-10.742,0.000
1727575137.942,-7.324,-3.906,-42.969,-48.828,0.000
1727575137.946,-22.461,-7.812,-34.668,-57.617,0.000
1727575137.950,-60.547,-17.578,-33.691,-34.668,0.000
1727575137.954,-40.039,-2.441,-29.785,0.488,0.000
1727575137.957,-21.973,0.000,-27.832,-7.812,0.000
1727575137.961,-0.977,-5.371,-34.180,-32.227,0.000
1727575137.965,-15.137,-23.926,-33.691,-38.086,0.000
1727575137.969,-58.594,-24.414,-25.391,-34.668,0.000
1727575137.973,-44.434,-3.418,-10.742,5.371,0.000
1727575137.977,-20.508,-14.160,-11.719,3.418,0.000
1727575137.981,-8.301,-18.066,-25.879,-39.062,0.000
1727575137.985,-9.277,-14.648,-32.227,-41.504,0.000
1727575137.989,-47.363,-7.812,-32.715,-44.434,0.000
1727575137.993,-49.805,-2.441,-29.785,-6.348,0.000
1727575137.996,-36.621,-9.277,-28.320,6.836,0.000
1727575138.000,-12.695,-12.207,-23.926,-30.273,0.000
1727575138.004,-2.441,-17.578,-30.273,-53.711,0.000
1727575138.008,-52.246,-36.133,-37.598,-69.824,0.000
1727575138.012,-60.547,-31.250,-29.785,-7.324,0.000
1727575138.016,-33.203,-10.254,-23.438,16.113,0.000
1727575138.020,-12.207,-12.695,-22.461,-30.762,0.000
1727575138.024,-7.324,-22.949,-32.227,-42.969,0.000
1727575138.028,-57.129,-27.832,-31.250,-59.082,0.000
1727575138.032,-76.660,-17.578,-30.273,-28.809,0.000
1727575138.036,-46.387,-14.160,-30.762,0.000,0.000
1727575138.039,-18.555,-31.738,-22.949,-20.996,0.000
1727575138.043,7.812,-23.926,-17.578,-40.527,0.000
1727575138.047,-41.504,-8.789,-24.414,-63.477,0.000
1727575138.051,-70.801,-4.883,-30.273,-39.551,0.000
1727575138.055,-38.574,-9.766,-29.297,4.883,0.000
1727575138.059,-22.949,-18.555,-31.250,-1.465,0.000
1727575138.063,-1.465,-16.602,-31.738,-16.113,0.000
1727575138.067,-30.273,-36.621,-37.598,-49.316,0.000
1727575138.071,-58.594,-42.969,-36.621,-36.133,0.000
1727575138.075,-44.434,-23.926,-24.902,8.301,0.000
1727575138.079,-26.855,-20.020,-20.996,-6.348,0.000
1727575138.082,8.301,-20.996,-24.902,-19.531,0.000
1727575138.086,-7.324,-31.738,-25.391,-41.504,0.000
1727575138.090,-34.668,-38.574,-25.879,-36.133,0.000
1727575138.094,-31.250,-23.438,-20.020,4.395,0.000
1727575138.098,-13.184,-14.160,-22.461,-12.695,0.000
1727575138.102,5.371,-16.602,-29.297,-43.945,0.000
1727575138.106,-40.039,-21.484,-30.762,-66.406,0.000
1727575138.110,-75.684,-14.160,-28.320,-56.641,0.000
1727575138.114,-39.551,-15.625,-20.020,-1.953,0.000
1727575138.118,-20.020,-28.809,-27.344,-14.160,0.000
1727575138.121,-7.324,-9.766,-33.203,-43.945,0.000
1727575138.125,-28.320,-11.230,-35.645,-48.340,0.000
1727575138.129,-70.801,-19.043,-39.062,-54.199,0.000
1727575138.133,-55.664,-5.371,-26.855,-12.695,0.000
1727575138.137,-37.598,-4.883,-23.926,-16.602,0.000
1727575138.141,-12.207,-9.277,-15.625,-49.316,0.000
1727575138.145,-16.602,-20.020,-20.996,-53.711,0.000
1727575138.149,-60.547,-32.227,-41.016,-45.898,0.000
1727575138.153,-51.270,-13.184,-23.926,-3.418,0.000
1727575138.157,-23.438,-2.930,-25.879,0.977,0.000
1727575138.161,-8.301,-20.020,-39.062,-22.461,0.000
1727575138.164,-4.395,-18.066,-44.434,-44.922,0.000
1727575138.168,-43.945,-7.812,-40.527,-51.270,0.000
1727575138.172,-60.059,-16.113,-25.879,0.000,0.000
1727575138.176,-34.668,-9.766,-25.879,14.648,0.000
1727575138.180,-3.906,-0.977,-19.531,-16.602,0.000
1727575138.184,1.465,-9.277,-17.578,-29.785,0.000
1727575138.188,-50.781,-10.742,-28.809,-40.527,0.000
1727575138.192,-53.711,-2.441,-14.648,-7.812,0.000
1727575138.196,-33.691,-8.301,-15.625,9.277,0.000
1727575138.200,-18.555,-18.555,-32.715,-15.625,0.000
1727575138.204,-6.836,-29.297,-38.574,-30.762,0.000
1727575138.207,-68.359,-36.621,-41.992,-47.363,0.000
1727575138.211,-75.195,-0.488,-32.227,-18.066,0.000
1727575138.215,-40.039,3.418,-5.371,-6.836,0.000
1727575138.219,-16.602,-13.672,-23.926,-17.578,0.000
1727575138.223,1.953,-16.602,-41.504,-8.301,0.000
1727575138.227,-42.969,-5.859,-8.789,-48.828,0.000
1727575138.231,-59.082,8.301,27.832,-29.297,0.000
1727575138.235,-14.648,1.953,-6.836,26.367,0.000
1727575138.239,12.695,5.859,-50.293,7.812,0.000
1727575138.243,37.109,-1.953,-37.598,-8.301,0.000
1727575138.246,-3.906,-17.578,-49.805,-29.785,0.000
1727575138.250,-44.922,-27.344,-49.316,-6.836,0.000
1727575138.254,-27.832,-7.324,-35.645,21.484,0.000
1727575138.258,-21.484,7.324,-30.762,-14.160,0.000
1727575138.262,-0.977,-11.230,-28.809,-39.062,0.000
1727575138.266,-26.367,-29.297,-48.828,-53.711,0.000
1727575138.270,-62.988,-13.672,-45.898,-36.621,0.000
1727575138.274,-34.180,-6.836,-33.203,10.254,0.000
1727575138.278,-5.859,-20.996,-33.691,-6.836,0.000
1727575138.282,14.648,-21.484,-37.109,-35.645,0.000
1727575138.286,-20.020,-25.879,-37.598,-41.016,0.000
1727575138.289,-50.293,-29.297,-30.273,-23.438,0.000
1727575138.293,-13.184,-21.973,-20.508,7.812,0.000
1727575138.297,-5.859,-29.785,-27.832,-0.977,0.000
1727575138.301,3.906,-21.484,-34.180,-32.715,0.000
1727575138.305,-14.160,-20.996,-36.621,-65.918,0.000
1727575138.309,-73.242,-32.715,-41.016,-58.105,0.000
1727575138.313,-59.570,-30.762,-32.715,-13.184,0.000
1727575138.317,-29.785,-25.391,-30.762,-21.484,0.000
1727575138.321,8.789,-34.180,-30.273,-27.832,0.000
1727575138.325,-14.648,-48.340,-27.344,-38.086,0.000
1727575138.329,-83.008,-37.109,-24.414,-42.969,0.000
1727575138.332,-58.105,-18.555,-22.949,8.789,0.000
1727575138.336,-32.227,-12.207,-23.438,-4.883,0.000
1727575138.340,-17.578,-17.090,-34.668,-31.250,0.000
1727575138.344,-27.344,-17.578,-43.457,-47.852,0.000
1727575138.348,-72.754,-24.414,-32.227,-62.500,0.000
1727575138.352,-43.945,-16.602,-26.367,0.488,0.000
1727575138.356,-31.738,10.254,-26.855,0.488,0.000
1727575138.360,-22.949,15.137,-27.832,-41.504,0.000
1727575138.364,-5.371,-0.977,-29.297,-43.945,0.000
1727575138.368,-46.387,-22.949,-34.180,-39.551,0.000
1727575138.371,-43.457,-15.137,-31.738,-15.625,0.000
1727575138.375,-28.809,-3.418,-31.250,-23.438,0.000
1727575138.379,-8.301,-0.977,-36.621,-40.527,0.000
1727575138.383,14.160,-21.973,-33.691,-41.016,0.000
1727575138.387,-54.199,-36.621,-43.945,-57.129,0.000
1727575138.391,-75.195,-3.418,-40.039,-27.832,0.000
1727575138.395,-41.504,2.930,-26.855,-9.766,0.000
1727575138.399,-18.555,-15.625,-35.156,-43.945,0.000
1727575138.403,3.418,-20.508,-41.504,-52.246,0.000
1727575138.407,-45.410,-22.949,-44.434,-60.547,0.000
1727575138.411,-56.641,-9.277,-37.598,-28.320,0.000
1727575138.414,-34.180,-1.465,-30.762,2.930,0.000
1727575138.418,-28.320,-6.836,-30.762,-31.738,0.000
1727575138.422,3.906,-6.348,-24.902,-40.039,0.000
1727575138.426,-30.273,-19.531,-32.227,-44.434,0.000
1727575138.430,-61.035,-29.297,-43.457,-28.809,0.000
1727575138.434,-36.133,-19.531,-34.668,-6.348,0.000
1727575138.438,-26.855,-2.930,-23.438,-31.250,0.000
1727575138.442,3.418,9.277,-37.109,-57.617,0.000
1727575138.446,-12.207,-2.930,-47.363,-57.617,0.000
1727575138.450,-58.105,-5.859,-35.645,-27.832,0.000
1727575138.454,-38.574,15.625,-24.414,7.324,0.000
1727575138.457,-20.020,10.254,-21.973,-17.578,0.000
1727575138.461,3.906,0.000,-23.438,-42.480,0.000
1727575138.465,-21.973,2.441,-31.250,-52.734,0.000
1727575138.469,-65.430,8.789,-32.227,-45.410,0.000
1727575138.473,-50.293,12.695,-34.180,-7.812,0.000
1727575138.477,-41.016,-5.859,-49.316,-28.320,0.000
1727575138.481,-9.766,-4.883,-43.457,-47.363,0.000
1727575138.485,-35.156,-5.859,-39.551,-60.059,0.000
1727575138.489,-75.195,-30.762,-45.410,-48.340,0.000
1727575138.493,-44.434,-15.625,-36.133,-5.859,0.000
1727575138.497,-37.109,18.066,-34.180,-25.391,0.000
1727575138.500,-6.348,13.672,-36.133,-37.598,0.000
1727575138.504,0.000,-3.418,-34.180,-41.016,0.000
1727575138.508,0.000,3.418,-38.086,-48.340,0.000
1727575138.512,0.000,21.973,-29.785,-2.441,0.000
1727575138.516,0.000,9.766,-25.879,-9.766,0.000
1727575138.520,0.000,-3.906,-33.203,-25.879,0.000
1727575138.524,0.000,-0.977,-33.691,-33.691,0.000
1727575138.528,0.000,2.930,-34.668,-48.340,0.000
1727575138.532,0.000,19.531,-32.227,4.883,0.000
1727575138.536,0.000,8.789,-33.203,20.996,0.000
1727575138.539,0.000,-0.977,-31.250,1.465,0.000
1727575138.543,0.000,-3.418,-33.203,-32.715,0.000
1727575138.547,0.000,-9.766,-34.180,-55.176,0.000
1727575138.551,-47.363,10.742,-26.855,-10.254,0.000
1727575138.555,-22.461,7.324,-30.273,8.789,0.000
1727575138.559,-20.508,0.977,-25.391,-8.789,0.000
1727575138.563,0.977,1.465,-31.250,-21.973,0.000
1727575138.567,-58.105,-18.555,-41.016,-55.176,0.000
1727575138.571,-77.148,-12.207,-34.668,-21.973,0.000
1727575138.575,-41.504,7.812,-30.762,1.953,0.000
1727575138.579,-20.020,1.465,-41.504,-28.320,0.000
1727575138.582,-2.441,-5.859,-41.016,-41.992,0.000
1727575138.586,-52.734,5.371,-36.621,-65.430,0.000
1727575138.590,-61.523,13.672,-36.621,-28.809,0.000
1727575138.594,-40.527,12.695,-31.738,0.977,0.000
1727575138.598,-31.738,6.348,-29.785,-28.809,0.000
1727575138.602,5.371,-0.977,-25.879,-54.688,0.000
1727575138.606,-32.715,-14.648,-32.715,-62.500,0.000
1727575138.610,-69.336,-13.184,-29.297,-24.414,0.000
1727575138.614,-39.551,-1.953,-26.855,-8.789,0.000
1727575138.618,-22.461,-7.812,-40.527,-33.203,0.000
1727575138.622,2.441,-11.719,-44.922,-36.621,0.000
1727575138.625,-37.598,-22.461,-44.922,-45.898,0.000
1727575138.629,-70.801,-12.207,-32.227,-20.508,0.000
1727575138.633,-23.926,11.230,-18.066,26.367,0.000
1727575138.637,-5.371,-4.395,-28.320,3.906,0.000
1727575138.641,3.418,-15.137,-24.902,-17.090,0.000
1727575138.645,-35.645,-12.207,-30.273,-35.645,0.000
1727575138.649,-73.242,-6.348,-27.832,-24.414,0.000
1727575138.653,-31.250,0.488,-15.625,21.484,0.000
1727575138.657,-3.418,5.859,-27.344,8.789,0.000
1727575138.661,12.695,2.441,-26.855,-14.160,0.000
1727575138.664,-10.254,-7.324,-29.297,-29.297,0.000
1727575138.668,-50.293,-9.277,-39.551,-15.137,0.000
1727575138.672,-34.180,-5.859,-35.156,16.602,0.000
1727575138.676,-23.438,-1.953,-31.738,-13.672,0.000
1727575138.680,-1.465,-6.836,-37.598,-30.762,0.000
1727575138.684,-15.137,-18.555,-31.738,-41.504,0.000
1727575138.688,-52.246,-15.625,-28.320,-36.133,0.000
1727575138.692,-37.109,4.395,-25.879,8.301,0.000
1727575138.696,-32.715,0.977,-24.414,-5.371,0.000
1727575138.700,-1.953,-1.465,-27.344,-20.020,0.000
1727575138.704,-2.930,3.906,-24.902,-24.414,0.000
1727575138.707,-59.082,4.395,-23.926,-37.109,0.000
1727575138.711,-41.992,-0.977,-25.879,-6.348,0.000
1727575138.715,-26.367,-19.043,-33.203,-6.836,0.000
1727575138.719,-18.066,-16.113,-33.691,-27.344,0.000
1727575138.723,-6.348,-9.766,-21.484,-40.039,0.000
1727575138.727,-52.246,-24.414,-31.250,-54.199,0.000
1727575138.731,-47.363,-14.160,-31.250,-12.207,0.000
1727575138.735,-24.414,-4.883,-18.555,5.859,0.000
1727575138.739,-11.719,-15.137,-20.020,-19.043,0.000
1727575138.743,-9.277,-32.715,-32.227,-36.133,0.000
1727575138.747,-57.617,-34.668,-39.062,-52.246,0.000
1727575138.750,-66.406,-4.883,-26.367,-18.066,0.000
1727575138.754,-39.062,0.977,-18.555,-12.695,0.000
1727575138.758,-3.906,-20.508,-18.555,-31.738,0.000
1727575138.762,7.324,-31.250,-30.762,-33.691,0.000
1727575138.766,-46.387,-18.066,-29.785,-54.199,0.000
1727575138.770,-53.223,-6.348,-14.648,-9.766,0.000
1727575138.774,-28.809,-12.207,-21.973,17.090,0.000
1727575138.778,-7.324,-13.672,-30.762,-17.578,0.000
1727575138.782,13.184,-1.465,-32.715,-34.180,0.000
1727575138.786,-29.785,-20.020,-42.480,-47.852,0.000
1727575138.789,-49.316,-22.949,-28.809,-20.996,0.000
1727575138.793,-30.273,-1.465,-14.160,11.230,0.000
1727575138.797,-19.531,-5.859,-19.043,-16.602,0.000
1727575138.801,4.883,-26.855,-29.297,-30.273,0.000
1727575138.805,-29.785,-34.180,-41.992,-45.898,0.000
1727575138.809,-54.688,-23.926,-38.086,-26.367,0.000
1727575138.813,-32.227,-10.742,-27.832,6.836,0.000
1727575138.817,-18.555,-12.695,-28.809,-18.555,0.000
1727575138.821,6.348,-20.996,-26.855,-32.227,0.000
1727575138.825,-38.574,-21.973,-34.668,-51.270,0.000
1727575138.829,-70.312,-12.207,-29.785,-37.109,0.000
1727575138.832,-21.484,-4.395,-20.508,4.883,0.000
1727575138.836,-22.949,-18.066,-35.645,-21.484,0.000
1727575138.840,-23.438,-21.484,-37.598,-46.387,0.000
1727575138.844,-47.852,-23.926,-35.645,-63.477,0.000
1727575138.848,-70.801,-32.715,-39.551,-46.387,0.000
1727575138.852,-42.969,-26.367,-34.668,1.465,0.000
1727575138.856,-27.344,-20.508,-30.273,-25.879,0.000
1727575138.860,0.488,-21.484,-32.715,-55.176,0.000
1727575138.864,-22.461,-37.109,-41.992,-61.035,0.000
1727575138.868,-78.613,-40.039,-45.898,-53.711,0.000
1727575138.872,-61.523,-21.973,-31.738,-20.508,0.000
1727575138.875,-32.715,-26.367,-19.043,-22.461,0.000
1727575138.879,-4.883,-29.785,-23.926,-40.527,0.000
1727575138.883,-12.207,-23.438,-30.762,-40.527,0.000
1727575138.887,-61.035,-19.043,-32.227,-44.434,0.000
1727575138.891,-50.781,-15.137,-28.320,-22.461,0.000
1727575138.895,-22.949,-21.484,-26.855,-15.137,0.000
1727575138.899,-12.695,-25.391,-39.551,-41.016,0.000
1727575138.903,-23.926,-26.367,-42.969,-58.105,0.000
1727575138.907,-64.453,-29.297,-39.551,-56.641,0.000
1727575138.911,-50.293,-21.973,-37.598,-9.277,0.000
1727575138.915,-22.461,-8.301,-20.508,4.883,0.000
1727575138.918,-3.906,-15.625,-8.789,-22.949,0.000
1727575138.922,-1.465,-27.344,-32.715,-30.273,0.000
1727575138.926,-49.316,-24.902,-46.875,-39.551,0.000
1727575138.930,-50.293,-2.930,-32.715,-6.836,0.000
1727575138.934,-32.715,-6.836,-29.297,18.066,0.000
1727575138.938,-1.953,-25.391,-37.598,-20.508,0.000
1727575138.942,31.250,-21.973,-35.645,-48.340,0.000
1727575138.946,-29.297,-14.160,-38.574,-61.523,0.000
1727575138.950,-59.570,-6.836,-39.062,-18.066,0.000
1727575138.954,-24.414,-15.625,-23.438,25.391,0.000
1727575138.957,-3.418,-31.738,-23.926,11.719,0.000
1727575138.961,12.207,-13.184,-21.973,-7.812,0.000
1727575138.965,-28.809,-21.484,-31.738,-31.250,0.000
1727575138.969,-46.387,-31.250,-33.203,-8.789,0.000
1727575138.973,-22.461,-15.137,-26.367,7.324,0.000
1727575138.977,-2.441,-7.812,-40.527,-22.949,0.000
1727575138.981,7.324,-1.953,-46.387,-38.574,0.000
1727575138.985,-35.156,-16.602,-45.410,-62.012,0.000
1727575138.989,-46.387,-19.043,-43.457,-24.414,0.000
1727575138.993,-25.879,-4.883,-31.738,29.785,0.000
1727575138.997,-9.766,-13.184,-26.855,3.906,0.000
1727575139.000,19.531,-15.625,-31.250,-10.742,0.000
1727575139.004,-23.438,-16.602,-36.621,-29.785,0.000
1727575139.008,-66.406,-10.254,-32.227,-29.297,0.000
1727575139.012,-44.922,-4.883,-29.785,5.371,0.000
1727575139.016,-29.785,-26.367,-37.109,-19.531,0.000
1727575139.020,-8.789,-28.320,-42.480,-51.758,0.000
1727575139.024,-28.809,-32.715,-47.363,-78.613,0.000
1727575139.028,-75.684,-31.250,-41.992,-59.082,0.000
1727575139.032,-55.664,-8.301,-34.668,-5.859,0.000
1727575139.036,-33.203,-5.859,-38.574,-28.320,0.000
1727575139.040,-15.137,-18.555,-46.875,-41.992,0.000
1727575139.043,-35.156,-31.738,-48.828,-39.551,0.000
1727575139.047,-70.801,-30.762,-49.805,-39.062,0.000
1727575139.051,-50.293,2.930,-31.738,-10.742,0.000
1727575139.055,-33.203,9.766,-25.879,-24.902,0.000
1727575139.059,1.953,-15.625,-42.969,-41.504,0.000
1727575139.063,15.137,-29.785,-43.945,-52.246,0.000
1727575139.067,-52.734,-14.160,-44.922,-58.105,0.000
1727575139.071,-64.941,-0.488,-37.598,-7.812,0.000
1727575139.075,-41.992,-4.395,-35.156,-6.348,0.000
1727575139.079,-14.160,-3.906,-27.832,-30.762,0.000
1727575139.082,-4.883,-1.953,-20.996,-37.109,0.000
1727575139.086,-56.152,-17.578,-28.320,-37.598,0.000
1727575139.090,-43.457,-24.414,-24.902,17.578,0.000
1727575139.094,-27.832,-4.395,-28.809,16.602,0.000
1727575139.098,-4.395,6.348,-24.902,-35.645,0.000
1727575139.102,13.184,-5.859,-28.809,-29.785,0.000
1727575139.106,-51.270,-5.859,-38.574,-33.691,0.000
1727575139.110,-52.246,2.930,-36.133,-14.648,0.000
1727575139.114,-20.996,3.906,-40.039,-8.789,0.000
1727575139.118,-0.977,-8.301,-40.039,-23.438,0.000
1727575139.122,2.441,-22.461,-39.551,-25.879,0.000
1727575139.125,-41.992,-24.414,-44.922,-49.316,0.000
1727575139.129,-47.852,-1.465,-30.273,-25.391,0.000
1727575139.133,-14.648,-4.883,-27.344,13.672,0.000
1727575139.137,5.859,-31.738,-31.738,-9.766,0.000
1727575139.141,-8.301,-23.438,-34.180,-62.500,0.000
1727575139.145,-54.199,-15.625,-41.016,-76.660,0.000
1727575139.149,-58.594,-7.324,-38.086,-33.203,0.000
1727575139.153,-28.809,-5.371,-38.574,-13.672,0.000
1727575139.157,-8.301,-3.906,-30.273,-27.832,0.000
1727575139.161,1.465,-7.812,-35.156,-30.273,0.000
1727575139.165,-49.805,-31.250,-34.180,-55.176,0.000
1727575139.168,-75.684,-13.672,-32.715,-31.250,0.000
1727575139.172,-55.176,10.742,-8.301,-11.719,0.000
1727575139.176,-44.922,-11.719,18.555,-42.480,0.000
1727575139.180,0.977,-34.668,-36.621,-24.902,0.000
1727575139.184,-59.570,-9.277,-29.785,-60.059,0.000
1727575139.188,-109.863,-27.344,80.566,-73.730,0.000
1727575139.192,-34.668,-39.551,33.691,10.742,0.000
1727575139.196,-20.020,-10.742,-22.949,-19.531,0.000
1727575139.200,-15.137,3.418,-35.156,-80.078,0.000
1727575139.204,-21.484,29.785,-117.188,-32.227,0.000
1727575139.208,-94.238,-2.930,5.371,-61.523,0.000
1727575139.211,-116.211,31.250,20.020,-85.449,0.000
1727575139.215,-0.488,31.250,-83.984,29.785,0.000
1727575139.219,46.387,20.508,-109.863,46.387,0.000
1727575139.223,-166.992,79.590,18.555,-129.883,0.000
1727575139.227,-205.078,-34.668,80.078,-135.742,0.000
1727575139.231,-6.836,-91.309,-62.500,43.945,0.000
1727575139.235,29.297,-57.617,-34.668,60.059,0.000
1727575139.239,39.062,-16.113,-7.812,17.090,0.000
1727575139.243,-11.719,33.203,-134.277,-22.461,0.000
1727575139.247,-66.895,-18.555,-75.684,-79.102,0.000
1727575139.250,-130.371,65.918,41.992,-106.934,0.000
1727575139.254,-60.059,74.219,-32.227,7.812,0.000
1727575139.258,0.977,32.715,-81.055,44.434,0.000
1727575139.262,-66.406,64.941,-82.520,-45.898,0.000
1727575139.266,-21.484,77.637,-72.754,-18.555,0.000
1727575139.270,-83.008,73.730,-107.910,47.852,0.000
1727575139.274,-120.117,55.664,-83.496,61.035,0.000
1727575139.278,209.961,55.664,-79.590,126.465,0.000
1727575139.282,352.539,107.910,-86.914,177.246,0.000
1727575139.286,47.363,91.797,-16.113,37.598,0.000
1727575139.290,-13.672,82.520,-14.648,41.992,0.000
1727575139.293,73.730,224.609,-118.164,93.262,0.000
1727575139.297,0.977,222.656,-99.609,17.090,0.000
1727575139.301,81.543,127.930,-65.918,14.160,0.000
1727575139.305,78.125,132.324,-98.633,23.926,0.000
1727575139.309,-4.883,250.977,-99.609,36.621,0.000
1727575139.313,95.215,279.297,-90.820,88.867,0.000
1727575139.317,71.777,249.512,-57.617,48.828,0.000
1727575139.321,36.133,254.395,-42.969,-22.461,0.000
1727575139.325,41.504,238.770,-38.574,-17.578,0.000
1727575139.329,7.324,257.812,-62.988,62.988,0.000
1727575139.333,31.738,251.465,-57.617,83.496,0.000
1727575139.336,8.301,271.484,-52.246,22.461,0.000
1727575139.340,43.945,271.973,-55.176,-2.441,0.000
1727575139.344,16.113,244.629,-52.246,-26.855,0.000
1727575139.348,-47.363,267.090,-52.734,-12.207,0.000
1727575139.352,7.324,277.344,-24.902,55.664,0.000
1727575139.356,43.945,264.160,-20.996,30.273,0.000
1727575139.360,57.617,232.910,-30.762,4.883,0.000
1727575139.364,-11.230,246.094,-51.270,-10.742,0.000
1727575139.368,-114.746,250.488,-37.109,-25.391,0.000
1727575139.372,-44.922,193.848,-10.742,26.855,0.000
1727575139.375,41.504,167.969,-28.320,22.461,0.000
1727575139.379,38.086,162.598,-23.926,1.953,0.000
1727575139.383,20.020,169.922,-25.879,-16.113,0.000
1727575139.387,-8.789,175.293,-29.297,-16.602,0.000
1727575139.391,-34.668,172.852,-22.949,12.695,0.000
1727575139.395,-18.555,169.434,-25.391,0.000,0.000
1727575139.399,9.277,135.742,-2.930,-29.297,0.000
1727575139.403,-43.457,134.766,-13.184,-76.172,0.000
1727575139.407,-109.863,121.582,-34.668,-68.359,0.000
1727575139.411,-25.879,100.586,-10.254,33.691,0.000
1727575139.415,21.973,126.465,-25.879,23.926,0.000
1727575139.418,24.414,104.980,-40.039,-38.574,0.000
1727575139.422,-21.973,84.961,-44.434,-79.590,0.000
1727575139.426,-93.750,100.098,-47.852,-81.543,0.000
1727575139.430,-70.312,119.629,-48.828,-27.344,0.000
1727575139.434,-60.059,104.980,-57.617,-49.805,0.000
1727575139.438,-37.598,92.773,-61.035,-100.586,0.000
1727575139.442,-46.387,96.191,-63.477,-123.535,0.000
1727575139.446,-106.934,81.543,-74.707,-126.465,0.000
1727575139.450,-91.309,87.402,-66.895,-74.219,0.000
1727575139.454,-66.406,94.238,-53.223,-62.012,0.000
1727575139.458,-49.316,82.031,-58.594,-90.820,0.000
1727575139.461,-43.457,64.453,-70.312,-111.328,0.000
1727575139.465,-97.168,53.711,-74.707,-113.770,0.000
1727575139.469,-89.844,71.289,-59.570,-57.617,0.000
1727575139.473,-44.922,78.613,-42.480,-34.180,0.000
1727575139.477,-6.836,70.801,-39.062,-47.363,0.000
1727575139.481,6.348,74.219,-41.016,-51.270,0.000
1727575139.485,-55.664,69.824,-49.316,-75.195,0.000
1727575139.489,-67.383,71.289,-41.992,-46.875,0.000
1727575139.493,-38.086,66.406,-34.180,-10.742,0.000
1727575139.497,-5.371,70.312,-32.227,-15.625,0.000
1727575139.500,28.809,65.918,-25.391,-28.809,0.000
1727575139.504,-22.461,53.223,-36.621,-58.594,0.000
1727575139.508,-34.180,60.059,-31.250,-3.418,0.000
1727575139.512,-6.836,64.453,-31.738,27.344,0.000
1727575139.516,5.859,60.547,-40.527,-20.020,0.000
1727575139.520,28.320,58.594,-35.645,-31.250,0.000
1727575139.524,-19.531,35.645,-38.086,-43.457,0.000
1727575139.528,-40.039,28.809,-28.320,-28.320,0.000
1727575139.532,-19.043,49.805,-17.090,-5.371,0.000
1727575139.536,-2.441,38.086,-15.625,-25.391,0.000
1727575139.540,25.391,10.742,-21.973,-36.621,0.000
1727575139.543,-14.160,-5.859,-27.344,-51.758,0.000
1727575139.547,-53.223,4.883,-26.855,-34.668,0.000
1727575139.551,-36.621,15.137,-34.668,-1.953,0.000
1727575139.555,-23.438,-7.324,-46.875,-21.973,0.000
1727575139.559,-15.625,-10.254,-50.781,-45.898,0.000
1727575139.563,-44.922,-14.160,-45.410,-85.938,0.000
1727575139.567,-78.613,-15.625,-39.551,-76.172,0.000
1727575139.571,-70.312,-18.066,-24.414,-27.832,0.000
1727575139.575,-60.547,-34.668,-23.438,-42.480,0.000
1727575139.579,-22.949,-30.273,-42.480,-59.082,0.000
1727575139.583,-34.668,-27.344,-43.457,-71.777,0.000
1727575139.586,-74.219,-32.715,-41.504,-55.664,0.000
1727575139.590,-48.828,-29.297,-26.855,1.465,0.000
1727575139.594,-36.133,-23.926,-18.066,-25.879,0.000
1727575139.598,-9.766,-35.645,-28.320,-69.336,0.000
1727575139.602,-16.602,-51.758,-43.945,-78.613,0.000
1727575139.606,-76.660,-43.945,-46.875,-77.637,0.000
1727575139.610,-58.594,-27.832,-35.645,-32.715,0.000
1727575139.614,-38.574,-44.434,-31.250,-25.879,0.000
1727575139.618,-16.602,-60.547,-35.645,-37.598,0.000
1727575139.622,-18.555,-42.480,-38.086,-56.152,0.000
1727575139.625,-62.988,-42.969,-34.180,-75.684,0.000
1727575139.629,-39.551,-43.457,0.000,-9.766,0.000
1727575139.633,-24.902,-44.434,0.000,6.348,0.000
1727575139.637,-5.859,-45.898,0.000,-22.461,0.000
1727575139.641,9.277,-37.109,0.000,-29.297,0.000
1727575139.645,-38.086,-58.594,0.000,-43.457,0.000
1727575139.649,-38.574,-50.781,0.000,-3.906,0.000
1727575139.653,-8.789,-47.363,0.000,-6.348,0.000
1727575139.657,3.418,-60.547,0.000,-45.898,0.000
1727575139.661,4.883,-62.988,0.000,-28.809,0.000
1727575139.665,-53.711,-60.547,0.000,-37.109,0.000
1727575139.668,-70.801,-38.086,0.000,-22.461,0.000
1727575139.672,-30.273,-42.480,0.000,23.926,0.000
1727575139.676,-3.906,-56.641,-19.043,3.906,0.000
1727575139.680,11.719,-46.387,-25.391,-43.457,0.000
1727575139.684,-48.828,-51.758,-29.297,-65.430,0.000
1727575139.688,-80.078,-69.336,-32.715,-30.273,0.000
1727575139.692,-49.805,-62.012,-35.645,-18.555,0.000
1727575139.696,-22.949,-60.547,-41.504,-42.480,0.000
1727575139.700,6.836,-70.801,-40.039,-49.316,0.000
1727575139.704,-55.176,-83.984,-34.668,-64.941,0.000
1727575139.708,-105.469,-92.285,-35.156,-36.621,0.000
1727575139.711,-66.406,-69.336,-28.320,-3.906,0.000
1727575139.715,-35.156,-53.223,-23.438,-28.809,0.000
1727575139.719,-11.230,-65.918,-32.227,-46.387,0.000
1727575139.723,-44.434,-82.520,-36.133,-53.711,0.000
1727575139.727,-72.266,-87.891,-33.691,-28.809,0.000
1727575139.731,-60.059,-71.777,-33.203,-7.812,0.000
1727575139.735,-41.016,-73.730,-33.691,-34.180,0.000
1727575139.739,-3.418,-88.867,-27.344,-38.574,0.000
1727575139.743,-46.387,-85.449,-31.738,-57.129,0.000
1727575139.747,-83.496,-76.660,-44.922,-39.551,0.000
1727575139.751,-39.062,-69.824,-41.504,2.441,0.000
1727575139.754,-23.438,-63.965,-38.574,-22.949,0.000
1727575139.758,-6.836,-42.480,-33.203,-45.410,0.000
1727575139.762,-19.043,-51.270,-25.879,-49.805,0.000
1727575139.766,-78.613,-69.824,-29.785,-40.039,0.000
1727575139.770,-85.938,-41.992,-29.297,-15.625,0.000
1727575139.774,-35.156,-48.828,-22.949,-27.344,0.000
1727575139.778,14.648,-72.754,-29.297,-29.785,0.000
1727575139.782,-0.488,-72.266,-31.250,-39.062,0.000
1727575139.786,-48.340,-62.500,-29.785,-36.621,0.000
1727575139.790,-40.039,-57.129,-24.902,4.395,0.000
1727575139.793,-17.090,-64.453,-22.949,-8.789,0.000
1727575139.797,-4.395,-57.129,-29.297,-25.391,0.000
1727575139.801,-13.184,-44.922,-38.574,-29.785,0.000
1727575139.805,-51.758,-47.363,-46.387,-47.363,0.000
1727575139.809,-34.668,-51.270,-33.691,-2.441,0.000
1727575139.813,-16.113,-53.223,-29.297,2.930,0.000
1727575139.817,-7.812,-30.273,-38.086,-36.621,0.000
1727575139.821,2.930,-22.949,-42.480,-49.805,0.000
1727575139.825,-40.527,-47.852,-27.832,-43.457,0.000
1727575139.829,-53.223,-44.922,-16.113,2.930,0.000
1727575139.833,-26.367,-43.945,-26.367,9.766,0.000
1727575139.836,3.418,-42.480,-25.391,-29.297,0.000
1727575139.840,10.254,-31.250,-28.809,-35.645,0.000
1727575139.844,-47.852,-23.438,-40.039,-48.340,0.000
1727575139.848,-57.617,-13.672,-25.879,-11.230,0.000
1727575139.852,-24.414,-25.391,-18.066,3.418,0.000
1727575139.856,-12.207,-34.180,-21.973,-37.109,0.000
1727575139.860,-11.230,-31.738,-27.832,-55.176,0.000
1727575139.864,-57.617,-39.062,-39.062,-79.102,0.000
1727575139.868,-56.641,-34.668,-38.574,-29.785,0.000
1727575139.872,-40.527,-32.715,-31.250,2.930,0.000
1727575139.876,-39.551,-39.551,-27.344,-38.574,0.000
1727575139.879,-20.508,-34.180,-27.832,-55.664,0.000
1727575139.883,-77.637,-58.105,-42.969,-80.078,0.000
1727575139.887,-96.680,-65.430,-45.410,-34.668,0.000
1727575139.891,-53.711,-35.156,-31.250,0.977,0.000
1727575139.895,-50.293,-31.738,-33.203,-53.223,0.000
1727575139.899,-19.043,-45.898,-45.898,-63.477,0.000
1727575139.903,-27.832,-66.895,-47.363,-74.707,0.000
1727575139.907,-67.383,-49.805,-43.457,-65.918,0.000
1727575139.911,-49.316,-42.480,-38.086,-15.137,0.000
1727575139.915,-30.762,-52.734,-40.039,-28.809,0.000
1727575139.918,-17.090,-44.922,-40.039,-54.688,0.000
1727575139.922,-48.340,-48.828,-41.504,-67.871,0.000
1727575139.926,-65.430,-39.551,-33.691,-41.504,0.000
1727575139.930,-21.973,-28.320,-26.367,17.578,0.000
1727575139.934,-5.371,-20.996,-26.367,-1.465,0.000
1727575139.938,11.719,-12.695,-21.973,-23.926,0.000
1727575139.942,-16.602,-37.109,-31.250,-39.062,0.000
1727575139.946,-66.895,-42.969,-31.738,-39.551,0.000
1727575139.950,-47.363,-7.812,-17.578,9.277,0.000
1727575139.954,-17.578,-3.418,-11.230,-0.488,0.000
1727575139.958,15.625,-17.578,-7.812,-15.137,0.000
1727575139.961,-27.832,-37.598,-19.043,-20.508,0.000
1727575139.965,-79.590,-28.809,-17.578,-41.992,0.000
1727575139.969,-32.715,-14.648,-12.695,-1.953,0.000
1727575139.973,-16.113,-27.344,-23.438,0.977,0.000
1727575139.977,14.160,-31.738,-21.973,-10.742,0.000
1727575139.981,5.371,-28.809,-24.902,-26.855,0.000
1727575139.985,-60.547,-15.625,-30.762,-55.664,0.000
1727575139.989,-44.922,-13.184,-26.855,-4.395,0.000
1727575139.993,-9.766,-33.691,-27.832,4.883,0.000
1727575139.997,-4.395,-15.625,-32.715,-37.598,0.000
1727575140.000,-14.160,-13.672,-37.109,-54.199,0.000
1727575140.004,-54.199,-37.109,-35.645,-68.359,0.000
1727575140.008,-55.176,-32.715,-24.414,-34.668,0.000
1727575140.012,-37.598,-24.902,-28.320,-21.484,0.000
1727575140.016,-18.555,-28.809,-34.668,-42.480,0.000
1727575140.020,-14.160,-42.969,-34.180,-47.852,0.000
1727575140.024,-70.801,-61.035,-38.086,-64.941,0.000
1727575140.028,-76.172,-54.688,-35.645,-22.461,0.000
1727575140.032,-40.039,-44.922,-33.691,-3.906,0.000
1727575140.036,-17.578,-54.688,-35.645,-32.227,0.000
1727575140.040,-9.766,-53.711,-28.320,-35.156,0.000
1727575140.043,-58.105,-49.316,-31.738,-61.523,0.000
1727575140.047,-74.707,-53.711,-38.086,-40.527,0.000
1727575140.051,-58.594,-49.805,-29.297,-15.137,0.000
1727575140.055,-33.203,-36.133,-24.902,-28.809,0.000
1727575140.059,-2.930,-26.855,-28.320,-41.016,0.000
1727575140.063,-52.246,-46.387,-34.180,-64.453,0.000
1727575140.067,-70.801,-47.363,-22.949,-39.062,0.000
1727575140.071,-26.855,-31.738,-20.020,-5.859,0.000
1727575140.075,-2.441,-30.273,-30.762,-13.672,0.000
1727575140.079,23.926,-41.016,-38.086,-32.715,0.000
1727575140.083,-22.461,-58.105,-41.992,-42.969,0.000
1727575140.086,-63.477,-47.363,-34.668,-19.531,0.000
1727575140.090,-34.668,-41.504,-32.715,1.953,0.000
1727575140.094,-28.320,-47.363,-41.504,-30.762,0.000
1727575140.098,-5.859,-43.945,-45.410,-55.176,0.000
1727575140.102,-22.949,-34.668,-42.969,-57.129,0.000
1727575140.106,-62.988,-37.598,-41.016,-26.855,0.000
1727575140.110,-38.086,-35.156,-38.574,2.930,0.000
1727575140.114,-23.438,-32.227,-37.109,-23.926,0.000
1727575140.118,-6.348,-38.574,-35.645,-38.574,0.000
1727575140.122,-27.832,-57.129,-34.668,-51.270,0.000
1727575140.126,-68.359,-65.918,-33.691,-42.480,0.000
1727575140.129,-42.480,-57.129,-30.762,-3.906,0.000
1727575140.133,-18.066,-48.828,-25.879,-19.043,0.000
1727575140.137,12.207,-35.645,-29.297,-31.738,0.000
1727575140.141,-9.766,-38.574,-37.598,-38.086,0.000
1727575140.145,-59.082,-38.086,-34.180,-37.598,0.000
1727575140.149,-35.645,-25.391,-26.367,-2.930,0.000
1727575140.153,-20.996,-29.297,-28.320,-16.113,0.000
1727575140.157,2.930,-33.691,-33.203,-24.414,0.000
1727575140.161,-4.395,-35.645,-33.203,-35.156,0.000
1727575140.165,-64.453,-39.551,-37.109,-60.059,0.000
1727575140.168,-54.688,-32.715,-35.645,-10.742,0.000
1727575140.172,-24.902,-38.574,-30.762,3.418,0.000
1727575140.176,7.324,-27.344,-21.484,-25.391,0.000
1727575140.180,10.742,-27.344,-26.367,-49.805,0.000
1727575140.184,-48.828,-37.598,-35.156,-47.852,0.000
1727575140.188,-52.246,-28.809,-21.484,-1.953,0.000
1727575140.192,-47.852,-33.691,-21.973,-14.648,0.000
1727575140.196,-26.367,-39.551,-34.668,-34.180,0.000
1727575140.200,-17.090,-53.711,-40.527,-53.711,0.000
1727575140.204,-73.730,-63.477,-43.457,-77.637,0.000
1727575140.208,-65.918,-39.551,-34.668,-31.738,0.000
1727575140.211,-36.621,-38.086,-31.250,-18.555,0.000
1727575140.215,-7.324,-58.105,-33.691,-29.785,0.000
1727575140.219,1.953,-46.387,-36.621,-26.367,0.000
1727575140.223,-55.176,-32.715,-32.227,-38.086,0.000
1727575140.227,-55.664,-22.949,-22.949,0.488,0.000
1727575140.231,-28.809,-24.902,-19.043,28.809,0.000
1727575140.235,-11.230,-24.902,-23.438,-18.066,0.000
1727575140.239,10.254,-16.602,-26.855,-40.039,0.000
1727575140.243,-19.531,-44.434,-30.273,-40.039,0.000
1727575140.247,-35.156,-44.434,-31.738,-26.367,0.000
1727575140.251,-35.645,-37.109,-31.738,-5.859,0.000
1727575140.254,-20.508,-46.387,-30.762,-20.020,0.000
1727575140.258,10.742,-43.945,-37.598,-36.133,0.000
1727575140.262,-38.574,-44.434,-45.410,-54.199,0.000
1727575140.266,-60.059,-22.949,-36.133,-26.367,0.000
1727575140.270,-32.715,-4.883,-20.996,10.742,0.000
1727575140.274,-15.137,-31.250,-30.762,-3.418,0.000
1727575140.278,17.578,-43.457,-44.434,-28.320,0.000
1727575140.282,-39.062,-19.043,-44.434,-75.684,0.000
1727575140.286,-61.035,-20.020,-32.227,-46.387,0.000
1727575140.290,-6.836,-26.367,-18.066,17.090,0.000
1727575140.294,0.488,-18.066,-25.879,-1.953,0.000
1727575140.297,6.348,-20.508,-29.785,-23.438,0.000
1727575140.301,-28.809,-39.551,-34.180,-60.059,0.000
1727575140.305,-65.430,-57.617,-46.387,-55.664,0.000
1727575140.309,-49.805,-45.898,-32.715,-13.672,0.000
1727575140.313,-37.598,-26.367,-21.973,-28.320,0.000
1727575140.317,-4.395,-23.926,-34.668,-30.762,0.000
1727575140.321,-20.508,-38.086,-35.156,-39.551,0.000
1727575140.325,-73.730,-28.809,-29.785,-41.504,0.000
1727575140.329,-51.758,-0.977,-24.414,-3.906,0.000
1727575140.333,-33.691,-9.277,-29.785,-14.160,0.000
1727575140.336,-13.672,-29.297,-35.156,-37.598,0.000
1727575140.340,-17.090,-27.832,-42.969,-45.898,0.000
1727575140.344,-54.199,-19.043,-40.527,-34.668,0.000
1727575140.348,-46.875,-11.230,-33.203,4.395,0.000
1727575140.352,-42.969,-15.137,-38.574,-0.977,0.000
1727575140.356,0.000,-11.230,-34.180,-19.531,0.000
1727575140.360,1.465,-20.020,-37.598,-48.828,0.000
1727575140.364,-73.730,-50.293,-40.527,-63.477,0.000
1727575140.368,-66.406,-42.969,-36.621,-6.348,0.000
1727575140.372,-39.062,-23.438,-33.691,-4.395,0.000
1727575140.376,-8.301,-35.156,-22.461,-36.621,0.000
1727575140.379,16.602,-39.062,-24.414,-36.621,0.000
1727575140.383,-42.480,-31.250,-36.621,-53.223,0.000
1727575140.387,-54.688,-11.230,-21.973,-8.301,0.000
1727575140.391,-21.973,-17.090,-23.438,11.719,0.000
1727575140.395,-3.418,-37.109,-37.598,-14.648,0.000
1727575140.399,12.695,-40.039,-37.598,-21.484,0.000
1727575140.403,-28.809,-39.551,-34.668,-37.109,0.000
1727575140.407,-51.270,-26.367,-20.996,-7.324,0.000
1727575140.411,-23.438,-37.598,-21.484,19.043,0.000
1727575140.415,-2.930,-16.113,-30.273,-5.371,0.000
1727575140.419,-6.836,12.207,-22.461,-26.855,0.000
1727575140.422,-53.223,-36.621,-25.879,-41.504,0.000
1727575140.426,0.000,-51.758,-28.809,-20.996,0.000
1727575140.430,0.000,-38.086,-11.719,11.230,0.000
1727575140.434,0.000,-35.645,-13.672,-10.742,0.000
1727575140.438,0.000,-38.086,-27.832,-33.203,0.000
1727575140.442,0.000,-44.434,-37.598,-47.363,0.000
1727575140.446,0.000,-34.180,-43.945,-17.578,0.000
1727575140.450,0.000,-16.113,-32.715,8.301,0.000
1727575140.454,0.000,-24.902,-25.391,-15.625,0.000
1727575140.458,0.000,-51.270,-30.762,-29.785,0.000
1727575140.461,0.000,-57.129,-36.621,-62.500,0.000
1727575140.465,0.000,-44.434,-33.203,-55.176,0.000
1727575140.469,0.000,-38.086,-22.461,-17.578,0.000
1727575140.473,-58.105,-39.062,-26.855,-45.410,0.000
1727575140.477,-27.344,-32.227,-30.762,-61.035,0.000
1727575140.481,-7.812,-41.016,-30.762,-70.801,0.000
1727575140.485,5.859,-40.039,-41.016,-60.059,0.000
1727575140.489,-42.969,-27.344,-36.621,-5.371,0.000
1727575140.493,-59.082,-32.227,-29.785,-12.695,0.000
1727575140.497,-30.762,-26.855,-33.203,-48.340,0.000
1727575140.501,-19.531,-52.734,-47.363,-72.754,0.000
1727575140.504,0.977,-54.199,-50.781,-57.617,0.000
1727575140.508,-41.016,-5.371,-31.250,-13.184,0.000
1727575140.512,-79.102,-12.695,-29.785,-20.508,0.000
1727575140.516,-58.105,-31.738,-40.039,-36.621,0.000
1727575140.520,-21.484,-35.156,-33.203,-57.129,0.000
1727575140.524,-62.500,-35.645,-31.250,-55.176,0.000
1727575140.528,-43.457,-32.715,-25.879,4.883,0.000
1727575140.532,-30.273,-28.809,-22.949,-0.977,0.000
1727575140.536,-18.555,-22.461,-25.879,-30.762,0.000
1727575140.540,-18.066,-31.738,-31.250,-30.762,0.000
1727575140.543,-53.711,-33.203,-27.344,-29.785,0.000
1727575140.547,-37.109,-20.020,-15.137,20.020,0.000
1727575140.551,-21.973,-7.324,-2.930,28.320,0.000
1727575140.555,2.930,-13.184,-4.883,11.230,0.000
1727575140.559,22.949,-19.531,-20.508,-7.324,0.000
1727575140.563,-33.203,-21.973,-21.484,-44.434,0.000
1727575140.567,-35.645,-12.207,-12.207,-0.488,0.000
1727575140.571,0.488,-3.418,-12.207,14.648,0.000
1727575140.575,19.531,-6.348,-19.043,-12.207,0.000
1727575140.579,19.043,-10.742,-27.832,-24.902,0.000
1727575140.583,-35.645,-34.180,-33.203,-42.969,0.000
1727575140.586,-45.898,-31.250,-26.367,-10.254,0.000
1727575140.590,-11.719,-26.367,-21.484,20.508,0.000
1727575140.594,-1.465,-34.668,-31.250,-10.742,0.000
1727575140.598,7.812,-25.879,-30.273,-42.969,0.000
1727575140.602,-42.969,-24.414,-28.809,-56.152,0.000
1727575140.606,-59.082,-22.461,-27.832,-24.902,0.000
1727575140.610,-33.203,-29.785,-29.297,10.254,0.000
1727575140.614,-28.809,-35.156,-28.809,-18.066,0.000
1727575140.618,-4.395,-27.344,-30.762,-41.504,0.000
1727575140.622,-46.387,-27.344,-38.574,-48.340,0.000
1727575140.626,-75.195,-25.879,-35.156,-27.832,0.000
1727575140.629,-51.270,-22.461,-37.109,-7.324,0.000
1727575140.633,-29.785,-43.945,-43.457,-29.785,0.000
1727575140.637,-4.883,-52.734,-46.875,-37.109,0.000
1727575140.641,-54.688,-37.598,-45.410,-61.523,0.000
1727575140.645,-78.613,-24.414,-39.062,-43.457,0.000
1727575140.649,-42.969,-23.926,-37.109,3.418,0.000
1727575140.653,-26.855,-33.203,-38.574,-18.066,0.000
1727575140.657,-1.953,-34.180,-45.410,-45.898,0.000
1727575140.661,0.000,-33.691,-44.922,-54.199,0.000
1727575140.665,0.000,-24.902,-38.574,-29.297,0.000
1727575140.668,0.000,-25.879,-39.062,1.465,0.000
1727575140.672,0.000,-24.902,-33.203,-14.648,0.000
1727575140.676,0.000,-19.043,-31.738,-33.691,0.000
1727575140.680,0.000,-40.527,-41.504,-55.176,0.000
1727575140.684,0.000,-38.086,-33.691,-41.992,0.000
1727575140.688,0.000,-13.672,-19.531,4.883,0.000
1727575140.692,0.000,-18.555,-20.996,-1.953,0.000
1727575140.696,0.000,-26.367,-26.367,-10.254,0.000
1727575140.700,0.000,-20.508,-35.645,-30.273,0.000
1727575140.704,0.000,-20.508,-36.621,-43.457,0.000
1727575140.708,-33.691,-11.719,-27.344,-1.465,0.000
1727575140.711,-22.949,-10.254,-24.902,1.465,0.000
1727575140.715,-7.812,-12.695,-26.855,-13.672,0.000
1727575140.719,-2.930,-19.531,-29.785,-34.668,0.000
1727575140.723,-51.758,-35.156,-29.297,-41.504,0.000
1727575140.727,-46.875,-29.785,-22.949,17.090,0.000
1727575140.731,-37.109,-26.367,-19.531,4.395,0.000
1727575140.735,-17.090,-22.949,-27.832,-46.387,0.000
1727575140.739,-3.418,-37.598,-35.156,-45.898,0.000
1727575140.743,-70.801,-58.105,-31.738,-44.434,0.000
1727575140.747,-67.871,-23.438,-18.066,-14.648,0.000
1727575140.751,-30.762,-10.254,-14.648,-4.883,0.000
1727575140.754,0.000,-21.973,-21.484,-20.996,0.000
1727575140.758,0.000,-25.879,-30.762,-25.879,0.000
1727575140.762,0.000,-28.320,-35.156,-51.758,0.000
1727575140.766,0.000,-29.297,-34.668,-31.250,0.000
1727575140.770,0.000,-33.203,-37.109,-19.531,0.000
1727575140.774,0.000,-35.645,-37.109,-45.898,0.000
1727575140.778,0.000,-35.156,-38.574,-57.617,0.000
1727575140.782,0.000,-36.133,-33.203,-68.848,0.000
1727575140.786,0.000,-41.016,-24.414,-21.973,0.000
1727575140.790,0.000,-39.062,-20.508,9.766,0.000
1727575140.793,0.000,-20.508,-17.578,-29.297,0.000
1727575140.797,0.000,-19.531,-28.809,-58.594,0.000
1727575140.801,-59.082,-28.320,-48.340,-72.754,0.000
1727575140.805,-63.965,-4.395,-37.598,-26.367,0.000
1727575140.809,-24.902,3.906,-27.832,12.207,0.000
1727575140.813,0.488,-7.812,-36.621,-19.531,0.000
1727575140.817,6.836,-9.277,-40.039,-36.133,0.000
1727575140.821,-40.039,-25.391,-39.062,-44.434,0.000
1727575140.825,-65.430,-11.719,-27.344,-28.320,0.000
1727575140.829,-30.273,3.418,-16.113,17.578,0.000
1727575140.833,-4.395,-3.906,-20.508,9.766,0.000
1727575140.836,9.277,14.648,-24.902,-14.160,0.000
1727575140.840,-18.066,0.000,-25.879,-22.461,0.000
1727575140.844,-50.293,-21.484,-19.531,-7.324,0.000
1727575140.848,-25.391,1.465,-10.742,26.367,0.000
1727575140.852,-9.766,17.578,-0.488,11.719,0.000
1727575140.856,17.090,12.207,-5.859,-16.113,0.000
1727575140.860,-9.766,-13.184,-23.926,-47.852,0.000
1727575140.864,-56.152,-22.949,-23.926,-39.062,0.000
1727575140.868,-27.832,-10.254,-20.020,11.719,0.000
1727575140.872,3.418,-6.836,-14.648,11.719,0.000
1727575140.876,19.043,-24.414,-20.996,-8.301,0.000
1727575140.879,-16.602,-35.156,-33.691,-27.832,0.000
1727575140.883,-65.430,-10.254,-27.832,-29.785,0.000
1727575140.887,-44.922,-4.395,-22.461,2.930,0.000
1727575140.891,-26.367,-9.277,-24.902,-0.488,0.000
1727575140.895,-8.789,-6.348,-25.879,-14.648,0.000
1727575140.899,-20.996,-19.043,-36.621,-32.715,0.000
1727575140.903,-75.195,-26.855,-43.457,-51.270,0.000
1727575140.907,-61.035,-12.207,-29.297,-12.695,0.000
1727575140.911,-25.879,-14.648,-22.949,-10.742,0.000
1727575140.915,-6.836,-32.715,-33.203,-31.738,0.000
1727575140.918,-20.020,-48.340,-44.922,-47.363,0.000
1727575140.922,-69.824,-57.617,-42.969,-57.617,0.000
1727575140.926,-72.754,-23.438,-33.691,-20.508,0.000
1727575140.930,-51.270,-11.230,-36.133,-12.695,0.000
1727575140.934,-13.184,-23.926,-39.062,-34.180,0.000
1727575140.938,0.488,-31.250,-42.969,-54.688,0.000
1727575140.942,-60.059,-36.133,-40.039,-70.312,0.000
1727575140.946,-68.359,-22.461,-30.273,-18.555,0.000
1727575140.950,-27.344,-16.602,-30.762,13.184,0.000
1727575140.954,2.930,-17.090,-28.320,-7.812,0.000
1727575140.958,-3.906,-19.043,-30.273,-12.207,0.000
1727575140.961,-55.664,-32.227,-40.527,-25.879,0.000
1727575140.965,-54.688,-34.668,-36.621,1.953,0.000
1727575140.969,-28.320,-21.973,-28.809,27.344,0.000
1727575140.973,5.859,-2.930,-26.367,-4.883,0.000
1727575140.977,34.180,-6.348,-26.367,-15.137,0.000
1727575140.981,-20.020,-15.625,-30.273,-34.180,0.000
1727575140.985,-41.992,5.859,-22.461,-6.348,0.000
1727575140.989,-18.066,11.719,-11.230,37.598,0.000
1727575140.993,7.812,1.953,-20.508,11.719,0.000
1727575140.997,56.152,14.648,-21.973,0.488,0.000
1727575141.001,18.066,8.789,-22.949,-13.672,0.000
1727575141.004,-28.809,0.488,-23.926,8.789,0.000
1727575141.008,-12.207,-0.977,-20.508,37.109,0.000
1727575141.012,14.648,-5.859,-21.973,-0.488,0.000
1727575141.016,35.645,-0.977,-18.066,-36.621,0.000
1727575141.020,-17.090,-22.461,-24.902,-54.688,0.000
1727575141.024,-56.152,-15.625,-27.344,-22.949,0.000
1727575141.028,-27.832,13.672,-18.066,15.137,0.000
1727575141.032,-11.719,10.742,-20.996,-12.695,0.000
1727575141.036,7.812,-0.488,-34.180,-39.551,0.000
1727575141.040,-22.461,-23.926,-44.434,-63.477,0.000
1727575141.044,-66.895,-27.832,-37.109,-47.852,0.000
1727575141.047,-41.016,-14.160,-29.297,-0.488,0.000
1727575141.051,-33.691,-27.344,-33.203,-26.367,0.000
1727575141.055,-0.488,-45.898,-39.551,-36.621,0.000
1727575141.059,-13.672,-49.316,-41.504,-44.434,0.000
1727575141.063,-66.406,-30.273,-33.203,-57.617,0.000
1727575141.067,-42.480,-19.531,-22.949,-4.883,0.000
1727575141.071,-23.926,-32.715,-27.344,2.441,0.000
1727575141.075,-7.324,-31.738,-33.691,-33.203,0.000
1727575141.079,-18.066,-30.762,-35.645,-51.270,0.000
1727575141.083,-61.035,-35.645,-34.180,-41.992,0.000
1727575141.087,-45.898,-13.672,-30.762,1.465,0.000
1727575141.090,-35.645,-8.301,-36.621,-12.207,0.000
1727575141.094,-23.438,-18.066,-41.016,-46.875,0.000
1727575141.098,-20.020,-30.762,-42.480,-52.246,0.000
1727575141.102,-62.500,-35.645,-41.016,-61.523,0.000
1727575141.106,-53.711,-5.371,-24.414,-20.996,0.000
1727575141.110,-30.762,0.488,-21.973,-6.836,0.000
1727575141.114,13.672,-22.461,-33.691,-28.809,0.000
1727575141.118,18.555,-35.645,-36.621,-44.922,0.000
1727575141.122,-66.406,-25.391,-29.785,-61.523,0.000
1727575141.126,-60.059,-6.836,-25.391,-12.207,0.000
1727575141.129,-29.297,0.000,-34.668,12.695,0.000
1727575141.133,-6.836,0.000,-29.785,-14.648,0.000
1727575141.137,13.184,-2.930,-29.785,-41.016,0.000
1727575141.141,-45.410,-22.949,-38.086,-58.105,0.000
1727575141.145,-52.246,-15.137,-28.809,-8.789,0.000
1727575141.149,-21.973,-12.207,-24.414,21.973,0.000
1727575141.153,-10.742,-18.555,-25.391,-10.254,0.000
1727575141.157,11.719,-17.090,-21.973,-38.574,0.000
1727575141.161,-30.273,-32.227,-36.133,-46.875,0.000
1727575141.165,-53.223,-20.020,-34.668,-5.371,0.000
1727575141.169,-21.973,5.859,-23.926,22.461,0.000
1727575141.172,4.883,-1.953,-28.320,0.488,0.000
1727575141.176,21.973,-19.531,-30.762,-13.184,0.000
1727575141.180,-25.391,-12.695,-31.250,-34.668,0.000
1727575141.184,-63.477,3.418,-22.461,-18.555,0.000
1727575141.188,-39.551,-10.742,-20.996,16.602,0.000
1727575141.192,-24.902,-28.320,-31.738,-5.859,0.000
1727575141.196,1.465,-30.762,-32.227,-28.320,0.000
1727575141.200,-30.273,-34.668,-35.156,-48.340,0.000
1727575141.204,-65.430,-30.273,-34.668,-18.066,0.000
1727575141.208,-39.062,-13.184,-30.273,16.113,0.000
1727575141.212,-25.391,-8.789,-29.297,-31.250,0.000
1727575141.215,4.883,-15.625,-35.156,-57.129,0.000
1727575141.219,-19.531,-39.062,-46.387,-55.176,0.000
1727575141.223,-67.383,-38.086,-42.480,-45.410,0.000
1727575141.227,-41.016,-2.930,-32.715,-17.578,0.000
1727575141.231,-18.555,-9.277,-26.367,-24.414,0.000
1727575141.235,-0.488,-20.508,-35.156,-47.363,0.000
1727575141.239,-27.832,-27.832,-50.781,-61.035,0.000
1727575141.243,-66.406,-18.066,-43.945,-47.852,0.000
1727575141.247,-35.156,-4.395,-27.832,1.465,0.000
1727575141.251,-23.926,-19.531,-30.273,-0.488,0.000
1727575141.254,-6.836,-15.137,-34.180,-34.180,0.000
1727575141.258,-21.484,-9.277,-35.645,-62.012,0.000
1727575141.262,-76.172,-13.184,-41.504,-61.035,0.000
1727575141.266,-66.895,-9.766,-42.480,-10.254,0.000
1727575141.270,-45.410,5.371,-39.551,-15.137,0.000
1727575141.274,-5.859,8.301,-31.738,-34.180,0.000
1727575141.278,2.930,-19.043,-30.762,-35.645,0.000
1727575141.282,-57.617,-22.461,-45.410,-47.852,0.000
1727575141.286,-53.223,-1.465,-45.898,-4.883,0.000
1727575141.290,-25.879,-4.395,-47.363,-1.953,0.000
1727575141.294,4.395,-17.578,-45.410,-39.062,0.000
1727575141.297,16.113,-23.438,-39.551,-57.129,0.000
1727575141.301,-38.086,-16.602,-41.016,-74.707,0.000
1727575141.305,-46.875,-2.441,-30.273,-22.461,0.000
1727575141.309,-21.484,-0.488,-32.715,20.508,0.000
1727575141.313,4.883,-12.695,-34.668,-7.324,0.000
1727575141.317,7.324,-19.043,-35.645,-43.945,0.000
1727575141.321,-53.223,-14.160,-43.945,-66.406,0.000
1727575141.325,-58.105,1.465,-26.367,-19.531,0.000
1727575141.329,-32.715,2.930,-15.625,8.789,0.000
1727575141.333,-18.555,-21.484,-34.180,-26.855,0.000
1727575141.337,-5.371,-41.992,-41.016,-47.363,0.000
1727575141.340,-56.152,-52.734,-42.969,-65.430,0.000
1727575141.344,-80.566,-35.156,-36.621,-32.227,0.000
1727575141.348,-51.270,-28.320,-32.227,-0.977,0.000
1727575141.352,-26.855,-39.062,-41.016,-28.320,0.000
1727575141.356,-8.301,-31.250,-42.969,-32.227,0.000
1727575141.360,-57.129,-34.668,-44.434,-65.430,0.000
1727575141.364,0.000,-33.203,-41.992,-56.152,0.000
1727575141.368,0.000,-25.879,-38.086,-17.578,0.000
1727575141.372,0.000,-32.227,-41.504,-40.527,0.000
1727575141.376,0.000,-27.344,-38.574,-55.176,0.000
1727575141.380,0.000,-34.180,-40.527,-81.055,0.000
1727575141.383,0.000,-37.598,-44.434,-56.641,0.000
1727575141.387,0.000,-40.039,-42.969,4.395,0.000
1727575141.391,0.000,-32.715,-45.898,-21.973,0.000
1727575141.395,0.000,-4.395,-39.062,-43.457,0.000
1727575141.399,0.000,-23.438,-40.527,-56.641,0.000
1727575141.403,0.000,-36.621,-42.969,-65.918,0.000
1727575141.407,0.000,-16.602,-39.551,-19.043,0.000
1727575141.411,-88.867,-14.648,-39.551,-2.441,0.000
1727575141.415,-69.336,-17.578,-40.039,-14.648,0.000
1727575141.419,-51.758,-27.832,-40.039,-45.898,0.000
1727575141.422,-25.391,-22.461,-36.621,-39.551,0.000
1727575141.426,-61.523,-8.301,-26.855,10.742,0.000
1727575141.430,-91.309,-25.391,-30.273,1.953,0.000
1727575141.434,-56.641,-23.926,-31.250,-17.090,0.000
1727575141.438,-41.992,-13.184,-32.227,-35.156,0.000
1727575141.442,-14.160,-27.832,-29.297,-36.621,0.000
1727575141.446,-31.250,-25.391,-24.902,17.090,0.000
1727575141.450,-71.777,-9.766,-19.531,11.719,0.000
1727575141.454,-43.457,-13.672,-16.113,-21.973,0.000
1727575141.458,-2.930,-40.039,-30.762,-36.621,0.000
1727575141.462,-57.129,-44.922,-34.180,-48.828,0.000
1727575141.465,-37.109,-23.438,-14.648,-6.348,0.000
1727575141.469,-17.090,-17.578,-10.254,0.000,0.000
1727575141.473,-7.812,-21.484,-21.973,-18.066,0.000
1727575141.477,-4.395,-36.133,-30.762,-32.227,0.000
1727575141.481,-54.688,-35.645,-29.785,-56.152,0.000
1727575141.485,-54.688,-16.113,-10.254,-7.812,0.000
1727575141.489,-25.879,-19.531,-16.113,7.324,0.000
1727575141.493,-5.371,-25.391,-31.738,-22.461,0.000
1727575141.497,-0.977,-14.648,-30.762,-41.992,0.000
1727575141.501,-43.457,-25.879,-20.996,-41.504,0.000
1727575141.505,-50.293,-30.762,-17.090,-1.465,0.000
1727575141.508,-37.109,-32.715,-31.738,-10.254,0.000
1727575141.512,-20.020,-31.738,-39.551,-49.316,0.000
1727575141.516,-0.488,-27.832,-40.527,-58.105,0.000
1727575141.520,-56.152,-45.898,-41.016,-69.824,0.000
1727575141.524,-69.336,-40.039,-35.645,-26.367,0.000
1727575141.528,-47.363,-21.973,-32.715,15.625,0.000
1727575141.532,-35.645,-24.414,-32.227,-22.461,0.000
1727575141.536,-4.883,-43.945,-37.598,-50.293,0.000
1727575141.540,-53.711,-47.363,-42.480,-58.105,0.000
1727575141.544,-88.379,-12.695,-34.668,-28.809,0.000
1727575141.547,-48.828,-9.766,-26.367,1.953,0.000
1727575141.551,-18.555,-30.273,-30.273,-21.484,0.000
1727575141.555,0.977,-25.391,-44.922,-43.945,0.000
1727575141.559,-39.551,-24.902,-46.875,-70.312,0.000
1727575141.563,-55.176,-20.020,-42.480,-45.898,0.000
1727575141.567,-29.297,-8.301,-40.039,-2.441,0.000
1727575141.571,-19.043,-10.742,-43.457,-15.625,0.000
1727575141.575,0.977,-4.883,-45.898,-30.762,0.000
1727575141.579,-27.832,-18.066,-42.969,-52.734,0.000
1727575141.583,-52.246,-37.109,-40.527,-30.273,0.000
1727575141.587,-41.016,-3.906,-27.344,15.137,0.000
1727575141.590,-16.602,2.930,-24.902,-7.812,0.000
1727575141.594,20.508,-13.672,-29.785,-23.438,0.000
1727575141.598,-10.254,-12.695,-32.227,-32.715,0.000
1727575141.602,-66.406,0.977,-28.809,-39.062,0.000
1727575141.606,-35.645,14.160,-19.531,6.836,0.000
1727575141.610,-8.301,7.812,-27.344,-7.324,0.000
1727575141.614,19.043,-2.930,-25.879,-44.922,0.000
1727575141.618,12.207,-19.531,-23.438,-53.711,0.000
1727575141.622,-54.199,-12.695,-34.668,-41.504,0.000
1727575141.626,-45.898,-12.207,-37.109,15.137,0.000
1727575141.630,-15.137,-25.391,-38.086,16.113,0.000
1727575141.633,0.488,-3.418,-32.227,-28.809,0.000
1727575141.637,-5.859,-6.836,-30.273,-34.180,0.000
1727575141.641,-62.012,-15.137,-39.551,-25.391,0.000
1727575141.645,-65.918,-10.254,-42.969,-6.836,0.000
1727575141.649,-47.852,-20.020,-43.457,-28.809,0.000
1727575141.653,-23.926,-37.109,-50.293,-53.711,0.000
1727575141.657,-17.090,-47.852,-50.781,-65.918,0.000
1727575141.661,-63.965,-38.086,-48.828,-66.406,0.000
1727575141.665,-70.801,-32.715,-49.316,-27.344,0.000
1727575141.669,-45.410,-41.504,-51.270,-23.926,0.000
1727575141.672,-8.789,-40.527,-48.340,-31.738,0.000
1727575141.676,1.465,-18.555,-45.410,-37.109,0.000
1727575141.680,-64.941,-24.414,-48.828,-52.734,0.000
1727575141.684,-72.266,-30.273,-45.410,-9.277,0.000
1727575141.688,-33.203,-18.555,-39.062,10.742,0.000
1727575141.692,-9.277,-13.184,-40.527,-31.738,0.000
1727575141.696,8.301,-11.230,-42.480,-51.758,0.000
1727575141.700,-48.340,-18.066,-43.945,-63.965,0.000
1727575141.704,-63.477,0.000,-39.551,-41.016,0.000
1727575141.708,-30.762,5.859,-30.273,-4.395,0.000
1727575141.712,-0.977,-14.648,-28.320,-5.371,0.000
1727575141.715,21.484,-34.668,-37.109,-10.254,0.000
1727575141.719,-36.133,-31.250,-44.922,-36.621,0.000
1727575141.723,-59.570,-7.324,-43.457,-28.809,0.000
1727575141.727,-28.809,-1.953,-35.645,3.418,0.000
1727575141.731,-7.324,-2.441,-35.156,-15.625,0.000
1727575141.735,20.508,-4.395,-26.855,-32.715,0.000
1727575141.739,0.000,-10.742,-26.367,-47.363,0.000
1727575141.743,0.000,-18.066,-37.598,-20.508,0.000
1727575141.747,0.000,-21.973,-28.809,20.996,0.000
1727575141.751,0.000,-12.207,-20.508,0.000,0.000
1727575141.755,0.000,-14.160,-21.973,-20.508,0.000
1727575141.758,0.000,-33.691,-30.762,-45.410,0.000
1727575141.762,0.000,-39.551,-27.832,-17.578,0.000
1727575141.766,0.000,-16.602,-15.625,32.715,0.000
1727575141.770,0.000,-8.301,-19.043,-11.719,0.000
1727575141.774,0.000,-15.625,-24.414,-34.668,0.000
1727575141.778,0.000,-21.973,-31.250,-44.922,0.000
1727575141.782,0.000,-30.273,-36.133,-43.945,0.000
1727575141.786,-60.059,-16.113,-23.926,-6.836,0.000
1727575141.790,-35.645,-22.461,-23.438,-26.367,0.000
1727575141.794,-7.324,-39.551,-33.203,-48.828,0.000
1727575141.797,-17.578,-36.621,-37.598,-55.664,0.000
1727575141.801,-74.707,-40.039,-31.738,-47.363,0.000
1727575141.805,-55.664,-41.504,-20.996,15.137,0.000
1727575141.809,-30.762,-42.480,-26.367,13.672,0.000
1727575141.813,-12.695,-38.574,-38.086,-33.691,0.000
1727575141.817,-15.625,-47.363,-40.527,-50.781,0.000
1727575141.821,-65.918,-57.129,-38.574,-42.969,0.000
1727575141.825,-46.875,-31.738,-24.414,-0.488,0.000
1727575141.829,-25.391,-23.438,-20.020,-8.301,0.000
1727575141.833,-6.348,-31.250,-25.391,-26.367,0.000
1727575141.837,-2.441,-27.832,-24.414,-15.625,0.000
1727575141.840,-50.781,-38.086,-25.391,-22.949,0.000
1727575141.844,-44.434,-24.414,-16.602,14.160,0.000
1727575141.848,-25.391,-18.066,-13.184,35.156,0.000
1727575141.852,-0.488,-34.180,-28.809,4.395,0.000
1727575141.856,8.789,-23.926,-35.156,-21.973,0.000
1727575141.860,-51.270,-18.555,-28.320,-45.898,0.000
1727575141.864,-41.504,-16.113,-19.043,-2.930,0.000
1727575141.868,-5.371,-19.531,-18.555,29.785,0.000
1727575141.872,-3.906,-1.465,-13.184,-5.859,0.000
1727575141.876,13.184,11.230,-16.602,-18.555,0.000
1727575141.880,-36.133,-16.113,-34.668,-30.273,0.000
1727575141.883,-48.340,-16.602,-32.227,-6.348,0.000
1727575141.887,-16.113,4.883,-21.484,20.996,0.000
1727575141.891,0.000,8.789,-21.484,-5.859,0.000
1727575141.895,16.602,-10.742,-21.973,-31.250,0.000
1727575141.899,-31.250,-34.668,-29.785,-59.570,0.000
1727575141.903,-59.082,-24.414,-32.715,-19.531,0.000
1727575141.907,-35.156,-10.742,-30.273,16.113,0.000
1727575141.911,-15.137,-32.227,-37.109,-13.672,0.000
1727575141.915,15.137,-20.508,-32.227,-33.203,0.000
1727575141.919,-24.902,-8.789,-34.668,-68.848,0.000
1727575141.922,-72.266,-25.879,-39.062,-40.039,0.000
1727575141.926,-40.039,-26.855,-33.691,3.906,0.000
1727575141.930,-23.926,-34.668,-39.551,-31.250,0.000
1727575141.934,-11.719,-40.527,-37.109,-46.875,0.000
1727575141.938,-42.480,-44.922,-38.574,-51.270,0.000
1727575141.942,-87.891,-43.945,-43.945,-49.316,0.000
1727575141.946,-67.383,-47.363,-42.969,-20.508,0.000
1727575141.950,-44.922,-43.457,-32.715,-24.902,0.000
1727575141.954,-16.602,-36.621,-29.785,-34.180,0.000
1727575141.958,-34.180,-49.316,-42.480,-57.617,0.000
1727575141.962,-83.008,-39.551,-39.062,-65.430,0.000
1727575141.965,-56.641,-29.785,-24.902,-18.555,0.000
1727575141.969,-19.043,-33.691,-25.391,-9.277,0.000
1727575141.973,1.465,-34.668,-30.273,-28.320,0.000
1727575141.977,-19.043,-37.109,-29.785,-62.988,0.000
1727575141.981,-65.430,-30.273,-29.297,-54.688,0.000
1727575141.985,-53.223,-17.090,-27.344,-0.488,0.000
1727575141.989,-38.086,-24.414,-23.926,-7.812,0.000
1727575141.993,-12.207,-31.250,-26.855,-30.273,0.000
1727575141.997,-3.906,-31.250,-35.645,-39.551,0.000
1727575142.001,-61.035,-42.969,-32.715,-22.949,0.000
1727575142.005,-58.594,-22.949,-25.391,16.113,0.000
1727575142.008,-40.039,-2.930,-29.297,1.953,0.000
1727575142.012,-14.648,-15.137,-33.203,-20.020,0.000
1727575142.016,-5.371,-21.484,-40.527,-45.410,0.000
1727575142.020,-50.781,-9.277,-37.109,-60.547,0.000
1727575142.024,-49.805,2.441,-24.902,4.883,0.000
1727575142.028,-32.227,-18.555,-28.809,15.625,0.000
1727575142.032,-21.973,-29.297,-35.156,-28.320,0.000
1727575142.036,-17.578,-25.879,-43.457,-43.457,0.000
1727575142.040,-56.152,-21.973,-53.223,-58.594,0.000
1727575142.044,-56.152,-13.184,-44.922,-21.484,0.000
1727575142.047,-37.598,-19.531,-40.039,3.418,0.000
1727575142.051,-24.414,-9.766,-38.574,-37.109,0.000
1727575142.055,0.977,-14.648,-41.016,-44.434,0.000
1727575142.059,-38.086,-32.715,-46.387,-50.293,0.000
1727575142.063,-46.875,-19.531,-36.621,-21.973,0.000
1727575142.067,-34.180,-8.301,-31.250,0.488,0.000
1727575142.071,-29.785,-23.926,-32.715,-34.180,0.000
1727575142.075,-5.859,-43.457,-40.527,-55.664,0.000
1727575142.079,-57.129,-41.016,-48.828,-66.895,0.000
1727575142.083,-70.801,-25.391,-43.457,-41.992,0.000
1727575142.087,-40.039,-33.203,-35.645,-24.414,0.000
1727575142.090,-31.738,-47.852,-46.875,-23.438,0.000
1727575142.094,-12.695,-41.992,-50.293,-35.645,0.000
1727575142.098,-52.246,-28.809,-46.875,-74.219,0.000
1727575142.102,-77.637,-17.090,-42.969,-44.922,0.000
1727575142.106,-51.270,-7.812,-27.832,-5.371,0.000
1727575142.110,-30.762,-8.789,-23.926,-28.809,0.000
1727575142.114,-5.859,-15.137,-33.691,-51.758,0.000
1727575142.118,-41.992,-40.039,-42.969,-63.965,0.000
1727575142.122,-83.008,-37.109,-44.434,-41.992,0.000
1727575142.126,-52.734,-12.207,-42.969,-2.930,0.000
1727575142.130,-22.461,-9.766,-39.551,-10.742,0.000
1727575142.133,1.465,-20.508,-41.504,-35.645,0.000
1727575142.137,-23.926,-35.156,-53.223,-59.570,0.000
1727575142.141,-61.523,-16.602,-43.945,-43.457,0.000
1727575142.145,-39.551,1.953,-30.762,-1.465,0.000
1727575142.149,-4.395,-11.719,-23.926,-5.371,0.000
1727575142.153,25.879,-3.418,-23.438,-17.578,0.000
1727575142.157,-9.766,7.324,-32.227,-47.852,0.000
1727575142.161,-44.434,13.184,-25.391,-50.293,0.000
1727575142.165,-13.672,13.672,-23.926,20.996,0.000
1727575142.169,-15.137,-2.930,-31.738,22.461,0.000
1727575142.172,1.953,-11.230,-36.133,-24.902,0.000
1727575142.176,7.812,-14.648,-33.691,-44.434,0.000
1727575142.180,-39.551,-21.973,-29.785,-36.621,0.000
1727575142.184,-40.527,-0.488,-29.297,-7.324,0.000
1727575142.188,-22.461,14.160,-30.273,-12.695,0.000
1727575142.192,5.371,-5.371,-28.809,-34.180,0.000
1727575142.196,8.301,-18.555,-30.762,-44.922,0.000
1727575142.200,-42.480,-10.742,-35.645,-52.246,0.000
1727575142.204,-44.922,1.465,-22.461,-12.207,0.000
1727575142.208,-36.133,-11.230,-26.367,5.371,0.000
1727575142.212,-18.555,-19.531,-30.762,-28.809,0.000
1727575142.215,-13.672,-23.926,-28.809,-62.500,0.000
1727575142.219,-74.219,-37.109,-38.574,-80.078,0.000
1727575142.223,-74.219,-33.691,-35.645,-35.156,0.000
1727575142.227,-36.621,-34.668,-33.691,-0.977,0.000
1727575142.231,-15.137,-45.410,-30.762,-20.508,0.000
1727575142.235,-4.395,-33.691,-27.344,-43.457,0.000
1727575142.239,-57.617,-39.062,-35.156,-54.199,0.000
1727575142.243,-68.848,-41.016,-38.574,-13.672,0.000
1727575142.247,-33.691,-19.043,-30.762,8.789,0.000
1727575142.251,-29.785,-20.996,-36.621,-23.438,0.000
1727575142.255,-15.625,-22.461,-37.109,-44.434,0.000
1727575142.258,-46.387,-26.367,-31.738,-46.387,0.000
1727575142.262,-62.012,-11.230,-26.367,-6.348,0.000
1727575142.266,-30.762,-3.906,-18.066,7.812,0.000
1727575142.270,-6.836,-15.137,-26.855,-25.391,0.000
1727575142.274,13.184,-19.531,-41.992,-34.180,0.000
1727575142.278,-29.297,-22.461,-39.062,-40.039,0.000
1727575142.282,-52.734,-6.836,-30.273,-6.348,0.000
1727575142.286,-17.090,-12.695,-32.715,44.434,0.000
1727575142.290,-1.465,-14.160,-36.133,23.926,0.000
1727575142.294,25.391,11.719,-28.320,1.953,0.000
1727575142.297,-0.488,5.371,-26.367,-14.160,0.000
1727575142.301,-29.297,7.324,-24.414,-8.789,0.000
1727575142.305,-6.348,14.160,-20.996,41.504,0.000
1727575142.309,-3.906,4.395,-21.973,20.020,0.000
1727575142.313,14.160,7.324,-22.461,-24.414,0.000
1727575142.317,-23.926,-4.395,-34.180,-36.133,0.000
1727575142.321,-58.105,-3.418,-32.715,-30.762,0.000
1727575142.325,-34.668,17.090,-19.043,7.812,0.000
1727575142.329,-12.207,12.695,-16.602,12.695,0.000
1727575142.333,21.973,-4.883,-18.066,-9.277,0.000
1727575142.337,-5.859,-7.812,-20.996,-46.875,0.000
1727575142.340,-72.266,-0.977,-33.691,-50.293,0.000
1727575142.344,-49.316,-3.418,-28.809,8.301,0.000
1727575142.348,-10.254,-11.230,-26.367,4.395,0.000
1727575142.352,-2.441,-10.254,-24.414,-25.391,0.000
1727575142.356,-7.324,-23.926,-28.320,-50.293,0.000
1727575142.360,-48.340,-39.551,-36.133,-57.617,0.000
1727575142.364,-51.758,-29.785,-24.414,-16.602,0.000
1727575142.368,-44.434,-30.273,-30.273,-20.996,0.000
1727575142.372,-24.414,-36.621,-37.109,-51.758,0.000
1727575142.376,-16.602,-56.641,-38.574,-50.293,0.000
1727575142.380,-69.336,-63.965,-49.316,-45.410,0.000
1727575142.383,-67.871,-18.555,-39.551,-23.926,0.000
1727575142.387,-41.016,-5.371,-33.691,-17.090,0.000
1727575142.391,-16.113,-24.902,-37.109,-34.668,0.000
1727575142.395,-5.859,-23.926,-36.621,-55.664,0.000
1727575142.399,-56.641,-27.344,-41.992,-65.430,0.000
1727575142.403,-43.457,-27.344,-39.551,-16.113,0.000
1727575142.407,-22.461,-24.414,-36.133,-4.395,0.000
1727575142.411,-18.066,-27.344,-41.016,-21.973,0.000
1727575142.415,-9.766,-27.832,-39.062,-20.508,0.000
1727575142.419,-63.477,-34.180,-45.898,-42.480,0.000
1727575142.423,-68.359,-31.250,-53.223,-3.418,0.000
1727575142.426,-41.992,-12.695,-42.480,16.113,0.000
1727575142.430,-17.578,-8.789,-39.551,-21.484,0.000
1727575142.434,26.855,-18.066,-46.875,-29.297,0.000
1727575142.438,-9.766,-28.320,-43.945,-35.645,0.000
1727575142.442,-46.387,-13.672,-29.785,-11.230,0.000
1727575142.446,-23.438,-6.348,-32.715,6.836,0.000
1727575142.450,1.465,-22.949,-36.621,-15.137,0.000
1727575142.454,23.926,-20.020,-28.809,-26.367,0.000
1727575142.458,-20.508,-19.531,-29.785,-52.246,0.000
1727575142.462,-60.059,-13.672,-28.809,-33.203,0.000
1727575142.465,-19.043,-24.414,-26.367,18.555,0.000
1727575142.469,1.465,-25.391,-24.414,0.000,0.000
1727575142.473,7.324,-10.254,-27.832,-32.227,0.000
1727575142.477,-18.555,-39.062,-36.621,-41.504,0.000
1727575142.481,-52.246,-39.551,-31.738,-26.855,0.000
1727575142.485,-22.461,-21.973,-28.320,6.348,0.000
1727575142.489,-8.789,-20.508,-32.715,-5.371,0.000
1727575142.493,0.488,-33.203,-41.992,-31.738,0.000
1727575142.497,-32.715,-49.316,-47.363,-54.688,0.000
1727575142.501,-69.336,-38.086,-37.109,-39.551,0.000
1727575142.505,-47.363,-26.855,-25.879,7.324,0.000
1727575142.508,-44.434,-48.828,-35.645,-9.277,0.000
1727575142.512,-8.789,-62.500,-44.922,-31.738,0.000
1727575142.516,-14.160,-54.199,-46.875,-61.035,0.000
1727575142.520,-73.242,-44.434,-37.598,-65.918,0.000
1727575142.524,-54.199,-28.320,-32.715,-11.719,0.000
1727575142.528,-31.250,-30.762,-39.551,-19.043,0.000
1727575142.532,-12.695,-32.227,-38.574,-40.039,0.000
1727575142.536,-24.902,-33.203,-48.828,-68.848,0.000
1727575142.540,-71.289,-48.340,-49.316,-67.383,0.000
1727575142.544,-48.828,-35.156,-33.203,-7.812,0.000
1727575142.548,-31.250,-21.973,-31.738,-12.695,0.000
1727575142.551,-22.461,-30.273,-36.621,-36.133,0.000
1727575142.555,-20.996,-55.176,-42.969,-54.199,0.000
1727575142.559,-67.871,-48.828,-50.293,-60.059,0.000
1727575142.563,-57.129,-2.930,-40.039,-16.602,0.000
1727575142.567,-31.738,-6.836,-34.668,-7.812,0.000
1727575142.571,-10.254,-23.926,-39.062,-22.949,0.000
1727575142.575,-9.277,-11.230,-31.738,-37.109,0.000
1727575142.579,-57.617,2.441,-27.344,-50.293,0.000
1727575142.583,-52.246,10.742,-33.691,-5.859,0.000
1727575142.587,-31.250,6.348,-36.133,0.488,0.000
1727575142.591,2.930,3.906,-31.250,-25.879,0.000
1727575142.594,26.367,7.324,-27.344,-23.438,0.000
1727575142.598,-33.203,-11.719,-32.227,-41.992,0.000
1727575142.602,-41.992,-22.949,-25.879,-3.906,0.000
1727575142.606,-13.672,-14.160,-22.949,20.996,0.000
1727575142.610,-3.906,-7.324,-28.320,-4.883,0.000
1727575142.614,12.695,-17.578,-33.691,-25.391,0.000
1727575142.618,-29.297,-32.227,-44.922,-56.641,0.000
1727575142.622,-61.035,-9.277,-34.180,-21.973,0.000
1727575142.626,-43.457,-2.441,-22.461,17.578,0.000
1727575142.630,-21.484,-24.902,-29.297,-7.812,0.000
1727575142.633,-8.789,-22.949,-28.809,-43.945,0.000
1727575142.637,-53.223,-23.926,-27.832,-61.523,0.000
1727575142.641,-68.359,-27.344,-34.668,-24.902,0.000
1727575142.645,-39.551,-26.855,-36.133,0.977,0.000
1727575142.649,-18.066,-34.668,-35.645,-18.555,0.000
1727575142.653,11.719,-27.832,-33.691,-25.391,0.000
1727575142.657,-34.668,-26.367,-36.621,-51.270,0.000
1727575142.661,-64.941,-40.039,-35.645,-26.367,0.000
1727575142.665,-36.133,-32.715,-28.809,11.230,0.000
1727575142.669,-34.668,-19.531,-34.668,-29.785,0.000
1727575142.673,-7.324,-31.250,-39.551,-43.945,0.000
1727575142.676,-32.715,-41.504,-43.945,-60.059,0.000
1727575142.680,-80.566,-31.738,-36.133,-53.711,0.000
1727575142.684,-50.781,-20.508,-23.926,-15.625,0.000
1727575142.688,-15.137,-28.320,-35.645,-24.414,0.000
1727575142.692,2.930,-34.668,-41.504,-37.598,0.000
1727575142.696,-32.227,-35.645,-40.039,-51.758,0.000
1727575142.700,-74.707,-30.273,-34.668,-39.062,0.000
1727575142.704,-52.246,-13.672,-34.180,13.672,0.000
1727575142.708,-34.668,-23.926,-44.922,-5.371,0.000
1727575142.712,-9.277,-17.578,-43.457,-48.340,0.000
1727575142.716,-26.367,-18.555,-42.969,-62.500,0.000
1727575142.719,-76.660,-27.832,-47.852,-61.523,0.000
1727575142.723,-43.945,-1.465,-29.785,-2.930,0.000
1727575142.727,-26.367,8.301,-22.949,-0.488,0.000
1727575142.731,-6.348,-0.977,-27.344,-17.578,0.000
1727575142.735,-10.254,-11.719,-32.227,-20.508,0.000
1727575142.739,-62.012,-20.020,-32.227,-27.832,0.000
1727575142.743,-42.969,-5.371,-25.879,9.277,0.000
1727575142.747,-21.484,-1.953,-31.250,0.488,0.000
1727575142.751,-3.906,-21.973,-37.598,-23.926,0.000
1727575142.755,2.930,-23.926,-35.156,-26.855,0.000
1727575142.758,-55.176,-5.859,-27.344,-52.734,0.000
1727575142.762,-56.152,3.906,-23.438,-28.809,0.000
1727575142.766,-27.344,3.906,-30.273,-9.766,0.000
1727575142.770,-11.719,-4.883,-32.227,-25.391,0.000
1727575142.774,-5.371,-12.695,-34.180,-45.898,0.000
1727575142.778,-55.664,-12.207,-40.039,-73.730,0.000
1727575142.782,-52.246,0.488,-30.762,-31.250,0.000
1727575142.786,-31.738,2.441,-17.090,6.348,0.000
1727575142.790,-13.184,-2.930,-23.438,-17.090,0.000
1727575142.794,0.488,-2.930,-36.621,-44.922,0.000
1727575142.798,-51.758,-21.484,-44.922,-52.734,0.000
1727575142.801,-67.383,-12.695,-37.109,-15.625,0.000
1727575142.805,-45.898,-1.953,-31.738,1.953,0.000
1727575142.809,-20.020,-21.484,-36.621,-17.578,0.000
1727575142.813,4.883,-13.184,-38.086,-23.438,0.000
1727575142.817,-35.645,-0.488,-38.574,-55.664,0.000
1727575142.821,-69.336,3.906,-31.250,-39.551,0.000
1727575142.825,-44.922,-0.977,-30.762,-1.953,0.000
1727575142.829,-25.391,-8.789,-39.062,-20.508,0.000
1727575142.833,-14.648,-8.789,-38.574,-39.551,0.000
1727575142.837,-46.387,-22.461,-41.992,-64.941,0.000
1727575142.841,-54.688,-26.367,-40.039,-34.180,0.000
1727575142.844,-30.273,-10.742,-35.156,7.812,0.000
1727575142.848,-26.367,-6.836,-36.133,-20.508,0.000
1727575142.852,1.465,-10.742,-42.969,-32.715,0.000
1727575142.856,-29.297,-15.625,-50.293,-52.246,0.000
1727575142.860,-70.312,-15.625,-41.016,-54.688,0.000
1727575142.864,-43.945,3.418,-33.203,-2.930,0.000
1727575142.868,-23.926,0.488,-43.457,-6.836,0.000
1727575142.872,14.160,-5.859,-47.363,-34.668,0.000
1727575142.876,-2.441,-2.441,-47.852,-43.457,0.000
1727575142.880,-56.152,-4.395,-42.480,-40.039,0.000
1727575142.883,-19.531,7.812,-28.809,14.160,0.000
1727575142.887,1.953,7.812,-31.738,17.578,0.000
1727575142.891,9.766,3.418,-24.902,-19.531,0.000
1727575142.895,-9.766,2.441,-19.531,-35.156,0.000
1727575142.899,-55.664,0.488,-32.227,-26.367,0.000
1727575142.903,-27.832,8.789,-25.879,12.695,0.000
1727575142.907,-21.973,13.672,-18.555,1.465,0.000
1727575142.911,0.000,0.488,-27.832,-27.344,0.000
1727575142.915,0.000,-17.578,-38.574,-38.086,0.000
1727575142.919,0.000,-12.695,-36.621,-39.062,0.000
1727575142.923,0.000,-6.348,-24.414,5.371,0.000
1727575142.926,0.000,-23.926,-23.438,7.812,0.000
1727575142.930,0.000,-40.527,-28.320,-19.531,0.000
1727575142.934,0.000,-37.109,-28.809,-41.504,0.000
1727575142.938,0.000,-29.297,-27.344,-57.129,0.000
1727575142.942,0.000,-31.250,-28.320,-7.324,0.000
1727575142.946,0.000,-40.039,-37.598,-1.953,0.000
1727575142.950,0.000,-33.203,-42.480,-45.898,0.000
1727575142.954,0.000,-16.113,-39.551,-63.965,0.000
1727575142.958,-58.594,-20.508,-43.945,-68.848,0.000
1727575142.962,-64.941,-27.832,-45.410,-26.367,0.000
1727575142.966,-41.504,-22.461,-44.922,-0.488,0.000
1727575142.969,-12.207,-22.949,-48.828,-15.625,0.000
1727575142.973,0.000,-32.715,-56.152,-36.133,0.000
1727575142.977,-42.480,-53.223,-57.617,-62.012,0.000
1727575142.981,-52.734,-38.086,-41.992,-28.809,0.000
1727575142.985,-29.297,-15.625,-29.297,6.348,0.000
1727575142.989,1.953,-33.203,-29.297,-15.137,0.000
1727575142.993,11.719,-42.969,-34.180,-19.531,0.000
1727575142.997,-48.828,-38.086,-35.645,-56.152,0.000
1727575143.001,-58.594,-31.250,-23.926,-37.598,0.000
1727575143.005,-35.645,-25.879,-20.996,7.812,0.000
1727575143.008,-25.879,-37.598,-35.645,-18.066,0.000
1727575143.012,-6.836,-35.156,-38.574,-40.039,0.000
1727575143.016,-42.969,-43.945,-37.109,-56.641,0.000
1727575143.020,-59.082,-42.480,-32.715,-20.996,0.000
1727575143.024,-26.855,-26.367,-31.250,30.273,0.000
1727575143.028,-7.812,-22.949,-33.691,0.488,0.000
1727575143.032,10.742,-29.297,-28.320,-37.109,0.000
1727575143.036,-14.648,-53.711,-36.133,-42.480,0.000
1727575143.040,-48.340,-39.062,-34.180,-12.207,0.000
1727575143.044,-25.879,-18.066,-17.090,25.391,0.000
1727575143.048,-4.883,-34.180,-26.855,3.418,0.000
1727575143.051,10.742,-35.645,-33.203,-19.531,0.000
1727575143.055,-12.207,-30.273,-29.297,-43.457,0.000
1727575143.059,-47.852,-26.855,-25.879,-33.203,0.000
1727575143.063,-27.344,-20.020,-20.020,22.461,0.000
1727575143.067,-15.137,-27.832,-22.949,6.836,0.000
1727575143.071,15.137,-24.902,-30.762,-19.043,0.000
1727575143.075,4.395,-20.020,-33.203,-36.621,0.000
1727575143.079,-54.199,-27.344,-33.203,-34.668,0.000
1727575143.083,-42.480,-23.438,-26.367,13.184,0.000
1727575143.087,-26.367,-3.906,-20.508,-6.836,0.000
1727575143.091,-11.719,-10.254,-20.508,-41.016,0.000
1727575143.094,-24.414,-43.945,-36.133,-49.805,0.000
1727575143.098,-65.430,-50.293,-39.062,-44.922,0.000
1727575143.102,-49.316,-22.461,-25.879,-6.836,0.000
1727575143.106,-33.203,-14.648,-29.785,-17.090,0.000
1727575143.110,-5.859,-26.855,-28.809,-35.645,0.000
1727575143.114,-10.254,-40.039,-27.344,-48.340,0.000
1727575143.118,-77.148,-40.039,-35.645,-63.477,0.000
1727575143.122,-69.336,-21.973,-36.133,-21.484,0.000
1727575143.126,-47.363,-24.902,-37.109,-5.859,0.000
1727575143.130,-23.438,-30.762,-41.504,-41.016,0.000
1727575143.134,-11.230,-28.809,-36.621,-59.082,0.000
1727575143.137,-62.500,-28.320,-40.039,-69.336,0.000
1727575143.141,-60.059,-40.527,-45.410,-21.973,0.000
1727575143.145,-43.945,-37.109,-43.945,-3.418,0.000
1727575143.149,-24.414,-11.230,-36.621,-27.832,0.000
1727575143.153,1.465,-18.555,-42.480,-35.156,0.000
1727575143.157,-45.898,-37.109,-46.875,-62.500,0.000
1727575143.161,-51.758,-25.391,-39.062,-27.344,0.000
1727575143.165,-18.555,-18.555,-35.645,14.648,0.000
1727575143.169,12.695,-24.902,-36.621,-8.301,0.000
1727575143.173,22.949,-29.297,-42.480,-31.250,0.000
1727575143.176,-48.340,-31.250,-35.645,-58.594,0.000
1727575143.180,-62.988,-18.555,-23.926,-23.438,0.000
1727575143.184,-20.996,-9.277,-28.809,32.227,0.000
1727575143.188,-4.395,-4.395,-28.320,9.277,0.000
1727575143.192,40.527,0.000,-25.391,-19.531,0.000
1727575143.196,-0.488,-22.461,-30.762,-41.992,0.000
1727575143.200,-60.059,-38.086,-28.809,-23.438,0.000
1727575143.204,-31.738,-32.715,-25.391,5.371,0.000
1727575143.208,-18.066,-31.250,-33.203,-19.531,0.000
1727575143.212,-4.395,-43.457,-33.203,-39.062,0.000
1727575143.216,-37.598,-52.734,-38.086,-51.758,0.000
1727575143.219,-65.918,-42.480,-38.086,-42.480,0.000
1727575143.223,-39.062,-30.273,-22.949,-4.883,0.000
1727575143.227,-31.738,-42.969,-24.902,-15.137,0.000
1727575143.231,-5.859,-41.504,-28.320,-37.598,0.000
1727575143.235,-35.156,-46.387,-35.156,-66.406,0.000
1727575143.239,-78.613,-41.992,-33.691,-63.965,0.000
1727575143.243,-28.809,-31.250,-11.230,-4.395,0.000
1727575143.247,-25.391,-35.645,-15.625,-17.090,0.000
1727575143.251,-25.879,-41.504,-37.109,-58.594,0.000
1727575143.255,-41.992,-65.430,-40.527,-68.359,0.000
1727575143.259,-93.750,-83.008,-47.852,-59.082,0.000
1727575143.262,-71.777,-66.895,-43.457,-4.883,0.000
1727575143.266,-54.688,-38.574,-31.250,5.859,0.000
1727575143.270,-21.973,-30.762,-32.227,-22.949,0.000
1727575143.274,-19.531,-56.641,-41.016,-50.293,0.000
1727575143.278,-75.195,-62.012,-44.922,-60.547,0.000
1727575143.282,-62.012,-32.227,-30.273,-17.578,0.000
1727575143.286,-32.227,-18.555,-32.227,-24.902,0.000
1727575143.290,-3.418,-27.832,-41.016,-50.293,0.000
1727575143.294,11.719,-25.391,-40.039,-42.969,0.000
1727575143.298,-46.875,-17.578,-37.109,-48.828,0.000
1727575143.301,-57.129,-17.090,-24.902,-11.230,0.000
1727575143.305,-24.414,-27.832,-29.785,6.348,0.000
1727575143.309,-3.906,-18.066,-43.945,-24.414,0.000
1727575143.313,-6.348,0.000,-42.480,-31.738,0.000
1727575143.317,-56.641,-20.020,-42.480,-41.504,0.000
1727575143.321,-63.477,-12.207,-37.109,-17.090,0.000
1727575143.325,-35.156,5.859,-22.461,6.836,0.000
1727575143.329,-9.766,5.371,-19.043,-15.625,0.000
1727575143.333,13.672,5.371,-34.668,-32.227,0.000
1727575143.337,-23.926,6.836,-38.086,-34.668,0.000
1727575143.341,-54.199,11.719,-21.973,-8.301,0.000
1727575143.344,-25.391,14.160,-18.555,3.906,0.000
1727575143.348,-4.883,8.301,-15.137,-25.391,0.000
1727575143.352,8.301,-11.719,0.977,-32.715,0.000
1727575143.356,-26.855,-20.508,21.484,-62.500,0.000
1727575143.360,-67.871,8.301,-23.926,-36.133,0.000
1727575143.364,-82.031,24.414,-36.621,-13.184,0.000
1727575143.368,-45.898,-9.277,-10.254,-33.691,0.000
1727575143.372,-22.461,-24.414,-1.953,-48.340,0.000
1727575143.376,-106.445,-22.461,37.109,-130.371,0.000
1727575143.380,-79.102,-8.301,-32.715,-62.988,0.000
1727575143.384,-66.895,15.137,1.465,-31.250,0.000
1727575143.387,-37.109,1.953,-0.977,-38.086,0.000
1727575143.391,38.086,2.441,-75.684,4.883,0.000
1727575143.395,-132.812,105.957,-69.336,-144.531,0.000
1727575143.399,-286.621,24.902,-1.953,-155.762,0.000
1727575143.403,-270.996,-43.457,37.598,-114.258,0.000
1727575143.407,-137.695,20.996,35.645,-162.598,0.000
1727575143.411,-25.391,7.812,-113.770,-61.523,0.000
1727575143.415,102.539,-33.203,-242.676,99.609,0.000
1727575143.419,132.812,-23.438,-138.672,171.387,0.000
1727575143.423,13.184,25.391,-82.520,107.910,0.000
1727575143.427,-35.645,35.156,-70.801,-26.855,0.000
1727575143.430,27.832,26.367,-52.246,-22.461,0.000
1727575143.434,-129.883,76.660,15.625,-126.953,0.000
1727575143.438,-167.969,133.789,28.320,-235.840,0.000
1727575143.442,-75.195,217.773,-134.766,9.766,0.000
1727575143.446,-50.781,153.809,-191.406,132.812,0.000
1727575143.450,149.414,106.934,-102.051,68.848,0.000
1727575143.454,247.070,150.879,-86.426,137.695,0.000
1727575143.458,162.109,173.828,-96.680,150.879,0.000
1727575143.462,99.609,206.543,-99.121,123.535,0.000
1727575143.466,85.938,172.852,-2.441,132.812,0.000
1727575143.469,116.211,185.059,4.395,44.922,0.000
1727575143.473,119.141,230.957,-140.137,46.875,0.000
1727575143.477,91.309,225.586,-122.070,85.449,0.000
1727575143.481,108.887,213.867,-76.660,126.465,0.000
1727575143.485,92.285,216.309,-45.898,63.477,0.000
1727575143.489,76.660,227.539,-40.527,23.926,0.000
1727575143.493,81.543,217.285,-71.777,51.270,0.000
1727575143.497,-33.203,175.781,-41.016,-22.461,0.000
1727575143.501,-73.730,228.027,-39.062,11.719,0.000
1727575143.505,-18.555,287.109,-82.520,48.340,0.000
1727575143.509,-2.441,245.117,-72.266,23.926,0.000
1727575143.512,64.941,181.641,-41.504,33.691,0.000
1727575143.516,79.102,146.973,-39.062,11.719,0.000
1727575143.520,12.695,161.621,-46.387,29.297,0.000
1727575143.524,20.020,176.758,-37.598,33.203,0.000
1727575143.528,16.602,153.320,-40.039,-0.977,0.000
1727575143.532,14.648,142.578,-42.969,-27.344,0.000
1727575143.536,-2.930,128.418,-50.293,-30.762,0.000
1727575143.540,-65.918,122.559,-48.828,-6.348,0.000
1727575143.544,-55.176,143.555,-39.062,16.113,0.000
1727575143.548,-5.371,114.746,-28.809,-1.465,0.000
1727575143.552,0.000,104.980,-29.785,-21.484,0.000
1727575143.555,-35.156,101.074,-25.391,-51.270,0.000
1727575143.559,-90.332,86.914,-16.113,-50.293,0.000
1727575143.563,-68.359,89.355,-36.621,-13.672,0.000
1727575143.567,20.020,82.520,-28.320,9.766,0.000
1727575143.571,23.926,119.141,-34.180,-21.973,0.000
1727575143.575,-36.133,105.469,-62.500,-59.082,0.000
1727575143.579,-62.988,56.152,-43.457,-22.949,0.000
1727575143.583,-46.875,79.590,-35.156,6.836,0.000
1727575143.587,-15.137,78.125,-40.527,-20.996,0.000
1727575143.591,-4.395,56.152,-34.180,-34.180,0.000
1727575143.594,-47.363,65.430,-37.598,-39.062,0.000
1727575143.598,-80.566,96.680,-45.410,-42.480,0.000
1727575143.602,-42.969,86.914,-32.715,-4.883,0.000
1727575143.606,-48.828,58.594,-30.762,-8.789,0.000
1727575143.610,-5.371,48.828,-29.297,-24.414,0.000
1727575143.614,-5.371,56.641,-30.762,-62.012,0.000
1727575143.618,-47.852,42.480,-36.133,-55.176,0.000
1727575143.622,-36.133,44.434,-32.227,-1.465,0.000
1727575143.626,-27.832,30.273,-20.996,-13.184,0.000
1727575143.630,0.000,25.879,-27.832,-43.945,0.000
1727575143.634,-27.832,0.977,-39.062,-59.570,0.000
1727575143.637,-54.688,-19.531,-35.645,-49.805,0.000
1727575143.641,-32.227,-2.441,-27.344,-11.230,0.000
1727575143.645,-30.273,-3.418,-23.926,-10.742,0.000
1727575143.649,0.488,-16.602,-27.832,-30.762,0.000
1727575143.653,9.766,-24.902,-23.926,-25.879,0.000
1727575143.657,-49.805,-15.625,-15.625,-36.621,0.000
1727575143.661,-44.922,-11.719,-20.508,-16.602,0.000
1727575143.665,-37.109,-19.043,-24.902,-16.113,0.000
1727575143.669,-15.625,-6.836,-21.973,-27.832,0.000
1727575143.673,0.977,0.000,-28.809,-38.086,0.000
1727575143.676,-53.223,-23.926,-23.926,-64.453,0.000
1727575143.680,-45.898,-32.715,-17.578,-4.883,0.000
1727575143.684,-27.344,-12.695,-16.113,-6.348,0.000
1727575143.688,-18.555,-12.695,-12.695,-59.570,0.000
1727575143.692,-2.441,-32.715,-16.602,-51.270,0.000
1727575143.696,-59.082,-49.805,-30.762,-60.547,0.000
1727575143.700,-67.383,-31.738,-21.973,-12.207,0.000
1727575143.704,-27.344,-9.766,-8.789,16.602,0.000
1727575143.708,-18.555,-24.902,-24.414,-25.879,0.000
1727575143.712,-15.625,-30.273,-31.738,-52.246,0.000
1727575143.716,-74.707,-33.691,-35.156,-77.148,0.000
1727575143.719,-95.215,-27.344,-33.203,-55.176,0.000
1727575143.723,-52.734,-25.391,-25.879,-21.484,0.000
1727575143.727,-26.367,-42.480,-32.715,-41.504,0.000
1727575143.731,-3.906,-42.480,-34.668,-47.852,0.000
1727575143.735,-47.363,-39.062,-26.855,-63.965,0.000
1727575143.739,-78.613,-40.527,-31.738,-39.062,0.000
1727575143.743,-49.805,-41.504,-29.297,11.230,0.000
1727575143.747,-38.086,-16.113,-20.996,-19.531,0.000
1727575143.751,-4.395,-13.672,-29.785,-48.340,0.000
1727575143.755,-45.410,-43.457,-46.875,-69.336,0.000
1727575143.759,-84.473,-35.156,-39.551,-49.316,0.000
1727575143.762,-50.293,-17.090,-22.949,-8.789,0.000
1727575143.766,-37.598,-26.367,-33.203,-35.156,0.000
1727575143.770,-28.809,-26.367,-30.273,-49.805,0.000
1727575143.774,-36.621,-28.320,-24.414,-63.965,0.000
1727575143.778,-63.477,-18.555,-28.320,-45.410,0.000
1727575143.782,-40.527,-3.418,-23.926,9.766,0.000
1727575143.786,-21.484,-17.090,-35.645,-8.301,0.000
1727575143.790,-12.695,-21.484,-38.086,-42.969,0.000
1727575143.794,-23.438,-12.207,-26.855,-70.312,0.000
1727575143.798,-50.781,-20.996,-27.344,-55.176,0.000
1727575143.802,-21.484,-17.090,-19.531,14.648,0.000
1727575143.805,-16.602,2.930,-17.578,-4.883,0.000
1727575143.809,0.000,-6.836,-16.602,-38.086,0.000
1727575143.813,-9.766,-30.762,-21.973,-42.480,0.000
1727575143.817,-54.688,-34.668,-29.785,-47.363,0.000
1727575143.821,-19.531,-25.391,-19.043,5.859,0.000
1727575143.825,-9.766,-34.668,-13.672,-2.930,0.000
1727575143.829,-6.836,-40.527,-13.672,-40.527,0.000
1727575143.833,-11.719,-47.852,-18.555,-40.039,0.000
1727575143.837,-71.289,-27.344,-25.391,-47.363,0.000
1727575143.841,-66.406,-0.488,-24.902,-20.508,0.000
1727575143.844,-30.762,-35.645,-20.508,-7.812,0.000
1727575143.848,0.000,-43.457,-18.066,-21.973,0.000
1727575143.852,0.000,-34.180,-18.066,-38.574,0.000
1727575143.856,0.000,-58.594,-19.043,-34.668,0.000
1727575143.860,0.000,-49.805,-15.625,2.930,0.000
1727575143.864,0.000,-41.016,-15.625,-4.883,0.000
1727575143.868,0.000,-59.082,-20.996,-31.250,0.000
1727575143.872,0.000,-54.688,-29.297,-60.059,0.000
1727575143.876,0.000,-56.641,-32.227,-76.172,0.000
1727575143.880,0.000,-44.922,-34.180,-29.785,0.000
1727575143.884,0.000,-33.691,-27.832,-18.066,0.000
1727575143.887,0.000,-45.410,-21.973,-44.434,0.000
1727575143.891,0.000,-51.270,-27.344,-52.246,0.000
1727575143.895,-56.641,-54.688,-27.344,-67.871,0.000
1727575143.899,-73.242,-32.227,-21.973,-27.832,0.000
1727575143.903,-40.039,-26.855,-19.531,4.395,0.000
1727575143.907,-20.996,-38.574,-29.785,-28.809,0.000
1727575143.911,-7.324,-41.504,-40.039,-58.105,0.000
1727575143.915,-46.875,-60.547,-40.039,-77.637,0.000
1727575143.919,-66.406,-43.945,-33.691,-46.875,0.000
1727575143.923,-48.828,-44.434,-33.203,-6.836,0.000
1727575143.927,-46.875,-26.367,-36.621,-40.039,0.000
1727575143.930,-31.250,-12.207,-32.227,-58.105,0.000
1727575143.934,-58.105,-43.457,-34.180,-51.758,0.000
1727575143.938,-80.078,-39.062,-29.297,-34.668,0.000
1727575143.942,0.000,-24.414,-22.461,0.488,0.000
1727575143.946,0.000,-16.602,-30.762,-23.926,0.000
1727575143.950,0.000,-22.949,-31.738,-53.711,0.000
1727575143.954,0.000,-25.391,-31.738,-79.102,0.000
1727575143.958,0.000,-14.160,-38.086,-62.500,0.000
1727575143.962,0.000,-18.066,-32.227,-11.230,0.000
1727575143.966,0.000,-44.922,-30.762,-24.902,0.000
1727575143.969,0.000,-41.016,-41.504,-37.109,0.000
1727575143.973,0.000,-28.320,-38.574,-60.059,0.000
1727575143.977,0.000,-42.480,-33.203,-51.270,0.000
1727575143.981,0.000,-26.367,-30.273,-1.465,0.000
1727575143.985,0.000,-21.973,-29.297,-16.602,0.000
1727575143.989,-14.160,-21.484,-30.762,-38.086,0.000
1727575143.993,-3.418,-39.551,-33.691,-37.109,0.000
1727575143.997,-57.129,-53.223,-34.668,-28.809,0.000
1727575144.001,-57.617,-37.598,-26.855,1.465,0.000
1727575144.005,-43.945,-39.062,-24.414,-12.207,0.000
1727575144.009,-17.090,-45.898,-30.762,-25.391,0.000
1727575144.012,-20.020,-56.152,-28.809,-26.367,0.000
1727575144.016,-82.031,-41.504,-34.668,-42.969,0.000
1727575144.020,-64.941,-34.668,-32.227,-13.184,0.000
1727575144.024,-41.992,-54.688,-24.902,-12.207,0.000
1727575144.028,-25.391,-56.641,-30.273,-42.480,0.000
1727575144.032,-4.883,-41.992,-22.949,-62.988,0.000
1727575144.036,-65.430,-37.598,-36.621,-70.801,0.000
1727575144.040,-64.453,-33.203,-36.133,-11.230,0.000
1727575144.044,-25.391,-34.668,-18.555,8.789,0.000
1727575144.048,-15.137,-27.832,-24.414,-31.250,0.000
1727575144.052,-7.812,-32.227,-32.715,-52.246,0.000
1727575144.055,-51.758,-61.035,-41.504,-54.199,0.000
1727575144.059,-57.617,-51.270,-36.133,-16.113,0.000
1727575144.063,-20.020,-33.203,-23.926,-4.883,0.000
1727575144.067,7.324,-41.992,-23.926,-31.250,0.000
1727575144.071,6.348,-43.945,-25.391,-44.922,0.000
1727575144.075,-62.500,-45.410,-37.598,-70.312,0.000
1727575144.079,-72.754,-37.109,-30.762,-43.945,0.000
1727575144.083,-25.879,-26.855,-20.020,-17.090,0.000
1727575144.087,-2.441,-37.598,-36.621,-21.973,0.000
1727575144.091,9.766,-41.504,-33.691,-26.367,0.000
1727575144.095,-38.574,-41.016,-26.855,-63.965,0.000
1727575144.098,-53.711,-32.227,-22.949,-49.316,0.000
1727575144.102,-26.367,-33.203,-10.254,0.977,0.000
1727575144.106,-19.531,-28.320,-19.531,-15.625,0.000
1727575144.110,8.789,-23.926,-26.367,-26.855,0.000
1727575144.114,-32.227,-47.363,-25.879,-44.922,0.000
1727575144.118,-79.102,-52.734,-28.809,-30.273,0.000
1727575144.122,-60.547,-40.527,-19.043,5.859,0.000
1727575144.126,-42.969,-45.410,-25.391,-33.691,0.000
1727575144.130,-2.441,-44.922,-28.809,-41.504,0.000
1727575144.134,-30.762,-52.246,-32.227,-41.016,0.000
1727575144.137,-81.543,-44.922,-28.809,-40.039,0.000
1727575144.141,-57.617,-28.809,-15.625,-9.277,0.000
1727575144.145,-35.156,-25.391,-20.020,-14.648,0.000
1727575144.149,-5.859,-32.227,-29.785,-30.762,0.000
1727575144.153,-31.250,-50.781,-33.203,-53.223,0.000
1727575144.157,-75.684,-34.180,-27.832,-40.527,0.000
1727575144.161,-33.691,-32.227,-15.625,19.531,0.000
1727575144.165,-21.484,-41.992,-21.484,-0.977,0.000
1727575144.169,-25.391,-32.227,-28.320,-42.969,0.000
1727575144.173,-44.922,-41.504,-35.645,-70.312,0.000
1727575144.177,-83.008,-44.434,-34.180,-77.637,0.000
1727575144.180,-54.688,-30.762,-23.926,-8.301,0.000
1727575144.184,-47.852,-26.855,-24.902,-8.789,0.000
1727575144.188,-23.438,-36.621,-25.879,-43.945,0.000
1727575144.192,-20.508,-48.340,-31.250,-41.016,0.000
1727575144.196,-74.707,-53.223,-30.762,-43.457,0.000
1727575144.200,-51.758,-24.902,-25.879,-13.184,0.000
1727575144.204,-23.926,-25.391,-24.414,-7.812,0.000
1727575144.208,-22.461,-38.086,-34.180,-24.902,0.000
1727575144.212,-22.949,-30.273,-42.969,-46.387,0.000
1727575144.216,-76.172,-34.180,-39.062,-65.430,0.000
1727575144.220,-60.547,-26.367,-32.227,-13.184,0.000
1727575144.223,-20.996,-22.461,-28.809,3.906,0.000
1727575144.227,-5.371,-20.508,-32.715,-25.391,0.000
1727575144.231,25.879,-19.531,-38.086,-38.086,0.000
1727575144.235,-41.504,-28.320,-41.504,-48.828,0.000
1727575144.239,-79.102,-9.277,-45.898,-15.137,0.000
1727575144.243,-30.273,-8.789,-43.457,-5.371,0.000
1727575144.247,3.418,-14.648,-40.527,-28.809,0.000
1727575144.251,1.465,-28.320,-45.898,-34.180,0.000
1727575144.255,-48.340,-59.082,-48.340,-41.504,0.000
1727575144.259,-52.246,-26.855,-33.203,-17.090,0.000
1727575144.262,-23.438,-19.043,-10.254,6.836,0.000
1727575144.266,-10.254,-15.625,-15.137,-17.578,0.000
1727575144.270,10.742,-8.301,-22.949,-27.832,0.000
1727575144.274,-34.180,-42.480,-28.320,-54.688,0.000
1727575144.278,-61.523,-46.387,-22.949,-30.762,0.000
1727575144.282,-32.715,-38.574,-16.602,8.789,0.000
1727575144.286,-30.762,-45.898,-26.855,-15.137,0.000
1727575144.290,-5.371,-49.316,-23.438,-28.809,0.000
1727575144.294,-29.785,-52.734,-18.555,-35.156,0.000
1727575144.298,-56.152,-50.293,-19.531,0.488,0.000
1727575144.302,-38.086,-35.645,-12.207,8.301,0.000
1727575144.305,-35.645,-33.691,-22.461,-34.180,0.000
1727575144.309,-16.602,-46.387,-33.691,-47.363,0.000
1727575144.313,-44.434,-54.199,-33.691,-65.430,0.000
1727575144.317,-81.543,-46.875,-31.738,-41.016,0.000
1727575144.321,-62.012,-31.738,-31.738,6.348,0.000
1727575144.325,-39.062,-30.762,-40.039,-22.461,0.000
1727575144.329,-2.441,-43.457,-44.434,-62.988,0.000
1727575144.333,-32.715,-62.012,-49.805,-74.219,0.000
1727575144.337,-76.172,-54.199,-49.805,-56.641,0.000
1727575144.341,-40.527,-40.039,-42.480,2.441,0.000
1727575144.345,-35.156,-31.738,-40.039,-6.836,0.000
1727575144.348,-18.066,-12.207,-43.457,-38.574,0.000
1727575144.352,-13.184,-7.324,-41.992,-33.691,0.000
1727575144.356,-40.527,-1.953,-33.691,-20.020,0.000
1727575144.360,-29.785,-17.578,-23.438,14.160,0.000
1727575144.364,-12.695,-10.742,-23.926,0.000,0.000
1727575144.368,22.949,0.977,-23.926,-18.555,0.000
1727575144.372,11.719,-5.859,-26.855,-32.715,0.000
1727575144.376,-41.992,-0.488,-27.832,-33.691,0.000
1727575144.380,-23.438,6.836,-16.113,18.555,0.000
1727575144.384,6.348,-10.742,-16.602,24.902,0.000
1727575144.387,41.016,-20.020,-13.184,8.789,0.000
1727575144.391,27.344,-16.113,-16.113,-9.277,0.000
1727575144.395,-33.203,-25.391,-27.832,-22.949,0.000
1727575144.399,-21.973,-23.438,-11.719,28.809,0.000
1727575144.403,-1.953,-25.391,-2.930,49.805,0.000
1727575144.407,24.414,-9.766,-15.137,2.441,0.000
1727575144.411,20.508,-13.672,-20.508,-28.809,0.000
1727575144.415,-39.062,-39.551,-20.020,-46.387,0.000
1727575144.419,-47.852,-12.695,-6.348,-6.836,0.000
1727575144.423,-39.062,-10.254,-4.883,16.602,0.000
1727575144.427,-13.184,-32.715,-16.113,-13.184,0.000
1727575144.430,7.812,-49.805,-25.879,-30.762,0.000
1727575144.434,-55.176,-48.340,-30.273,-57.129,0.000
1727575144.438,-74.707,-14.648,-24.902,-31.250,0.000
1727575144.442,-27.832,-23.438,-20.508,-1.465,0.000
1727575144.446,-14.648,-44.922,-26.367,-14.160,0.000
1727575144.450,-6.348,-23.926,-28.809,-24.414,0.000
1727575144.454,-51.270,-14.160,-27.832,-63.477,0.000
1727575144.458,-77.637,-26.855,-25.879,-43.457,0.000
1727575144.462,-42.480,-26.367,-19.043,4.883,0.000
1727575144.466,-24.414,-23.438,-13.672,-24.414,0.000
1727575144.470,1.465,-24.902,-23.926,-40.039,0.000
1727575144.473,-35.156,-34.180,-31.738,-49.805,0.000
1727575144.477,-66.406,-39.551,-33.691,-23.926,0.000
1727575144.481,-43.945,-25.879,-35.156,8.301,0.000
1727575144.485,-37.598,-16.602,-38.086,-24.902,0.000
1727575144.489,-10.742,-25.879,-39.551,-39.062,0.000
1727575144.493,-37.109,-47.852,-45.410,-55.664,0.000
1727575144.497,-70.801,-33.203,-38.574,-41.016,0.000
1727575144.501,-39.551,-12.207,-26.367,-5.371,0.000
1727575144.505,-36.621,-15.625,-39.551,-20.996,0.000
1727575144.509,-17.578,-23.926,-45.410,-26.855,0.000
1727575144.513,-37.598,-32.715,-46.875,-52.734,0.000
1727575144.516,-77.148,-31.250,-42.969,-47.852,0.000
1727575144.520,-46.875,-25.391,-33.691,2.930,0.000
1727575144.524,-32.227,-33.691,-33.203,-22.949,0.000
1727575144.528,-6.836,-34.180,-39.551,-38.574,0.000
1727575144.532,-18.066,-30.273,-48.828,-51.758,0.000
1727575144.536,-62.988,-36.621,-50.293,-50.781,0.000
1727575144.540,-45.898,-16.602,-41.504,3.418,0.000
1727575144.544,-20.020,-6.836,-32.227,-3.418,0.000
1727575144.548,8.789,-28.320,-34.180,-31.250,0.000
1727575144.552,-9.766,-32.715,-37.109,-46.387,0.000
1727575144.556,-65.430,-30.273,-41.016,-49.805,0.000
1727575144.559,-50.293,-21.973,-27.832,0.977,0.000
1727575144.563,-28.809,-28.320,-24.414,7.812,0.000
1727575144.567,-7.324,-33.691,-35.645,-20.996,0.000
1727575144.571,-4.883,-31.250,-37.109,-37.109,0.000
1727575144.575,-66.406,-24.902,-40.039,-56.641,0.000
1727575144.579,-50.293,-22.949,-27.344,-30.762,0.000
1727575144.583,-37.109,-25.879,-23.926,-22.949,0.000
1727575144.587,-32.715,-25.879,-34.668,-43.457,0.000
1727575144.591,-21.484,-34.180,-39.062,-62.988,0.000
1727575144.595,-64.941,-53.223,-47.363,-71.289,0.000
1727575144.599,-63.965,-53.711,-39.551,-15.137,0.000
1727575144.602,-46.875,-19.043,-23.926,-2.930,0.000
1727575144.606,-21.484,-26.855,-27.344,-40.039,0.000
1727575144.610,-17.090,-53.223,-37.109,-56.152,0.000
1727575144.614,-77.637,-59.082,-46.875,-79.590,0.000
1727575144.618,-70.312,-43.457,-38.574,-38.086,0.000
1727575144.622,-38.574,-28.809,-29.297,-14.648,0.000
1727575144.626,-15.625,-47.363,-35.156,-43.457,0.000
1727575144.630,1.465,-55.176,-40.039,-40.527,0.000
1727575144.634,-55.176,-39.062,-38.086,-59.570,0.000
1727575144.638,-71.777,-18.066,-37.109,-29.297,0.000
1727575144.641,-39.551,-19.531,-28.809,10.254,0.000
1727575144.645,-17.578,-32.715,-30.762,-19.043,0.000
1727575144.649,7.324,-27.832,-40.039,-35.156,0.000
1727575144.653,-35.156,-32.227,-44.922,-51.758,0.000
1727575144.657,-52.246,-24.414,-39.062,-25.879,0.000
1727575144.661,-13.672,-13.672,-26.855,15.625,0.000
1727575144.665,-6.836,-26.855,-26.855,0.000,0.000
1727575144.669,12.695,-25.879,-32.227,-12.207,0.000
1727575144.673,-14.160,-27.832,-37.598,-29.297,0.000
1727575144.677,-43.945,-3.906,-36.133,-18.066,0.000
1727575144.681,-30.273,11.230,-23.926,9.277,0.000
1727575144.684,-9.766,-9.766,-25.879,-12.207,0.000
1727575144.688,25.879,-11.230,-35.156,-23.926,0.000
1727575144.692,-16.602,0.488,-34.180,-31.250,0.000
1727575144.696,-54.688,-2.930,-31.738,-26.367,0.000
1727575144.700,-21.484,-20.020,-30.762,13.184,0.000
1727575144.704,-5.371,-23.926,-28.809,-4.395,0.000
1727575144.708,18.066,-0.977,-23.926,-23.438,0.000
1727575144.712,-1.465,-16.113,-27.832,-29.297,0.000
1727575144.716,-44.434,-47.363,-36.133,-29.785,0.000
1727575144.720,-31.250,-36.621,-29.785,1.465,0.000
1727575144.723,-33.691,-21.484,-27.832,-15.625,0.000
1727575144.727,1.465,-27.344,-29.785,-32.715,0.000
1727575144.731,-1.465,-32.227,-23.438,-43.945,0.000
1727575144.735,-75.684,-40.527,-18.066,-48.340,0.000
1727575144.739,0.000,-29.785,-14.160,-13.184,0.000
1727575144.743,0.000,-31.250,-21.973,-10.742,0.000
1727575144.747,0.000,-39.062,-23.438,-23.926,0.000
1727575144.751,0.000,-49.805,-29.785,-47.852,0.000
1727575144.755,0.000,-68.359,-33.203,-63.965,0.000
1727575144.759,0.000,-49.805,-20.996,-10.254,0.000
1727575144.763,0.000,-46.875,-21.484,1.465,0.000
1727575144.766,0.000,-40.527,-33.691,-53.223,0.000
1727575144.770,0.000,-34.180,-35.645,-76.172,0.000
1727575144.774,0.000,-52.734,-41.016,-72.266,0.000
1727575144.778,0.000,-39.062,-38.086,-27.344,0.000
1727575144.782,0.000,-17.578,-29.297,0.488,0.000
1727575144.786,-13.184,-16.602,-19.043,-25.391,0.000
1727575144.790,10.742,-34.180,-24.902,-41.504,0.000
1727575144.794,-44.434,-51.758,-44.434,-62.012,0.000
1727575144.798,-50.781,-31.250,-39.062,-27.344,0.000
1727575144.802,-21.484,-29.297,-39.062,5.371,0.000
1727575144.806,-10.742,-41.992,-48.340,-12.207,0.000
1727575144.809,11.230,-18.066,-48.340,-25.879,0.000
1727575144.813,-30.273,-7.812,-41.504,-49.805,0.000
1727575144.817,-42.480,-10.742,-35.156,-25.879,0.000
1727575144.821,-11.230,-4.395,-26.855,18.066,0.000
1727575144.825,17.090,-1.465,-25.879,5.859,0.000
1727575144.829,24.902,-1.465,-32.715,-27.344,0.000
1727575144.833,-30.273,-28.320,-40.527,-35.156,0.000
1727575144.837,-62.012,-19.043,-36.621,-11.719,0.000
1727575144.841,-37.109,-3.906,-27.832,8.789,0.000
1727575144.845,-3.418,-7.812,-24.902,-11.719,0.000
1727575144.849,34.668,-3.418,-19.531,-26.855,0.000
1727575144.852,-8.789,-15.137,-28.809,-41.992,0.000
1727575144.856,-56.152,-9.277,-31.250,-27.832,0.000
1727575144.860,-32.715,3.418,-28.809,7.812,0.000
1727575144.864,-13.184,-20.020,-35.645,-22.461,0.000
1727575144.868,2.441,-35.645,-36.133,-38.574,0.000
1727575144.872,-35.156,-30.762,-36.133,-38.086,0.000
1727575144.876,-73.730,-23.438,-36.133,-28.809,0.000
1727575144.880,-46.387,-12.207,-32.227,3.418,0.000
1727575144.884,-33.203,-25.879,-35.645,-24.414,0.000
1727575144.888,-19.531,-31.738,-36.621,-56.152,0.000
1727575144.892,-30.762,-47.363,-40.039,-77.637,0.000
1727575144.895,-77.637,-44.922,-43.457,-67.383,0.000
1727575144.899,-62.500,-30.762,-37.598,-7.812,0.000
1727575144.903,-38.086,-29.297,-37.598,-7.324,0.000
1727575144.907,-11.230,-22.949,-30.762,-30.762,0.000
1727575144.911,-10.254,-48.340,-41.992,-46.387,0.000
1727575144.915,-69.824,-52.246,-49.805,-54.688,0.000
1727575144.919,-62.500,-29.297,-37.109,-15.625,0.000
1727575144.923,-38.086,-38.086,-35.156,-15.137,0.000
1727575144.927,-5.859,-39.062,-43.945,-37.598,0.000
1727575144.931,-1.953,-27.832,-51.270,-48.340,0.000
1727575144.934,-64.453,-26.367,-47.363,-62.500,0.000
1727575144.938,-61.523,-20.508,-51.758,-25.391,0.000
1727575144.942,-39.062,-21.973,-52.734,-19.043,0.000
1727575144.946,-19.043,-15.625,-50.293,-42.480,0.000
1727575144.950,-6.348,-11.230,-49.805,-46.875,0.000
1727575144.954,-59.570,-25.391,-44.434,-54.688,0.000
1727575144.958,-61.035,-26.367,-41.016,-2.930,0.000
1727575144.962,-19.531,-4.395,-29.297,20.996,0.000
1727575144.966,-3.906,-0.488,-21.973,-3.418,0.000
1727575144.970,3.906,-16.113,-28.320,-10.742,0.000
1727575144.974,0.000,-13.184,-34.668,-35.645,0.000
1727575144.977,0.000,3.418,-30.762,-17.578,0.000
1727575144.981,0.000,-3.906,-22.949,10.254,0.000
1727575144.985,0.000,-14.160,-22.949,-14.648,0.000
1727575144.989,0.000,-12.207,-29.785,-27.344,0.000
1727575144.993,0.000,-27.832,-33.203,-41.016,0.000
1727575144.997,0.000,-24.902,-26.855,-19.043,0.000
1727575145.001,0.000,-24.414,-23.438,16.602,0.000
1727575145.005,0.000,-28.809,-26.367,2.441,0.000
1727575145.009,0.000,-13.184,-30.273,-40.039,0.000
1727575145.013,0.000,-23.438,-35.645,-69.336,0.000
1727575145.017,0.000,-25.879,-25.879,-38.574,0.000
1727575145.020,-48.828,-22.949,-19.531,0.488,0.000
1727575145.024,-26.367,-28.809,-31.738,-25.391,0.000
1727575145.028,-5.859,-37.598,-37.598,-45.410,0.000
1727575145.032,-51.758,-50.293,-40.527,-62.012,0.000
1727575145.036,-81.543,-36.133,-44.434,-52.246,0.000
1727575145.040,-51.758,-30.762,-38.086,-10.742,0.000
1727575145.044,-34.180,-46.387,-32.715,-8.789,0.000
1727575145.048,-10.742,-39.062,-30.762,-34.668,0.000
1727575145.052,-35.156,-45.410,-35.156,-68.848,0.000
1727575145.056,-63.965,-52.246,-35.156,-41.992,0.000
1727575145.059,-49.805,-45.898,-30.273,12.207,0.000
1727575145.063,-33.691,-48.340,-35.156,-4.883,0.000
1727575145.067,-14.648,-33.203,-35.156,-53.711,0.000
1727575145.071,-40.039,-31.738,-45.410,-69.824,0.000
1727575145.075,-69.824,-29.297,-41.992,-50.781,0.000
1727575145.079,-47.852,-22.949,-28.320,-9.766,0.000
1727575145.083,-41.504,-28.809,-41.504,-16.113,0.000
1727575145.087,-9.766,-33.691,-48.340,-41.504,0.000
1727575145.091,-15.137,-54.199,-47.363,-56.152,0.000
1727575145.095,-63.965,-57.129,-46.875,-45.898,0.000
1727575145.099,-46.387,-23.926,-39.551,3.418,0.000
1727575145.102,-25.391,-23.926,-39.551,-9.766,0.000
1727575145.106,-6.348,-31.738,-43.945,-37.109,0.000
1727575145.110,-13.184,-36.133,-40.527,-48.340,0.000
1727575145.114,-64.453,-26.367,-34.668,-54.688,0.000
1727575145.118,-51.758,-7.812,-25.391,0.488,0.000
1727575145.122,-22.949,-15.137,-23.438,9.766,0.000
1727575145.126,-5.859,-15.137,-29.297,-17.090,0.000
1727575145.130,5.859,-21.484,-34.668,-34.180,0.000
1727575145.134,-48.828,-26.855,-41.992,-59.570,0.000
1727575145.138,-62.500,-21.973,-37.109,-8.789,0.000
1727575145.142,-32.227,-13.184,-29.785,-4.395,0.000
1727575145.145,-8.301,-8.301,-29.785,-44.434,0.000
1727575145.149,0.977,-22.461,-32.227,-38.574,0.000
1727575145.153,-52.246,-34.668,-34.180,-59.570,0.000
1727575145.157,-58.105,-16.113,-25.391,-25.391,0.000
1727575145.161,-27.832,-7.812,-20.996,2.930,0.000
1727575145.165,-5.859,-14.160,-23.926,-21.973,0.000
1727575145.169,12.695,-24.902,-28.809,-18.555,0.000
1727575145.173,-37.598,-39.551,-33.203,-51.270,0.000
1727575145.177,-61.523,-28.320,-27.832,-44.434,0.000
1727575145.181,-33.691,-30.762,-29.785,-0.488,0.000
1727575145.184,-26.855,-37.109,-30.762,-18.066,0.000
1727575145.188,-13.672,-23.438,-28.320,-55.664,0.000
1727575145.192,-47.363,-37.109,-32.227,-71.777,0.000
1727575145.196,-68.359,-37.598,-29.297,-27.344,0.000
1727575145.200,-39.551,-17.578,-30.273,6.348,0.000
1727575145.204,-25.391,-26.855,-35.156,-34.180,0.000
1727575145.208,-10.742,-37.109,-42.969,-49.805,0.000
1727575145.212,-38.574,-39.062,-55.176,-60.547,0.000
1727575145.216,-59.570,-33.691,-40.039,-35.156,0.000
1727575145.220,-39.062,-23.926,-30.762,0.977,0.000
1727575145.224,-29.297,-29.297,-44.434,-31.250,0.000
1727575145.227,-3.418,-42.480,-49.805,-47.363,0.000
1727575145.231,-36.621,-42.969,-41.504,-50.293,0.000
1727575145.235,-76.660,-27.344,-31.250,-34.180,0.000
1727575145.239,-45.410,-27.832,-29.297,-13.184,0.000
1727575145.243,-14.160,-32.715,-32.227,-20.508,0.000
1727575145.247,5.371,-5.859,-29.297,-38.086,0.000
1727575145.251,-22.461,-9.766,-36.133,-67.871,0.000
1727575145.255,-54.199,-36.621,-36.133,-42.969,0.000
1727575145.259,-26.855,-34.668,-23.926,9.766,0.000
1727575145.263,-15.137,-34.668,-30.273,-10.254,0.000
1727575145.267,5.371,-32.227,-35.156,-23.438,0.000
1727575145.270,-10.254,-32.227,-30.273,-42.969,0.000
1727575145.274,-59.570,-36.621,-23.926,-50.293,0.000
1727575145.278,-33.203,-19.043,-13.672,-0.488,0.000
1727575145.282,-12.207,-11.719,-18.066,-2.930,0.000
1727575145.286,10.742,-36.133,-32.227,-28.809,0.000
1727575145.290,2.441,-56.152,-40.527,-47.852,0.000
1727575145.294,-63.965,-41.504,-34.668,-53.223,0.000
1727575145.298,-56.152,-33.691,-26.367,2.441,0.000
1727575145.302,-32.715,-38.574,-24.414,11.719,0.000
1727575145.306,-8.789,-35.156,-19.043,-16.602,0.000
1727575145.310,8.789,-34.668,-23.438,-44.922,0.000
1727575145.313,-48.340,-37.109,-30.273,-62.988,0.000
1727575145.317,-49.805,-25.391,-15.137,-8.301,0.000
1727575145.321,-22.949,-30.273,-20.020,13.672,0.000
1727575145.325,-20.996,-38.086,-42.480,-25.391,0.000
1727575145.329,-19.531,-41.016,-44.434,-49.316,0.000
1727575145.333,-63.477,-56.641,-40.527,-51.758,0.000
1727575145.337,-71.777,-35.156,-29.297,-19.531,0.000
1727575145.341,-50.781,-16.602,-27.832,-2.930,0.000
1727575145.345,-26.367,-39.062,-32.715,-38.086,0.000
1727575145.349,-6.348,-49.316,-39.551,-59.570,0.000
1727575145.352,-58.594,-43.457,-48.828,-68.848,0.000
1727575145.356,-79.590,-44.434,-35.156,-37.598,0.000
1727575145.360,-52.246,-48.340,-31.250,-10.254,0.000
1727575145.364,-27.832,-34.180,-42.969,-23.926,0.000
1727575145.368,-1.953,-21.973,-34.668,-23.438,0.000
1727575145.372,-40.039,-31.738,-34.180,-44.434,0.000
1727575145.376,-52.734,-33.691,-40.039,-23.926,0.000
1727575145.380,-19.043,-27.344,-34.180,12.207,0.000
1727575145.384,-8.789,-19.043,-32.227,-16.602,0.000
1727575145.388,15.625,-22.461,-32.715,-46.387,0.000
1727575145.392,-15.625,-30.273,-35.645,-66.895,0.000
1727575145.395,-61.523,-15.625,-30.762,-34.180,0.000
1727575145.399,-39.062,-12.695,-27.832,9.766,0.000
1727575145.403,-14.648,-27.832,-32.715,-18.555,0.000
1727575145.407,4.395,-23.926,-30.273,-33.691,0.000
1727575145.411,-29.785,-26.367,-27.344,-57.129,0.000
1727575145.415,-51.758,-21.973,-25.879,-35.156,0.000
1727575145.419,-15.137,-20.020,-21.973,22.949,0.000
1727575145.423,-12.695,-52.246,-27.832,-1.953,0.000
1727575145.427,2.441,-45.898,-26.367,-26.855,0.000
1727575145.431,-18.066,-34.668,-31.738,-37.598,0.000
1727575145.435,-66.406,-45.410,-38.574,-30.273,0.000
1727575145.438,-46.387,-33.691,-32.227,3.418,0.000
1727575145.442,-16.113,-25.391,-30.273,-22.461,0.000
1727575145.446,1.465,-29.785,-28.320,-45.410,0.000
1727575145.450,-25.391,-45.898,-31.250,-54.688,0.000
1727575145.454,-71.777,-47.363,-27.832,-44.922,0.000
1727575145.458,-48.828,-26.367,-15.625,7.324,0.000
1727575145.462,-31.250,-29.785,-21.484,-5.859,0.000
1727575145.466,-6.348,-48.828,-28.809,-14.648,0.000
1727575145.470,-8.789,-49.316,-35.156,-13.184,0.000
1727575145.474,-63.477,-38.086,-35.645,-39.062,0.000
1727575145.477,-51.758,-32.227,-38.086,-4.395,0.000
1727575145.481,-35.156,-34.668,-39.062,-6.348,0.000
1727575145.485,-20.020,-31.738,-33.691,-35.156,0.000
1727575145.489,-9.766,-29.297,-27.344,-45.898,0.000
1727575145.493,-57.617,-44.922,-29.297,-48.340,0.000
1727575145.497,-58.594,-38.574,-30.762,-13.184,0.000
1727575145.501,-39.062,-24.414,-31.250,-22.461,0.000
1727575145.505,-15.625,-26.855,-37.109,-29.785,0.000
1727575145.509,5.371,-31.250,-36.133,-18.066,0.000
1727575145.513,-36.621,-42.480,-41.016,-36.133,0.000
1727575145.517,-49.316,-25.391,-36.621,-9.766,0.000
1727575145.520,-30.762,-12.207,-23.438,7.812,0.000
1727575145.524,-2.441,-31.738,-21.973,-19.043,0.000
1727575145.528,12.695,-37.109,-27.344,-41.016,0.000
1727575145.532,-40.039,-32.715,-21.973,-56.641,0.000
1727575145.536,0.000,-13.672,-21.973,-19.531,0.000
1727575145.540,0.000,-4.395,-28.320,22.461,0.000
1727575145.544,0.000,-12.695,-24.902,0.000,0.000
1727575145.548,0.000,-17.578,-26.367,-26.855,0.000
1727575145.552,0.000,-33.691,-36.621,-41.504,0.000
1727575145.556,0.000,-41.016,-36.621,-0.977,0.000
1727575145.560,0.000,-28.320,-28.320,32.715,0.000
1727575145.563,0.000,-19.043,-29.785,-18.555,0.000
1727575145.567,0.000,-33.691,-29.785,-40.527,0.000
1727575145.571,0.000,-44.922,-34.668,-47.852,0.000
1727575145.575,0.000,-20.020,-30.762,-25.391,0.000
1727575145.579,0.000,-9.277,-19.043,14.648,0.000
1727575145.583,-11.719,-31.250,-29.785,-7.324,0.000
1727575145.587,5.859,-36.621,-39.062,-21.973,0.000
1727575145.591,-28.809,-45.410,-36.133,-37.598,0.000
1727575145.595,-55.176,-39.062,-30.762,-27.832,0.000
1727575145.599,-26.855,-29.785,-27.344,16.113,0.000
1727575145.603,-22.461,-46.875,-26.855,-15.137,0.000
1727575145.606,-8.301,-44.922,-34.180,-34.668,0.000
1727575145.610,-36.133,-42.480,-36.621,-46.387,0.000
1727575145.614,-69.336,-49.316,-38.086,-45.410,0.000
1727575145.618,-46.387,-34.668,-34.668,8.789,0.000
1727575145.622,-30.273,-25.391,-27.832,1.465,0.000
1727575145.626,5.371,-32.227,-29.297,-28.320,0.000
1727575145.630,-14.160,-59.082,-41.504,-44.922,0.000
1727575145.634,-68.848,-66.895,-49.316,-46.387,0.000
1727575145.638,-41.992,-37.109,-28.809,-1.465,0.000
1727575145.642,-30.762,-38.086,-25.391,2.930,0.000
1727575145.645,-9.766,-47.363,-37.598,-23.926,0.000
1727575145.649,-15.137,-45.898,-41.504,-51.270,0.000
1727575145.653,-53.711,-33.203,-37.109,-49.805,0.000
1727575145.657,-26.367,-17.578,-31.738,-0.977,0.000
1727575145.661,-17.090,-39.551,-35.156,7.812,0.000
1727575145.665,9.277,-41.016,-34.180,1.953,0.000
1727575145.669,5.371,-9.766,-27.832,-23.926,0.000
1727575145.673,-44.434,-20.020,-36.621,-41.504,0.000
1727575145.677,-29.785,-16.602,-37.598,0.488,0.000
1727575145.681,3.418,-1.465,-28.320,24.902,0.000
1727575145.685,27.344,-2.930,-26.855,7.812,0.000
1727575145.688,21.973,-24.414,-30.762,-13.184,0.000
1727575145.692,-30.762,-39.551,-40.039,-35.645,0.000
1727575145.696,-29.785,-20.996,-37.109,-1.465,0.000
1727575145.700,-14.160,-7.324,-33.203,13.184,0.000
1727575145.704,4.395,-13.184,-31.738,-12.207,0.000
1727575145.708,20.020,-20.020,-26.367,-20.508,0.000
1727575145.712,-32.715,-15.137,-26.367,-35.645,0.000
1727575145.716,-47.852,-3.418,-22.461,-11.230,0.000
1727575145.720,-25.391,-11.230,-21.973,10.254,0.000
1727575145.724,-10.254,-20.020,-26.367,-10.742,0.000
1727575145.728,-3.906,-15.137,-29.785,-31.738,0.000
1727575145.731,-53.223,-38.574,-31.250,-56.641,0.000
1727575145.735,-53.223,-44.434,-24.414,-25.391,0.000
1727575145.739,-33.203,-29.297,-27.344,8.301,0.000
1727575145.743,-41.992,-34.180,-30.762,-20.020,0.000
1727575145.747,-15.137,-33.691,-25.391,-35.156,0.000
1727575145.751,-45.410,-43.945,-32.227,-50.293,0.000
1727575145.755,-79.590,-38.574,-38.574,-36.621,0.000
1727575145.759,-54.199,-15.137,-30.273,-19.531,0.000
1727575145.763,-39.551,-23.926,-27.832,-41.504,0.000
1727575145.767,-13.184,-28.809,-23.438,-44.434,0.000
1727575145.771,-38.574,-38.086,-27.344,-45.410,0.000
1727575145.774,-65.430,-30.273,-31.250,-26.855,0.000
1727575145.778,-40.527,-24.902,-25.879,1.953,0.000
1727575145.782,-32.715,-41.504,-32.227,-21.973,0.000
1727575145.786,-13.184,-45.410,-40.527,-43.457,0.000
1727575145.790,-33.203,-59.570,-42.969,-58.105,0.000
1727575145.794,-55.176,-57.129,-39.551,-29.785,0.000
1727575145.798,-38.574,-50.293,-33.691,12.695,0.000
1727575145.802,-40.527,-38.574,-31.738,-22.461,0.000
1727575145.806,-9.277,-27.344,-40.039,-49.805,0.000
1727575145.810,-16.602,-57.617,-52.734,-56.641,0.000
1727575145.813,-66.406,-72.266,-47.363,-49.805,0.000
1727575145.817,-44.434,-36.621,-32.227,-10.742,0.000
1727575145.821,-11.719,-18.066,-30.762,1.465,0.000
1727575145.825,17.578,-27.344,-37.109,0.977,0.000
1727575145.829,4.395,-33.203,-40.039,-26.367,0.000
1727575145.833,-45.898,-40.039,-32.227,-44.922,0.000
1727575145.837,-34.180,-24.902,-27.832,-5.371,0.000
1727575145.841,-18.555,-29.297,-28.809,4.883,0.000
1727575145.845,3.418,-40.527,-35.156,-19.531,0.000
1727575145.849,4.395,-32.227,-39.062,-55.664,0.000
1727575145.853,-60.547,-40.039,-39.062,-60.059,0.000
1727575145.856,-58.105,-26.855,-36.621,-11.230,0.000
1727575145.860,-31.738,-16.602,-28.809,-5.371,0.000
1727575145.864,-15.137,-24.414,-22.461,-29.297,0.000
1727575145.868,-2.441,-33.691,-23.438,-42.969,0.000
1727575145.872,-57.129,-41.016,-27.832,-47.852,0.000
1727575145.876,-53.223,-34.180,-23.926,-2.441,0.000
1727575145.880,-17.090,-31.738,-17.578,5.859,0.000
1727575145.884,-16.602,-39.062,-23.926,-29.785,0.000
1727575145.888,-14.160,-47.852,-30.273,-44.434,0.000
1727575145.892,-63.965,-38.086,-31.250,-56.152,0.000
1727575145.895,-71.777,-13.184,-21.484,-22.949,0.000
1727575145.899,-45.898,-20.996,-16.113,-4.883,0.000
1727575145.903,-24.902,-30.762,-20.508,-41.016,0.000
1727575145.907,-7.324,-30.273,-30.762,-48.828,0.000
1727575145.911,-57.129,-41.992,-38.574,-58.594,0.000
1727575145.915,-74.219,-53.711,-32.715,-31.250,0.000
1727575145.919,-52.734,-41.992,-22.949,3.906,0.000
1727575145.923,-21.484,-22.949,-28.320,-25.879,0.000
1727575145.927,4.883,-28.809,-30.273,-58.594,0.000
1727575145.931,-49.316,-53.711,-35.156,-57.129,0.000
1727575145.935,-71.777,-40.039,-43.945,-27.344,0.000
1727575145.938,-32.715,-14.160,-39.062,-10.254,0.000
1727575145.942,-13.184,-24.902,-42.969,-30.273,0.000
1727575145.946,11.230,-26.367,-47.852,-27.832,0.000
1727575145.950,-32.715,-18.555,-47.363,-44.922,0.000
1727575145.954,-65.918,2.930,-33.203,-34.180,0.000
1727575145.958,-31.738,4.883,-24.414,10.254,0.000
1727575145.962,-29.297,-10.742,-35.156,-13.672,0.000
1727575145.966,-4.395,-5.371,-37.598,-47.363,0.000
1727575145.970,-1.465,-13.184,-38.574,-58.105,0.000
1727575145.974,-45.898,-13.672,-31.738,-33.203,0.000
1727575145.978,-37.109,0.977,-32.227,14.160,0.000
1727575145.981,-13.184,2.441,-32.227,2.441,0.000
1727575145.985,7.324,2.441,-19.531,-17.578,0.000
1727575145.989,-4.883,-16.602,-28.320,-33.203,0.000
1727575145.993,-48.828,-13.672,-38.086,-30.273,0.000
1727575145.997,-37.598,14.648,-24.414,8.301,0.000
1727575146.001,-16.602,7.812,-18.555,-8.789,0.000
1727575146.005,8.789,-8.789,-27.832,-25.391,0.000
1727575146.009,-9.766,-19.531,-33.691,-28.809,0.000
1727575146.013,-64.941,-15.625,-31.250,-41.992,0.000
1727575146.017,-41.504,1.465,-22.949,-9.766,0.000
1727575146.021,-8.789,-8.789,-25.391,-5.859,0.000
1727575146.024,1.953,-21.973,-28.320,-25.391,0.000
1727575146.028,-4.395,-15.137,-32.715,-32.227,0.000
1727575146.032,-55.176,-10.742,-29.297,-46.875,0.000
1727575146.036,-53.711,-12.207,-23.438,-6.836,0.000
1727575146.040,-29.297,-19.043,-29.785,3.906,0.000
1727575146.044,-18.066,-15.137,-29.297,-33.203,0.000
1727575146.048,-14.648,-22.461,-35.156,-52.246,0.000
1727575146.052,-53.223,-38.574,-41.016,-44.922,0.000
1727575146.056,-63.477,-24.414,-36.621,-7.812,0.000
1727575146.060,-38.574,-15.625,-31.738,-15.137,0.000
1727575146.064,-16.113,-29.297,-33.203,-25.879,0.000
1727575146.067,-18.555,-32.715,-38.086,-43.457,0.000
1727575146.071,-71.777,-39.551,-42.480,-76.660,0.000
1727575146.075,-81.055,-32.715,-33.691,-33.691,0.000
1727575146.079,-44.434,-25.391,-28.809,-1.465,0.000
1727575146.083,-19.043,-33.691,-40.039,-20.996,0.000
1727575146.087,-10.742,-17.090,-30.273,-41.504,0.000
1727575146.091,-54.688,-10.254,-25.879,-63.477,0.000
1727575146.095,-69.336,-13.672,-33.203,-25.391,0.000
1727575146.099,-47.363,-13.184,-36.621,0.488,0.000
1727575146.103,-14.648,-15.137,-36.621,-20.020,0.000
1727575146.106,17.578,-20.508,-35.645,-20.996,0.000
1727575146.110,-37.598,-34.668,-45.410,-47.363,0.000
1727575146.114,-68.359,-30.762,-38.574,-27.832,0.000
1727575146.118,-29.785,-20.508,-21.973,15.625,0.000
1727575146.122,0.000,-11.719,-26.855,-7.812,0.000
1727575146.126,26.367,-18.555,-38.574,-20.508,0.000
1727575146.130,-4.395,-37.109,-35.156,-20.508,0.000
1727575146.134,-42.480,-17.578,-26.855,-11.230,0.000
1727575146.138,-22.461,-7.324,-20.020,18.555,0.000
1727575146.142,4.883,-0.488,-18.066,1.465,0.000
1727575146.146,30.762,9.277,-15.625,-15.137,0.000
1727575146.149,-0.488,-13.184,-17.578,-35.156,0.000
1727575146.153,-37.109,-24.902,-28.320,-30.762,0.000
1727575146.157,-14.160,-14.160,-24.902,20.508,0.000
1727575146.161,9.277,-15.137,-21.484,1.953,0.000
1727575146.165,31.250,-20.508,-27.344,-30.273,0.000
1727575146.169,-11.719,-26.367,-36.621,-56.641,0.000
1727575146.173,-41.504,-36.133,-41.504,-35.645,0.000
1727575146.177,-20.996,-9.277,-32.715,20.020,0.000
1727575146.181,-21.484,-5.859,-26.367,-4.883,0.000
1727575146.185,7.324,-21.973,-30.762,-18.555,0.000
1727575146.189,-8.789,-25.879,-36.621,-38.086,0.000
1727575146.192,-48.340,-29.297,-34.180,-36.133,0.000
1727575146.196,-44.922,-8.789,-27.344,4.395,0.000
1727575146.200,-32.227,-14.648,-22.461,-12.695,0.000
1727575146.204,-0.977,-31.738,-26.855,-33.691,0.000
1727575146.208,-12.207,-30.273,-33.203,-41.504,0.000
1727575146.212,-59.570,-34.668,-43.945,-40.527,0.000
1727575146.216,-49.805,-42.480,-37.109,-16.113,0.000
1727575146.220,-42.969,-48.828,-35.156,-22.461,0.000
1727575146.224,-23.438,-38.086,-37.598,-42.969,0.000
1727575146.228,-17.578,-43.945,-39.551,-56.641,0.000
1727575146.231,-71.777,-55.664,-49.805,-82.031,0.000
1727575146.235,-59.082,-39.062,-40.527,-35.156,0.000
1727575146.239,-39.551,-20.996,-26.367,-2.441,0.000
1727575146.243,-20.508,-34.180,-31.250,-20.020,0.000
1727575146.247,-15.625,-47.852,-40.527,-45.898,0.000
1727575146.251,-68.359,-52.246,-48.828,-82.520,0.000
1727575146.255,-67.383,-39.062,-44.434,-41.016,0.000
1727575146.259,-32.227,-25.391,-43.945,-5.859,0.000
1727575146.263,0.488,-34.180,-45.898,-18.066,0.000
1727575146.267,-1.465,-11.719,-47.852,-39.062,0.000
1727575146.271,-56.641,0.977,-43.945,-58.105,0.000
1727575146.274,-35.156,-9.766,-30.762,-0.977,0.000
1727575146.278,-0.977,-2.441,-25.391,33.203,0.000
1727575146.282,3.418,-8.301,-25.879,-6.348,0.000
1727575146.286,0.000,-23.438,-30.273,-31.250,0.000
1727575146.290,0.000,-44.434,-30.273,-39.062,0.000
1727575146.294,0.000,-36.133,-30.762,-7.812,0.000
1727575146.298,0.000,-7.812,-29.785,24.902,0.000
1727575146.302,0.000,4.883,-30.762,0.977,0.000
1727575146.306,0.000,-10.742,-34.668,-4.883,0.000
1727575146.310,0.000,-25.391,-41.016,-33.691,0.000
1727575146.314,0.000,-1.465,-29.297,-43.457,0.000
1727575146.317,0.000,-11.719,-22.461,3.418,0.000
1727575146.321,0.000,-22.461,-24.902,-10.742,0.000
1727575146.325,0.000,4.395,-22.949,-36.133,0.000
1727575146.329,0.000,7.812,-26.367,-54.688,0.000
1727575146.333,-68.848,-4.883,-23.926,-37.598,0.000
1727575146.337,-41.504,-9.766,-23.438,14.648,0.000
1727575146.341,-29.785,-7.324,-32.715,-11.230,0.000
1727575146.345,-5.859,-17.578,-27.832,-41.992,0.000
1727575146.349,-22.949,-46.875,-24.414,-48.340,0.000
1727575146.353,-59.570,-40.527,-32.715,-46.875,0.000
1727575146.356,-54.199,-18.555,-36.621,-22.949,0.000
1727575146.360,-42.969,-25.879,-40.527,-37.109,0.000
1727575146.364,-13.672,-39.062,-39.062,-48.828,0.000
1727575146.368,-32.227,-42.969,-41.016,-57.129,0.000
