timestamps,TP9,AF7,AF8,TP10,Right AUX
1727691522.520,14.648,-11.230,-29.785,-21.973,0.000
1727691522.524,-8.301,-16.602,-23.438,-29.785,0.000
1727691522.528,-36.133,-19.531,-29.785,-31.250,0.000
1727691522.532,-11.230,-10.254,-29.785,-23.926,0.000
1727691522.535,12.695,-6.348,-26.367,-10.742,0.000
1727691522.539,10.742,-8.301,-25.391,-2.930,0.000
1727691522.543,-5.859,-13.672,-26.367,-10.742,0.000
1727691522.547,-53.223,-17.090,-29.785,-29.297,0.000
1727691522.551,-29.785,-18.066,-25.879,-26.367,0.000
1727691522.555,30.762,-29.785,-17.090,-1.465,0.000
1727691522.559,30.762,-29.785,-27.344,0.977,0.000
1727691522.563,3.418,-10.254,-35.156,-7.812,0.000
1727691522.567,-34.668,-0.488,-36.133,-18.555,0.000
1727691522.571,-14.160,-7.324,-45.410,-19.043,0.000
1727691522.575,42.480,-15.137,-41.016,1.465,0.000
1727691522.578,39.551,-15.137,-34.180,1.953,0.000
1727691522.582,15.625,-20.508,-31.250,5.371,0.000
1727691522.586,-31.250,-20.020,-22.461,4.883,0.000
1727691522.590,-42.480,-14.160,-25.391,0.000,0.000
1727691522.594,13.672,-19.043,-27.344,4.395,0.000
1727691522.598,39.551,-24.902,-25.879,3.906,0.000
1727691522.602,14.160,-29.297,-26.367,7.812,0.000
1727691522.606,-20.508,-26.367,-21.484,-2.441,0.000
1727691522.610,-22.461,-25.391,-23.926,-19.043,0.000
1727691522.614,7.812,-26.855,-29.297,-12.207,0.000
1727691522.618,20.508,-27.832,-32.227,-4.395,0.000
1727691522.621,20.508,-29.785,-28.809,2.441,0.000
1727691522.625,-11.719,-30.762,-25.391,3.418,0.000
1727691522.629,-25.879,-30.762,-27.832,-2.441,0.000
1727691522.633,21.484,-26.367,-26.855,4.883,0.000
1727691522.637,41.992,-25.391,-18.555,11.230,0.000
1727691522.641,35.156,-26.367,-17.578,10.742,0.000
1727691522.645,-6.348,-31.738,-14.160,11.230,0.000
1727691522.649,-34.668,-37.598,-18.066,-1.465,0.000
1727691522.653,12.207,-35.645,-24.902,-13.184,0.000
1727691522.657,40.527,-32.715,-20.020,6.348,0.000
1727691522.661,31.250,-28.809,-21.973,10.254,0.000
1727691522.664,-8.301,-20.508,-24.902,-10.254,0.000
1727691522.668,-38.574,-20.508,-25.391,-16.113,0.000
1727691522.672,11.719,-24.902,-28.320,4.395,0.000
1727691522.676,47.363,-27.344,-28.320,9.277,0.000
1727691522.680,37.109,-26.855,-25.879,3.418,0.000
1727691522.684,-1.465,-24.414,-22.461,-8.789,0.000
1727691522.688,-43.457,-23.438,-26.855,-24.414,0.000
1727691522.692,-8.789,-25.391,-30.762,-9.766,0.000
1727691522.696,35.156,-19.531,-27.344,1.953,0.000
1727691522.700,26.367,-15.137,-20.996,-0.977,0.000
1727691522.703,-2.930,-20.020,-14.160,-13.672,0.000
1727691522.707,-35.645,-23.438,-13.672,-15.137,0.000
1727691522.711,-10.742,-21.484,-22.461,-4.395,0.000
1727691522.715,31.250,-29.297,-34.180,5.371,0.000
1727691522.719,31.250,-36.133,-37.598,18.066,0.000
1727691522.723,-3.906,-33.203,-26.855,6.836,0.000
1727691522.727,-45.410,-31.250,-21.484,-8.301,0.000
1727691522.731,-12.695,-28.320,-25.391,6.836,0.000
1727691522.735,42.969,-32.227,-21.484,19.043,0.000
1727691522.739,41.016,-35.645,-20.996,16.602,0.000
1727691522.743,17.578,-34.668,-22.949,1.465,0.000
1727691522.746,-20.508,-35.645,-30.273,-8.789,0.000
1727691522.750,-17.090,-38.086,-39.551,4.395,0.000
1727691522.754,30.273,-35.156,-28.320,20.996,0.000
1727691522.758,37.598,-29.785,-20.508,16.602,0.000
1727691522.762,18.555,-25.879,-19.043,8.789,0.000
1727691522.766,-17.578,-25.879,-20.996,-1.465,0.000
1727691522.770,-14.648,-23.926,-20.996,2.930,0.000
1727691522.774,39.062,-22.949,-20.508,18.555,0.000
1727691522.778,59.082,-24.414,-19.531,19.043,0.000
1727691522.782,35.645,-23.438,-19.531,19.043,0.000
1727691522.786,-17.578,-22.461,-20.996,12.695,0.000
1727691522.789,-31.250,-33.691,-20.020,7.324,0.000
1727691522.793,20.020,-43.945,-19.531,23.926,0.000
1727691522.797,41.504,-37.109,-22.461,25.391,0.000
1727691522.801,20.020,-30.762,-26.855,8.301,0.000
1727691522.805,-25.879,-37.598,-25.879,-11.230,0.000
1727691522.809,-51.270,-44.922,-26.855,-22.949,0.000
1727691522.813,-1.953,-42.480,-24.414,-20.508,0.000
1727691522.817,23.926,-37.598,-14.648,-9.277,0.000
1727691522.821,10.254,-34.180,-13.672,-8.789,0.000
1727691522.825,-20.020,-36.621,-16.602,-9.766,0.000
1727691522.828,-44.434,-37.598,-23.438,-20.020,0.000
1727691522.832,2.441,-36.133,-30.762,-14.160,0.000
1727691522.836,36.133,-37.598,-32.715,-2.441,0.000
1727691522.840,19.043,-40.527,-36.621,-8.301,0.000
1727691522.844,-22.461,-41.504,-30.762,-15.625,0.000
1727691522.848,-46.387,-38.086,-31.738,-14.160,0.000
1727691522.852,14.160,-38.574,-35.156,6.348,0.000
1727691522.856,47.363,-48.828,-23.926,11.719,0.000
1727691522.860,11.719,-53.223,-19.043,-13.184,0.000
1727691522.864,-34.180,-47.852,-18.066,-20.508,0.000
1727691522.868,-63.965,-46.387,-11.719,-13.672,0.000
1727691522.871,-20.020,-42.480,-12.207,-0.977,0.000
1727691522.875,15.625,-45.410,-14.648,3.906,0.000
1727691522.879,10.742,-48.340,-13.184,2.930,0.000
1727691522.883,-19.531,-48.340,-13.672,1.465,0.000
1727691522.887,-54.199,-46.387,-16.602,-3.418,0.000
1727691522.891,-20.996,-44.922,-24.414,-4.395,0.000
1727691522.895,14.160,-46.875,-27.832,-4.395,0.000
1727691522.899,12.695,-45.898,-22.461,-3.418,0.000
1727691522.903,-1.465,-42.480,-16.113,-3.906,0.000
1727691522.907,-40.039,-41.992,-10.254,-7.324,0.000
1727691522.911,-24.902,-41.016,-7.324,0.000,0.000
1727691522.914,29.785,-38.086,-13.184,8.789,0.000
1727691522.918,26.855,-35.645,-24.902,7.324,0.000
1727691522.922,-2.930,-41.992,-22.461,13.184,0.000
1727691522.926,-43.945,-48.340,-16.602,4.395,0.000
1727691522.930,-31.738,-37.598,-17.090,2.930,0.000
1727691522.934,19.043,-32.715,-14.160,10.254,0.000
1727691522.938,21.973,-33.691,-14.160,2.930,0.000
1727691522.942,0.000,-34.668,-18.555,-0.488,0.000
1727691522.946,0.000,-39.062,-20.508,-9.766,0.000
1727691522.950,0.000,-40.039,-27.832,-12.695,0.000
1727691522.954,0.000,-36.621,-28.320,-0.488,0.000
1727691522.957,0.000,-33.203,-32.227,4.883,0.000
1727691522.961,0.000,-31.738,-34.668,-9.277,0.000
1727691522.965,0.000,-33.203,-21.973,-16.113,0.000
1727691522.969,0.000,-37.109,-24.902,-12.695,0.000
1727691522.973,0.000,-40.527,-33.203,0.977,0.000
1727691522.977,0.000,-39.062,-17.090,18.066,0.000
1727691522.981,0.000,-33.691,-22.949,13.672,0.000
1727691522.985,0.000,-33.203,-38.086,1.953,0.000
1727691522.989,-45.410,-37.598,-32.227,-4.883,0.000
1727691522.993,-2.930,-35.645,-32.227,-2.441,0.000
1727691522.997,22.461,-33.691,-37.109,0.488,0.000
1727691523.000,20.508,-29.785,-32.715,-3.418,0.000
1727691523.004,-11.719,-28.320,-21.484,-0.488,0.000
1727691523.008,-38.574,-33.691,-5.859,-6.836,0.000
1727691523.012,1.465,-34.668,4.395,-10.254,0.000
1727691523.016,37.109,-30.273,2.441,-5.859,0.000
1727691523.020,34.668,-29.785,1.953,5.371,0.000
1727691523.024,-5.859,-35.645,-2.930,9.277,0.000
1727691523.028,-43.457,-38.086,-6.348,-6.348,0.000
1727691523.032,0.977,-37.598,-27.832,0.488,0.000
1727691523.036,44.922,-36.621,-58.105,12.207,0.000
1727691523.040,32.715,-34.180,-41.992,4.395,0.000
1727691523.043,-7.324,-31.250,-7.324,-7.324,0.000
1727691523.047,-43.457,-32.227,-11.230,-7.812,0.000
1727691523.051,-1.465,-27.832,-43.945,0.977,0.000
1727691523.055,56.641,-20.996,-56.641,17.090,0.000
1727691523.059,54.688,-27.832,-20.020,25.391,0.000
1727691523.063,-0.488,-36.621,13.672,10.742,0.000
1727691523.067,-63.965,-48.340,14.160,-12.695,0.000
1727691523.071,-37.598,-51.758,6.348,-11.719,0.000
1727691523.075,9.766,-48.828,-0.977,-7.812,0.000
1727691523.079,-5.371,-55.664,1.953,-11.719,0.000
1727691523.082,-44.922,-63.477,2.441,-18.555,0.000
1727691523.086,-89.844,-65.430,-5.371,-30.762,0.000
1727691523.090,-75.195,-69.824,-1.953,-35.645,0.000
1727691523.094,-43.457,-79.102,21.484,-35.156,0.000
1727691523.098,-49.316,-88.867,40.527,-33.691,0.000
1727691523.102,-72.266,-93.262,45.898,-34.180,0.000
1727691523.106,-118.652,-89.355,29.785,-38.086,0.000
1727691523.110,-103.027,-89.844,6.836,-26.367,0.000
1727691523.114,-46.875,-92.285,-10.254,-13.672,0.000
1727691523.118,-46.875,-98.633,11.719,-33.691,0.000
1727691523.122,-79.590,-111.816,61.523,-54.688,0.000
1727691523.125,-113.281,-108.398,54.199,-41.992,0.000
1727691523.129,-84.473,-92.285,24.902,-18.555,0.000
1727691523.133,-25.391,-91.309,38.574,-14.160,0.000
1727691523.137,-15.137,-94.238,50.293,-21.973,0.000
1727691523.141,-31.250,-85.938,40.039,-21.973,0.000
1727691523.145,-68.359,-77.148,21.973,-23.926,0.000
1727691523.149,-70.801,-68.359,18.066,-20.996,0.000
1727691523.153,-12.207,-67.871,25.879,-4.883,0.000
1727691523.157,16.113,-71.777,7.812,5.371,0.000
1727691523.161,-2.930,-60.547,-12.207,2.930,0.000
1727691523.164,-45.410,-59.082,11.719,-1.465,0.000
1727691523.168,-57.617,-62.500,27.344,-6.348,0.000
1727691523.172,-5.371,-56.152,19.043,-3.418,0.000
1727691523.176,23.926,-57.129,26.855,5.371,0.000
1727691523.180,8.789,-51.758,23.438,6.836,0.000
1727691523.184,-28.320,-42.969,10.742,5.859,0.000
1727691523.188,-41.016,-45.410,4.395,7.812,0.000
1727691523.192,1.953,-48.340,7.812,6.348,0.000
1727691523.196,34.668,-40.527,10.254,13.184,0.000
1727691523.200,28.320,-36.621,-2.930,28.809,0.000
1727691523.204,-11.230,-41.504,-11.230,18.066,0.000
1727691523.207,-38.574,-46.875,-2.441,10.742,0.000
1727691523.211,1.465,-51.758,3.906,10.742,0.000
1727691523.215,44.922,-50.293,-6.348,18.555,0.000
1727691523.219,39.062,-37.109,-17.578,28.809,0.000
1727691523.223,-12.207,-35.645,-11.719,7.812,0.000
1727691523.227,-43.457,-39.551,1.465,-1.465,0.000
1727691523.231,4.883,-34.180,2.930,8.789,0.000
1727691523.235,39.551,-33.691,-6.836,15.625,0.000
1727691523.239,38.086,-35.645,-15.625,12.207,0.000
1727691523.243,15.625,-35.645,-15.625,7.324,0.000
1727691523.246,-31.738,-38.086,-17.090,5.859,0.000
1727691523.250,-6.836,-37.598,-17.578,6.836,0.000
1727691523.254,40.039,-34.180,-1.465,6.836,0.000
1727691523.258,43.945,-27.344,-8.301,10.254,0.000
1727691523.262,23.438,-18.066,-38.574,13.184,0.000
1727691523.266,-23.926,-28.809,-38.086,-4.395,0.000
1727691523.270,-5.371,-30.273,-1.953,-9.766,0.000
1727691523.274,45.898,-25.879,19.043,4.395,0.000
1727691523.278,47.852,-27.832,6.836,11.230,0.000
1727691523.282,16.602,-27.832,-13.672,2.441,0.000
1727691523.286,-30.273,-30.762,-19.043,-5.371,0.000
1727691523.289,-11.719,-28.809,-32.715,8.789,0.000
1727691523.293,36.133,-30.762,-40.039,13.672,0.000
1727691523.297,38.574,-35.156,-30.762,14.160,0.000
1727691523.301,18.066,-28.809,-21.484,15.625,0.000
1727691523.305,-28.320,-30.762,-6.348,9.766,0.000
1727691523.309,-35.156,-43.945,-8.301,9.766,0.000
1727691523.313,10.254,-46.875,-18.066,8.301,0.000
1727691523.317,26.367,-38.574,-22.949,14.648,0.000
1727691523.321,8.301,-35.156,-30.273,19.043,0.000
1727691523.325,-41.016,-38.574,-21.484,2.930,0.000
1727691523.329,-44.922,-41.016,-3.906,-6.348,0.000
1727691523.332,8.301,-41.992,-4.395,3.418,0.000
1727691523.336,27.344,-42.969,-30.273,10.742,0.000
1727691523.340,17.578,-39.551,-39.551,17.090,0.000
1727691523.344,-22.949,-35.645,-21.484,10.742,0.000
1727691523.348,-34.668,-36.621,-9.766,12.207,0.000
1727691523.352,20.508,-32.715,-11.719,29.785,0.000
1727691523.356,43.457,-29.785,-5.371,32.227,0.000
1727691523.360,28.320,-30.762,3.418,23.438,0.000
1727691523.364,-16.113,-31.738,-11.230,6.348,0.000
1727691523.368,-38.574,-32.715,-28.809,13.672,0.000
1727691523.372,9.766,-36.621,-29.785,14.648,0.000
1727691523.375,25.879,-38.574,-17.578,-1.465,0.000
1727691523.379,26.367,-31.738,-33.203,4.883,0.000
1727691523.383,5.859,-26.367,-61.523,9.766,0.000
1727691523.387,-20.996,-22.949,-41.016,6.348,0.000
1727691523.391,12.695,-30.273,9.766,0.977,0.000
1727691523.395,18.555,-44.434,33.203,-10.742,0.000
1727691523.399,4.883,-48.828,9.277,-17.090,0.000
1727691523.403,-12.207,-43.945,-24.902,-11.719,0.000
1727691523.407,-27.832,-37.598,-41.992,1.953,0.000
1727691523.411,2.441,-41.992,-16.602,-1.465,0.000
1727691523.414,23.926,-42.480,7.324,-3.906,0.000
1727691523.418,31.250,-39.551,-21.973,14.160,0.000
1727691523.422,2.930,-36.133,-51.270,12.207,0.000
1727691523.426,-56.152,-44.434,-24.414,-4.395,0.000
1727691523.430,-33.203,-51.758,14.648,-3.418,0.000
1727691523.434,21.973,-39.551,-5.859,10.742,0.000
1727691523.438,26.855,-32.227,-47.363,13.184,0.000
1727691523.442,-9.766,-35.156,-21.973,0.488,0.000
1727691523.446,-45.898,-34.180,4.395,-4.395,0.000
1727691523.450,-14.648,-28.320,-21.973,-1.465,0.000
1727691523.454,29.785,-24.414,-20.508,-4.883,0.000
1727691523.457,20.508,-27.832,-23.926,-16.113,0.000
1727691523.461,2.930,-31.250,-58.594,-3.418,0.000
1727691523.465,-48.828,-32.227,-85.449,-5.859,0.000
1727691523.469,-49.316,-38.574,-60.059,-13.672,0.000
1727691523.473,9.277,-37.109,14.648,0.488,0.000
1727691523.477,-17.090,-44.922,14.648,-25.879,0.000
1727691523.481,-41.992,-34.668,-20.996,-30.762,0.000
1727691523.485,-57.129,-23.438,-41.016,-27.832,0.000
1727691523.489,-37.598,3.906,-81.543,-23.926,0.000
1727691523.493,19.043,-8.789,-65.918,-4.883,0.000
1727691523.497,11.230,-71.289,3.418,-6.348,0.000
1727691523.500,-20.020,-70.801,-19.531,-28.320,0.000
1727691523.504,0.000,-43.457,-23.438,-7.324,0.000
1727691523.508,0.000,-21.973,37.109,33.203,0.000
1727691523.512,0.000,-14.160,-32.715,1.953,0.000
1727691523.516,0.000,-40.527,-85.449,-1.953,0.000
1727691523.520,0.000,-71.289,-17.090,-5.371,0.000
1727691523.524,0.000,-61.035,-43.457,0.000,0.000
1727691523.528,0.000,-123.047,-105.957,14.648,0.000
1727691523.532,0.000,-238.281,0.000,-11.230,0.000
1727691523.536,0.000,-238.281,60.059,-16.602,0.000
1727691523.539,0.000,-183.594,-160.156,-1.953,0.000
1727691523.543,0.000,-238.281,-197.266,38.086,0.000
1727691523.547,0.000,-315.918,73.730,-11.719,0.000
1727691523.551,-54.688,-344.238,148.926,-75.195,0.000
1727691523.555,-22.461,-333.984,112.305,-43.457,0.000
1727691523.559,0.488,-329.590,44.922,-21.973,0.000
1727691523.563,-12.695,-378.418,-45.410,-8.789,0.000
1727691523.567,-50.293,-462.402,-75.195,-0.977,0.000
1727691523.571,19.043,-611.328,-0.977,23.438,0.000
1727691523.575,2.441,-772.949,4.395,-14.648,0.000
1727691523.578,-65.430,-922.852,-28.320,-42.480,0.000
1727691523.582,-42.480,-1000.000,9.766,-23.926,0.000
1727691523.586,-73.730,-997.559,4.883,-48.828,0.000
1727691523.590,-63.477,-999.512,5.859,-49.316,0.000
1727691523.594,5.371,-1000.000,-15.137,-18.066,0.000
1727691523.598,-19.043,-1000.000,-222.168,-42.480,0.000
1727691523.602,-71.289,-1000.000,-145.020,-65.918,0.000
1727691523.606,-107.422,-1000.000,116.699,-52.246,0.000
1727691523.610,-71.777,-1000.000,101.074,-16.113,0.000
1727691523.614,-42.480,-1000.000,33.691,-33.691,0.000
1727691523.618,-14.648,-1000.000,-1.953,-37.109,0.000
1727691523.621,-33.203,-1000.000,-23.438,-20.996,0.000
1727691523.625,-182.129,-1000.000,-70.312,-116.211,0.000
1727691523.629,-162.598,-1000.000,-83.984,-138.184,0.000
1727691523.633,13.184,-1000.000,-11.719,-27.832,0.000
1727691523.637,28.809,-1000.000,-14.648,-23.438,0.000
1727691523.641,-39.551,-1000.000,-116.211,-47.852,0.000
1727691523.645,-103.027,-1000.000,-119.141,-70.312,0.000
1727691523.649,-75.684,-1000.000,17.090,-64.941,0.000
1727691523.653,-45.410,-1000.000,48.340,-57.617,0.000
1727691523.657,-65.918,-1000.000,17.090,-80.078,0.000
1727691523.661,-90.820,-1000.000,4.395,-83.008,0.000
1727691523.664,-131.348,-1000.000,-15.137,-65.918,0.000
1727691523.668,-117.676,-1000.000,-87.891,-55.176,0.000
1727691523.672,-46.387,-1000.000,-148.438,-48.828,0.000
1727691523.676,2.441,-1000.000,-52.734,-17.090,0.000
1727691523.680,-24.902,-1000.000,35.156,-20.020,0.000
1727691523.684,-104.492,-1000.000,69.824,-47.852,0.000
1727691523.688,-134.277,-1000.000,55.664,-49.805,0.000
1727691523.692,-101.074,-1000.000,0.977,-63.477,0.000
1727691523.696,-50.781,-1000.000,-30.762,-62.988,0.000
1727691523.700,-50.781,-1000.000,-59.570,-31.250,0.000
1727691523.704,-98.633,-1000.000,-80.078,-16.602,0.000
1727691523.707,-72.754,-1000.000,-55.664,-12.695,0.000
1727691523.711,10.742,-1000.000,-62.988,-8.789,0.000
1727691523.715,-32.227,-1000.000,-71.289,-66.406,0.000
1727691523.719,-84.473,-1000.000,-51.758,-72.754,0.000
1727691523.723,-64.453,-1000.000,-18.066,-7.812,0.000
1727691523.727,-99.609,-1000.000,26.367,-28.320,0.000
1727691523.731,-93.750,-1000.000,6.348,-49.316,0.000
1727691523.735,-12.695,-1000.000,-21.973,-11.230,0.000
1727691523.739,-38.086,-1000.000,-53.223,-35.645,0.000
1727691523.743,-112.793,-1000.000,-98.633,-61.523,0.000
1727691523.747,-56.152,-1000.000,-44.922,-1.953,0.000
1727691523.750,-21.484,-1000.000,26.367,-10.254,0.000
1727691523.754,-62.012,-1000.000,-4.395,-41.016,0.000
1727691523.758,-56.641,-1000.000,-59.082,-46.387,0.000
1727691523.762,-40.527,-1000.000,-59.570,-30.762,0.000
1727691523.766,-56.641,-1000.000,-57.129,0.488,0.000
1727691523.770,-52.246,-1000.000,-44.434,-10.254,0.000
1727691523.774,-1.953,-1000.000,-3.906,-18.066,0.000
1727691523.778,12.207,-1000.000,10.254,-10.254,0.000
1727691523.782,-33.203,-1000.000,-18.066,-14.648,0.000
1727691523.786,-77.148,-1000.000,-57.617,-24.414,0.000
1727691523.789,-70.801,-1000.000,-69.824,-9.277,0.000
1727691523.793,-50.293,-1000.000,-141.602,-33.691,0.000
1727691523.797,3.418,-1000.000,-103.027,-11.719,0.000
1727691523.801,7.324,-1000.000,52.734,49.316,0.000
1727691523.805,-48.340,-1000.000,78.613,17.090,0.000
1727691523.809,-38.086,-1000.000,36.133,-25.879,0.000
1727691523.813,-21.484,-1000.000,-4.395,-27.344,0.000
1727691523.817,-10.742,-1000.000,-50.781,-7.324,0.000
1727691523.821,-17.578,-1000.000,-89.844,-12.695,0.000
1727691523.825,-58.105,-1000.000,-80.078,-14.160,0.000
1727691523.829,-22.949,-1000.000,-30.273,28.320,0.000
1727691523.832,24.902,-1000.000,-5.859,42.969,0.000
1727691523.836,-13.184,-1000.000,-35.156,9.766,0.000
1727691523.840,-42.480,-1000.000,-29.297,-13.672,0.000
1727691523.844,-89.844,-1000.000,-9.277,-29.785,0.000
1727691523.848,-94.727,-1000.000,-77.148,-40.527,0.000
1727691523.852,-7.812,-1000.000,-94.727,-20.020,0.000
1727691523.856,41.016,-1000.000,-12.695,7.324,0.000
1727691523.860,10.254,-1000.000,17.578,9.766,0.000
1727691523.864,-38.574,-1000.000,15.625,12.695,0.000
1727691523.868,-51.270,-1000.000,-13.184,-15.137,0.000
1727691523.872,0.000,-1000.000,-62.012,-11.230,0.000
1727691523.875,19.043,-1000.000,-63.965,-2.441,0.000
1727691523.879,-2.930,-1000.000,-29.785,-8.301,0.000
1727691523.883,-36.133,-1000.000,-18.066,0.488,0.000
1727691523.887,-48.828,-1000.000,-20.508,2.930,0.000
1727691523.891,8.301,-1000.000,-7.324,17.090,0.000
1727691523.895,43.457,-1000.000,0.977,11.230,0.000
1727691523.899,21.973,-1000.000,-10.742,3.418,0.000
1727691523.903,-17.090,-1000.000,-21.484,2.441,0.000
1727691523.907,-36.621,-1000.000,-46.387,-0.488,0.000
1727691523.911,-1.953,-1000.000,-58.594,1.953,0.000
1727691523.914,26.855,-1000.000,-42.480,-7.812,0.000
1727691523.918,-16.113,-1000.000,-29.785,-29.785,0.000
1727691523.922,-57.129,-1000.000,-22.949,-33.691,0.000
1727691523.926,-51.758,-1000.000,-25.879,-10.742,0.000
1727691523.930,-6.836,-1000.000,-40.527,6.348,0.000
1727691523.934,18.555,-1000.000,-30.762,7.812,0.000
1727691523.938,11.230,-974.121,-4.883,5.371,0.000
1727691523.942,-18.066,-1000.000,-2.930,0.000,0.000
1727691523.946,-35.645,-817.383,-25.879,-6.348,0.000
1727691523.950,1.953,4.883,-46.387,4.883,0.000
1727691523.953,38.086,735.840,-41.016,14.160,0.000
1727691523.957,35.645,968.262,-19.531,17.578,0.000
1727691523.961,2.441,955.566,-3.418,15.137,0.000
1727691523.965,-25.879,966.309,7.812,6.836,0.000
1727691523.969,-5.371,969.238,15.625,6.836,0.000
1727691523.973,0.000,968.262,7.324,4.395,0.000
1727691523.977,0.000,968.262,-1.465,1.465,0.000
1727691523.981,0.000,968.262,1.953,4.883,0.000
1727691523.985,0.000,968.262,-28.809,2.930,0.000
1727691523.989,0.000,968.262,-66.895,5.859,0.000
1727691523.993,0.000,968.262,-32.227,13.672,0.000
1727691523.997,0.000,968.262,15.625,15.625,0.000
1727691524.000,0.000,968.262,31.250,4.395,0.000
1727691524.004,0.000,968.262,31.250,-12.207,0.000
1727691524.008,0.000,968.262,21.973,-7.812,0.000
1727691524.012,0.000,968.262,12.695,6.836,0.000
1727691524.016,0.000,968.262,13.184,2.930,0.000
1727691524.020,19.531,968.262,-2.441,-1.953,0.000
1727691524.024,-20.508,968.262,-9.766,-0.977,0.000
1727691524.028,-10.742,968.262,-18.555,-3.418,0.000
1727691524.032,45.898,968.262,-41.504,10.742,0.000
1727691524.036,54.199,968.262,-42.480,14.648,0.000
1727691524.040,28.809,968.262,-5.859,8.301,0.000
1727691524.043,-14.648,968.262,26.367,8.301,0.000
1727691524.047,-17.578,968.262,20.996,6.836,0.000
1727691524.051,32.715,968.262,27.344,10.742,0.000
1727691524.055,48.828,968.262,21.484,26.367,0.000
1727691524.059,31.250,968.262,3.418,26.367,0.000
1727691524.063,-15.137,968.262,-7.812,11.230,0.000
1727691524.067,-33.203,968.262,-22.949,12.207,0.000
1727691524.071,36.133,968.262,-31.250,28.809,0.000
1727691524.075,67.383,968.262,-9.766,27.832,0.000
1727691524.079,34.180,968.262,-5.371,8.789,0.000
1727691524.083,-0.488,968.262,-10.742,8.301,0.000
1727691524.086,-9.766,968.262,2.930,14.160,0.000
1727691524.090,25.391,968.262,-2.930,20.996,0.000
1727691524.094,50.293,968.262,2.930,21.484,0.000
1727691524.098,42.969,968.262,20.508,16.602,0.000
1727691524.102,-8.301,968.262,-8.301,17.090,0.000
1727691524.106,-34.668,968.262,-31.738,7.324,0.000
1727691524.110,11.719,968.262,10.254,5.859,0.000
1727691524.114,0.000,968.262,40.039,13.672,0.000
1727691524.118,0.000,968.262,9.277,16.113,0.000
1727691524.122,0.000,968.262,-20.020,11.719,0.000
1727691524.125,0.000,968.262,11.719,8.789,0.000
1727691524.129,0.000,968.262,35.156,17.090,0.000
1727691524.133,0.000,968.262,21.484,22.949,0.000
1727691524.137,0.000,968.262,4.883,19.043,0.000
1727691524.141,0.000,968.262,-8.301,22.461,0.000
1727691524.145,0.000,968.262,-5.371,22.461,0.000
1727691524.149,0.000,968.262,0.488,21.973,0.000
1727691524.153,0.000,968.262,-12.207,21.973,0.000
1727691524.157,0.000,968.262,-9.277,18.066,0.000
1727691524.161,-1.953,968.262,7.812,3.418,0.000
1727691524.165,-41.504,968.262,10.742,-12.207,0.000
1727691524.168,-12.207,968.262,3.906,-4.883,0.000
1727691524.172,44.922,968.262,6.836,10.254,0.000
1727691524.176,47.363,968.262,-7.324,9.277,0.000
1727691524.180,20.996,968.262,-21.484,4.883,0.000
1727691524.184,-18.555,968.262,-12.207,2.441,0.000
1727691524.188,-8.789,968.262,-4.395,11.719,0.000
1727691524.192,31.738,968.262,2.441,20.508,0.000
1727691524.196,42.480,968.262,7.812,11.719,0.000
1727691524.200,28.809,968.262,6.348,3.906,0.000
1727691524.204,-20.508,968.262,5.371,-6.836,0.000
1727691524.208,-7.324,968.262,-4.395,-9.766,0.000
1727691524.211,47.363,968.262,-11.719,8.789,0.000
1727691524.215,54.199,968.262,-4.883,16.602,0.000
1727691524.219,33.203,968.262,-3.418,8.301,0.000
1727691524.223,-7.812,968.262,-2.441,0.000,0.000
1727691524.227,-22.461,968.262,-2.441,-7.812,0.000
1727691524.231,15.137,968.262,-3.418,-4.395,0.000
1727691524.235,39.062,966.309,-11.230,5.859,0.000
1727691524.239,32.227,970.703,-38.086,7.324,0.000
1727691524.243,-20.996,943.848,-39.551,-13.184,0.000
1727691524.247,-25.391,886.230,-24.414,-7.324,0.000
1727691524.250,34.180,846.191,-21.973,10.742,0.000
1727691524.254,41.992,821.289,-4.395,6.348,0.000
1727691524.258,33.691,805.664,14.648,4.883,0.000
1727691524.262,-5.371,789.062,21.973,-1.953,0.000
1727691524.266,-34.668,764.648,6.836,-7.812,0.000
1727691524.270,19.043,725.586,-1.465,1.465,0.000
1727691524.274,47.852,687.012,0.488,11.230,0.000
1727691524.278,34.180,649.902,-3.418,14.648,0.000
1727691524.282,2.930,611.816,-11.719,8.789,0.000
1727691524.286,-28.809,593.262,-23.926,-4.395,0.000
1727691524.290,20.020,585.938,-22.461,9.766,0.000
1727691524.293,50.293,562.500,-10.254,10.742,0.000
1727691524.297,20.508,501.465,-7.324,-4.883,0.000
1727691524.301,-16.602,443.848,-11.230,-4.395,0.000
1727691524.305,-31.738,409.180,-2.930,-3.418,0.000
1727691524.309,4.395,373.047,-14.648,1.465,0.000
1727691524.313,36.133,345.703,-30.762,11.719,0.000
1727691524.317,31.250,333.984,-4.395,13.672,0.000
1727691524.321,-10.742,323.730,9.766,-6.836,0.000
1727691524.325,-40.039,303.711,-9.277,-7.812,0.000
1727691524.329,-3.906,293.457,-23.438,1.465,0.000
1727691524.332,34.668,289.551,16.602,-6.836,0.000
1727691524.336,28.809,283.203,8.301,-4.883,0.000
1727691524.340,0.000,286.133,-32.227,-6.348,0.000
1727691524.344,-37.598,281.250,-16.113,-9.766,0.000
1727691524.348,-19.043,263.672,3.906,-9.277,0.000
1727691524.352,19.043,259.277,1.465,-10.254,0.000
1727691524.356,27.344,258.301,-13.672,-14.160,0.000
1727691524.360,15.625,253.906,-13.184,-5.371,0.000
1727691524.364,-25.391,248.535,-8.789,-8.301,0.000
1727691524.368,-13.184,240.234,-23.926,-7.812,0.000
1727691524.371,20.020,230.957,-34.180,4.883,0.000
1727691524.375,31.738,224.121,-25.879,1.465,0.000
1727691524.379,14.160,219.238,-16.113,-5.371,0.000
1727691524.383,-39.551,217.773,-9.766,-15.137,0.000
1727691524.387,-33.691,219.238,0.977,-15.625,0.000
1727691524.391,26.855,230.469,-0.488,6.348,0.000
1727691524.395,45.410,239.746,-21.484,14.648,0.000
1727691524.399,25.391,235.352,-35.156,8.789,0.000
1727691524.403,-22.461,234.375,-12.695,4.883,0.000
1727691524.407,-20.996,245.605,-11.230,-0.977,0.000
1727691524.410,30.273,255.371,-34.668,8.301,0.000
1727691524.414,37.109,255.859,-21.484,13.672,0.000
1727691524.418,19.531,257.324,-2.441,5.371,0.000
1727691524.422,-26.367,265.137,-15.625,2.930,0.000
1727691524.426,-41.016,271.973,-30.273,-0.977,0.000
1727691524.430,7.324,277.344,-30.273,-0.488,0.000
1727691524.434,31.738,275.391,-40.527,-0.977,0.000
1727691524.438,21.973,271.973,-40.039,-5.859,0.000
1727691524.442,-11.230,277.832,-23.438,-6.348,0.000
1727691524.446,-24.414,281.250,-26.367,-3.418,0.000
1727691524.450,22.949,273.438,-29.785,6.348,0.000
1727691524.453,45.898,268.555,-18.555,2.930,0.000
1727691524.457,22.949,270.020,-13.184,-8.301,0.000
1727691524.461,-7.324,266.113,-18.555,-9.277,0.000
1727691524.465,-20.996,264.648,-29.297,-11.719,0.000
1727691524.469,2.930,271.973,-28.809,-6.348,0.000
1727691524.473,37.598,279.785,-33.691,2.930,0.000
1727691524.477,44.922,280.762,-42.969,6.348,0.000
1727691524.481,4.883,280.762,-38.574,1.953,0.000
1727691524.485,-17.090,281.738,-26.367,-3.418,0.000
1727691524.489,0.000,269.531,-22.949,6.836,0.000
1727691524.493,0.000,259.766,-30.762,7.324,0.000
1727691524.496,0.000,260.254,-41.016,-5.859,0.000
1727691524.500,0.000,252.930,-38.574,-6.348,0.000
1727691524.504,0.000,244.629,-29.297,-14.648,0.000
1727691524.508,0.000,247.070,-36.133,-7.812,0.000
1727691524.512,0.000,247.559,-30.762,15.137,0.000
1727691524.516,0.000,241.699,-29.785,3.418,0.000
1727691524.520,0.000,237.793,-32.715,4.883,0.000
1727691524.524,0.000,234.375,-18.066,15.625,0.000
1727691524.528,0.000,233.887,-24.414,6.836,0.000
1727691524.532,0.000,229.980,-47.852,0.488,0.000
1727691524.536,45.898,214.844,-41.504,3.418,0.000
1727691524.539,20.020,207.520,-25.391,1.953,0.000
1727691524.543,-33.691,203.613,-14.648,-5.859,0.000
1727691524.547,-19.531,200.684,-8.301,-3.418,0.000
1727691524.551,35.156,195.801,-9.277,5.371,0.000
1727691524.555,33.203,192.871,-14.160,9.277,0.000
1727691524.559,15.137,187.988,-24.902,6.836,0.000
1727691524.563,-12.695,186.523,-27.832,4.883,0.000
1727691524.567,-20.508,187.500,-15.137,-5.859,0.000
1727691524.571,20.020,190.430,-10.254,-15.137,0.000
1727691524.575,34.180,187.012,-20.508,-13.672,0.000
1727691524.578,26.367,177.246,-21.484,-1.465,0.000
1727691524.582,-12.695,177.734,-30.762,3.418,0.000
1727691524.586,-30.762,187.012,-30.273,3.418,0.000
1727691524.590,23.926,198.730,-11.719,4.883,0.000
1727691524.594,50.781,202.148,-10.254,7.812,0.000
1727691524.598,24.414,191.406,-9.277,7.812,0.000
1727691524.602,-22.461,181.641,-8.301,3.906,0.000
1727691524.606,-28.320,182.617,-14.160,2.441,0.000
1727691524.610,6.836,179.688,-15.137,10.742,0.000
1727691524.614,33.691,184.570,-14.648,10.254,0.000
1727691524.618,31.250,194.824,-19.531,1.465,0.000
1727691524.621,-10.742,185.547,-21.973,-9.766,0.000
1727691524.625,-35.156,173.828,-22.949,-13.672,0.000
1727691524.629,11.719,172.363,-15.625,2.930,0.000
1727691524.633,37.109,163.086,-11.230,0.977,0.000
1727691524.637,19.531,157.715,-13.672,-0.977,0.000
1727691524.641,-20.020,160.156,-9.277,-4.883,0.000
1727691524.645,-33.203,153.320,-19.043,-12.207,0.000
1727691524.649,10.254,146.484,-23.926,2.930,0.000
1727691524.653,35.156,145.996,-18.066,19.043,0.000
1727691524.657,25.391,145.508,-17.090,17.090,0.000
1727691524.660,-7.324,145.508,-12.695,18.066,0.000
1727691524.664,-21.973,139.648,-16.602,22.461,0.000
1727691524.668,10.742,145.508,-20.996,5.371,0.000
1727691524.672,25.391,152.344,-14.160,0.488,0.000
1727691524.676,17.090,143.066,-12.207,2.930,0.000
1727691524.680,4.883,134.766,-24.414,-3.906,0.000
1727691524.684,-33.203,128.418,-26.367,-12.695,0.000
1727691524.688,-4.395,125.488,-23.926,-0.977,0.000
1727691524.692,50.293,124.023,-30.273,19.531,0.000
1727691524.696,51.758,124.512,-32.227,26.367,0.000
1727691524.700,26.367,129.395,-66.406,23.438,0.000
1727691524.703,-27.832,121.582,-68.848,11.719,0.000
1727691524.707,-21.973,110.352,-6.836,3.906,0.000
1727691524.711,29.785,107.422,6.836,13.184,0.000
1727691524.715,35.645,106.934,-24.414,16.113,0.000
1727691524.719,9.277,106.934,-26.367,4.883,0.000
1727691524.723,-36.133,102.051,-12.207,-9.277,0.000
1727691524.727,-16.113,101.562,2.930,2.441,0.000
1727691524.731,42.480,100.586,5.371,14.160,0.000
1727691524.735,44.434,108.398,-10.254,11.719,0.000
1727691524.739,30.762,109.863,-25.879,11.719,0.000
1727691524.742,-19.043,105.957,-43.457,-4.395,0.000
1727691524.746,-14.648,104.492,-57.129,1.953,0.000
1727691524.750,33.203,104.492,-53.223,9.766,0.000
1727691524.754,33.203,108.887,-31.250,7.324,0.000
1727691524.758,20.508,110.352,-22.461,18.555,0.000
1727691524.762,-14.648,107.422,-21.484,12.207,0.000
1727691524.766,-11.719,103.027,-15.625,11.230,0.000
1727691524.770,35.156,99.609,-14.648,25.879,0.000
1727691524.774,40.527,102.539,-11.719,27.832,0.000
1727691524.778,25.879,104.004,-11.230,20.020,0.000
1727691524.781,0.000,98.145,-14.648,16.602,0.000
1727691524.785,-16.113,98.633,-22.949,15.625,0.000
1727691524.789,17.578,105.469,-31.738,23.438,0.000
1727691524.793,50.781,107.422,-45.898,30.273,0.000
1727691524.797,44.434,104.492,-52.734,31.738,0.000
1727691524.801,5.859,98.633,-34.668,27.832,0.000
1727691524.805,-10.254,94.238,-12.695,39.062,0.000
1727691524.809,26.367,95.215,-20.020,41.504,0.000
1727691524.813,35.156,93.750,-40.039,29.785,0.000
1727691524.817,27.832,90.820,-27.832,22.461,0.000
1727691524.821,3.906,89.355,-16.113,5.859,0.000
1727691524.824,-41.016,84.961,-20.996,3.418,0.000
1727691524.828,4.883,91.309,-20.996,20.508,0.000
1727691524.832,44.922,102.539,-17.578,22.461,0.000
1727691524.836,32.715,97.656,-6.836,20.996,0.000
1727691524.840,16.602,89.355,2.930,25.391,0.000
1727691524.844,-10.254,96.680,-3.906,19.043,0.000
1727691524.848,16.113,99.609,-13.672,14.648,0.000
1727691524.852,52.734,100.098,-22.461,22.949,0.000
1727691524.856,43.945,104.980,-32.715,16.602,0.000
1727691524.860,5.371,102.539,-28.320,3.906,0.000
1727691524.864,-33.203,94.727,-28.320,7.324,0.000
1727691524.867,-2.930,90.820,-27.832,10.254,0.000
1727691524.871,43.945,97.656,-33.203,7.324,0.000
1727691524.875,39.062,104.980,-32.227,11.230,0.000
1727691524.879,14.160,108.398,-30.762,9.277,0.000
1727691524.883,-30.273,105.957,-46.875,6.836,0.000
1727691524.887,-17.578,103.027,-38.086,11.719,0.000
1727691524.891,43.457,104.492,-26.367,17.578,0.000
1727691524.895,49.805,108.887,-35.645,22.949,0.000
1727691524.899,0.488,104.004,-30.273,17.578,0.000
1727691524.903,-42.969,103.516,-18.066,-5.859,0.000
1727691524.907,-16.113,104.004,-15.137,-5.371,0.000
1727691524.910,25.879,101.562,-19.531,1.953,0.000
1727691524.914,32.227,102.539,-33.691,-0.488,0.000
1727691524.918,13.184,100.098,-52.246,4.395,0.000
1727691524.922,-32.227,100.586,-46.387,0.977,0.000
1727691524.926,-38.574,97.168,-48.340,-1.953,0.000
1727691524.930,26.367,94.727,-49.805,2.441,0.000
1727691524.934,34.668,96.191,-19.531,4.395,0.000
1727691524.938,10.742,94.238,-10.254,6.348,0.000
1727691524.942,-42.969,91.797,-14.648,-5.371,0.000
1727691524.946,-58.594,89.844,-15.137,-12.207,0.000
1727691524.949,-15.625,89.844,-29.297,-4.395,0.000
1727691524.953,14.160,90.820,-38.086,-2.930,0.000
1727691524.957,31.250,88.867,-41.504,0.000,0.000
1727691524.961,-35.645,92.773,-49.805,-6.836,0.000
1727691524.965,-66.406,82.031,-35.156,-16.113,0.000
1727691524.969,12.695,72.266,-19.531,8.301,0.000
1727691524.973,48.828,83.008,-22.949,16.113,0.000
1727691524.977,20.508,92.285,-23.438,3.906,0.000
1727691524.981,-35.156,91.797,-30.762,-8.301,0.000
1727691524.985,-60.059,86.914,-33.691,-14.160,0.000
1727691524.989,-8.789,88.379,-37.598,-15.137,0.000
1727691524.992,24.414,91.797,-44.922,-14.648,0.000
1727691524.996,23.438,93.750,-42.480,-6.836,0.000
1727691525.000,-17.578,92.285,-35.156,-9.277,0.000
1727691525.004,-46.875,89.844,-22.461,-14.160,0.000
1727691525.008,-0.977,82.520,-15.137,-4.883,0.000
1727691525.012,31.738,80.566,-17.090,1.953,0.000
1727691525.016,19.043,81.543,-35.645,7.324,0.000
1727691525.020,-6.348,84.473,-45.898,5.371,0.000
1727691525.024,-34.180,85.449,-32.227,-13.184,0.000
1727691525.028,-1.953,80.078,-23.926,-4.395,0.000
1727691525.031,17.090,84.473,-22.949,11.230,0.000
1727691525.035,18.555,91.309,-19.531,0.488,0.000
1727691525.039,3.418,91.797,-15.137,-16.602,0.000
1727691525.043,-48.828,83.984,-10.254,-26.855,0.000
1727691525.047,-24.902,85.449,-11.719,-20.020,0.000
1727691525.051,27.832,95.703,-17.090,-10.254,0.000
1727691525.055,26.367,107.422,-20.996,-6.348,0.000
1727691525.059,0.000,113.770,-22.949,-4.395,0.000
1727691525.063,-36.621,115.723,-23.926,-10.742,0.000
1727691525.067,-21.973,121.582,-21.484,-5.859,0.000
1727691525.071,28.320,122.559,-24.414,2.441,0.000
1727691525.074,34.180,117.188,-28.320,12.207,0.000
1727691525.078,12.207,117.188,-34.180,11.230,0.000
1727691525.082,-33.203,116.699,-28.809,-0.488,0.000
1727691525.086,-27.832,119.141,-21.973,-3.418,0.000
1727691525.090,30.273,128.418,-36.621,7.324,0.000
1727691525.094,35.645,139.648,-47.363,6.348,0.000
1727691525.098,2.930,138.184,-35.645,-9.277,0.000
1727691525.102,-43.457,128.418,-22.949,-9.277,0.000
1727691525.106,-36.621,128.418,-31.250,3.418,0.000
1727691525.110,11.719,134.766,-31.738,7.324,0.000
1727691525.114,29.297,141.602,-24.414,0.488,0.000
1727691525.117,18.066,138.184,-13.184,0.488,0.000
1727691525.121,-29.297,126.465,-15.137,0.000,0.000
1727691525.125,-39.551,120.605,-26.367,-4.883,0.000
1727691525.129,15.625,120.605,-22.949,-4.395,0.000
1727691525.133,33.691,120.117,-28.320,2.930,0.000
1727691525.137,20.508,109.863,-30.762,6.836,0.000
1727691525.141,-21.484,95.703,-27.344,-6.836,0.000
1727691525.145,-49.805,87.402,-27.344,-18.555,0.000
1727691525.149,0.488,88.867,-35.156,-2.930,0.000
1727691525.153,27.832,92.773,-45.410,0.488,0.000
1727691525.156,5.859,89.355,-36.621,-11.719,0.000
1727691525.160,-25.391,82.031,-39.062,-9.277,0.000
1727691525.164,-39.062,83.008,-39.062,-9.277,0.000
1727691525.168,14.648,86.914,-33.203,0.977,0.000
1727691525.172,42.969,82.031,-23.926,3.418,0.000
1727691525.176,26.855,76.660,-14.648,-0.977,0.000
1727691525.180,-13.184,72.266,-20.996,9.277,0.000
1727691525.184,-52.246,65.430,-24.414,2.441,0.000
1727691525.188,-14.160,62.988,-29.785,-6.836,0.000
1727691525.192,32.227,62.988,-23.438,0.000,0.000
1727691525.196,16.113,62.012,-26.367,0.488,0.000
1727691525.199,-18.555,67.383,-52.734,1.465,0.000
1727691525.203,-34.180,67.871,-42.969,-3.906,0.000
1727691525.207,0.977,59.082,-17.090,-13.672,0.000
1727691525.211,37.109,53.711,-13.672,-7.812,0.000
1727691525.215,32.227,55.176,-18.066,-8.301,0.000
1727691525.219,4.395,60.059,-22.461,-7.812,0.000
1727691525.223,-31.738,58.594,-20.508,0.488,0.000
1727691525.227,-7.324,50.781,-11.719,1.465,0.000
1727691525.231,37.109,46.387,-14.160,10.742,0.000
1727691525.235,28.320,44.434,-20.508,10.254,0.000
1727691525.239,-22.949,43.945,-27.832,-24.414,0.000
1727691525.242,-63.477,43.457,-27.344,-46.875,0.000
1727691525.246,-37.598,40.527,-24.414,-32.715,0.000
1727691525.250,15.137,43.457,-23.438,-14.648,0.000
1727691525.254,9.766,52.734,-11.719,-12.695,0.000
1727691525.258,-26.367,49.316,-3.906,-25.391,0.000
1727691525.262,-71.777,40.527,-15.137,-35.156,0.000
1727691525.266,-62.012,39.062,-23.438,-37.109,0.000
1727691525.270,-9.766,33.691,-28.809,-26.367,0.000
1727691525.274,0.977,35.645,-34.668,-23.438,0.000
1727691525.278,-21.484,40.039,-21.973,-25.391,0.000
1727691525.281,-56.641,31.738,-4.883,-24.902,0.000
1727691525.285,-44.434,27.832,4.395,-25.879,0.000
1727691525.289,3.418,35.156,-5.371,-24.414,0.000
1727691525.293,14.648,42.969,-35.645,-13.672,0.000
1727691525.297,0.488,43.945,-32.227,-13.672,0.000
1727691525.301,-32.715,39.551,-7.812,-23.438,0.000
1727691525.305,-43.457,32.715,-5.371,-21.973,0.000
1727691525.309,6.348,32.227,-15.625,-12.695,0.000
1727691525.313,24.414,32.715,-20.508,-7.812,0.000
1727691525.317,11.230,32.715,-15.625,-8.789,0.000
1727691525.321,-34.668,30.273,-7.324,-8.301,0.000
1727691525.324,-50.781,29.785,-8.789,-6.348,0.000
1727691525.328,4.883,32.227,-30.762,3.906,0.000
1727691525.332,0.000,36.621,-42.480,9.277,0.000
1727691525.336,0.000,33.203,-25.879,2.441,0.000
1727691525.340,0.000,22.461,-4.395,-14.648,0.000
1727691525.344,0.000,20.996,-4.883,-23.926,0.000
1727691525.348,0.000,24.414,-19.531,-17.578,0.000
1727691525.352,0.000,26.855,-19.043,-9.766,0.000
1727691525.356,0.000,34.180,-13.672,-0.488,0.000
1727691525.360,0.000,32.227,-23.926,1.953,0.000
1727691525.364,0.000,22.461,-27.832,-2.930,0.000
1727691525.367,0.000,22.461,-20.020,-5.371,0.000
1727691525.371,0.000,27.832,-20.508,2.441,0.000
1727691525.375,0.000,32.715,-21.484,6.836,0.000
1727691525.379,-6.836,30.762,-24.414,-1.953,0.000
1727691525.383,-42.969,23.926,-24.414,-9.277,0.000
1727691525.387,-12.695,29.297,-21.484,-7.812,0.000
1727691525.391,21.973,35.645,-31.250,-5.371,0.000
1727691525.395,19.531,34.180,-19.043,-2.441,0.000
1727691525.399,-13.672,30.762,-14.648,-14.648,0.000
1727691525.403,-53.223,26.367,-18.066,-20.020,0.000
1727691525.406,-18.066,24.902,-16.113,-5.859,0.000
1727691525.410,24.902,25.391,-10.742,-0.977,0.000
1727691525.414,22.461,32.227,-12.207,-4.395,0.000
1727691525.418,1.465,32.227,-24.902,-6.836,0.000
1727691525.422,-41.016,25.879,-29.785,-8.301,0.000
1727691525.426,-14.160,25.879,-38.574,-6.836,0.000
1727691525.430,29.785,24.902,-28.809,-9.277,0.000
1727691525.434,23.438,21.973,-19.531,-2.441,0.000
1727691525.438,10.742,22.461,-27.832,1.953,0.000
1727691525.442,-30.273,16.113,-11.230,-16.113,0.000
1727691525.446,-18.066,14.160,15.625,-13.184,0.000
1727691525.449,31.250,20.508,8.301,8.301,0.000
1727691525.453,29.297,15.625,-7.812,17.090,0.000
1727691525.457,7.324,10.742,-15.137,3.906,0.000
1727691525.461,-35.156,9.766,-29.297,-10.254,0.000
1727691525.465,-38.086,9.277,-35.645,-11.719,0.000
1727691525.469,21.484,8.789,-16.602,-1.953,0.000
1727691525.473,31.738,12.207,-2.441,-0.488,0.000
1727691525.477,4.883,17.578,-5.859,2.930,0.000
1727691525.481,-18.066,18.555,-22.949,11.230,0.000
1727691525.485,-18.555,19.531,-31.250,19.531,0.000
1727691525.488,25.391,19.043,-10.254,20.508,0.000
1727691525.492,35.156,16.113,2.441,6.348,0.000
1727691525.496,11.719,14.160,-2.441,2.441,0.000
1727691525.500,-22.461,15.137,-19.043,-6.836,0.000
1727691525.504,-31.250,12.207,-25.879,-7.812,0.000
1727691525.508,24.902,11.230,-33.203,3.906,0.000
1727691525.512,43.457,13.184,-32.715,3.906,0.000
1727691525.516,7.324,5.859,-15.625,-8.789,0.000
1727691525.520,-35.156,2.441,-22.461,-17.090,0.000
1727691525.524,-50.293,0.488,-25.391,-12.695,0.000
1727691525.527,2.930,-4.395,-20.508,-5.371,0.000
1727691525.531,28.320,-4.883,-26.367,1.465,0.000
1727691525.535,17.578,-7.812,-27.832,1.953,0.000
1727691525.539,-11.230,-9.766,-35.156,-16.113,0.000
1727691525.543,-45.410,-0.977,-35.156,-27.344,0.000
1727691525.547,-6.348,4.395,-35.156,-18.555,0.000
1727691525.551,28.809,-1.465,-21.484,-0.488,0.000
1727691525.555,13.672,0.000,-14.648,3.906,0.000
1727691525.559,-18.066,5.859,-18.066,-12.695,0.000
1727691525.563,-42.969,5.371,-17.090,-19.531,0.000
1727691525.567,-7.812,-1.953,-27.832,-12.207,0.000
1727691525.570,24.414,-1.953,-27.344,-8.789,0.000
1727691525.574,17.578,5.859,-20.020,-17.090,0.000
1727691525.578,-7.812,10.254,-22.461,-18.066,0.000
1727691525.582,-41.992,11.719,-39.062,-18.066,0.000
1727691525.586,-18.555,11.230,-42.480,-8.789,0.000
1727691525.590,30.273,15.137,-26.367,-2.441,0.000
1727691525.594,40.039,17.578,-11.230,-1.465,0.000
1727691525.598,3.418,9.766,-5.371,10.254,0.000
1727691525.602,-48.340,-0.488,1.465,3.418,0.000
1727691525.606,-19.043,2.930,0.977,-5.859,0.000
1727691525.609,41.992,7.324,-6.836,13.184,0.000
1727691525.614,40.039,6.836,-21.484,7.324,0.000
1727691525.617,0.000,9.766,-16.113,-5.371,0.000
1727691525.621,-44.434,6.348,-17.578,-4.883,0.000
1727691525.625,-18.066,4.883,-37.598,3.418,0.000
1727691525.629,30.273,8.301,-29.785,12.695,0.000
1727691525.633,20.508,7.324,-31.738,3.418,0.000
1727691525.637,8.789,10.254,-27.832,-6.836,0.000
1727691525.641,-24.902,8.789,0.000,-11.230,0.000
1727691525.645,-24.414,2.441,8.789,0.000,0.000
1727691525.649,21.484,4.395,0.488,10.254,0.000
1727691525.653,32.715,1.465,-15.625,4.883,0.000
1727691525.656,27.344,2.441,-33.203,8.789,0.000
1727691525.660,-23.438,5.371,-39.062,7.812,0.000
1727691525.664,-46.387,4.395,-30.273,-5.371,0.000
1727691525.668,3.418,1.465,-24.902,-2.441,0.000
1727691525.672,20.508,2.930,-18.066,-4.395,0.000
1727691525.676,4.883,7.324,-10.742,-12.695,0.000
1727691525.680,-35.156,2.441,-15.137,-26.367,0.000
1727691525.684,-54.199,3.906,-32.227,-25.391,0.000
1727691525.688,0.977,-1.953,-28.809,-4.883,0.000
1727691525.692,32.715,-2.930,-28.320,12.207,0.000
1727691525.696,29.297,8.789,-48.340,23.926,0.000
1727691525.699,-13.672,4.395,-23.438,2.930,0.000
1727691525.703,-28.809,-3.418,1.953,-15.625,0.000
1727691525.707,9.277,0.000,-4.395,-4.395,0.000
1727691525.711,25.879,7.812,0.000,-2.930,0.000
1727691525.715,26.855,18.066,4.883,-3.418,0.000
1727691525.719,-12.207,20.508,2.930,-7.812,0.000
1727691525.723,-46.875,14.160,-12.207,-13.672,0.000
1727691525.727,-10.742,16.113,-46.875,-6.348,0.000
1727691525.731,39.062,21.973,-58.594,13.184,0.000
1727691525.735,32.715,20.996,-28.320,25.879,0.000
1727691525.739,-27.344,11.719,-26.367,0.000,0.000
1727691525.742,-44.434,20.020,-33.691,-15.625,0.000
1727691525.746,6.348,41.992,-1.465,1.953,0.000
1727691525.750,47.852,51.758,-25.879,21.973,0.000
1727691525.754,30.273,53.711,-45.410,13.184,0.000
1727691525.758,-20.996,40.527,6.836,-18.066,0.000
1727691525.762,-48.828,13.184,24.414,-24.902,0.000
1727691525.766,-14.648,15.625,-15.137,-21.973,0.000
1727691525.770,14.160,37.598,-49.805,-21.973,0.000
1727691525.774,11.230,33.691,-38.574,-2.441,0.000
1727691525.778,-3.906,22.461,-13.184,15.137,0.000
1727691525.781,-48.340,17.578,12.695,5.371,0.000
1727691525.785,-30.273,11.230,-10.742,-8.301,0.000
1727691525.789,11.719,13.672,-63.965,-15.137,0.000
1727691525.793,30.273,28.320,-30.273,-18.066,0.000
1727691525.797,-5.859,16.602,0.977,-27.344,0.000
1727691525.801,-84.473,26.367,-22.949,-42.480,0.000
1727691525.805,-93.262,30.762,-29.297,-41.992,0.000
1727691525.809,-37.598,0.000,-20.020,-26.855,0.000
1727691525.813,-19.531,7.812,-20.508,-44.922,0.000
1727691525.817,-11.230,16.602,-67.383,-33.691,0.000
1727691525.821,-20.020,4.883,-88.867,-9.277,0.000
1727691525.824,-61.035,-7.324,-12.207,-37.598,0.000
1727691525.828,-76.172,-16.113,18.066,-59.570,0.000
1727691525.832,-45.410,-20.508,8.301,-41.016,0.000
1727691525.836,-23.926,-27.832,-2.441,-24.414,0.000
1727691525.840,-105.957,-3.418,-56.152,-79.102,0.000
1727691525.844,-97.168,0.000,-98.145,-87.402,0.000
1727691525.848,27.832,-36.133,-53.711,-1.465,0.000
1727691525.852,33.691,-51.758,6.836,13.672,0.000
1727691525.856,-22.949,-61.035,10.254,-25.391,0.000
1727691525.860,-62.988,-72.266,-53.711,-48.828,0.000
1727691525.863,-85.938,-104.980,-69.336,-64.453,0.000
1727691525.867,-59.570,-160.645,-23.926,-75.684,0.000
1727691525.871,-36.133,-217.773,19.531,-62.988,0.000
1727691525.875,-37.109,-268.066,45.410,-30.273,0.000
1727691525.879,-94.727,-278.809,-116.211,-51.270,0.000
1727691525.883,-111.328,-355.957,-176.758,-82.520,0.000
1727691525.887,-67.871,-498.047,-6.348,-82.520,0.000
1727691525.891,-49.316,-564.941,101.562,-60.547,0.000
1727691525.895,-45.898,-641.113,124.023,-59.570,0.000
1727691525.899,-80.566,-699.219,7.324,-69.824,0.000
1727691525.902,-86.914,-757.324,-105.469,-58.594,0.000
1727691525.906,-39.551,-926.758,-23.926,-41.016,0.000
1727691525.910,-55.176,-1000.000,64.941,-66.406,0.000
1727691525.914,-79.590,-995.605,63.965,-89.355,0.000
1727691525.918,-70.312,-1000.000,5.371,-66.895,0.000
1727691525.922,-53.711,-1000.000,-93.750,-43.945,0.000
1727691525.926,-26.855,-1000.000,-59.570,-45.898,0.000
1727691525.930,4.883,-1000.000,31.738,-25.391,0.000
1727691525.934,-33.203,-1000.000,20.020,-20.020,0.000
1727691525.938,-96.680,-1000.000,-38.086,-64.941,0.000
1727691525.942,-84.961,-1000.000,-80.566,-46.875,0.000
1727691525.945,-30.273,-1000.000,-72.266,-8.301,0.000
1727691525.949,8.301,-1000.000,8.789,-5.371,0.000
1727691525.953,8.789,-1000.000,-25.879,-13.184,0.000
1727691525.957,-50.293,-1000.000,-105.957,-50.781,0.000
1727691525.961,-37.598,-1000.000,8.301,-30.762,0.000
1727691525.965,11.719,-1000.000,10.254,-0.488,0.000
1727691525.969,7.812,-1000.000,-61.523,-19.043,0.000
1727691525.973,2.441,-1000.000,-14.648,-37.109,0.000
1727691525.977,-34.180,-1000.000,-27.832,-26.855,0.000
1727691525.981,-73.242,-1000.000,-50.781,-16.113,0.000
1727691525.984,-11.230,-1000.000,-5.371,8.301,0.000
1727691525.988,30.762,-1000.000,-10.742,-5.371,0.000
1727691525.992,-2.930,-1000.000,-91.797,-22.461,0.000
1727691525.996,16.602,-1000.000,-107.910,22.461,0.000
1727691526.000,-1.465,-1000.000,-19.043,28.320,0.000
1727691526.004,-40.527,-1000.000,-24.414,-22.461,0.000
1727691526.008,-16.113,-1000.000,-66.895,-34.180,0.000
1727691526.012,-19.043,-1000.000,11.230,-35.156,0.000
1727691526.016,-41.504,-1000.000,52.734,-40.527,0.000
1727691526.020,-54.688,-1000.000,32.715,-24.414,0.000
1727691526.024,-47.852,-1000.000,0.977,-16.602,0.000
1727691526.027,-26.367,-1000.000,-49.805,-31.250,0.000
1727691526.031,-31.738,-1000.000,-92.773,-39.551,0.000
1727691526.035,-11.719,-1000.000,-109.863,-26.367,0.000
1727691526.039,-45.898,-1000.000,-84.473,-20.996,0.000
1727691526.043,-62.012,-1000.000,-25.391,-12.207,0.000
1727691526.047,-11.230,-1000.000,3.418,-18.555,0.000
1727691526.051,-21.973,-1000.000,-66.895,-58.105,0.000
1727691526.055,7.324,-1000.000,-102.539,-32.715,0.000
1727691526.059,-14.648,-1000.000,-72.754,-4.395,0.000
1727691526.063,-49.805,-1000.000,-31.738,-6.348,0.000
1727691526.067,20.020,-1000.000,22.461,15.137,0.000
1727691526.070,35.156,-1000.000,31.738,-0.488,0.000
1727691526.074,1.465,-1000.000,5.371,-28.320,0.000
1727691526.078,-59.082,-1000.000,-51.758,-43.945,0.000
1727691526.082,-88.379,-1000.000,-93.750,-52.246,0.000
1727691526.086,-26.855,-1000.000,-48.828,-21.484,0.000
1727691526.090,19.043,-1000.000,-11.230,2.441,0.000
1727691526.094,20.508,-1000.000,-42.480,-15.137,0.000
1727691526.098,-43.457,-1000.000,-68.848,-30.762,0.000
1727691526.102,-71.777,-1000.000,-32.715,-13.672,0.000
1727691526.106,-10.742,-1000.000,6.348,8.789,0.000
1727691526.110,20.508,-1000.000,-33.203,-1.953,0.000
1727691526.113,5.859,-1000.000,-49.316,20.996,0.000
1727691526.117,-41.992,-1000.000,-30.762,17.578,0.000
1727691526.121,-68.359,-1000.000,-42.480,-24.414,0.000
1727691526.125,-6.836,-1000.000,-67.383,-31.738,0.000
1727691526.129,22.461,-1000.000,-60.059,-3.418,0.000
1727691526.133,16.602,-1000.000,-32.715,31.250,0.000
1727691526.137,10.254,-1000.000,-6.348,38.574,0.000
1727691526.141,-25.391,-1000.000,16.113,23.926,0.000
1727691526.145,-4.883,-1000.000,27.344,13.184,0.000
1727691526.149,48.340,-1000.000,11.719,9.277,0.000
1727691526.152,14.160,-1000.000,-17.578,5.859,0.000
1727691526.156,-11.230,-1000.000,-22.461,25.879,0.000
1727691526.160,-34.668,-1000.000,-19.043,5.859,0.000
1727691526.164,-49.316,-1000.000,-32.715,-19.531,0.000
1727691526.168,44.922,-1000.000,-25.879,39.062,0.000
1727691526.172,69.824,-1000.000,-22.461,51.270,0.000
1727691526.176,0.000,-1000.000,-19.043,16.113,0.000
1727691526.180,0.000,-1000.000,-10.254,-12.207,0.000
1727691526.184,0.000,-1000.000,-29.785,-34.668,0.000
1727691526.188,0.000,-1000.000,-37.109,-21.484,0.000
1727691526.191,0.000,-1000.000,-30.273,18.555,0.000
1727691526.195,0.000,-1000.000,-45.898,10.254,0.000
1727691526.199,0.000,-1000.000,-40.527,-14.160,0.000
1727691526.203,0.000,-1000.000,-50.293,-10.254,0.000
1727691526.207,0.000,-1000.000,-33.691,-9.277,0.000
1727691526.211,0.000,-1000.000,0.000,-12.207,0.000
1727691526.215,0.000,-1000.000,-19.043,-28.320,0.000
1727691526.219,0.000,-1000.000,-58.594,-44.434,0.000
1727691526.223,-69.336,-1000.000,-59.570,-25.879,0.000
1727691526.227,-35.156,-1000.000,-62.500,-17.090,0.000
1727691526.231,-18.555,-1000.000,-88.867,-20.508,0.000
1727691526.235,-18.555,-1000.000,-77.148,-21.484,0.000
1727691526.238,-59.082,-1000.000,-61.035,-48.340,0.000
1727691526.242,-89.355,-1000.000,-57.129,-60.059,0.000
1727691526.246,-40.527,-999.512,-48.340,-42.969,0.000
1727691526.250,-9.277,-995.605,-46.387,-41.504,0.000
1727691526.254,-7.324,-1000.000,-53.711,-31.738,0.000
1727691526.258,-31.250,-899.902,-59.082,-17.090,0.000
1727691526.262,-61.035,-708.496,-47.852,-11.719,0.000
1727691526.266,-4.883,-518.555,-24.414,-2.930,0.000
1727691526.270,30.762,-279.297,-18.555,2.930,0.000
1727691526.274,20.020,-58.594,-24.414,1.953,0.000
1727691526.277,-6.348,178.223,-31.738,-8.789,0.000
1727691526.281,-32.227,646.973,-28.320,-11.719,0.000
1727691526.285,15.137,980.957,-10.742,-3.906,0.000
1727691526.289,55.176,959.473,-11.230,8.301,0.000
1727691526.293,47.852,962.402,-18.555,15.137,0.000
1727691526.297,14.648,970.215,-14.160,8.301,0.000
1727691526.301,-35.156,968.262,-1.953,-2.441,0.000
1727691526.305,-2.930,968.262,20.508,17.090,0.000
1727691526.309,28.809,968.262,14.648,27.832,0.000
1727691526.313,15.625,968.262,4.395,4.883,0.000
1727691526.317,-0.977,968.262,0.000,5.371,0.000
1727691526.320,-31.250,968.262,-7.812,18.555,0.000
1727691526.324,-3.418,968.262,-10.742,18.066,0.000
1727691526.328,37.598,968.262,-15.625,16.602,0.000
1727691526.332,45.898,968.262,-12.695,29.785,0.000
1727691526.336,29.785,968.262,-26.855,29.785,0.000
1727691526.340,-23.926,968.262,-30.273,15.137,0.000
1727691526.344,-19.043,968.262,-2.930,15.137,0.000
1727691526.348,24.414,968.262,10.742,25.879,0.000
1727691526.352,34.180,968.262,11.230,32.227,0.000
1727691526.356,29.785,968.262,11.230,24.414,0.000
1727691526.359,-6.348,968.262,-8.789,6.836,0.000
1727691526.363,0.000,968.262,-28.809,10.742,0.000
1727691526.367,0.000,968.262,-11.719,20.996,0.000
1727691526.371,0.000,968.262,0.977,12.207,0.000
1727691526.375,0.000,968.262,-4.395,7.812,0.000
1727691526.379,0.000,968.262,-20.996,4.883,0.000
1727691526.383,0.000,968.262,-24.414,3.906,0.000
1727691526.387,0.000,968.262,1.465,13.672,0.000
1727691526.391,0.000,968.262,19.043,14.648,0.000
1727691526.395,0.000,968.262,14.160,24.414,0.000
1727691526.399,0.000,968.262,15.625,34.668,0.000
1727691526.402,0.000,968.262,7.812,18.555,0.000
1727691526.406,0.000,968.262,-8.301,16.602,0.000
1727691526.410,63.477,968.262,-5.371,23.438,0.000
1727691526.414,46.875,968.262,-11.230,21.973,0.000
1727691526.418,3.418,968.262,-11.230,16.113,0.000
1727691526.422,-21.973,968.262,14.160,13.184,0.000
1727691526.426,16.602,968.262,3.418,19.531,0.000
1727691526.430,41.992,968.262,-29.297,19.043,0.000
1727691526.434,38.086,968.262,-10.742,14.648,0.000
1727691526.438,9.277,968.262,15.137,16.602,0.000
1727691526.442,-13.184,968.262,-0.488,26.367,0.000
1727691526.445,15.137,968.262,-38.574,25.391,0.000
1727691526.449,49.805,968.262,-44.434,18.555,0.000
1727691526.453,45.410,968.262,0.000,14.648,0.000
1727691526.457,1.953,968.262,10.742,12.695,0.000
1727691526.461,-28.320,968.262,1.953,11.230,0.000
1727691526.465,13.672,968.262,13.184,6.836,0.000
1727691526.469,56.641,967.773,-7.324,17.578,0.000
1727691526.473,40.527,968.262,-20.508,23.438,0.000
1727691526.477,0.977,968.262,9.277,9.277,0.000
1727691526.481,-30.273,968.262,17.090,-12.207,0.000
1727691526.485,1.465,968.262,-0.488,-3.418,0.000
1727691526.488,45.898,968.262,-20.508,20.996,0.000
1727691526.492,43.457,968.262,-34.668,16.113,0.000
1727691526.496,15.137,968.262,-7.812,6.348,0.000
1727691526.500,-17.578,968.262,1.465,4.883,0.000
1727691526.504,-4.883,968.262,12.695,14.160,0.000
1727691526.508,25.391,968.262,41.504,14.648,0.000
1727691526.512,37.109,968.262,29.297,10.254,0.000
1727691526.516,14.160,966.797,8.789,9.277,0.000
1727691526.520,-32.227,970.703,7.324,6.836,0.000
1727691526.524,-10.254,949.219,0.488,3.418,0.000
1727691526.527,55.176,905.273,-19.043,17.578,0.000
1727691526.531,53.223,887.207,-16.602,25.391,0.000
1727691526.535,15.137,881.348,-13.184,9.277,0.000
1727691526.539,-25.879,856.445,-11.719,-2.930,0.000
1727691526.543,-19.043,831.055,-7.324,5.371,0.000
1727691526.547,47.363,820.312,-19.043,21.973,0.000
1727691526.551,60.059,803.223,-29.297,20.508,0.000
1727691526.555,30.273,783.203,-17.578,16.113,0.000
1727691526.559,-14.648,766.602,-21.973,9.766,0.000
1727691526.563,-16.113,751.953,-36.621,-4.883,0.000
1727691526.567,38.574,741.699,-21.973,5.371,0.000
1727691526.571,48.828,729.492,-8.789,18.555,0.000
1727691526.574,36.133,710.938,5.859,18.066,0.000
1727691526.578,2.441,695.312,14.648,8.301,0.000
1727691526.582,-21.484,678.223,0.977,-11.719,0.000
1727691526.586,20.508,659.668,-11.719,0.977,0.000
1727691526.590,41.504,646.973,-17.090,14.160,0.000
1727691526.594,28.809,630.371,-21.973,13.184,0.000
1727691526.598,-4.883,612.793,-20.996,8.789,0.000
1727691526.602,-23.438,588.867,-21.484,2.930,0.000
1727691526.606,13.184,583.496,-29.785,8.789,0.000
1727691526.610,35.156,597.168,-31.738,20.508,0.000
1727691526.613,25.879,583.984,-28.809,15.625,0.000
1727691526.617,-3.906,565.430,-20.508,11.719,0.000
1727691526.621,-27.344,550.293,-33.691,8.301,0.000
1727691526.625,4.883,537.109,-31.738,8.789,0.000
1727691526.629,33.691,523.438,-12.695,3.906,0.000
1727691526.633,36.621,509.277,-7.812,-2.930,0.000
1727691526.637,1.953,491.699,-4.883,-0.977,0.000
1727691526.641,-41.016,480.469,-14.648,-7.812,0.000
1727691526.645,-14.160,471.680,-24.902,3.906,0.000
1727691526.649,35.156,458.984,-35.156,4.883,0.000
1727691526.652,28.809,447.266,-60.059,-9.277,0.000
1727691526.656,-11.719,439.941,-54.199,-17.090,0.000
1727691526.660,-45.898,430.664,-22.949,-19.531,0.000
1727691526.664,-13.672,407.227,-9.277,-15.625,0.000
1727691526.668,30.273,391.113,-16.113,-2.441,0.000
1727691526.672,13.184,387.695,-28.809,2.441,0.000
1727691526.676,-13.672,386.719,-33.203,-7.324,0.000
1727691526.680,-42.480,378.906,-33.203,-12.695,0.000
1727691526.684,-10.742,367.188,-23.926,-8.301,0.000
1727691526.688,38.574,358.398,-21.973,-2.441,0.000
1727691526.692,28.809,355.957,-24.902,-11.719,0.000
1727691526.695,4.395,352.051,-34.180,-11.230,0.000
1727691526.699,-33.203,345.215,-46.387,-5.859,0.000
1727691526.703,-20.020,327.637,-31.738,-0.977,0.000
1727691526.707,28.320,323.730,-28.809,6.836,0.000
1727691526.711,43.945,334.473,-28.320,13.672,0.000
1727691526.715,25.391,331.543,-10.742,10.742,0.000
1727691526.719,-23.438,326.172,-18.555,-1.465,0.000
1727691526.723,-20.508,321.777,-28.320,0.977,0.000
1727691526.727,39.062,322.754,-7.812,8.301,0.000
1727691526.731,41.016,329.590,-1.953,8.301,0.000
1727691526.734,12.695,334.961,-9.277,7.324,0.000
1727691526.738,-14.648,329.102,-10.742,7.812,0.000
1727691526.742,-19.531,319.824,-10.254,4.883,0.000
1727691526.746,28.320,314.941,-25.391,2.441,0.000
1727691526.750,54.688,304.688,-37.598,11.230,0.000
1727691526.754,31.738,299.316,-25.879,18.066,0.000
1727691526.758,-25.879,292.480,-18.066,-2.930,0.000
1727691526.762,-38.086,288.086,-26.367,-18.066,0.000
1727691526.766,31.250,289.062,-24.902,-0.488,0.000
1727691526.770,50.293,289.062,-16.113,13.672,0.000
1727691526.774,22.949,282.715,-9.766,14.160,0.000
1727691526.777,-16.602,281.250,-23.438,-2.441,0.000
1727691526.781,-46.387,291.016,-39.062,-9.766,0.000
1727691526.785,-0.488,300.293,-35.156,5.859,0.000
1727691526.789,35.156,302.734,-16.113,12.207,0.000
1727691526.793,22.461,305.176,3.418,6.836,0.000
1727691526.797,-14.648,307.129,-0.488,2.441,0.000
1727691526.801,-47.363,307.129,-8.789,-13.184,0.000
1727691526.805,-14.648,309.570,-9.277,-19.043,0.000
1727691526.809,27.344,305.664,-16.602,-15.137,0.000
1727691526.813,24.414,308.105,-31.738,-12.695,0.000
1727691526.817,-12.207,300.781,-40.039,-5.371,0.000
1727691526.820,-41.504,289.551,-45.898,-4.395,0.000
1727691526.824,-6.836,287.109,-34.180,-3.418,0.000
1727691526.828,34.668,285.156,-9.766,0.977,0.000
1727691526.832,27.344,287.598,-0.488,0.488,0.000
1727691526.836,-11.230,285.156,-1.953,-9.766,0.000
1727691526.840,-45.898,276.855,-9.766,-11.230,0.000
1727691526.844,-9.766,271.484,-16.602,1.465,0.000
1727691526.848,34.668,266.602,-21.484,14.160,0.000
1727691526.852,34.180,257.324,-29.297,16.113,0.000
1727691526.856,4.395,252.930,-22.461,9.766,0.000
1727691526.860,-28.809,248.535,-14.648,17.578,0.000
1727691526.863,-7.812,247.070,-15.625,23.438,0.000
1727691526.867,33.203,243.164,-26.855,22.461,0.000
1727691526.871,32.227,227.539,-38.086,20.020,0.000
1727691526.875,8.301,213.867,-21.973,15.137,0.000
1727691526.879,-28.809,205.078,-7.812,17.090,0.000
1727691526.883,-22.949,190.918,-18.555,14.160,0.000
1727691526.887,25.391,184.082,-27.832,8.789,0.000
1727691526.891,29.785,182.617,-32.227,10.254,0.000
1727691526.895,2.441,173.340,-25.879,0.488,0.000
1727691526.899,-33.691,162.598,-25.391,-11.230,0.000
1727691526.902,-19.531,152.832,-34.180,4.883,0.000
1727691526.906,26.855,150.391,-25.391,17.578,0.000
1727691526.910,29.785,150.391,-21.973,0.488,0.000
1727691526.914,-2.930,148.438,-18.555,-7.812,0.000
1727691526.918,-31.738,145.020,-11.719,1.465,0.000
1727691526.922,-17.578,134.277,-21.484,9.766,0.000
1727691526.926,28.809,129.883,-47.363,4.883,0.000
1727691526.930,40.039,128.418,-47.363,4.395,0.000
1727691526.934,10.742,126.465,-21.973,8.301,0.000
1727691526.938,-27.832,120.117,-5.859,-6.836,0.000
1727691526.942,-24.414,120.117,-29.297,-12.207,0.000
1727691526.945,20.020,127.441,-51.758,6.836,0.000
1727691526.949,34.668,120.605,-28.320,21.484,0.000
1727691526.953,25.879,115.234,-3.418,20.508,0.000
1727691526.957,-20.020,110.840,-11.230,6.836,0.000
1727691526.961,-40.527,105.957,-22.949,-4.395,0.000
1727691526.965,7.324,108.887,-28.320,0.488,0.000
1727691526.969,38.086,106.934,-34.668,10.254,0.000
1727691526.973,30.273,103.516,-41.016,5.859,0.000
1727691526.977,-17.090,98.633,-30.762,-4.883,0.000
1727691526.981,-40.039,90.820,-10.742,-11.230,0.000
1727691526.984,8.301,90.820,-22.949,-6.348,0.000
1727691526.988,34.668,92.773,-27.832,10.254,0.000
1727691526.992,27.832,92.285,-28.320,13.184,0.000
1727691526.996,3.906,88.379,-37.109,9.766,0.000
1727691527.000,-29.297,77.148,-23.438,8.789,0.000
1727691527.004,3.418,74.219,-31.250,3.906,0.000
1727691527.008,45.410,76.660,-38.574,11.230,0.000
1727691527.012,26.367,73.242,-23.926,10.742,0.000
1727691527.016,-18.066,68.359,-24.902,-2.930,0.000
1727691527.020,-36.621,67.383,-28.320,-14.160,0.000
1727691527.023,-0.977,68.359,-35.156,-3.906,0.000
1727691527.027,27.344,64.453,-38.574,0.488,0.000
1727691527.031,19.531,62.500,-23.438,-0.977,0.000
1727691527.035,1.953,58.594,-22.949,-1.953,0.000
1727691527.039,-28.320,59.082,-33.203,-4.883,0.000
1727691527.043,-6.348,61.035,-46.875,-5.371,0.000
1727691527.047,34.180,59.570,-68.359,-3.906,0.000
1727691527.051,28.809,53.711,-50.781,0.488,0.000
1727691527.055,-6.348,49.316,-11.719,-5.859,0.000
1727691527.059,-42.480,45.898,0.000,-23.438,0.000
1727691527.062,-23.926,42.969,-18.066,-23.926,0.000
1727691527.066,18.066,44.922,-28.320,-11.719,0.000
1727691527.070,28.809,47.363,-32.227,-8.789,0.000
1727691527.074,11.230,49.805,-48.340,-8.789,0.000
1727691527.078,-26.855,43.945,-44.922,-19.043,0.000
1727691527.082,-16.113,45.410,-16.113,-16.113,0.000
1727691527.086,24.902,48.340,-8.301,-2.930,0.000
1727691527.090,33.203,43.457,-10.254,-4.883,0.000
1727691527.094,12.695,40.527,-11.230,-13.184,0.000
1727691527.098,-34.180,39.062,-17.578,-23.926,0.000
1727691527.102,-35.156,40.039,-18.066,-17.578,0.000
1727691527.105,13.184,41.992,-23.926,-3.418,0.000
1727691527.109,26.855,36.621,-32.227,-5.371,0.000
1727691527.113,13.184,35.156,-31.738,-14.648,0.000
1727691527.117,-19.531,40.527,-39.062,-14.648,0.000
1727691527.121,-24.902,42.480,-49.805,-11.719,0.000
1727691527.125,17.578,41.504,-40.039,-8.301,0.000
1727691527.129,24.414,33.203,-28.809,-6.348,0.000
1727691527.133,8.301,26.367,-25.391,-5.859,0.000
1727691527.137,-21.973,25.391,-21.973,-15.137,0.000
1727691527.141,-47.363,25.879,-14.160,-15.625,0.000
1727691527.145,-3.418,28.809,-19.531,0.000,0.000
1727691527.148,36.621,31.250,-31.738,12.695,0.000
1727691527.152,26.367,35.156,-24.414,13.184,0.000
1727691527.156,-10.742,35.645,-11.230,4.883,0.000
1727691527.160,-36.621,34.180,-10.254,8.301,0.000
1727691527.164,-3.906,32.715,-5.859,14.648,0.000
1727691527.168,29.297,27.344,-5.859,7.324,0.000
1727691527.172,32.227,28.320,-7.812,9.766,0.000
1727691527.176,-7.324,25.879,-3.906,9.277,0.000
1727691527.180,-46.387,21.484,-13.184,3.906,0.000
1727691527.184,-9.766,22.461,-24.902,2.930,0.000
1727691527.188,36.621,27.832,-32.715,12.695,0.000
1727691527.191,38.574,31.738,-43.945,20.996,0.000
1727691527.195,3.906,28.809,-43.457,8.301,0.000
1727691527.199,-40.039,21.973,-33.203,0.488,0.000
1727691527.203,-7.812,20.020,-28.809,6.836,0.000
1727691527.207,36.133,24.414,-33.691,7.812,0.000
1727691527.211,35.156,26.855,-38.086,-1.465,0.000
1727691527.215,9.766,29.297,-29.297,7.324,0.000
1727691527.219,-30.762,25.879,-24.414,13.184,0.000
1727691527.223,-15.625,11.230,-24.902,12.695,0.000
1727691527.227,24.414,9.766,-18.066,5.371,0.000
1727691527.231,28.809,17.578,-18.555,-0.488,0.000
1727691527.234,-4.395,21.973,-32.227,8.301,0.000
1727691527.238,-39.551,19.531,-36.621,8.301,0.000
1727691527.242,-19.531,17.090,-24.414,-6.836,0.000
1727691527.246,14.160,17.090,-24.414,-6.348,0.000
1727691527.250,25.391,16.602,-29.297,9.277,0.000
1727691527.254,23.438,20.508,-15.625,12.695,0.000
1727691527.258,-21.973,13.672,-5.371,-0.488,0.000
1727691527.262,-35.156,3.418,-15.137,-7.324,0.000
1727691527.266,20.508,6.348,-17.090,-2.930,0.000
1727691527.270,22.461,5.371,-18.066,-0.977,0.000
1727691527.273,-9.277,2.441,-21.484,5.371,0.000
1727691527.277,-45.410,-1.465,-36.621,-4.395,0.000
1727691527.281,-47.363,-0.488,-53.711,-12.695,0.000
1727691527.285,-0.977,15.137,-37.598,-7.324,0.000
1727691527.289,8.789,26.855,-24.414,-3.906,0.000
1727691527.293,9.766,27.344,-20.020,1.953,0.000
1727691527.297,-15.625,27.832,-13.672,4.883,0.000
1727691527.301,-37.598,29.785,-27.832,-1.465,0.000
1727691527.305,15.137,31.738,-33.691,2.930,0.000
1727691527.309,34.668,32.715,-15.625,9.766,0.000
1727691527.313,11.719,33.203,-23.926,7.324,0.000
1727691527.316,-18.555,30.762,-47.363,0.000,0.000
1727691527.320,-34.180,28.320,-45.898,4.395,0.000
1727691527.324,11.719,30.273,-31.738,11.230,0.000
1727691527.328,36.621,35.645,-23.438,12.695,0.000
1727691527.332,15.137,37.109,-32.715,2.930,0.000
1727691527.336,-25.391,32.227,-29.297,-18.555,0.000
1727691527.340,-58.594,32.227,-20.508,-29.297,0.000
1727691527.344,-21.484,35.645,-15.625,-15.137,0.000
1727691527.348,18.066,34.668,-16.113,-6.836,0.000
1727691527.352,26.855,34.668,-33.691,-2.441,0.000
1727691527.356,4.395,35.645,-40.039,4.883,0.000
1727691527.359,-32.715,35.645,-21.973,-6.348,0.000
1727691527.363,-11.230,28.320,-7.324,-18.555,0.000
1727691527.367,32.227,24.902,-2.930,-15.137,0.000
1727691527.371,28.320,21.484,-3.418,-0.488,0.000
1727691527.375,-11.719,19.531,-19.531,-13.184,0.000
1727691527.379,-40.527,21.484,-26.855,-18.066,0.000
1727691527.383,-9.277,14.160,-27.344,0.488,0.000
1727691527.387,25.391,11.230,-41.016,4.883,0.000
1727691527.391,31.738,12.207,-36.133,4.395,0.000
1727691527.395,3.418,10.254,-18.555,7.812,0.000
1727691527.399,-30.762,12.207,-26.367,6.348,0.000
1727691527.402,-2.930,12.695,-25.391,10.254,0.000
1727691527.406,42.969,17.090,-26.855,12.207,0.000
1727691527.410,49.316,17.090,-34.668,7.324,0.000
1727691527.414,13.184,7.324,-13.672,9.277,0.000
1727691527.418,-33.691,4.395,-12.695,-6.836,0.000
1727691527.422,-29.785,7.324,-32.227,-12.695,0.000
1727691527.426,16.113,6.836,-15.137,0.488,0.000
1727691527.430,32.227,2.930,0.977,21.484,0.000
1727691527.434,4.395,-0.977,-8.789,18.066,0.000
1727691527.438,-39.062,-2.930,-20.996,-8.301,0.000
1727691527.442,-20.508,3.906,-29.785,-9.277,0.000
1727691527.445,35.645,9.766,-27.832,0.488,0.000
1727691527.449,43.457,7.324,-23.438,8.301,0.000
1727691527.453,23.926,11.719,-26.367,5.859,0.000
1727691527.457,-18.066,15.625,-45.410,-4.883,0.000
1727691527.461,-25.391,6.348,-38.574,1.465,0.000
1727691527.465,15.625,3.906,-8.301,8.301,0.000
1727691527.469,29.297,3.418,0.977,7.812,0.000
1727691527.473,22.461,2.441,-5.859,8.789,0.000
1727691527.477,-14.648,-5.371,-23.438,13.184,0.000
1727691527.481,-41.016,-8.301,-31.250,6.836,0.000
1727691527.485,1.465,-6.348,-26.855,0.488,0.000
1727691527.488,30.762,-9.277,-36.621,9.277,0.000
1727691527.492,12.695,-10.742,-41.504,8.789,0.000
1727691527.496,-32.227,-6.348,-28.320,-2.930,0.000
1727691527.500,-43.457,-5.371,-4.395,0.000,0.000
1727691527.504,-1.465,-5.371,-1.953,5.859,0.000
1727691527.508,28.320,-2.930,-28.320,1.465,0.000
1727691527.512,26.367,-8.301,-32.227,3.418,0.000
1727691527.516,-10.254,-12.695,-10.742,-7.324,0.000
1727691527.520,-32.227,-9.277,-6.836,-9.766,0.000
1727691527.524,11.230,-5.859,-13.672,-9.766,0.000
1727691527.528,30.762,-2.441,-18.555,-21.484,0.000
1727691527.531,19.043,-5.859,-22.461,-17.090,0.000
1727691527.535,-5.371,-12.207,-23.438,-17.578,0.000
1727691527.539,-33.691,-6.836,-35.645,-20.508,0.000
1727691527.543,4.883,0.977,-35.156,-12.207,0.000
1727691527.547,37.598,3.906,-30.762,-14.160,0.000
1727691527.551,29.785,-0.977,-41.992,-17.578,0.000
1727691527.555,14.648,-5.859,-39.062,-9.277,0.000
1727691527.559,-26.855,-1.953,-11.230,-7.324,0.000
1727691527.563,-13.672,-1.953,2.441,-11.719,0.000
1727691527.567,32.227,-2.441,-2.930,4.395,0.000
1727691527.570,31.738,0.488,-1.465,9.277,0.000
1727691527.574,4.883,0.977,-5.371,-2.441,0.000
1727691527.578,-33.203,0.977,-25.879,-5.371,0.000
1727691527.582,0.000,0.977,-35.156,0.977,0.000
1727691527.586,46.387,0.000,-23.926,9.766,0.000
1727691527.590,34.180,-4.395,-16.113,8.789,0.000
1727691527.594,12.695,-3.418,-15.625,2.930,0.000
1727691527.598,-29.785,-3.906,-12.695,-1.953,0.000
1727691527.602,-19.043,-4.883,-19.531,0.977,0.000
1727691527.606,32.227,0.977,-25.391,1.465,0.000
1727691527.610,31.738,5.859,-9.277,11.719,0.000
1727691527.613,6.348,10.254,-15.137,21.973,0.000
1727691527.617,-28.809,10.254,-34.180,11.719,0.000
1727691527.621,-11.230,11.230,-19.043,12.695,0.000
1727691527.625,35.645,9.277,-13.672,8.789,0.000
1727691527.629,35.156,0.488,-11.719,11.230,0.000
1727691527.633,18.066,-2.441,3.418,12.207,0.000
1727691527.637,-21.973,-0.977,4.395,3.906,0.000
1727691527.641,-29.297,-4.883,-18.066,8.789,0.000
1727691527.645,20.508,-13.184,-37.109,18.066,0.000
1727691527.649,36.621,-12.695,-33.691,9.277,0.000
1727691527.653,16.113,-16.113,-19.531,0.977,0.000
1727691527.656,-25.879,-16.113,2.930,3.906,0.000
1727691527.660,-39.062,-17.090,8.789,-12.207,0.000
1727691527.664,5.371,-18.555,-4.395,-17.090,0.000
1727691527.668,30.762,-18.066,-12.207,-6.836,0.000
1727691527.672,22.949,-16.602,-33.203,-2.441,0.000
1727691527.676,-14.160,-12.207,-37.109,-3.418,0.000
1727691527.680,-35.645,-17.578,-10.742,-12.207,0.000
1727691527.684,-0.977,-21.484,-5.371,-9.277,0.000
1727691527.688,26.855,-17.090,-18.555,2.441,0.000
1727691527.692,20.996,-18.555,-34.180,1.465,0.000
1727691527.696,-23.926,-21.973,-32.715,-16.113,0.000
1727691527.699,-46.875,-14.160,-20.020,-20.020,0.000
1727691527.703,-0.977,-13.184,-7.812,-8.789,0.000
1727691527.707,30.762,-18.555,-3.906,-8.301,0.000
1727691527.711,25.879,-20.020,-7.812,-2.930,0.000
1727691527.715,-4.395,-18.066,-12.695,-4.395,0.000
1727691527.719,-43.457,-18.555,-35.645,-6.836,0.000
1727691527.723,-8.301,-18.555,-45.898,2.930,0.000
1727691527.727,24.414,-20.508,-24.902,11.719,0.000
1727691527.731,6.348,-21.484,-11.719,6.348,0.000
1727691527.735,-15.137,-15.137,-23.926,-4.883,0.000
1727691527.738,-44.434,-10.742,-35.156,-11.719,0.000
1727691527.742,-20.508,-15.625,-20.020,-14.160,0.000
1727691527.746,27.344,-14.160,-22.461,-12.207,0.000
1727691527.750,23.926,-4.883,-36.621,0.977,0.000
1727691527.754,-3.906,-8.301,-27.344,-2.441,0.000
1727691527.758,-31.738,-11.719,-18.555,-6.348,0.000
1727691527.762,4.883,-1.953,-10.254,13.184,0.000
1727691527.766,44.434,-2.930,-20.020,10.742,0.000
1727691527.770,35.156,-11.230,-27.344,2.441,0.000
1727691527.774,5.859,-14.648,-3.418,0.000,0.000
1727691527.778,-44.434,-12.695,15.137,-11.719,0.000
1727691527.781,-22.949,-5.859,3.906,-10.254,0.000
1727691527.785,26.855,-2.930,-23.926,-1.465,0.000
1727691527.789,31.738,2.441,-23.438,3.906,0.000
1727691527.793,19.531,8.301,-3.418,0.977,0.000
1727691527.797,-24.902,4.883,-5.859,-7.324,0.000
1727691527.801,-19.531,5.859,-17.578,-8.789,0.000
1727691527.805,29.785,6.348,-17.578,3.906,0.000
1727691527.809,36.133,1.465,-21.484,11.719,0.000
1727691527.813,15.137,-1.953,-15.625,-2.930,0.000
1727691527.817,-26.367,-5.371,-1.953,-12.695,0.000
1727691527.821,-30.273,-8.789,-10.742,-8.789,0.000
1727691527.825,18.555,-7.812,-16.113,-5.859,0.000
1727691527.828,31.738,-10.742,-9.277,-4.395,0.000
1727691527.832,12.207,-13.672,-4.883,-4.395,0.000
1727691527.836,-29.785,-11.719,-8.301,-6.348,0.000
1727691527.840,-35.645,-11.230,-12.207,-2.441,0.000
1727691527.844,18.066,-13.672,-17.578,9.277,0.000
1727691527.848,44.434,-22.949,-26.367,18.066,0.000
1727691527.852,19.043,-25.391,-21.973,13.672,0.000
1727691527.856,-22.461,-21.973,-17.090,-2.441,0.000
1727691527.860,-35.645,-26.367,-2.930,-0.977,0.000
1727691527.864,0.000,-22.461,5.859,3.906,0.000
1727691527.867,0.000,-12.207,-7.812,0.000,0.000
1727691527.871,0.000,-11.230,-10.742,3.906,0.000
1727691527.875,0.000,-20.996,-0.977,1.465,0.000
1727691527.879,0.000,-25.391,0.000,0.488,0.000
1727691527.883,0.000,-19.043,-21.484,9.277,0.000
1727691527.887,0.000,-13.184,-27.344,10.742,0.000
1727691527.891,0.000,-12.695,-16.602,1.465,0.000
1727691527.895,0.000,-15.137,-26.855,-0.977,0.000
1727691527.899,0.000,-22.461,-30.273,5.859,0.000
1727691527.903,0.000,-28.320,-20.508,9.766,0.000
1727691527.907,0.000,-25.879,-25.879,6.348,0.000
1727691527.910,36.621,-19.043,-35.156,7.812,0.000
1727691527.914,3.418,-15.137,-16.113,2.441,0.000
1727691527.918,-28.320,-19.043,-6.348,0.000,0.000
1727691527.922,-1.465,-20.508,0.000,11.719,0.000
1727691527.926,37.598,-18.555,-0.977,16.113,0.000
1727691527.930,38.574,-18.066,-14.648,16.113,0.000
1727691527.934,3.418,-19.531,-18.066,2.930,0.000
1727691527.938,-39.551,-20.996,-22.949,-9.766,0.000
1727691527.942,-11.719,-21.484,-22.461,13.184,0.000
1727691527.946,36.133,-14.160,-9.766,20.996,0.000
1727691527.950,39.062,-9.277,-7.324,3.906,0.000
1727691527.953,10.742,-16.113,-24.902,-0.977,0.000
1727691527.957,-27.832,-20.508,-40.039,-9.766,0.000
1727691527.961,-4.395,-20.508,-30.762,-10.254,0.000
1727691527.965,35.645,-23.926,-17.090,-2.930,0.000
1727691527.969,29.785,-22.949,-19.043,3.418,0.000
1727691527.973,10.742,-20.020,-16.602,-0.488,0.000
1727691527.977,-28.809,-20.508,-5.371,-9.766,0.000
1727691527.981,-29.785,-20.996,-3.418,-12.695,0.000
1727691527.985,15.137,-20.020,-15.625,-0.488,0.000
1727691527.989,12.207,-17.578,-23.926,7.324,0.000
1727691527.992,-0.488,-17.090,-35.645,-2.441,0.000
1727691527.996,-14.648,-18.066,-44.922,-13.672,0.000
1727691528.000,-14.648,-13.184,-20.996,-20.020,0.000
1727691528.004,26.855,-11.230,-13.672,-6.836,0.000
1727691528.008,34.180,-10.254,-25.391,-2.441,0.000
1727691528.012,17.090,-11.719,-16.113,-8.789,0.000
1727691528.016,-24.902,-17.578,-18.555,-16.602,0.000
1727691528.020,-46.875,-17.578,-28.809,-22.461,0.000
1727691528.024,-0.488,-9.766,-32.715,-5.371,0.000
1727691528.028,26.367,-5.859,-38.086,5.371,0.000
1727691528.032,22.461,-6.836,-41.992,1.465,0.000
1727691528.035,-16.602,-10.254,-43.945,-1.953,0.000
1727691528.039,-45.410,-16.602,-47.852,-9.766,0.000
1727691528.043,3.418,-17.578,-53.711,-5.371,0.000
1727691528.047,32.227,-20.508,-34.180,1.465,0.000
1727691528.051,18.555,-24.414,-8.789,0.000,0.000
1727691528.055,-8.301,-20.996,-17.090,-9.277,0.000
1727691528.059,-37.109,-19.531,-29.297,-2.441,0.000
1727691528.063,3.418,-19.043,-26.855,12.207,0.000
1727691528.067,43.945,-19.043,-39.062,3.418,0.000
1727691528.071,23.926,-18.555,-46.875,-7.812,0.000
1727691528.074,-11.719,-22.949,-32.715,-8.789,0.000
1727691528.078,-34.180,-25.391,-30.273,-0.488,0.000
1727691528.082,-4.395,-22.949,-38.574,-3.906,0.000
1727691528.086,29.297,-26.367,-39.062,5.859,0.000
1727691528.090,20.508,-25.879,-22.461,13.672,0.000
1727691528.094,-13.184,-26.855,-14.160,-5.371,0.000
1727691528.098,0.000,-29.785,-32.715,-11.719,0.000
1727691528.102,0.000,-29.785,-27.832,-1.465,0.000
1727691528.106,0.000,-29.785,-17.578,5.371,0.000
1727691528.110,0.000,-32.715,-37.598,6.348,0.000
1727691528.113,0.000,-37.598,-41.016,-3.418,0.000
1727691528.117,0.000,-35.645,-19.531,-14.648,0.000
1727691528.121,0.000,-31.738,-16.113,-4.395,0.000
1727691528.125,0.000,-30.273,-12.207,1.953,0.000
1727691528.129,0.000,-37.598,-7.324,-0.977,0.000
1727691528.133,0.000,-38.574,-16.602,-7.812,0.000
1727691528.137,0.000,-36.621,-31.250,-15.137,0.000
1727691528.141,0.000,-37.598,-36.133,-12.207,0.000
1727691528.145,24.902,-40.039,-38.574,-14.160,0.000
1727691528.149,36.133,-37.598,-43.457,-6.348,0.000
1727691528.152,9.277,-32.227,-37.109,-5.371,0.000
1727691528.156,-53.223,-34.668,-29.785,-11.230,0.000
1727691528.160,-37.109,-36.133,-24.902,-3.418,0.000
1727691528.164,31.738,-36.133,-13.184,18.555,0.000
1727691528.168,41.016,-25.879,-22.949,11.719,0.000
1727691528.172,13.184,-21.973,-43.945,-21.973,0.000
1727691528.176,-31.250,-20.508,-53.711,-18.555,0.000
1727691528.180,-34.668,-21.973,-49.316,9.766,0.000
1727691528.184,19.531,-29.297,-31.250,5.859,0.000
1727691528.188,30.762,-30.762,-21.484,-15.625,0.000
1727691528.192,5.371,-33.691,-19.043,-10.742,0.000
1727691528.195,-35.156,-34.180,-20.020,-1.465,0.000
1727691528.199,-27.344,-35.645,-21.973,4.395,0.000
1727691528.203,25.391,-41.016,-35.645,10.254,0.000
1727691528.207,48.340,-44.434,-41.992,14.648,0.000
1727691528.211,22.949,-41.016,-21.484,11.719,0.000
1727691528.215,-18.555,-38.574,-8.789,7.812,0.000
1727691528.219,-31.250,-43.457,-31.738,-7.324,0.000
1727691528.223,7.812,-38.086,-44.434,-19.043,0.000
1727691528.227,36.133,-35.156,-32.227,-4.883,0.000
1727691528.231,15.137,-41.016,-38.574,2.441,0.000
1727691528.235,-41.992,-25.879,-45.898,-40.527,0.000
1727691528.238,-64.453,-10.742,-38.086,-48.340,0.000
1727691528.242,-17.090,-19.531,-40.039,-10.742,0.000
1727691528.246,19.043,-31.250,-30.762,-14.648,0.000
1727691528.250,23.438,-29.297,-3.418,-9.766,0.000
1727691528.254,-20.508,-22.949,-0.488,-9.766,0.000
1727691528.258,-68.848,-10.742,-46.875,-24.902,0.000
1727691528.262,-17.578,-7.812,-62.500,-2.930,0.000
1727691528.266,27.344,-13.672,-25.879,-0.488,0.000
1727691528.270,6.836,-7.812,-22.461,-10.254,0.000
1727691528.274,-13.184,-18.555,-42.969,-2.441,0.000
1727691528.278,-34.180,-22.949,-23.438,-14.160,0.000
1727691528.281,-33.691,-32.227,-24.414,-36.621,0.000
1727691528.285,-11.230,-26.367,-33.691,-31.738,0.000
1727691528.289,30.762,-1.465,-19.531,0.000,0.000
1727691528.293,5.371,-20.508,-12.695,16.602,0.000
1727691528.297,-40.527,-28.809,-28.809,-5.859,0.000
1727691528.301,-12.207,-11.719,-46.875,-13.672,0.000
1727691528.305,-5.371,-14.648,-58.594,-8.789,0.000
1727691528.309,3.418,-50.781,-22.461,-7.812,0.000
1727691528.313,-24.414,-48.828,20.996,-25.391,0.000
1727691528.317,-86.426,-41.016,0.977,-45.410,0.000
1727691528.321,-36.133,-59.082,-23.926,-13.184,0.000
1727691528.324,19.043,-50.781,-62.988,-10.742,0.000
1727691528.328,19.043,-52.734,-29.297,-13.184,0.000
1727691528.332,-18.555,-76.172,-3.906,-23.438,0.000
1727691528.336,-70.801,-73.242,-23.926,-48.828,0.000
1727691528.340,-65.918,-36.133,-11.230,-53.223,0.000
1727691528.344,-20.996,-60.547,2.441,-35.645,0.000
1727691528.348,1.465,-101.562,-26.367,-20.996,0.000
1727691528.352,-20.996,-109.375,-60.059,-34.668,0.000
1727691528.356,-74.707,-139.160,-67.871,-36.133,0.000
1727691528.360,-55.664,-188.477,-44.922,0.000,0.000
1727691528.363,-4.883,-238.770,-33.203,-3.418,0.000
1727691528.367,-12.207,-273.438,-44.434,-41.504,0.000
1727691528.371,-32.227,-309.570,10.254,-35.645,0.000
1727691528.375,-61.035,-394.043,29.297,-36.133,0.000
1727691528.379,-55.176,-463.867,-15.625,-30.762,0.000
1727691528.383,-6.348,-512.207,-18.555,-12.207,0.000
1727691528.387,-24.414,-571.777,-89.844,-35.645,0.000
1727691528.391,-62.500,-655.273,-151.855,-79.590,0.000
1727691528.395,-53.711,-833.984,-15.625,-50.293,0.000
1727691528.399,-41.992,-996.094,82.031,-0.488,0.000
1727691528.403,7.324,-999.512,8.789,11.719,0.000
1727691528.406,12.695,-996.582,-72.266,1.953,0.000
1727691528.410,-3.418,-1000.000,-36.621,-1.953,0.000
1727691528.414,-60.547,-1000.000,-13.672,-51.270,0.000
1727691528.418,-102.539,-1000.000,-28.320,-84.473,0.000
1727691528.422,-37.598,-1000.000,0.488,-42.480,0.000
1727691528.426,-4.883,-1000.000,17.090,-19.531,0.000
1727691528.430,-35.156,-1000.000,-7.324,-30.762,0.000
1727691528.434,-48.340,-1000.000,-25.879,-27.344,0.000
1727691528.438,-72.266,-1000.000,-32.227,-42.969,0.000
1727691528.442,-74.219,-1000.000,-60.059,-62.012,0.000
1727691528.445,-5.859,-1000.000,-97.168,-40.039,0.000
1727691528.449,-14.160,-1000.000,-2.441,-36.621,0.000
1727691528.453,-91.797,-1000.000,71.777,-50.293,0.000
1727691528.457,-116.211,-1000.000,37.109,-75.684,0.000
1727691528.461,-79.102,-1000.000,-42.969,-70.801,0.000
1727691528.465,-33.691,-1000.000,-88.379,-46.875,0.000
1727691528.469,-28.809,-1000.000,-43.457,-47.852,0.000
1727691528.473,-23.438,-1000.000,6.348,-37.598,0.000
1727691528.477,-79.590,-1000.000,0.488,-49.316,0.000
1727691528.481,-103.027,-1000.000,-174.316,-73.730,0.000
1727691528.484,-45.898,-1000.000,-148.438,-55.176,0.000
1727691528.488,-18.555,-1000.000,61.035,-43.457,0.000
1727691528.492,-45.410,-1000.000,73.730,-51.758,0.000
1727691528.496,-115.234,-1000.000,16.602,-71.777,0.000
1727691528.500,-70.801,-1000.000,-38.574,-59.082,0.000
1727691528.504,2.441,-1000.000,-62.988,-22.949,0.000
1727691528.508,7.812,-1000.000,12.207,-6.836,0.000
1727691528.512,0.977,-1000.000,56.641,-16.113,0.000
1727691528.516,-82.031,-1000.000,-39.062,-55.664,0.000
1727691528.520,-91.309,-1000.000,-95.215,-48.828,0.000
1727691528.523,5.859,-1000.000,-53.223,-3.418,0.000
1727691528.527,37.598,-1000.000,0.488,18.555,0.000
1727691528.531,25.391,-1000.000,50.293,-1.953,0.000
1727691528.535,-59.570,-1000.000,10.254,-42.480,0.000
1727691528.539,-50.293,-1000.000,-17.090,-8.301,0.000
1727691528.543,38.086,-1000.000,-32.227,33.691,0.000
1727691528.547,28.320,-1000.000,-68.848,22.461,0.000
1727691528.551,-34.180,-1000.000,-65.430,-34.668,0.000
1727691528.555,-74.707,-1000.000,-58.594,-58.594,0.000
1727691528.559,-14.160,-1000.000,12.695,16.602,0.000
1727691528.563,49.316,-1000.000,65.430,45.898,0.000
1727691528.566,52.734,-1000.000,43.945,32.227,0.000
1727691528.570,34.180,-1000.000,10.742,31.738,0.000
1727691528.574,-22.949,-1000.000,-43.457,18.066,0.000
1727691528.578,-47.363,-1000.000,-44.434,-10.254,0.000
1727691528.582,0.488,-1000.000,-1.465,-19.043,0.000
1727691528.586,49.316,-1000.000,-14.160,20.508,0.000
1727691528.590,50.781,-1000.000,-35.156,44.922,0.000
1727691528.594,2.441,-1000.000,-45.410,3.906,0.000
1727691528.598,-26.855,-1000.000,-12.207,-28.320,0.000
1727691528.602,24.902,-1000.000,41.992,4.395,0.000
1727691528.606,52.734,-1000.000,-1.953,26.855,0.000
1727691528.609,12.695,-1000.000,-57.129,7.324,0.000
1727691528.613,-50.781,-1000.000,-50.293,-26.855,0.000
1727691528.617,-30.762,-1000.000,-21.973,-2.441,0.000
1727691528.621,58.105,-1000.000,-35.156,37.598,0.000
1727691528.625,52.734,-1000.000,-34.668,23.438,0.000
1727691528.629,22.949,-1000.000,-20.996,2.441,0.000
1727691528.633,-11.719,-1000.000,-46.875,-12.207,0.000
1727691528.637,-62.500,-1000.000,-62.988,-13.672,0.000
1727691528.641,-45.898,-1000.000,-60.059,-2.441,0.000
1727691528.645,20.508,-1000.000,-66.406,18.066,0.000
1727691528.649,39.062,-1000.000,-75.195,7.812,0.000
1727691528.652,3.906,-1000.000,-54.688,-14.160,0.000
1727691528.656,-46.387,-1000.000,-61.523,-21.973,0.000
1727691528.660,-32.227,-1000.000,-69.336,-4.883,0.000
1727691528.664,35.156,-1000.000,-48.340,37.598,0.000
1727691528.668,32.715,-1000.000,-84.473,33.203,0.000
1727691528.672,5.371,-1000.000,-77.148,15.137,0.000
1727691528.676,-25.391,-1000.000,-8.789,7.812,0.000
1727691528.680,-9.766,-1000.000,0.977,7.324,0.000
1727691528.684,15.137,-1000.000,-23.438,4.883,0.000
1727691528.688,20.508,-996.582,-38.574,24.902,0.000
1727691528.691,18.555,-1000.000,-37.598,54.199,0.000
1727691528.695,-11.230,-951.660,-56.152,34.180,0.000
1727691528.699,-3.906,-808.105,-74.707,17.090,0.000
1727691528.703,23.926,-715.820,-37.598,29.785,0.000
1727691528.707,41.016,-575.195,-0.977,37.109,0.000
1727691528.711,35.645,-253.906,4.395,26.367,0.000
1727691528.715,-7.324,121.094,-4.395,17.578,0.000
1727691528.719,-20.996,579.590,-13.184,21.484,0.000
1727691528.723,20.508,922.363,-1.953,25.391,0.000
1727691528.727,50.293,968.262,-10.254,20.996,0.000
1727691528.731,43.457,960.938,-53.223,19.043,0.000
1727691528.734,-14.160,969.727,-42.969,21.973,0.000
1727691528.738,-35.645,968.262,-3.418,18.555,0.000
1727691528.742,2.930,968.262,-7.324,3.418,0.000
1727691528.746,22.949,968.262,-29.785,9.766,0.000
1727691528.750,21.484,968.262,-35.156,19.043,0.000
1727691528.754,-14.160,968.262,-21.973,13.184,0.000
1727691528.758,-29.297,968.262,-21.973,8.789,0.000
1727691528.762,27.832,968.262,-22.949,7.324,0.000
1727691528.766,33.203,968.262,-7.324,12.207,0.000
1727691528.770,25.879,968.262,-16.602,13.184,0.000
1727691528.774,1.465,968.262,-39.062,5.859,0.000
1727691528.777,-33.691,968.262,-27.344,6.348,0.000
1727691528.781,12.207,968.262,-10.254,20.020,0.000
1727691528.785,41.992,968.262,-4.883,27.344,0.000
1727691528.789,38.086,968.262,0.488,24.414,0.000
1727691528.793,10.254,968.262,9.766,21.973,0.000
1727691528.797,-18.555,968.262,20.508,25.391,0.000
1727691528.801,0.000,968.262,24.902,23.926,0.000
1727691528.805,0.000,968.262,15.625,31.738,0.000
1727691528.809,0.000,967.773,-6.348,39.062,0.000
1727691528.813,0.000,968.262,-43.457,26.855,0.000
1727691528.816,0.000,968.262,-19.043,4.883,0.000
1727691528.820,0.000,968.262,17.578,5.859,0.000
1727691528.824,0.000,968.262,-13.184,36.621,0.000
1727691528.828,0.000,968.262,10.742,39.062,0.000
1727691528.832,0.000,968.262,49.805,15.625,0.000
1727691528.836,0.000,968.262,41.504,4.395,0.000
1727691528.840,0.000,968.262,22.949,12.695,0.000
1727691528.844,0.000,968.262,11.230,27.832,0.000
1727691528.848,53.711,968.262,-9.277,34.180,0.000
1727691528.852,18.555,968.262,-18.066,31.738,0.000
1727691528.855,-12.695,968.262,1.953,18.066,0.000
1727691528.859,-6.348,968.262,7.324,5.859,0.000
1727691528.863,38.574,968.262,10.254,13.184,0.000
1727691528.867,46.875,968.262,12.695,19.531,0.000
1727691528.871,18.066,968.262,14.648,16.113,0.000
1727691528.875,-18.066,968.262,12.207,-1.953,0.000
1727691528.879,-4.395,968.262,9.277,-4.883,0.000
1727691528.883,37.109,968.262,-13.184,15.137,0.000
1727691528.887,52.246,968.262,-47.852,23.438,0.000
1727691528.891,36.133,968.262,-23.438,18.555,0.000
1727691528.894,-5.859,968.262,0.000,2.441,0.000
1727691528.898,1.953,968.262,0.000,-0.977,0.000
1727691528.902,42.480,968.262,0.000,10.742,0.000
1727691528.906,39.551,968.262,0.000,6.836,0.000
1727691528.910,9.277,968.262,0.000,-6.836,0.000
1727691528.914,-30.762,967.773,0.000,-14.160,0.000
1727691528.918,-28.320,968.262,0.000,-10.254,0.000
1727691528.922,8.789,968.262,0.000,-5.371,0.000
1727691528.926,30.273,968.262,0.000,0.000,0.000
1727691528.930,39.551,968.262,0.000,5.859,0.000
1727691528.934,-7.324,968.262,0.000,5.859,0.000
1727691528.937,-34.180,968.262,0.000,0.977,0.000
1727691528.941,24.414,968.262,30.762,11.719,0.000
1727691528.945,55.176,968.262,29.297,20.508,0.000
1727691528.949,32.227,968.262,17.090,9.277,0.000
1727691528.953,2.930,968.262,8.301,5.859,0.000
1727691528.957,-10.254,968.262,5.371,8.789,0.000
1727691528.961,43.457,968.262,-22.461,26.367,0.000
1727691528.965,49.805,968.262,-51.758,33.691,0.000
1727691528.969,21.484,967.773,-22.949,12.695,0.000
1727691528.973,-4.395,968.262,9.766,6.348,0.000
1727691528.977,-37.109,968.262,11.719,13.184,0.000
1727691528.980,-2.441,968.262,11.719,7.812,0.000
1727691528.984,37.109,968.262,3.418,6.836,0.000
1727691528.988,40.527,966.797,-28.809,11.719,0.000
1727691528.992,7.324,969.238,-27.344,8.301,0.000
1727691528.996,-17.090,961.426,3.906,7.812,0.000
1727691529.000,9.766,926.270,-6.348,15.137,0.000
1727691529.004,38.086,895.996,-6.836,25.391,0.000
1727691529.008,43.945,888.184,0.488,27.344,0.000
1727691529.012,10.254,885.254,-15.625,15.137,0.000
1727691529.016,-31.738,854.004,-18.066,-3.418,0.000
1727691529.020,0.488,816.895,-8.301,10.742,0.000
1727691529.023,44.922,791.016,-4.395,28.809,0.000
1727691529.027,40.039,781.738,-18.555,19.043,0.000
1727691529.031,22.461,791.504,-33.203,13.184,0.000
1727691529.035,-24.414,782.715,-29.297,4.395,0.000
1727691529.039,-14.160,760.742,-14.648,6.836,0.000
1727691529.043,30.762,743.164,1.953,10.254,0.000
1727691529.047,29.297,722.168,8.301,7.812,0.000
1727691529.051,-1.953,704.102,-4.883,9.277,0.000
1727691529.055,-41.504,684.570,-40.039,11.719,0.000
1727691529.059,-15.625,661.133,-55.664,10.254,0.000
1727691529.062,30.762,646.973,-24.902,4.883,0.000
1727691529.066,34.180,625.488,-3.418,10.254,0.000
1727691529.070,19.043,621.582,-3.418,9.277,0.000
1727691529.074,-20.020,611.816,7.324,-2.441,0.000
1727691529.078,-24.414,576.660,14.648,0.000,0.000
1727691529.082,18.555,578.613,-1.953,15.625,0.000
1727691529.086,32.227,597.168,-11.230,8.301,0.000
1727691529.090,7.812,603.027,-11.719,-10.742,0.000
1727691529.094,-28.320,601.562,-15.625,-13.184,0.000
1727691529.098,-24.414,597.168,-24.414,-2.930,0.000
1727691529.102,5.859,589.844,-45.410,4.395,0.000
1727691529.105,30.762,578.125,-32.715,4.883,0.000
1727691529.109,28.320,565.430,-21.973,12.207,0.000
1727691529.113,-12.695,551.270,-35.156,14.648,0.000
1727691529.117,-39.551,535.156,-35.156,0.977,0.000
1727691529.121,-5.371,515.137,-11.719,-9.766,0.000
1727691529.125,28.320,495.117,-9.766,-6.836,0.000
1727691529.129,7.324,480.957,-20.020,-2.930,0.000
1727691529.133,-32.227,462.891,-11.719,-7.324,0.000
1727691529.137,-41.992,441.895,-12.695,-6.836,0.000
1727691529.141,7.812,431.152,-38.574,1.953,0.000
1727691529.145,30.273,425.781,-41.504,11.719,0.000
1727691529.148,15.625,414.062,-26.367,8.301,0.000
1727691529.152,-13.672,404.785,-11.719,-0.977,0.000
1727691529.156,-39.062,400.391,-2.441,-1.953,0.000
1727691529.160,-1.953,388.672,-8.301,-1.465,0.000
1727691529.164,32.715,373.535,-22.461,-5.371,0.000
1727691529.168,21.973,354.004,-19.043,-9.766,0.000
1727691529.172,-5.859,345.703,-17.578,-8.789,0.000
1727691529.176,-35.156,332.520,-40.527,-11.230,0.000
1727691529.180,-0.488,310.547,-49.316,-15.137,0.000
1727691529.184,38.086,301.270,-37.598,2.930,0.000
1727691529.187,31.738,296.387,-28.320,12.207,0.000
1727691529.191,15.625,282.227,-17.578,-0.488,0.000
1727691529.195,-28.320,274.414,-1.953,-9.766,0.000
1727691529.199,-15.625,271.973,-2.441,-3.418,0.000
1727691529.203,27.832,269.531,-2.441,6.348,0.000
1727691529.207,29.785,272.461,-16.113,2.930,0.000
1727691529.211,13.184,269.531,-25.879,4.883,0.000
1727691529.215,-27.832,263.672,-26.367,6.348,0.000
1727691529.219,-18.066,257.812,-34.668,9.766,0.000
1727691529.223,36.133,247.559,-20.508,9.766,0.000
1727691529.226,45.898,242.676,-0.977,19.043,0.000
1727691529.230,14.160,228.027,-4.883,10.254,0.000
1727691529.234,-28.320,216.309,-38.086,-9.277,0.000
1727691529.238,-12.695,211.914,-63.965,5.371,0.000
1727691529.242,24.902,193.848,-20.996,16.113,0.000
1727691529.246,30.273,185.547,6.348,14.648,0.000
1727691529.250,27.344,187.012,-10.254,11.719,0.000
1727691529.254,-15.625,190.430,-15.137,-2.930,0.000
1727691529.258,-35.645,191.895,-10.742,-17.578,0.000
1727691529.262,23.926,190.430,-12.695,-11.230,0.000
1727691529.266,39.551,187.500,-26.367,0.000,0.000
1727691529.269,20.020,185.059,-30.762,1.465,0.000
1727691529.273,-5.859,176.270,-41.504,-2.441,0.000
1727691529.277,-15.625,170.898,-25.391,-6.348,0.000
1727691529.281,34.180,172.363,-8.789,2.441,0.000
1727691529.285,48.828,162.109,-12.207,10.254,0.000
1727691529.289,32.227,150.879,-19.043,15.137,0.000
1727691529.293,-3.418,147.461,-34.180,8.301,0.000
1727691529.297,-19.043,150.879,-44.922,11.719,0.000
1727691529.301,33.691,143.066,-37.109,21.484,0.000
1727691529.305,43.945,131.348,-22.461,15.137,0.000
1727691529.308,28.809,132.324,-27.832,14.160,0.000
1727691529.312,-1.953,134.766,-20.508,7.812,0.000
1727691529.316,0.000,126.953,-14.160,-7.324,0.000
1727691529.320,0.000,121.094,-34.668,-6.348,0.000
1727691529.324,0.000,121.582,-41.016,-0.977,0.000
1727691529.328,0.000,116.699,-26.855,-4.883,0.000
1727691529.332,0.000,112.305,-48.340,-1.953,0.000
1727691529.336,0.000,110.352,-49.316,-15.137,0.000
1727691529.340,0.000,106.445,-15.625,-21.973,0.000
1727691529.344,0.000,100.098,-7.324,-15.137,0.000
1727691529.348,0.000,99.121,-12.207,-10.742,0.000
1727691529.351,0.000,105.469,-21.973,-1.953,0.000
1727691529.355,0.000,104.492,-19.043,-12.695,0.000
1727691529.359,0.000,107.422,-30.762,-10.742,0.000
1727691529.363,35.645,105.957,-35.156,-2.930,0.000
1727691529.367,31.250,95.215,-14.160,-4.395,0.000
1727691529.371,-7.812,84.473,-15.625,-4.883,0.000
1727691529.375,-50.293,82.031,-24.902,-16.113,0.000
1727691529.379,-26.367,85.449,-19.043,-8.789,0.000
1727691529.383,30.273,82.520,-22.461,4.883,0.000
1727691529.387,38.086,88.867,-49.316,8.301,0.000
1727691529.391,8.301,100.098,-47.852,-0.488,0.000
1727691529.394,-43.457,89.355,-18.555,-2.930,0.000
1727691529.398,-38.574,78.613,-24.414,2.930,0.000
1727691529.402,28.809,69.824,-26.855,1.953,0.000
1727691529.406,30.762,67.871,-9.766,0.000,0.000
1727691529.410,2.441,79.590,-14.648,-10.742,0.000
1727691529.414,-20.020,81.543,-20.020,-23.438,0.000
1727691529.418,-36.133,67.383,-32.227,-26.855,0.000
1727691529.422,-3.906,67.871,-40.527,-16.113,0.000
1727691529.426,21.484,71.289,-11.719,-16.113,0.000
1727691529.430,4.395,65.918,-4.395,-10.254,0.000
1727691529.434,-33.203,57.617,-27.832,-18.066,0.000
1727691529.437,-34.668,54.688,-33.203,-20.996,0.000
1727691529.441,11.719,58.594,-24.414,7.324,0.000
1727691529.445,25.879,64.941,-14.160,5.859,0.000
1727691529.449,7.812,67.871,-10.254,-3.906,0.000
1727691529.453,-30.273,67.871,-24.414,-8.301,0.000
1727691529.457,-30.762,69.336,-35.156,-12.207,0.000
1727691529.461,11.719,64.941,-23.438,-2.441,0.000
1727691529.465,23.926,59.570,-25.879,4.395,0.000
1727691529.469,3.418,61.523,-30.273,1.953,0.000
1727691529.473,-29.297,56.641,-21.484,-8.789,0.000
1727691529.476,-44.434,52.246,-11.230,-20.020,0.000
1727691529.480,-6.348,54.199,-3.906,-5.371,0.000
1727691529.484,36.621,48.828,-9.766,12.207,0.000
1727691529.488,31.250,45.410,-19.043,3.906,0.000
1727691529.492,-10.254,58.594,-26.855,-10.254,0.000
1727691529.496,-43.945,62.012,-38.086,-9.766,0.000
1727691529.500,12.207,61.035,-24.902,-8.301,0.000
1727691529.504,36.621,55.176,-5.859,-7.812,0.000
1727691529.508,0.488,46.387,-17.090,0.488,0.000
1727691529.512,-26.367,49.316,-24.414,0.488,0.000
1727691529.516,-38.086,46.387,-20.020,-4.395,0.000
1727691529.520,-1.465,41.504,-21.484,2.441,0.000
1727691529.523,34.180,45.898,-32.227,6.836,0.000
1727691529.527,38.086,48.340,-37.598,9.277,0.000
1727691529.531,-4.883,44.434,-33.203,10.254,0.000
1727691529.535,-35.645,46.387,-23.438,-2.930,0.000
1727691529.539,2.441,47.852,-16.113,-10.254,0.000
1727691529.543,30.762,44.434,-16.113,-0.488,0.000
1727691529.547,23.926,42.969,-26.855,3.418,0.000
1727691529.551,3.906,46.875,-48.828,-1.465,0.000
1727691529.555,-34.180,47.363,-28.320,0.488,0.000
1727691529.559,-15.137,37.598,-6.348,4.395,0.000
1727691529.562,32.227,34.668,-17.578,12.207,0.000
1727691529.566,42.969,32.227,-27.344,8.301,0.000
1727691529.570,9.277,27.832,-39.062,0.977,0.000
1727691529.574,-26.367,30.762,-19.531,1.465,0.000
1727691529.578,-8.301,37.109,2.441,-0.977,0.000
1727691529.582,35.156,36.621,-15.625,13.184,0.000
1727691529.586,33.691,35.156,-40.039,18.555,0.000
1727691529.590,2.930,39.551,-36.621,13.184,0.000
1727691529.594,-29.297,29.297,-18.066,13.184,0.000
1727691529.598,-26.855,19.043,-3.418,-2.441,0.000
1727691529.602,29.785,21.973,-8.301,-10.254,0.000
1727691529.605,41.016,24.902,-21.973,-7.324,0.000
1727691529.609,4.395,20.996,-12.207,-9.277,0.000
1727691529.613,-34.180,13.672,-1.465,-21.484,0.000
1727691529.617,-28.809,17.578,-26.367,-15.137,0.000
1727691529.621,29.297,28.809,-43.457,11.230,0.000
1727691529.625,30.273,30.273,-33.203,2.441,0.000
1727691529.629,5.371,21.973,-18.555,-7.812,0.000
1727691529.633,-24.902,21.973,-11.719,-5.371,0.000
1727691529.637,-40.039,20.508,-17.090,-16.602,0.000
1727691529.641,2.930,19.531,-28.320,-19.043,0.000
1727691529.644,10.254,13.672,-28.809,-17.578,0.000
1727691529.648,2.930,18.555,-27.832,-10.742,0.000
1727691529.652,-15.625,30.762,-43.457,-12.695,0.000
1727691529.656,-39.062,25.391,-32.227,-21.484,0.000
1727691529.660,-3.418,19.043,-12.695,-10.742,0.000
1727691529.664,14.648,20.508,-26.367,-0.488,0.000
1727691529.668,2.441,20.020,-31.250,-11.719,0.000
1727691529.672,-31.250,12.695,-19.531,-35.156,0.000
1727691529.676,-56.641,9.277,-29.785,-40.527,0.000
1727691529.680,-7.812,13.672,-41.992,-15.625,0.000
1727691529.683,23.926,18.555,-55.176,-3.906,0.000
1727691529.687,3.906,20.508,-48.340,-20.020,0.000
1727691529.691,-44.434,17.578,-23.926,-41.992,0.000
1727691529.695,-66.895,12.207,-20.020,-44.922,0.000
1727691529.699,-20.508,21.484,-24.902,-29.297,0.000
1727691529.703,15.625,24.902,-22.949,-19.043,0.000
1727691529.707,10.742,15.625,-21.484,-10.742,0.000
1727691529.711,-17.578,19.531,-39.062,-7.812,0.000
1727691529.715,-46.387,22.949,-46.387,-17.090,0.000
1727691529.719,-11.719,30.762,-38.086,-16.113,0.000
1727691529.723,14.648,30.273,-26.855,-2.441,0.000
1727691529.726,10.254,21.484,-20.020,4.395,0.000
1727691529.730,-11.719,20.020,-16.602,-3.906,0.000
1727691529.734,-59.082,17.090,-16.113,-19.043,0.000
1727691529.738,-24.414,17.578,-39.551,-15.137,0.000
1727691529.742,28.809,22.949,-75.195,1.465,0.000
1727691529.746,20.508,26.855,-58.594,-1.465,0.000
1727691529.750,6.836,25.879,-6.348,-12.695,0.000
1727691529.754,-18.066,27.344,10.254,-8.301,0.000
1727691529.758,-5.859,26.855,-2.930,4.395,0.000
1727691529.762,27.832,25.391,-12.695,6.348,0.000
1727691529.766,28.809,28.320,-10.254,3.906,0.000
1727691529.769,3.906,29.297,-18.555,1.953,0.000
1727691529.773,-32.715,34.180,-27.344,-10.742,0.000
1727691529.777,-23.926,24.414,-34.180,-13.184,0.000
1727691529.781,20.508,14.648,-40.527,-3.906,0.000
1727691529.785,28.320,22.461,-31.250,-3.906,0.000
1727691529.789,7.324,24.414,-29.785,-5.859,0.000
1727691529.793,-35.156,21.973,-32.227,-3.418,0.000
1727691529.797,-39.062,22.949,-43.945,-0.488,0.000
1727691529.801,15.625,25.879,-43.457,3.418,0.000
1727691529.805,30.273,28.320,-18.066,-3.418,0.000
1727691529.809,7.324,28.809,-5.859,-5.859,0.000
1727691529.812,-21.973,25.879,-7.812,-5.859,0.000
1727691529.816,-24.902,21.484,-15.625,2.930,0.000
1727691529.820,15.137,26.367,-34.180,9.766,0.000
1727691529.824,38.574,25.879,-38.574,-2.441,0.000
1727691529.828,35.645,20.020,-41.992,-0.977,0.000
1727691529.832,-8.301,20.020,-49.805,2.930,0.000
1727691529.836,-31.250,20.020,-47.363,-5.859,0.000
1727691529.840,10.254,18.066,-34.180,-3.906,0.000
1727691529.844,33.691,25.391,-3.906,4.395,0.000
1727691529.848,22.949,31.738,4.395,12.695,0.000
1727691529.852,-10.742,27.832,-15.625,8.789,0.000
1727691529.855,-30.762,23.438,-31.250,-6.836,0.000
1727691529.859,5.859,21.973,-41.016,6.348,0.000
1727691529.863,39.551,24.902,-54.688,29.297,0.000
1727691529.867,37.598,27.344,-27.344,13.672,0.000
1727691529.871,-4.395,31.250,6.836,2.930,0.000
1727691529.875,-36.133,27.344,-14.648,0.977,0.000
1727691529.879,2.441,15.625,-16.602,-2.930,0.000
1727691529.883,36.621,15.137,7.324,1.953,0.000
1727691529.887,29.785,15.625,10.254,4.395,0.000
1727691529.891,-6.836,17.578,-0.488,-6.836,0.000
1727691529.894,-32.715,17.090,-9.766,-10.254,0.000
1727691529.898,2.930,12.695,-8.789,-1.465,0.000
1727691529.902,40.039,11.230,-18.066,3.906,0.000
1727691529.906,30.273,5.371,-37.109,16.602,0.000
1727691529.910,-21.484,6.836,-33.203,6.836,0.000
1727691529.914,-55.176,7.324,-16.113,-7.324,0.000
1727691529.918,-14.160,3.906,-22.949,-0.488,0.000
1727691529.922,23.926,4.883,-44.434,-2.441,0.000
1727691529.926,25.391,-0.488,-44.434,-3.906,0.000
1727691529.930,-8.789,-2.441,-35.645,-4.883,0.000
1727691529.933,-52.246,-3.906,-22.461,-14.648,0.000
1727691529.937,-20.020,-9.277,-16.113,-17.090,0.000
1727691529.941,25.879,-5.859,-14.160,-6.836,0.000
1727691529.945,37.109,-0.488,0.977,-3.906,0.000
1727691529.949,16.113,-0.977,-4.395,0.977,0.000
1727691529.953,-31.738,-0.977,-9.766,3.418,0.000
1727691529.957,-27.344,-0.977,-5.859,-6.836,0.000
1727691529.961,20.020,1.953,-14.160,0.977,0.000
1727691529.965,27.344,2.930,-30.273,0.977,0.000
1727691529.969,0.488,-2.441,-30.762,-8.789,0.000
1727691529.973,-37.598,-6.348,-24.414,-11.719,0.000
1727691529.976,-31.738,-1.953,-29.785,-15.625,0.000
1727691529.980,9.277,-3.906,-18.066,-13.672,0.000
1727691529.984,21.484,-8.789,-7.812,-4.395,0.000
1727691529.988,8.789,-6.836,-13.184,0.000,0.000
1727691529.992,-27.832,-7.324,-18.066,-7.324,0.000
1727691529.996,-25.391,-3.906,-21.484,-0.488,0.000
1727691530.000,24.414,-4.883,-22.461,6.348,0.000
1727691530.004,22.949,-7.812,-25.391,0.000,0.000
1727691530.008,2.441,-8.301,-17.090,3.906,0.000
1727691530.012,-23.926,-4.395,-13.184,-3.906,0.000
1727691530.015,-26.855,3.418,-20.020,-10.742,0.000
1727691530.019,18.066,-0.977,-11.230,-8.789,0.000
1727691530.023,38.574,-8.301,-7.812,-7.324,0.000
1727691530.027,25.879,-8.301,-16.602,-8.789,0.000
1727691530.031,1.465,-6.348,-31.738,-11.719,0.000
1727691530.035,-32.715,-6.348,-44.434,-12.695,0.000
1727691530.039,-3.906,-11.719,-34.180,-2.930,0.000
1727691530.043,35.645,-19.043,-27.832,0.000,0.000
1727691530.047,16.113,-19.043,-34.180,-5.371,0.000
1727691530.051,-26.855,-12.695,-20.020,-11.230,0.000
1727691530.054,-41.992,-9.766,-7.812,-17.578,0.000
1727691530.058,3.906,-11.230,-8.789,-7.812,0.000
1727691530.062,28.809,-9.277,-17.578,-0.977,0.000
1727691530.066,31.250,-5.371,-30.273,-2.930,0.000
1727691530.070,0.977,-5.371,-23.926,-17.578,0.000
1727691530.074,-35.645,-7.812,-19.531,-20.996,0.000
1727691530.078,1.465,-5.859,-25.391,-12.207,0.000
1727691530.082,36.621,-2.930,-28.809,-13.184,0.000
1727691530.086,38.574,-0.977,-26.855,0.000,0.000
1727691530.090,11.230,0.977,-40.039,-0.488,0.000
1727691530.094,-33.203,0.488,-53.223,-8.789,0.000
1727691530.097,-9.277,-5.859,-27.344,-0.488,0.000
1727691530.101,33.691,-10.742,-15.625,8.789,0.000
1727691530.105,27.344,-9.766,-19.043,4.395,0.000
1727691530.109,-0.488,-7.812,-12.207,-3.906,0.000
1727691530.113,-25.879,-13.184,-15.625,-3.418,0.000
1727691530.117,-0.977,-11.230,-33.203,-0.488,0.000
1727691530.121,33.691,-8.789,-31.738,6.348,0.000
1727691530.125,33.691,-11.719,-17.578,9.277,0.000
1727691530.129,15.137,-12.207,-18.555,0.488,0.000
1727691530.133,-21.484,-17.090,-20.996,-3.906,0.000
1727691530.137,-7.812,-17.090,-24.902,14.160,0.000
1727691530.140,33.203,-14.160,-34.668,20.020,0.000
1727691530.144,30.762,-18.066,-29.785,20.996,0.000
1727691530.148,8.301,-29.297,-21.484,23.926,0.000
1727691530.152,-23.438,-33.203,-32.227,2.930,0.000
1727691530.156,-13.184,-26.855,-30.762,-11.230,0.000
1727691530.160,25.879,-23.438,-9.277,-6.836,0.000
1727691530.164,25.879,-20.020,3.906,-8.789,0.000
1727691530.168,4.395,-21.484,-8.789,-12.695,0.000
1727691530.172,-28.320,-24.414,-51.758,-7.812,0.000
1727691530.176,-25.391,-17.090,-47.363,-8.301,0.000
1727691530.180,24.902,-19.043,-16.113,-5.859,0.000
1727691530.183,45.898,-22.949,-19.531,-2.930,0.000
1727691530.187,25.391,-20.996,-16.113,-0.488,0.000
1727691530.191,-27.344,-20.020,0.488,10.254,0.000
1727691530.195,-34.180,-18.555,-2.930,0.000,0.000
1727691530.199,9.766,-19.043,-14.160,-6.836,0.000
1727691530.203,30.273,-20.020,-12.207,-1.953,0.000
1727691530.207,18.555,-18.555,-16.113,-2.441,0.000
1727691530.211,-20.508,-24.902,-18.066,-6.348,0.000
1727691530.215,-31.250,-21.484,-30.762,-12.695,0.000
1727691530.219,11.719,-16.602,-40.039,-2.930,0.000
1727691530.223,26.367,-24.902,-22.949,-1.465,0.000
1727691530.226,14.648,-25.391,-12.695,-0.977,0.000
1727691530.230,-7.324,-22.461,-29.785,7.324,0.000
1727691530.234,-35.645,-24.414,-21.973,-0.488,0.000
1727691530.238,-6.836,-26.855,-0.977,-12.207,0.000
1727691530.242,23.926,-25.391,-2.930,-19.043,0.000
1727691530.246,12.207,-26.855,-9.277,-13.672,0.000
1727691530.250,-21.973,-32.715,-10.254,-10.742,0.000
1727691530.254,-34.668,-33.691,-15.137,-12.695,0.000
1727691530.258,0.488,-32.227,-21.973,-1.465,0.000
1727691530.262,23.926,-29.785,-12.695,5.371,0.000
1727691530.265,28.320,-24.902,-18.066,-0.488,0.000
1727691530.269,0.488,-29.297,-29.785,-0.977,0.000
1727691530.273,-50.293,-33.203,-20.508,-9.766,0.000
1727691530.277,-28.320,-35.645,-28.809,-27.832,0.000
1727691530.281,18.555,-30.762,-27.832,-14.648,0.000
1727691530.285,20.020,-31.250,-8.301,-3.418,0.000
1727691530.289,-1.953,-36.621,-20.508,-16.602,0.000
1727691530.293,-36.621,-33.203,-29.297,-28.809,0.000
1727691530.297,-23.926,-30.273,-26.855,-18.066,0.000
1727691530.301,2.930,-33.691,-35.156,-10.742,0.000
1727691530.305,-6.836,-39.062,-29.297,-18.555,0.000
1727691530.308,-12.695,-36.621,-27.832,-19.043,0.000
1727691530.312,-51.270,-36.621,-36.133,-23.438,0.000
1727691530.316,-46.875,-38.574,-36.621,-22.949,0.000
1727691530.320,15.137,-35.156,-43.457,-8.789,0.000
1727691530.324,20.996,-34.180,-56.152,-9.277,0.000
1727691530.328,-7.324,-33.691,-36.133,-20.020,0.000
1727691530.332,-42.480,-34.668,-24.902,-41.016,0.000
1727691530.336,-31.738,-36.133,-19.531,-32.715,0.000
1727691530.340,1.953,-34.180,-15.625,-14.160,0.000
1727691530.344,10.742,-32.715,-20.508,-22.461,0.000
1727691530.347,2.441,-34.668,-22.949,-14.160,0.000
1727691530.351,-35.156,-32.227,-28.320,-7.812,0.000
1727691530.355,-31.738,-28.320,-22.461,-11.719,0.000
1727691530.359,13.672,-22.461,-42.969,-12.207,0.000
1727691530.363,28.320,-16.602,-52.246,-6.348,0.000
1727691530.367,16.602,-25.879,-11.230,-4.883,0.000
1727691530.371,-23.926,-31.738,-34.668,-4.883,0.000
1727691530.375,-37.598,-27.832,-69.336,-7.812,0.000
1727691530.379,-4.883,-32.715,-20.020,-12.695,0.000
1727691530.383,16.113,-31.250,2.441,-6.836,0.000
1727691530.387,15.137,-27.344,-6.348,-9.277,0.000
1727691530.390,-33.691,-29.297,-9.277,-17.090,0.000
1727691530.394,-50.781,-29.297,-31.738,-10.742,0.000
1727691530.398,8.789,-27.832,-41.016,-6.836,0.000
1727691530.402,33.203,-26.367,-15.625,-8.301,0.000
1727691530.406,19.531,-25.879,-5.859,-2.441,0.000
1727691530.410,-4.883,-25.391,-16.602,-0.488,0.000
1727691530.414,-27.344,-29.297,-17.090,-0.488,0.000
1727691530.418,11.230,-26.367,-16.602,-0.977,0.000
1727691530.422,38.086,-24.414,-30.273,3.418,0.000
1727691530.426,32.227,-23.438,-41.992,11.230,0.000
1727691530.430,7.324,-20.508,-36.621,1.465,0.000
1727691530.433,-33.691,-27.832,-3.418,-8.789,0.000
1727691530.437,-1.953,-28.809,13.184,-4.395,0.000
1727691530.441,40.039,-24.902,0.000,-0.977,0.000
1727691530.445,30.762,-26.367,-20.020,1.953,0.000
1727691530.449,-1.953,-27.344,-23.438,-0.977,0.000
1727691530.453,-39.062,-21.973,-29.297,-8.301,0.000
1727691530.457,-5.859,-18.066,-33.203,2.441,0.000
1727691530.461,38.574,-19.531,-28.809,7.324,0.000
1727691530.465,25.391,-19.043,-20.508,9.766,0.000
1727691530.469,-2.441,-22.949,-8.789,8.301,0.000
1727691530.473,-31.738,-24.902,-17.090,-1.465,0.000
1727691530.476,-11.230,-27.832,-27.344,8.789,0.000
1727691530.480,32.227,-24.414,-10.254,12.695,0.000
1727691530.484,42.480,-20.508,-1.953,3.418,0.000
1727691530.488,19.531,-28.320,-22.949,-0.488,0.000
1727691530.492,-27.832,-34.668,-36.133,-4.395,0.000
1727691530.496,-6.836,-32.715,-29.785,-6.348,0.000
1727691530.500,44.922,-24.902,-14.648,3.906,0.000
1727691530.504,30.273,-28.320,-4.883,4.883,0.000
1727691530.508,-1.465,-32.715,-15.137,-11.230,0.000
1727691530.512,-40.039,-34.180,-46.387,-15.625,0.000
1727691530.516,-30.273,-31.738,-48.828,-10.254,0.000
1727691530.519,25.879,-33.203,-27.832,-0.977,0.000
1727691530.523,31.250,-36.133,-27.344,8.301,0.000
1727691530.527,1.465,-38.086,-25.391,-2.930,0.000
1727691530.531,-41.992,-44.922,-9.277,-16.602,0.000
1727691530.535,-41.992,-44.434,2.441,-17.090,0.000
1727691530.539,11.719,-37.598,-2.441,-8.301,0.000
1727691530.543,31.738,-37.598,-2.930,-4.883,0.000
1727691530.547,16.113,-39.062,-24.414,-9.766,0.000
1727691530.551,-21.973,-32.715,-50.293,-13.184,0.000
1727691530.555,-32.715,-33.691,-35.156,-5.371,0.000
1727691530.559,16.113,-34.180,-10.254,7.324,0.000
1727691530.562,43.945,-30.762,0.000,0.977,0.000
1727691530.566,34.668,-33.203,-4.395,0.977,0.000
1727691530.570,-9.766,-34.668,-14.648,-4.883,0.000
1727691530.574,-29.297,-33.691,-25.391,-19.043,0.000
1727691530.578,17.090,-38.086,-33.203,-3.418,0.000
1727691530.582,0.000,-35.645,-35.156,9.766,0.000
1727691530.586,0.000,-34.668,-21.973,22.461,0.000
1727691530.590,0.000,-41.016,-18.066,5.371,0.000
1727691530.594,0.000,-41.504,-23.926,-11.230,0.000
1727691530.598,0.000,-34.668,-21.484,11.719,0.000
1727691530.601,0.000,-27.832,-5.859,17.578,0.000
1727691530.605,0.000,-33.203,-10.254,5.859,0.000
1727691530.609,0.000,-36.133,-34.180,9.277,0.000
1727691530.613,0.000,-32.715,-36.133,7.812,0.000
1727691530.617,0.000,-26.367,-17.578,-4.395,0.000
1727691530.621,0.000,-30.273,-7.812,-3.418,0.000
1727691530.625,0.000,-33.691,-15.625,-3.906,0.000
1727691530.629,38.574,-25.879,-21.973,-10.254,0.000
1727691530.632,25.879,-23.926,-15.137,-9.277,0.000
1727691530.636,-12.695,-24.414,-16.113,6.348,0.000
1727691530.640,-42.480,-22.461,-12.695,12.695,0.000
1727691530.644,-3.906,-20.996,-19.043,11.719,0.000
1727691530.648,31.738,-22.461,-24.414,11.719,0.000
1727691530.652,18.066,-28.320,-25.391,-0.488,0.000
1727691530.656,-13.672,-28.809,-43.945,-0.488,0.000
1727691530.660,-34.180,-31.738,-29.297,2.441,0.000
1727691530.664,1.465,-34.180,2.930,0.977,0.000
1727691530.668,30.762,-31.250,-1.953,0.000,0.000
1727691530.671,23.438,-31.250,-16.113,-0.488,0.000
1727691530.675,-2.930,-31.250,-18.066,3.906,0.000
1727691530.679,42.480,-32.715,-20.020,11.719,0.000
1727691530.683,48.340,-31.250,-12.207,24.902,0.000
1727691530.687,25.391,-29.785,-4.395,22.949,0.000
1727691530.691,-17.578,-37.598,-9.277,7.812,0.000
1727691530.695,-20.020,-38.086,-12.207,10.742,0.000
1727691530.699,31.738,-27.832,-14.648,26.367,0.000
1727691530.703,41.504,-29.785,-25.879,27.344,0.000
1727691530.707,22.461,-29.785,-34.668,14.160,0.000
1727691530.711,-17.578,-25.879,-38.086,5.859,0.000
1727691530.714,-34.668,-28.809,-28.320,3.906,0.000
1727691530.718,8.301,-28.320,-21.484,7.324,0.000
1727691530.722,30.273,-17.578,-30.273,1.465,0.000
1727691530.726,24.902,-16.113,-15.137,3.418,0.000
1727691530.730,-15.625,-27.344,-1.953,-3.906,0.000
1727691530.734,-45.898,-31.250,-5.859,-18.555,0.000
1727691530.738,2.930,-45.410,-9.277,-1.465,0.000
1727691530.742,36.621,-42.969,-23.438,16.602,0.000
1727691530.746,6.836,-14.648,-46.875,1.953,0.000
1727691530.750,-53.223,-18.066,-53.223,-36.621,0.000
1727691530.753,-56.641,-33.691,-50.293,-26.367,0.000
1727691530.757,25.879,-36.621,-51.758,23.926,0.000
1727691530.761,78.125,-29.297,-24.414,50.293,0.000
1727691530.765,35.645,-14.648,-12.207,26.367,0.000
1727691530.769,-14.160,-3.418,-9.766,7.812,0.000
1727691530.773,-18.555,-18.066,-3.418,15.137,0.000
1727691530.777,15.137,-48.828,17.578,7.812,0.000
1727691530.781,42.480,-35.645,25.391,-10.254,0.000
1727691530.785,11.230,-12.207,-8.301,-37.109,0.000
1727691530.789,-24.902,-35.645,-22.949,-27.344,0.000
1727691530.792,-34.180,-67.871,-17.578,4.395,0.000
1727691530.796,-0.488,-68.359,-65.430,1.953,0.000
1727691530.800,43.945,-68.359,-57.129,3.906,0.000
1727691530.804,34.180,-86.914,-36.621,0.000,0.000
1727691530.808,17.090,-102.051,-28.809,2.930,0.000
1727691530.812,-15.625,-128.906,14.160,-0.488,0.000
1727691530.816,-19.531,-162.598,18.066,-4.883,0.000
1727691530.820,12.207,-186.035,2.441,-8.789,0.000
1727691530.824,10.254,-215.332,-8.789,-26.367,0.000
1727691530.828,-2.930,-255.371,-3.418,-7.324,0.000
1727691530.832,-57.129,-261.719,-24.414,-5.859,0.000
1727691530.835,-42.969,-280.762,-40.527,-21.973,0.000
1727691530.839,3.418,-303.711,-44.922,-24.414,0.000
1727691530.843,21.973,-324.707,-39.551,2.930,0.000
1727691530.847,22.461,-368.164,-6.348,26.367,0.000
1727691530.851,-55.664,-383.301,-26.855,-13.672,0.000
1727691530.855,-28.809,-418.945,-37.109,-21.973,0.000
1727691530.859,17.090,-457.031,-23.926,-38.574,0.000
1727691530.863,22.461,-493.164,-41.992,-32.227,0.000
1727691530.867,24.902,-569.336,-26.367,8.301,0.000
1727691530.871,-27.832,-657.227,18.555,6.836,0.000
1727691530.875,-77.637,-746.582,0.977,-43.945,0.000
1727691530.878,-33.203,-886.719,-29.785,-49.316,0.000
1727691530.882,42.969,-986.816,-25.879,20.996,0.000
1727691530.886,-7.812,-999.512,-52.246,-14.648,0.000
1727691530.890,-102.051,-998.535,-104.980,-86.914,0.000
1727691530.894,-26.855,-1000.000,-63.477,8.789,0.000
1727691530.898,31.738,-1000.000,-16.602,31.738,0.000
1727691530.902,20.508,-1000.000,-20.996,-11.719,0.000
1727691530.906,15.625,-1000.000,17.578,7.324,0.000
1727691530.910,-38.574,-1000.000,21.484,-2.930,0.000
1727691530.914,-62.988,-1000.000,-11.230,-34.668,0.000
1727691530.918,-44.922,-1000.000,-30.762,-57.617,0.000
1727691530.921,-9.277,-1000.000,-31.738,-29.297,0.000
1727691530.925,-12.695,-1000.000,-43.457,-15.625,0.000
1727691530.929,-75.684,-1000.000,-28.320,-40.527,0.000
1727691530.933,-104.980,-1000.000,-10.254,-62.012,0.000
1727691530.937,-44.922,-1000.000,-32.227,-46.387,0.000
1727691530.941,-41.992,-1000.000,-57.617,-50.781,0.000
1727691530.945,-30.762,-1000.000,0.000,-43.457,0.000
1727691530.949,-90.820,-1000.000,-7.812,-82.031,0.000
1727691530.953,-150.879,-1000.000,-83.984,-108.398,0.000
1727691530.957,-57.617,-1000.000,-55.664,-55.176,0.000
1727691530.960,-18.066,-1000.000,0.000,-40.527,0.000
1727691530.964,-52.246,-1000.000,-15.625,-64.453,0.000
1727691530.968,-76.172,-1000.000,-53.223,-65.430,0.000
1727691530.972,-76.172,-1000.000,-59.570,-41.016,0.000
1727691530.976,-71.777,-1000.000,-65.430,-65.430,0.000
1727691530.980,-41.992,-1000.000,-21.973,-67.383,0.000
1727691530.984,-57.617,-1000.000,-39.551,-63.965,0.000
1727691530.988,-82.520,-1000.000,-20.508,-59.570,0.000
1727691530.992,-87.891,-1000.000,19.043,-61.035,0.000
1727691530.996,-77.148,-1000.000,-25.391,-72.754,0.000
1727691531.000,-34.180,-1000.000,-38.574,-55.176,0.000
1727691531.003,-44.922,-1000.000,-51.270,-62.988,0.000
1727691531.007,-56.152,-1000.000,-49.805,-59.082,0.000
1727691531.011,-44.434,-1000.000,-34.668,-14.648,0.000
1727691531.015,-8.789,-1000.000,-64.941,4.395,0.000
1727691531.019,25.879,-1000.000,-114.746,12.207,0.000
1727691531.023,6.836,-1000.000,-46.875,-7.324,0.000
1727691531.027,-43.457,-1000.000,42.480,-41.992,0.000
1727691531.031,-71.289,-1000.000,21.484,-36.133,0.000
1727691531.035,-22.949,-1000.000,4.883,6.348,0.000
1727691531.039,20.996,-1000.000,-67.871,16.113,0.000
1727691531.043,50.293,-1000.000,-111.816,24.414,0.000
1727691531.046,46.875,-1000.000,-17.578,23.438,0.000
1727691531.050,0.000,-1000.000,41.992,15.625,0.000
1727691531.054,-41.016,-1000.000,26.855,-5.859,0.000
1727691531.058,-37.109,-1000.000,-1.953,-22.461,0.000
1727691531.062,9.766,-1000.000,-36.621,-3.418,0.000
1727691531.066,56.152,-1000.000,-60.547,44.434,0.000
1727691531.070,1.953,-1000.000,-56.641,29.785,0.000
1727691531.074,-33.203,-1000.000,-14.160,-15.137,0.000
1727691531.078,-9.766,-1000.000,-10.742,-38.086,0.000
1727691531.082,24.414,-1000.000,2.930,-5.859,0.000
1727691531.085,51.758,-1000.000,14.160,43.945,0.000
1727691531.089,-1.465,-1000.000,-19.043,15.625,0.000
1727691531.093,-4.883,-1000.000,-16.602,16.602,0.000
1727691531.097,50.293,-1000.000,5.859,38.086,0.000
1727691531.101,46.875,-1000.000,-22.949,16.113,0.000
1727691531.105,21.973,-1000.000,-61.523,-0.488,0.000
1727691531.109,8.789,-1000.000,-32.715,17.090,0.000
1727691531.113,15.625,-1000.000,11.230,36.133,0.000
1727691531.117,51.270,-1000.000,-18.555,30.762,0.000
1727691531.121,60.059,-1000.000,-62.988,25.879,0.000
1727691531.124,75.684,-1000.000,-11.719,38.574,0.000
1727691531.128,37.109,-1000.000,22.461,22.949,0.000
1727691531.132,-10.254,-1000.000,22.461,12.207,0.000
1727691531.136,25.879,-1000.000,5.371,23.438,0.000
1727691531.140,61.035,-1000.000,-19.531,34.180,0.000
1727691531.144,42.969,-1000.000,-29.297,20.996,0.000
1727691531.148,8.301,-1000.000,-20.508,13.184,0.000
1727691531.152,-20.020,-1000.000,-20.996,32.227,0.000
1727691531.156,1.465,-1000.000,-41.992,37.598,0.000
1727691531.160,50.293,-1000.000,-28.320,34.668,0.000
1727691531.163,62.988,-1000.000,-34.180,39.551,0.000
1727691531.167,30.273,-1000.000,-68.359,30.273,0.000
1727691531.171,-13.184,-1000.000,-30.762,18.066,0.000
1727691531.175,16.602,-1000.000,0.977,30.762,0.000
1727691531.179,65.918,-1000.000,-38.086,39.551,0.000
1727691531.183,66.895,-1000.000,-34.180,33.691,0.000
1727691531.187,42.969,-1000.000,-4.395,28.320,0.000
1727691531.191,14.648,-1000.000,-19.043,29.297,0.000
1727691531.195,40.039,-1000.000,-11.230,35.156,0.000
1727691531.199,69.336,-1000.000,10.742,39.551,0.000
1727691531.203,68.848,-999.512,17.090,35.156,0.000
1727691531.206,59.570,-999.023,34.668,47.852,0.000
1727691531.210,11.719,-979.004,20.508,46.387,0.000
1727691531.214,13.672,-867.676,-18.066,27.344,0.000
1727691531.218,63.477,-699.707,-18.066,23.926,0.000
1727691531.222,72.266,-191.895,-7.812,21.484,0.000
1727691531.226,63.477,709.961,-8.789,40.527,0.000
1727691531.230,6.348,-997.559,-20.020,33.203,0.000
1727691531.234,-18.066,938.477,-33.203,4.883,0.000
1727691531.238,41.992,970.703,-21.973,18.066,0.000
1727691531.242,67.383,968.750,-16.602,33.203,0.000
1727691531.246,36.621,968.262,-26.855,24.902,0.000
1727691531.249,-13.672,968.262,-35.645,2.441,0.000
1727691531.253,-22.949,968.262,-28.320,-8.301,0.000
1727691531.257,26.855,968.262,-23.926,2.930,0.000
1727691531.261,44.922,968.262,-28.809,14.160,0.000
1727691531.265,23.926,968.262,-25.879,9.277,0.000
1727691531.269,-17.578,968.262,-16.602,0.000,0.000
1727691531.273,-34.180,968.262,-28.809,-4.883,0.000
1727691531.277,16.602,968.262,-24.414,-5.371,0.000
1727691531.281,40.527,968.262,-13.184,-0.488,0.000
1727691531.285,21.973,968.262,-18.555,-3.418,0.000
1727691531.289,-19.043,968.262,-29.785,-9.766,0.000
1727691531.292,-39.551,968.262,-41.016,-18.555,0.000
1727691531.296,1.953,968.262,-27.344,-18.066,0.000
1727691531.300,44.922,968.262,-29.297,-1.465,0.000
1727691531.304,38.086,968.262,-38.086,7.324,0.000
1727691531.308,-7.324,968.262,-36.133,-5.371,0.000
1727691531.312,-34.668,968.262,-17.090,-14.648,0.000
1727691531.316,0.977,968.262,-3.906,-3.906,0.000
1727691531.320,25.879,968.262,-13.184,0.488,0.000
1727691531.324,3.418,968.262,-18.555,-1.953,0.000
1727691531.328,-24.414,968.262,-10.254,-9.766,0.000
1727691531.332,-47.363,968.262,-0.977,-20.020,0.000
1727691531.335,-11.230,968.262,-3.906,-18.555,0.000
1727691531.339,43.457,968.262,-8.301,-4.395,0.000
1727691531.343,31.738,968.262,-9.766,11.719,0.000
1727691531.347,-1.953,968.262,-12.695,11.230,0.000
1727691531.351,-43.457,968.262,-32.227,-1.953,0.000
1727691531.355,-18.066,968.262,-33.691,0.488,0.000
1727691531.359,37.598,968.262,-13.184,17.090,0.000
1727691531.363,21.973,968.262,-6.836,13.184,0.000
1727691531.367,-7.812,968.262,-14.648,-13.672,0.000
1727691531.371,-45.410,968.262,-13.672,-24.902,0.000
1727691531.374,-24.414,968.262,-6.348,-18.555,0.000
1727691531.378,32.715,968.262,-9.277,-15.137,0.000
1727691531.382,33.691,968.262,-29.297,-8.789,0.000
1727691531.386,4.395,968.262,-42.969,1.953,0.000
1727691531.390,-26.367,968.262,-22.949,-5.371,0.000
1727691531.394,-26.367,968.262,-20.996,-8.301,0.000
1727691531.398,9.766,968.262,-25.879,-4.883,0.000
1727691531.402,21.484,968.262,-14.648,-11.719,0.000
1727691531.406,-5.371,968.262,-0.488,-6.836,0.000
1727691531.410,-30.762,968.262,0.977,-8.301,0.000
1727691531.414,-23.926,968.262,-15.625,-6.836,0.000
1727691531.417,19.043,968.262,-21.484,10.742,0.000
1727691531.421,36.621,968.262,-23.438,14.160,0.000
1727691531.425,17.578,968.262,-21.973,14.160,0.000
1727691531.429,-36.133,968.262,-11.719,-3.906,0.000
1727691531.433,-41.016,968.262,-45.898,-11.719,0.000
1727691531.437,14.160,968.262,-68.359,13.184,0.000
1727691531.441,25.391,968.262,-11.719,7.812,0.000
1727691531.445,7.324,968.262,11.230,-9.277,0.000
1727691531.449,-32.715,968.262,-1.953,-8.789,0.000
1727691531.453,-39.551,967.773,-8.789,-2.930,0.000
1727691531.456,-0.977,967.773,-18.066,2.441,0.000
1727691531.460,28.320,968.262,-29.297,12.207,0.000
1727691531.464,24.902,968.262,-37.598,12.207,0.000
1727691531.468,-15.625,968.262,-40.527,5.859,0.000
1727691531.472,-41.016,968.262,-24.414,5.371,0.000
1727691531.476,9.277,968.262,-4.395,8.789,0.000
1727691531.480,35.645,968.262,-2.930,6.348,0.000
1727691531.484,18.555,968.262,-8.789,4.395,0.000
1727691531.488,-13.672,968.262,-9.766,5.371,0.000
1727691531.492,-31.738,968.262,-15.137,4.395,0.000
1727691531.495,14.160,968.262,-21.973,15.137,0.000
1727691531.499,43.945,968.262,-9.766,17.578,0.000
1727691531.503,24.414,968.262,-7.324,10.742,0.000
1727691531.507,-9.766,968.262,-15.137,11.719,0.000
1727691531.511,-26.367,968.262,-20.996,0.488,0.000
1727691531.515,10.254,967.773,-20.996,8.301,0.000
1727691531.519,49.805,968.262,-11.719,17.090,0.000
1727691531.523,49.316,968.262,-31.250,19.043,0.000
1727691531.527,16.602,968.262,-39.551,10.254,0.000
1727691531.531,-28.809,968.262,-1.465,-5.859,0.000
1727691531.534,-9.766,968.262,20.996,-3.418,0.000
1727691531.538,37.109,968.262,6.836,9.277,0.000
1727691531.542,35.156,968.262,-5.859,10.742,0.000
1727691531.546,0.488,966.309,-6.348,-1.465,0.000
1727691531.550,-41.992,971.680,-8.789,-6.348,0.000
1727691531.554,-11.719,942.383,-18.066,1.465,0.000
1727691531.558,43.457,891.602,-26.855,8.789,0.000
1727691531.562,33.691,871.582,-20.020,6.836,0.000
1727691531.566,1.465,856.445,-11.719,-1.953,0.000
1727691531.570,-23.438,829.590,-17.090,-4.883,0.000
1727691531.574,0.488,804.199,-18.066,0.000,0.000
1727691531.577,38.574,786.133,-34.668,13.184,0.000
1727691531.581,47.852,751.465,-42.969,18.555,0.000
1727691531.585,25.391,715.332,-20.996,5.859,0.000
1727691531.589,-26.367,684.570,-10.254,-8.789,0.000
1727691531.593,-32.715,648.438,-7.324,-9.766,0.000
1727691531.597,11.230,617.188,-10.742,-2.441,0.000
1727691531.601,30.273,597.168,-2.930,9.277,0.000
1727691531.605,18.066,580.566,-10.254,18.555,0.000
1727691531.609,-16.602,562.500,-26.855,15.625,0.000
1727691531.613,-24.902,550.293,-11.719,17.090,0.000
1727691531.617,13.184,538.086,15.137,16.602,0.000
1727691531.621,51.270,523.438,12.207,9.766,0.000
1727691531.624,44.434,509.277,-7.812,10.254,0.000
1727691531.628,-5.371,489.258,-13.184,7.812,0.000
1727691531.632,-27.344,477.051,-13.184,2.930,0.000
1727691531.636,12.207,458.984,-2.930,7.812,0.000
1727691531.640,25.879,430.664,-17.578,3.418,0.000
1727691531.644,21.973,403.809,-34.668,11.719,0.000
1727691531.648,-10.742,370.117,-18.555,19.043,0.000
1727691531.652,-32.227,341.797,-9.277,5.371,0.000
1727691531.656,10.742,318.848,-0.488,3.906,0.000
1727691531.660,38.574,297.852,9.277,8.789,0.000
1727691531.664,36.133,282.715,10.254,10.254,0.000
1727691531.667,-2.930,268.555,3.906,3.906,0.000
1727691531.671,-40.039,252.441,-13.672,2.441,0.000
1727691531.675,6.836,241.211,-16.113,3.418,0.000
1727691531.679,42.480,233.887,-18.555,-0.977,0.000
1727691531.683,25.879,218.262,-24.902,6.348,0.000
1727691531.687,-1.953,200.684,-38.574,7.812,0.000
1727691531.691,-33.203,188.965,-41.504,-3.906,0.000
1727691531.695,-6.836,185.547,-29.297,0.977,0.000
1727691531.699,26.367,184.570,-14.160,9.277,0.000
1727691531.703,21.484,176.758,-12.207,11.230,0.000
1727691531.707,4.883,166.504,-12.695,16.602,0.000
1727691531.710,-35.156,171.387,-8.789,-1.953,0.000
1727691531.714,-13.184,183.105,-13.672,-14.648,0.000
1727691531.718,34.180,193.359,-18.066,1.465,0.000
