timestamps,TP9,AF7,AF8,TP10,Right AUX
1727691623.219,22.949,-42.480,-10.742,0.977,0.000
1727691623.223,-21.973,-45.410,-4.395,7.324,0.000
1727691623.227,-36.133,-44.922,-8.301,14.648,0.000
1727691623.231,11.230,-33.691,-17.578,20.508,0.000
1727691623.235,40.039,-31.250,-16.113,26.367,0.000
1727691623.239,27.344,-27.344,-17.090,4.395,0.000
1727691623.243,-14.160,-23.438,-21.484,-21.484,0.000
1727691623.247,-28.320,-26.367,-23.926,-27.344,0.000
1727691623.250,10.742,-29.785,-28.809,-17.578,0.000
1727691623.254,28.809,-28.809,-29.297,-0.977,0.000
1727691623.258,14.648,-24.902,-21.973,5.859,0.000
1727691623.262,-15.137,-21.973,-20.996,-0.977,0.000
1727691623.266,-37.109,-19.043,-21.484,-11.719,0.000
1727691623.270,2.441,-10.254,-15.625,-0.488,0.000
1727691623.274,29.297,-11.230,-21.484,7.324,0.000
1727691623.278,16.113,-15.137,-30.762,3.418,0.000
1727691623.282,-8.301,-13.672,-25.391,5.859,0.000
1727691623.286,-33.203,-18.555,-22.949,-1.465,0.000
1727691623.290,-4.883,-17.578,-26.855,-8.789,0.000
1727691623.293,26.367,-17.090,-25.391,-10.742,0.000
1727691623.297,25.879,-24.902,-18.066,-1.953,0.000
1727691623.301,3.906,-25.391,-17.090,6.348,0.000
1727691623.305,-41.504,-24.902,-20.020,-1.465,0.000
1727691623.309,-18.555,-21.484,-25.391,0.488,0.000
1727691623.313,31.250,-11.230,-26.855,9.766,0.000
1727691623.317,37.598,-12.695,-20.020,14.648,0.000
1727691623.321,6.348,-21.484,-16.602,10.742,0.000
1727691623.325,-26.855,-25.879,-12.207,6.348,0.000
1727691623.329,1.953,-31.738,-8.301,13.184,0.000
1727691623.333,37.109,-38.086,-13.184,15.137,0.000
1727691623.336,29.297,-27.832,-16.113,18.066,0.000
1727691623.340,15.137,-22.461,-19.043,11.719,0.000
1727691623.344,-10.254,-22.949,-18.066,6.836,0.000
1727691623.348,-4.883,-22.949,-20.020,9.277,0.000
1727691623.352,38.086,-29.785,-19.043,1.953,0.000
1727691623.356,40.039,-32.227,-18.066,7.324,0.000
1727691623.360,17.090,-26.367,-18.555,14.648,0.000
1727691623.364,-20.996,-25.391,-19.043,5.859,0.000
1727691623.368,-14.648,-36.621,-17.578,1.953,0.000
1727691623.372,32.227,-32.715,-11.719,1.465,0.000
1727691623.375,42.480,-22.949,-12.207,-3.418,0.000
1727691623.379,14.648,-21.484,-13.672,-7.812,0.000
1727691623.383,-34.668,-20.020,-14.160,-20.508,0.000
1727691623.387,-35.645,-19.043,-10.742,-16.113,0.000
1727691623.391,14.160,-14.648,-6.836,9.277,0.000
1727691623.395,25.391,-10.742,-14.160,0.488,0.000
1727691623.399,11.719,-22.461,-13.672,-7.324,0.000
1727691623.403,-17.578,-27.344,-6.348,-5.859,0.000
1727691623.407,-28.320,-20.020,-13.184,-4.883,0.000
1727691623.411,3.418,-21.484,-19.043,-2.930,0.000
1727691623.415,15.137,-28.809,-21.484,-1.953,0.000
1727691623.419,11.719,-26.855,-22.461,0.000,0.000
1727691623.423,-18.555,-22.461,-22.949,-9.766,0.000
1727691623.426,-38.574,-25.391,-24.902,-18.555,0.000
1727691623.430,1.465,-32.715,-24.902,-9.766,0.000
1727691623.434,22.949,-33.203,-24.414,2.441,0.000
1727691623.438,19.531,-32.227,-22.461,5.371,0.000
1727691623.442,-12.207,-37.109,-17.578,-4.395,0.000
1727691623.446,-48.828,-36.133,-13.672,-15.137,0.000
1727691623.450,-10.742,-32.227,-20.508,-12.207,0.000
1727691623.454,20.508,-34.180,-25.879,-10.254,0.000
1727691623.458,14.160,-27.344,-25.879,-16.113,0.000
1727691623.462,-7.324,-25.879,-23.438,-10.254,0.000
1727691623.465,-40.527,-31.250,-25.391,-10.254,0.000
1727691623.469,-8.301,-24.414,-29.785,-13.672,0.000
1727691623.473,29.297,-28.320,-26.367,-12.695,0.000
1727691623.477,19.531,-37.109,-32.715,-10.254,0.000
1727691623.481,-4.883,-38.574,-35.156,-12.207,0.000
1727691623.485,-34.668,-37.109,-27.832,-20.508,0.000
1727691623.489,-14.160,-35.156,-20.508,-19.531,0.000
1727691623.493,20.020,-38.574,-17.578,-6.348,0.000
1727691623.497,12.695,-42.969,-12.695,3.906,0.000
1727691623.501,-7.324,-47.852,-6.348,-8.789,0.000
1727691623.504,-41.504,-48.340,-9.277,-16.602,0.000
1727691623.508,-22.461,-38.086,-10.254,-8.789,0.000
1727691623.512,18.555,-36.133,-6.348,1.465,0.000
1727691623.516,14.160,-41.016,-25.879,-6.836,0.000
1727691623.520,-4.395,-35.156,-33.691,-12.207,0.000
1727691623.524,-32.227,-31.250,-17.578,-3.418,0.000
1727691623.528,-28.809,-35.645,-13.184,-5.371,0.000
1727691623.532,10.742,-33.691,-17.578,-7.812,0.000
1727691623.536,34.668,-26.367,-22.461,8.789,0.000
1727691623.540,20.020,-28.809,-10.742,9.766,0.000
1727691623.543,-34.668,-34.668,-0.977,-14.648,0.000
1727691623.547,-34.180,-44.434,-3.418,-20.996,0.000
1727691623.551,4.883,-42.969,-3.418,-10.254,0.000
1727691623.555,3.418,-39.551,-5.371,-11.230,0.000
1727691623.559,-6.836,-44.434,0.977,-14.648,0.000
1727691623.563,-30.273,-40.039,-4.883,-15.625,0.000
1727691623.567,-33.691,-42.480,-16.602,-16.602,0.000
1727691623.571,0.000,-45.898,-6.836,-5.859,0.000
1727691623.575,16.602,-36.621,-8.789,4.395,0.000
1727691623.579,4.883,-35.645,-26.367,6.348,0.000
1727691623.582,-27.344,-43.457,-24.902,4.395,0.000
1727691623.586,-38.574,-44.434,-17.578,0.000,0.000
1727691623.590,-8.789,-41.504,-12.695,1.953,0.000
1727691623.594,-2.441,-38.574,-5.859,0.000,0.000
1727691623.598,1.953,-40.039,-2.441,4.395,0.000
1727691623.602,-17.090,-42.480,0.488,6.348,0.000
1727691623.606,-36.621,-37.109,2.441,6.348,0.000
1727691623.610,1.953,-36.621,-5.371,5.859,0.000
1727691623.614,31.250,-39.062,-4.395,5.859,0.000
1727691623.618,21.973,-34.668,4.395,15.625,0.000
1727691623.622,-12.695,-34.180,0.977,7.324,0.000
1727691623.626,-42.969,-40.527,-8.789,-6.836,0.000
1727691623.629,-5.859,-40.527,-9.766,5.371,0.000
1727691623.633,26.855,-40.039,-11.719,12.207,0.000
1727691623.637,21.484,-41.992,-15.625,9.766,0.000
1727691623.641,-4.395,-46.875,-19.043,2.441,0.000
1727691623.645,-25.879,-48.828,-24.414,-1.953,0.000
1727691623.649,8.789,-39.062,-25.879,-1.953,0.000
1727691623.653,30.273,-38.574,-17.090,0.977,0.000
1727691623.657,17.578,-43.457,-16.602,0.977,0.000
1727691623.661,-8.301,-36.621,-18.066,-5.371,0.000
1727691623.665,-41.016,-32.715,-14.648,-4.395,0.000
1727691623.669,-8.301,-35.156,-19.043,0.977,0.000
1727691623.672,32.227,-34.668,-21.484,3.906,0.000
1727691623.676,28.320,-34.180,-20.996,4.883,0.000
1727691623.680,0.977,-34.668,-26.367,0.488,0.000
1727691623.684,-34.668,-37.109,-34.180,-3.418,0.000
1727691623.688,-14.160,-39.062,-28.320,1.465,0.000
1727691623.692,27.832,-39.551,-20.996,9.766,0.000
1727691623.696,35.645,-38.574,-31.738,11.719,0.000
1727691623.700,13.184,-34.180,-37.109,5.859,0.000
1727691623.704,-24.902,-33.691,-22.461,-0.977,0.000
1727691623.708,-10.254,-31.250,-20.020,6.348,0.000
1727691623.712,32.227,-27.832,-32.227,14.160,0.000
1727691623.715,26.367,-29.297,-21.973,12.207,0.000
1727691623.719,7.324,-26.855,-3.906,6.348,0.000
1727691623.723,-18.555,-21.973,0.000,-0.977,0.000
1727691623.727,-15.137,-22.461,-6.348,-2.930,0.000
1727691623.731,24.414,-23.438,-20.508,0.977,0.000
1727691623.735,34.180,-25.391,-19.531,2.441,0.000
1727691623.739,10.742,-25.879,-12.695,-0.977,0.000
1727691623.743,-33.691,-30.273,-17.578,-10.254,0.000
1727691623.747,-39.062,-29.785,-22.461,-15.137,0.000
1727691623.751,6.836,-20.996,-23.438,-15.625,0.000
1727691623.755,29.785,-20.020,-28.809,-11.230,0.000
1727691623.758,27.832,-20.996,-33.203,2.441,0.000
1727691623.762,-2.441,-26.855,-39.551,16.602,0.000
1727691623.766,-24.414,-35.156,-29.785,13.672,0.000
1727691623.770,-6.348,-37.598,-2.930,-13.672,0.000
1727691623.774,1.465,-45.410,13.184,-25.391,0.000
1727691623.778,-19.043,-55.176,11.719,-28.809,0.000
1727691623.782,-60.059,-64.941,0.977,-48.340,0.000
1727691623.786,-84.473,-64.941,13.184,-56.152,0.000
1727691623.790,-60.547,-60.547,20.996,-54.199,0.000
1727691623.794,-46.875,-68.359,-8.301,-54.688,0.000
1727691623.797,-71.289,-82.031,-3.906,-67.383,0.000
1727691623.801,-114.746,-83.984,15.137,-82.520,0.000
1727691623.805,-139.160,-86.426,14.160,-92.285,0.000
1727691623.809,-117.676,-92.773,25.879,-87.891,0.000
1727691623.813,-100.098,-99.609,30.273,-72.266,0.000
1727691623.817,-100.098,-97.168,-1.953,-66.895,0.000
1727691623.821,-115.723,-93.262,-34.668,-61.523,0.000
1727691623.825,-131.348,-95.703,-11.230,-62.988,0.000
1727691623.829,-103.027,-102.051,56.152,-71.289,0.000
1727691623.833,-75.684,-103.027,71.289,-69.336,0.000
1727691623.837,-73.242,-97.656,44.434,-65.430,0.000
1727691623.840,-92.773,-89.844,31.738,-54.199,0.000
1727691623.844,-112.305,-85.449,14.160,-49.316,0.000
1727691623.848,-75.684,-88.867,10.254,-43.457,0.000
1727691623.852,-37.598,-91.309,29.297,-33.203,0.000
1727691623.856,-35.645,-89.355,31.738,-33.203,0.000
1727691623.860,-50.293,-87.891,31.738,-41.504,0.000
1727691623.864,-73.242,-87.891,32.227,-34.668,0.000
1727691623.868,-57.129,-87.891,38.574,-25.391,0.000
1727691623.872,-23.438,-81.055,41.016,-19.531,0.000
1727691623.876,-13.184,-68.848,41.016,-19.043,0.000
1727691623.879,-20.020,-58.105,33.203,-7.812,0.000
1727691623.883,-46.387,-51.270,17.578,-2.930,0.000
1727691623.887,-32.715,-49.316,20.020,-4.883,0.000
1727691623.891,17.090,-47.363,10.742,15.625,0.000
1727691623.895,14.160,-45.898,0.977,21.973,0.000
1727691623.899,-18.066,-49.805,11.719,19.043,0.000
1727691623.903,-41.504,-45.410,15.625,20.020,0.000
1727691623.907,-31.250,-49.316,19.043,12.695,0.000
1727691623.911,6.836,-50.781,26.855,18.555,0.000
1727691623.915,27.344,-44.922,18.555,22.461,0.000
1727691623.918,17.578,-43.457,-0.977,19.531,0.000
1727691623.922,-26.855,-43.457,8.301,15.137,0.000
1727691623.926,-35.156,-48.828,21.484,13.672,0.000
1727691623.930,15.137,-50.293,1.953,19.531,0.000
1727691623.934,29.297,-44.922,-23.438,22.461,0.000
1727691623.938,6.836,-41.992,-39.062,13.184,0.000
1727691623.942,-31.738,-44.922,-15.625,0.977,0.000
1727691623.946,-35.645,-43.457,15.137,8.301,0.000
1727691623.950,11.230,-38.086,24.902,16.113,0.000
1727691623.954,23.926,-36.621,23.926,13.184,0.000
1727691623.957,8.301,-39.062,9.766,7.812,0.000
1727691623.961,-21.484,-41.992,2.930,8.789,0.000
1727691623.965,-41.504,-41.992,-3.418,10.742,0.000
1727691623.969,3.906,-31.250,-20.996,9.766,0.000
1727691623.973,41.016,-28.809,-5.371,15.137,0.000
1727691623.977,24.414,-36.133,22.461,16.602,0.000
1727691623.981,-14.648,-41.016,2.441,9.277,0.000
1727691623.985,-40.039,-43.457,0.000,-1.953,0.000
1727691623.989,-2.930,-43.457,11.230,5.859,0.000
1727691623.993,32.227,-32.715,-36.621,20.996,0.000
1727691623.997,25.391,-25.391,-60.547,16.602,0.000
1727691624.001,-23.438,-36.133,-5.859,-0.977,0.000
1727691624.004,-63.477,-43.945,29.297,-20.996,0.000
1727691624.008,-30.273,-37.598,24.902,-25.879,0.000
1727691624.012,2.441,-36.621,6.348,-18.066,0.000
1727691624.016,5.371,-39.062,-17.090,-11.230,0.000
1727691624.020,-13.184,-38.574,-23.438,-14.648,0.000
1727691624.024,-42.480,-39.551,-27.344,-24.902,0.000
1727691624.028,-15.137,-36.621,-29.297,-18.066,0.000
1727691624.032,15.137,-38.574,-12.207,-9.766,0.000
1727691624.036,4.883,-39.551,1.465,-13.184,0.000
1727691624.040,-20.996,-40.039,-8.789,-11.230,0.000
1727691624.044,-49.316,-38.574,-22.949,-6.348,0.000
1727691624.047,-21.973,-32.715,-29.297,-2.930,0.000
1727691624.051,32.715,-18.066,-85.938,17.090,0.000
1727691624.055,48.340,-8.789,-95.703,11.230,0.000
1727691624.059,13.672,-22.461,2.930,-14.648,0.000
1727691624.063,-45.898,-38.086,58.594,-27.832,0.000
1727691624.067,-42.969,-41.016,48.828,-25.391,0.000
1727691624.071,8.789,-36.621,23.926,-10.254,0.000
1727691624.075,20.020,-31.250,5.371,0.000,0.000
1727691624.079,-2.441,-24.902,-15.137,4.883,0.000
1727691624.083,-36.133,-27.832,-39.551,7.324,0.000
1727691624.087,-22.949,-24.902,-50.293,10.742,0.000
1727691624.090,32.227,-15.625,-34.668,17.090,0.000
1727691624.094,34.180,-18.555,-17.090,19.531,0.000
1727691624.098,7.324,-23.926,-7.812,20.020,0.000
1727691624.102,-22.461,-25.391,6.348,10.254,0.000
1727691624.106,-20.508,-21.973,-2.441,5.371,0.000
1727691624.110,25.879,-16.113,-5.859,1.465,0.000
1727691624.114,42.480,-16.602,-17.090,1.465,0.000
1727691624.118,16.113,-19.043,-22.461,-3.418,0.000
1727691624.122,-37.598,-20.020,-12.207,-8.301,0.000
1727691624.126,-40.039,-19.043,-20.996,-9.766,0.000
1727691624.129,8.789,-15.137,-36.621,-10.254,0.000
1727691624.133,23.438,-17.090,-27.832,-13.672,0.000
1727691624.137,9.766,-22.949,-9.766,-12.695,0.000
1727691624.141,-27.832,-18.066,-15.137,0.488,0.000
1727691624.145,-37.598,-10.254,-24.414,2.930,0.000
1727691624.149,3.418,-15.137,-15.625,-5.859,0.000
1727691624.153,19.043,-19.531,3.906,-16.113,0.000
1727691624.157,8.301,-18.555,-2.930,-10.742,0.000
1727691624.161,-19.531,-21.484,-23.926,-8.301,0.000
1727691624.165,-39.062,-23.438,-34.668,-9.766,0.000
1727691624.169,0.488,-21.973,-23.438,-3.906,0.000
1727691624.172,26.855,-21.484,-2.930,-4.883,0.000
1727691624.176,16.602,-23.438,0.977,-8.301,0.000
1727691624.180,-16.602,-22.949,-3.418,-13.672,0.000
1727691624.184,-40.527,-22.949,-4.883,-13.184,0.000
1727691624.188,-4.395,-25.391,-25.879,3.418,0.000
1727691624.192,22.949,-23.438,-31.738,0.977,0.000
1727691624.196,20.020,-19.531,-26.855,-5.859,0.000
1727691624.200,-1.953,-21.484,-38.086,-0.488,0.000
1727691624.204,-41.504,-29.785,-29.297,-6.836,0.000
1727691624.208,-9.277,-29.297,-23.438,0.000,0.000
1727691624.211,31.250,-27.344,-4.395,12.207,0.000
1727691624.215,13.672,-32.227,-1.465,4.883,0.000
1727691624.219,-13.672,-37.109,-19.043,-0.488,0.000
1727691624.223,-42.480,-37.109,-7.812,-3.418,0.000
1727691624.227,-28.809,-38.574,-4.883,-7.324,0.000
1727691624.231,17.578,-35.645,-48.340,14.160,0.000
1727691624.235,27.832,-24.902,-66.895,18.555,0.000
1727691624.239,-9.766,-29.785,-8.301,-10.254,0.000
1727691624.243,-53.711,-39.551,28.809,-25.391,0.000
1727691624.247,-29.785,-36.621,14.648,-23.438,0.000
1727691624.251,14.160,-31.250,11.230,-12.695,0.000
1727691624.254,9.766,-32.715,20.020,-7.812,0.000
1727691624.258,-9.766,-35.156,-7.324,-0.977,0.000
1727691624.262,-35.156,-32.227,-39.551,2.441,0.000
1727691624.266,-28.320,-30.762,-50.293,-10.254,0.000
1727691624.270,18.066,-29.785,-40.527,-14.648,0.000
1727691624.274,25.391,-33.691,-8.789,-4.395,0.000
1727691624.278,-0.977,-40.527,13.672,-8.301,0.000
1727691624.282,-40.039,-38.574,8.301,-19.531,0.000
1727691624.286,-36.621,-34.180,-30.762,-15.625,0.000
1727691624.290,14.160,-31.738,-32.715,-13.184,0.000
1727691624.293,27.344,-30.762,5.371,-8.301,0.000
1727691624.297,21.973,-22.461,5.859,-0.488,0.000
1727691624.301,-11.719,-17.090,-26.367,-3.906,0.000
1727691624.305,-34.180,-22.949,-33.691,-6.348,0.000
1727691624.309,10.254,-24.414,-13.184,3.418,0.000
1727691624.313,35.645,-20.508,-24.902,9.766,0.000
1727691624.317,25.879,-20.996,-49.316,7.812,0.000
1727691624.321,-8.789,-20.020,-42.480,8.789,0.000
1727691624.325,-37.109,-21.484,-28.320,-1.465,0.000
1727691624.329,6.836,-22.949,-17.578,-10.254,0.000
1727691624.332,28.809,-30.273,-15.625,-14.160,0.000
1727691624.336,9.277,-31.250,-34.668,-18.066,0.000
1727691624.340,-24.414,-28.809,-37.598,-15.625,0.000
1727691624.344,-54.688,-31.738,-16.602,-16.602,0.000
1727691624.348,-16.113,-30.762,-21.484,-11.230,0.000
1727691624.352,15.625,-30.762,2.441,-5.371,0.000
1727691624.356,1.465,-34.180,26.367,-15.137,0.000
1727691624.360,-28.320,-32.715,18.555,-22.461,0.000
1727691624.364,-55.664,-33.203,14.648,-21.973,0.000
1727691624.368,-15.137,-36.621,3.418,-21.973,0.000
1727691624.372,24.902,-34.180,-24.902,-20.996,0.000
1727691624.376,12.695,-33.203,-40.039,-18.066,0.000
1727691624.379,-12.207,-33.691,-44.922,-11.230,0.000
1727691624.383,-34.668,-32.715,-49.805,-10.254,0.000
1727691624.387,-12.207,-39.551,-18.066,-23.438,0.000
1727691624.391,0.000,-48.340,5.859,-33.203,0.000
1727691624.395,0.000,-48.828,-5.371,-30.762,0.000
1727691624.399,0.000,-40.527,-31.738,-25.391,0.000
1727691624.403,0.000,-33.203,-73.730,-19.531,0.000
1727691624.407,0.000,-40.039,-66.895,-13.672,0.000
1727691624.411,0.000,-46.387,-4.883,-10.742,0.000
1727691624.415,0.000,-43.457,32.715,-14.160,0.000
1727691624.419,0.000,-43.457,18.066,-20.020,0.000
1727691624.422,0.000,-41.504,-15.137,-16.113,0.000
1727691624.426,0.000,-36.621,-45.410,5.371,0.000
1727691624.430,0.000,-20.020,-83.008,11.719,0.000
1727691624.434,0.000,-22.461,-79.102,-12.695,0.000
1727691624.438,-9.766,-41.992,-14.160,-31.738,0.000
1727691624.442,-41.992,-47.363,24.902,-38.574,0.000
1727691624.446,-39.062,-51.270,7.812,-41.016,0.000
1727691624.450,13.184,-45.410,-4.883,-28.320,0.000
1727691624.454,23.438,-33.203,-10.742,-10.742,0.000
1727691624.458,-12.207,-35.156,-20.508,-29.785,0.000
1727691624.462,-62.012,-46.875,-11.719,-48.828,0.000
1727691624.465,-40.527,-37.598,17.578,-23.926,0.000
1727691624.469,19.531,-21.484,24.902,0.000,0.000
1727691624.473,27.832,-22.461,-17.090,4.395,0.000
1727691624.477,12.695,-29.785,-31.738,-1.465,0.000
1727691624.481,-20.508,-28.809,-36.621,-4.883,0.000
1727691624.485,-27.832,-26.367,-31.250,-4.395,0.000
1727691624.489,11.230,-33.691,-10.742,-3.906,0.000
1727691624.493,1.953,-38.574,-14.160,-25.391,0.000
1727691624.497,-38.086,-32.715,-80.078,-51.270,0.000
1727691624.501,-39.551,-17.090,-85.938,-19.043,0.000
1727691624.505,-27.832,-36.621,-0.977,5.371,0.000
1727691624.508,-6.836,-60.059,0.488,-6.348,0.000
1727691624.512,13.672,-39.062,-40.527,-13.672,0.000
1727691624.516,3.418,-29.297,5.859,-14.648,0.000
1727691624.520,-39.551,-41.016,11.719,-20.996,0.000
1727691624.524,-48.340,-35.645,-34.180,-17.578,0.000
1727691624.528,-4.883,-16.602,-19.043,-13.184,0.000
1727691624.532,14.160,-20.020,-29.785,-27.344,0.000
1727691624.536,26.367,-22.461,-58.105,-8.789,0.000
1727691624.540,-18.066,-28.320,-26.855,-8.301,0.000
1727691624.544,-67.871,-34.180,5.371,-29.785,0.000
1727691624.548,-31.250,-34.668,-18.066,-24.414,0.000
1727691624.552,-9.277,-26.855,-30.762,-26.855,0.000
1727691624.555,-5.371,-10.742,-16.113,-20.508,0.000
1727691624.559,-9.277,-29.297,-14.160,2.930,0.000
1727691624.563,-30.273,-32.227,-88.379,13.184,0.000
1727691624.567,-1.953,4.395,-117.188,8.301,0.000
1727691624.571,-21.973,2.441,-2.930,-44.434,0.000
1727691624.575,-79.590,-23.438,-20.508,-83.984,0.000
1727691624.579,-45.898,-48.340,-67.383,-19.043,0.000
1727691624.583,-39.062,-68.848,3.418,0.977,0.000
1727691624.587,-42.969,-40.527,69.824,-50.293,0.000
1727691624.591,26.367,-33.203,26.367,-17.090,0.000
1727691624.594,29.297,-43.457,-82.520,0.000,0.000
1727691624.598,-60.547,-29.785,-93.750,-59.082,0.000
1727691624.602,-78.613,-104.492,30.762,-54.688,0.000
1727691624.606,-22.949,-169.434,75.195,-8.301,0.000
1727691624.610,-9.766,-151.855,13.184,-28.809,0.000
1727691624.614,-29.785,-179.199,-23.438,-66.406,0.000
1727691624.618,-41.992,-252.930,-24.902,-49.316,0.000
1727691624.622,-72.754,-247.559,-55.176,-40.527,0.000
1727691624.626,-67.871,-237.305,-35.645,-47.852,0.000
1727691624.630,-53.711,-267.090,-127.441,-62.500,0.000
1727691624.633,-65.918,-293.457,-271.484,-75.195,0.000
1727691624.637,-82.031,-331.055,-68.359,-80.078,0.000
1727691624.641,-118.652,-350.098,82.520,-93.750,0.000
1727691624.645,-100.586,-401.367,-40.039,-87.891,0.000
1727691624.649,-62.500,-524.902,-56.152,-100.098,0.000
1727691624.653,-129.883,-618.652,-77.148,-152.832,0.000
1727691624.657,-148.438,-682.617,-52.734,-151.855,0.000
1727691624.661,-185.059,-724.121,44.922,-159.668,0.000
1727691624.665,-218.750,-793.945,-20.020,-181.152,0.000
1727691624.669,-125.000,-852.539,-231.934,-138.672,0.000
1727691624.672,-129.883,-885.742,-159.668,-169.434,0.000
1727691624.676,-172.363,-950.684,128.418,-199.707,0.000
1727691624.680,-194.824,-996.582,127.930,-181.641,0.000
1727691624.684,-228.516,-1000.000,12.695,-192.383,0.000
1727691624.688,-157.227,-999.512,-72.754,-153.320,0.000
1727691624.692,-83.008,-1000.000,-126.465,-106.934,0.000
1727691624.696,-94.727,-1000.000,-28.809,-110.352,0.000
1727691624.700,-159.180,-1000.000,85.938,-139.648,0.000
1727691624.704,-235.352,-1000.000,-15.625,-196.289,0.000
1727691624.708,-174.316,-1000.000,-240.234,-174.316,0.000
1727691624.712,-173.340,-1000.000,-189.453,-182.617,0.000
1727691624.715,-256.348,-1000.000,1.953,-242.676,0.000
1727691624.719,0.000,-1000.000,23.926,-199.707,0.000
1727691624.723,0.000,-1000.000,12.695,-166.016,0.000
1727691624.727,0.000,-1000.000,-125.488,-190.918,0.000
1727691624.731,0.000,-1000.000,-221.680,-193.848,0.000
1727691624.735,0.000,-1000.000,-74.219,-168.945,0.000
1727691624.739,0.000,-1000.000,13.184,-212.402,0.000
1727691624.743,0.000,-1000.000,26.855,-205.078,0.000
1727691624.747,0.000,-1000.000,-37.109,-154.785,0.000
1727691624.751,0.000,-1000.000,-67.871,-122.559,0.000
1727691624.755,0.000,-1000.000,-4.883,-126.465,0.000
1727691624.758,0.000,-1000.000,-95.215,-131.348,0.000
1727691624.762,0.000,-1000.000,-228.516,-96.680,0.000
1727691624.766,-159.180,-1000.000,-39.062,-118.164,0.000
1727691624.770,-194.824,-1000.000,90.332,-211.914,0.000
1727691624.774,-188.965,-1000.000,32.227,-206.055,0.000
1727691624.778,-115.723,-1000.000,50.781,-98.633,0.000
1727691624.782,-123.047,-1000.000,37.598,-70.801,0.000
1727691624.786,-114.746,-1000.000,-63.965,-81.055,0.000
1727691624.790,-79.590,-1000.000,24.902,-93.750,0.000
1727691624.794,-154.297,-1000.000,64.453,-177.246,0.000
1727691624.798,-185.059,-1000.000,-53.223,-198.730,0.000
1727691624.802,-120.605,-1000.000,-28.809,-71.777,0.000
1727691624.805,-121.094,-1000.000,-125.000,-60.059,0.000
1727691624.809,-81.543,-1000.000,-169.922,-79.590,0.000
1727691624.813,-134.277,-1000.000,71.777,-143.066,0.000
1727691624.817,-171.875,-1000.000,131.348,-171.875,0.000
1727691624.821,-131.836,-1000.000,35.156,-125.000,0.000
1727691624.825,-168.945,-1000.000,21.973,-152.344,0.000
1727691624.829,-135.254,-1000.000,-1.953,-135.742,0.000
1727691624.833,-76.172,-1000.000,-68.359,-97.168,0.000
1727691624.837,-111.816,-1000.000,-13.184,-117.188,0.000
1727691624.841,-164.551,-1000.000,-20.020,-132.324,0.000
1727691624.844,-144.531,-1000.000,-30.762,-89.355,0.000
1727691624.848,-115.723,-1000.000,47.363,-93.750,0.000
1727691624.852,-133.301,-1000.000,-7.812,-136.719,0.000
1727691624.856,-181.152,-1000.000,-106.445,-167.969,0.000
1727691624.860,-201.172,-1000.000,-43.945,-146.484,0.000
1727691624.864,-178.711,-1000.000,8.301,-116.211,0.000
1727691624.868,-164.062,-1000.000,-77.637,-131.836,0.000
1727691624.872,-143.555,-1000.000,-77.637,-135.742,0.000
1727691624.876,-88.379,-1000.000,18.555,-88.379,0.000
1727691624.880,-122.070,-1000.000,-4.883,-107.422,0.000
1727691624.884,-148.926,-1000.000,-55.176,-127.930,0.000
1727691624.887,-107.910,-1000.000,-44.434,-108.398,0.000
1727691624.891,-104.004,-1000.000,-73.242,-101.074,0.000
1727691624.895,-83.984,-1000.000,-62.988,-60.059,0.000
1727691624.899,-89.844,-1000.000,-42.480,-61.035,0.000
1727691624.903,-132.324,-1000.000,-8.301,-81.543,0.000
1727691624.907,-101.074,-1000.000,10.254,-63.477,0.000
1727691624.911,-48.340,-1000.000,-9.277,-61.523,0.000
1727691624.915,-48.340,-1000.000,-32.227,-61.035,0.000
1727691624.919,-74.219,-1000.000,-36.621,-60.059,0.000
1727691624.923,-101.074,-1000.000,-2.930,-56.152,0.000
1727691624.927,-68.848,-1000.000,-24.902,-26.855,0.000
1727691624.930,-22.461,-1000.000,-32.715,-5.371,0.000
1727691624.934,-16.602,-1000.000,-0.977,-9.277,0.000
1727691624.938,-59.082,-1000.000,17.578,-37.109,0.000
1727691624.942,-100.098,-1000.000,22.949,-49.805,0.000
1727691624.946,-78.613,-1000.000,2.930,-30.762,0.000
1727691624.950,-20.996,-1000.000,-17.578,-20.020,0.000
1727691624.954,-6.836,-1000.000,-16.113,-20.996,0.000
1727691624.958,-41.016,-1000.000,-4.883,-30.273,0.000
1727691624.962,-56.641,-1000.000,-13.672,-24.414,0.000
1727691624.966,-25.879,-1000.000,-11.230,0.977,0.000
1727691624.969,23.926,-1000.000,4.883,26.855,0.000
1727691624.973,52.734,-999.512,21.484,20.020,0.000
1727691624.977,36.621,-999.512,38.574,10.742,0.000
1727691624.981,4.883,-967.285,19.043,27.344,0.000
1727691624.985,0.000,-891.113,14.648,27.832,0.000
1727691624.989,41.992,-791.992,24.902,34.668,0.000
1727691624.993,53.711,-691.406,6.836,43.945,0.000
1727691624.997,19.043,-602.539,-22.461,21.484,0.000
1727691625.001,-36.133,-498.047,-12.207,-13.184,0.000
1727691625.005,-39.551,-309.570,12.207,-19.531,0.000
1727691625.008,4.883,-73.242,-9.766,-9.277,0.000
1727691625.012,10.254,221.191,-37.109,-9.277,0.000
1727691625.016,1.953,600.586,-28.809,-13.672,0.000
1727691625.020,-23.926,894.043,-38.574,-13.672,0.000
1727691625.024,-27.344,970.215,-33.691,0.000,0.000
1727691625.028,31.250,961.426,10.254,19.043,0.000
1727691625.032,62.012,969.238,36.133,24.902,0.000
1727691625.036,56.641,968.262,29.297,32.715,0.000
1727691625.040,4.883,968.262,23.438,16.113,0.000
1727691625.044,-20.020,968.262,32.715,-2.441,0.000
1727691625.047,46.875,968.262,28.809,20.020,0.000
1727691625.051,87.402,968.262,17.578,38.086,0.000
1727691625.055,83.496,968.262,17.578,40.527,0.000
1727691625.059,34.180,968.262,19.043,25.391,0.000
1727691625.063,-2.441,968.262,39.062,9.766,0.000
1727691625.067,42.480,968.262,12.207,22.461,0.000
1727691625.071,68.359,968.262,7.812,33.203,0.000
1727691625.075,98.145,968.262,82.031,63.477,0.000
1727691625.079,102.539,968.262,94.238,100.098,0.000
1727691625.083,72.266,968.262,117.188,93.750,0.000
1727691625.087,106.934,968.262,151.855,90.332,0.000
1727691625.090,147.949,968.262,120.605,104.492,0.000
1727691625.094,145.996,968.262,101.074,104.492,0.000
1727691625.098,105.957,968.262,113.281,90.332,0.000
1727691625.102,59.570,968.262,102.051,79.102,0.000
1727691625.106,86.914,968.262,70.801,83.496,0.000
1727691625.110,128.418,968.262,62.988,92.773,0.000
1727691625.114,122.559,968.262,82.031,89.355,0.000
1727691625.118,85.449,968.262,82.031,86.914,0.000
1727691625.122,45.898,968.262,75.684,72.266,0.000
1727691625.126,73.730,968.262,83.008,65.430,0.000
1727691625.130,103.027,968.262,64.941,76.172,0.000
1727691625.133,83.496,968.262,34.668,66.406,0.000
1727691625.137,63.965,968.262,23.438,62.500,0.000
1727691625.141,35.156,968.262,24.902,68.359,0.000
1727691625.145,44.922,968.262,44.922,58.594,0.000
1727691625.149,92.773,968.262,55.664,55.176,0.000
1727691625.153,97.656,968.262,77.637,62.012,0.000
1727691625.157,74.707,968.262,95.703,59.082,0.000
1727691625.161,53.711,968.262,75.195,64.453,0.000
1727691625.165,71.777,968.262,62.012,72.754,0.000
1727691625.169,110.352,968.262,68.359,75.195,0.000
1727691625.173,119.141,968.262,73.730,80.078,0.000
1727691625.176,93.750,968.262,75.195,79.102,0.000
1727691625.180,49.316,968.262,68.848,66.406,0.000
1727691625.184,59.082,968.262,52.734,68.848,0.000
1727691625.188,102.051,968.262,56.152,71.777,0.000
1727691625.192,103.516,968.262,60.547,67.871,0.000
1727691625.196,83.496,968.262,39.062,61.523,0.000
1727691625.200,43.457,968.262,45.410,60.059,0.000
1727691625.204,32.715,968.262,64.453,58.594,0.000
1727691625.208,69.824,968.262,56.641,54.199,0.000
1727691625.212,94.238,968.262,29.297,54.199,0.000
1727691625.216,86.914,967.773,21.973,48.340,0.000
1727691625.219,46.387,967.285,6.836,55.664,0.000
1727691625.223,19.531,968.750,18.555,54.688,0.000
1727691625.227,48.340,934.082,52.246,39.551,0.000
1727691625.231,66.406,881.836,52.734,41.992,0.000
1727691625.235,59.082,847.656,36.621,41.504,0.000
1727691625.239,27.832,815.430,21.484,28.809,0.000
1727691625.243,2.441,782.227,17.578,30.273,0.000
1727691625.247,34.668,753.906,4.883,37.598,0.000
1727691625.251,58.105,727.051,-0.977,27.344,0.000
1727691625.255,53.711,701.660,4.883,21.973,0.000
1727691625.259,23.926,682.617,-18.066,20.996,0.000
1727691625.262,-1.953,654.297,-38.086,24.414,0.000
1727691625.266,37.109,623.047,-8.789,43.457,0.000
1727691625.270,67.871,598.633,41.992,34.180,0.000
1727691625.274,62.500,576.660,34.668,22.461,0.000
1727691625.278,28.320,560.547,4.883,16.602,0.000
1727691625.282,-9.766,531.738,14.160,6.836,0.000
1727691625.286,6.348,501.953,31.250,4.883,0.000
1727691625.290,45.898,491.699,0.000,12.207,0.000
1727691625.294,68.359,494.141,-66.406,26.367,0.000
1727691625.298,32.715,479.980,-33.203,21.484,0.000
1727691625.302,-15.137,447.754,26.855,11.719,0.000
1727691625.305,15.137,434.570,25.879,20.996,0.000
1727691625.309,55.176,426.758,20.020,27.344,0.000
1727691625.313,50.781,418.457,8.301,35.645,0.000
1727691625.317,27.344,407.227,-6.836,37.598,0.000
1727691625.321,-4.883,394.043,-21.484,31.738,0.000
1727691625.325,11.719,388.184,-28.320,28.809,0.000
1727691625.329,52.246,369.629,-5.859,38.086,0.000
1727691625.333,57.129,356.934,1.953,38.574,0.000
1727691625.337,34.668,349.121,-7.812,32.715,0.000
1727691625.341,-9.277,340.332,0.977,30.273,0.000
1727691625.344,5.859,338.379,18.066,25.879,0.000
1727691625.348,50.781,331.055,-2.441,23.926,0.000
1727691625.352,53.711,321.777,-15.137,28.320,0.000
1727691625.356,38.574,311.523,-7.812,35.645,0.000
1727691625.360,4.883,302.246,-10.254,29.297,0.000
1727691625.364,1.953,295.410,-2.930,23.438,0.000
1727691625.368,47.363,282.715,-5.859,30.762,0.000
1727691625.372,57.129,275.879,-2.441,14.648,0.000
1727691625.376,34.668,263.184,2.441,6.348,0.000
1727691625.380,8.789,252.930,-14.648,16.113,0.000
1727691625.383,18.555,253.906,-33.203,16.602,0.000
1727691625.387,48.828,253.906,-14.648,21.484,0.000
1727691625.391,59.082,243.164,0.000,33.203,0.000
1727691625.395,61.035,236.328,-10.254,32.227,0.000
1727691625.399,21.973,236.816,-10.254,30.762,0.000
1727691625.403,8.301,234.863,16.113,31.250,0.000
1727691625.407,55.176,233.887,19.043,34.180,0.000
1727691625.411,75.684,238.281,-10.254,44.434,0.000
1727691625.415,70.801,236.328,-18.066,46.387,0.000
1727691625.419,26.367,227.539,-6.348,28.320,0.000
1727691625.422,0.000,214.355,15.137,16.602,0.000
1727691625.426,0.000,213.379,12.695,16.113,0.000
1727691625.430,0.000,211.914,-19.043,12.695,0.000
1727691625.434,0.000,204.102,-27.832,15.625,0.000
1727691625.438,0.000,213.867,-9.766,13.184,0.000
1727691625.442,0.000,222.168,-12.207,9.766,0.000
1727691625.446,0.000,223.633,-22.461,26.855,0.000
1727691625.450,0.000,224.121,-18.066,26.367,0.000
1727691625.454,0.000,216.797,3.906,9.766,0.000
1727691625.458,0.000,215.820,15.137,8.301,0.000
1727691625.462,0.000,212.891,15.625,9.277,0.000
1727691625.465,0.000,210.938,0.000,12.695,0.000
1727691625.469,61.035,211.426,-38.574,25.391,0.000
1727691625.473,48.828,213.379,-45.410,32.227,0.000
1727691625.477,23.926,208.984,-23.438,29.785,0.000
1727691625.481,6.348,213.379,-6.836,29.297,0.000
1727691625.485,26.855,224.121,5.859,25.391,0.000
1727691625.489,59.082,221.680,4.395,26.855,0.000
1727691625.493,51.270,221.191,5.371,29.785,0.000
1727691625.497,25.391,216.309,-0.977,12.695,0.000
1727691625.501,-0.977,210.449,-15.137,10.742,0.000
1727691625.505,16.602,204.102,-12.207,22.949,0.000
1727691625.508,54.688,198.242,-13.184,21.484,0.000
1727691625.512,51.270,200.684,-16.113,9.766,0.000
1727691625.516,28.809,200.195,-21.484,4.883,0.000
1727691625.520,-7.324,199.219,-13.672,4.883,0.000
1727691625.524,0.977,195.312,-5.859,12.695,0.000
1727691625.528,33.691,183.594,-13.184,21.973,0.000
1727691625.532,35.645,179.199,-21.484,14.648,0.000
1727691625.536,16.113,179.688,-42.969,4.395,0.000
1727691625.540,-20.996,162.598,-57.617,2.930,0.000
1727691625.544,-13.184,150.391,-33.691,-1.953,0.000
1727691625.548,25.879,155.273,0.488,1.465,0.000
1727691625.551,40.527,156.738,13.184,15.625,0.000
1727691625.555,24.414,147.949,7.812,21.484,0.000
1727691625.559,-16.113,143.555,-6.348,10.742,0.000
1727691625.563,-10.742,143.066,-4.395,5.859,0.000
1727691625.567,32.227,147.461,-12.695,13.672,0.000
1727691625.571,45.410,152.344,-33.691,15.625,0.000
1727691625.575,36.133,151.367,-47.852,15.137,0.000
1727691625.579,-2.441,145.508,-59.570,15.625,0.000
1727691625.583,-12.695,132.324,-39.062,9.766,0.000
1727691625.587,32.715,128.906,-4.883,14.160,0.000
1727691625.591,50.293,125.977,3.418,10.742,0.000
1727691625.594,34.180,118.652,-2.930,6.348,0.000
1727691625.598,5.371,119.141,-17.578,9.766,0.000
1727691625.602,-6.836,114.258,-44.434,7.812,0.000
1727691625.606,28.320,108.398,-40.039,14.160,0.000
1727691625.610,45.410,110.352,-41.504,6.836,0.000
1727691625.614,37.109,109.375,-40.039,-1.953,0.000
1727691625.618,0.000,104.004,-0.977,-3.906,0.000
1727691625.622,-31.738,95.215,22.461,-15.137,0.000
1727691625.626,14.160,87.891,-2.930,-2.930,0.000
1727691625.630,51.270,88.379,-25.391,10.254,0.000
1727691625.634,43.945,83.008,-22.461,6.836,0.000
1727691625.638,5.859,82.031,-21.973,5.371,0.000
1727691625.642,-14.648,91.797,-15.137,16.113,0.000
1727691625.645,22.949,92.773,-22.949,10.254,0.000
1727691625.649,39.551,82.520,-38.086,5.859,0.000
1727691625.653,37.109,85.449,-40.039,13.184,0.000
1727691625.657,19.043,83.496,-35.156,8.789,0.000
1727691625.661,-21.973,77.637,-22.461,3.906,0.000
1727691625.665,0.977,80.566,-31.738,2.441,0.000
1727691625.669,41.504,83.008,-62.500,12.207,0.000
1727691625.673,38.574,76.660,-62.500,20.020,0.000
1727691625.677,1.953,67.871,-31.250,10.254,0.000
1727691625.681,-31.250,65.918,-15.625,2.441,0.000
1727691625.684,-16.113,72.266,-15.625,0.977,0.000
1727691625.688,31.738,73.242,-7.812,3.906,0.000
1727691625.692,49.316,68.359,-49.316,7.812,0.000
1727691625.696,20.020,66.895,-84.961,6.348,0.000
1727691625.700,-26.367,57.129,-37.109,3.418,0.000
1727691625.704,0.000,53.711,0.977,-1.465,0.000
1727691625.708,0.000,60.547,-13.672,5.371,0.000
1727691625.712,0.000,56.641,-17.578,8.789,0.000
1727691625.716,0.000,53.711,0.000,13.184,0.000
1727691625.720,0.000,57.129,-4.883,6.836,0.000
1727691625.723,0.000,63.965,-24.902,-5.859,0.000
1727691625.727,0.000,64.941,-26.367,2.441,0.000
1727691625.731,0.000,60.547,-12.207,14.648,0.000
1727691625.735,0.000,66.406,-12.695,5.371,0.000
1727691625.739,0.000,65.430,-25.879,2.441,0.000
1727691625.743,0.000,62.012,-35.645,10.742,0.000
1727691625.747,0.000,61.035,-47.852,24.414,0.000
1727691625.751,32.227,56.152,-44.922,18.555,0.000
1727691625.755,24.902,56.152,-27.344,8.789,0.000
1727691625.759,-4.883,58.105,-30.762,12.207,0.000
1727691625.763,-14.160,57.617,-62.988,18.066,0.000
1727691625.766,32.715,60.547,-63.477,22.461,0.000
1727691625.770,50.781,59.082,-37.598,28.809,0.000
1727691625.774,32.227,54.688,-10.742,22.461,0.000
1727691625.778,-1.465,54.199,-0.488,7.324,0.000
1727691625.782,-19.043,50.781,-5.371,4.883,0.000
1727691625.786,17.578,50.781,-9.277,4.883,0.000
1727691625.790,36.133,52.734,-17.090,-2.441,0.000
1727691625.794,28.320,52.246,-14.648,2.441,0.000
1727691625.798,-2.441,52.246,-37.109,1.953,0.000
1727691625.801,-24.414,53.711,-62.988,-5.371,0.000
1727691625.805,11.719,46.387,-32.715,1.465,0.000
1727691625.809,32.227,44.434,-7.812,0.977,0.000
1727691625.813,34.180,44.922,-24.414,-1.465,0.000
1727691625.817,1.465,38.086,-45.898,0.488,0.000
1727691625.821,-30.273,34.180,-40.527,4.395,0.000
1727691625.825,4.395,37.109,-16.113,0.488,0.000
1727691625.829,29.297,37.109,11.719,2.441,0.000
1727691625.833,16.602,36.621,14.648,7.324,0.000
1727691625.837,-6.348,38.574,-9.766,-7.812,0.000
1727691625.841,-33.203,41.504,-24.414,-23.438,0.000
1727691625.844,-6.348,40.039,-41.504,-15.625,0.000
1727691625.848,21.484,36.133,-45.410,-1.465,0.000
1727691625.852,22.949,39.551,-32.227,4.395,0.000
1727691625.856,4.883,38.574,-40.527,0.977,0.000
1727691625.860,-31.738,35.645,-69.824,-7.812,0.000
1727691625.864,-6.348,35.645,-70.312,3.418,0.000
1727691625.868,37.598,29.297,-44.434,13.672,0.000
1727691625.872,30.762,29.297,-13.184,1.465,0.000
1727691625.876,8.301,36.621,6.836,-0.977,0.000
1727691625.880,-16.602,36.621,-13.184,4.395,0.000
1727691625.883,5.859,39.062,-48.340,11.719,0.000
1727691625.887,42.480,37.598,-46.387,9.766,0.000
1727691625.891,36.133,31.250,-27.344,-2.441,0.000
1727691625.895,17.578,28.320,-19.531,0.000,0.000
1727691625.899,-25.879,27.344,-35.156,-7.812,0.000
1727691625.903,-28.320,26.367,-56.152,-13.672,0.000
1727691625.907,20.996,26.367,-41.992,-1.953,0.000
1727691625.911,38.086,32.715,-24.414,3.906,0.000
1727691625.915,24.414,44.922,-38.574,10.254,0.000
1727691625.919,-13.672,41.992,-51.270,8.789,0.000
1727691625.923,-19.531,41.016,-46.387,6.348,0.000
1727691625.926,24.414,48.340,-41.504,14.648,0.000
1727691625.930,33.691,45.410,-32.227,6.348,0.000
1727691625.934,9.766,42.480,-25.879,-2.441,0.000
1727691625.938,-20.020,37.109,-20.508,-3.906,0.000
1727691625.942,-29.297,31.738,-16.113,-3.418,0.000
1727691625.946,12.207,32.227,-7.812,6.836,0.000
1727691625.950,29.785,34.180,-18.066,13.184,0.000
1727691625.954,14.648,33.203,-31.738,2.930,0.000
1727691625.958,-13.184,31.738,-30.762,-3.418,0.000
1727691625.962,-25.879,28.320,-42.480,-6.348,0.000
1727691625.966,3.906,24.414,-45.898,-6.836,0.000
1727691625.969,38.086,31.250,-21.973,5.371,0.000
1727691625.973,31.250,33.203,-38.086,8.301,0.000
1727691625.977,-9.766,29.297,-45.898,-0.488,0.000
1727691625.981,-23.926,25.879,-17.578,-2.930,0.000
1727691625.985,15.137,19.531,-17.578,-3.418,0.000
1727691625.989,27.832,14.648,-30.762,-6.348,0.000
1727691625.993,11.230,19.043,-20.996,-13.184,0.000
1727691625.997,-13.672,22.461,-15.625,-16.113,0.000
1727691626.001,-28.809,32.227,-41.992,-3.418,0.000
1727691626.005,1.465,32.715,-56.152,1.465,0.000
1727691626.008,30.273,28.809,-38.086,-10.254,0.000
1727691626.012,26.367,30.762,-19.531,-19.531,0.000
1727691626.016,-2.441,32.715,-6.348,-10.742,0.000
1727691626.020,-35.645,35.645,-7.812,-3.906,0.000
1727691626.024,-6.836,31.250,-23.926,-5.371,0.000
1727691626.028,31.738,29.297,-21.973,-3.418,0.000
1727691626.032,32.227,30.273,-9.766,1.953,0.000
1727691626.036,19.531,33.691,-9.766,7.812,0.000
1727691626.040,-19.043,35.645,-12.695,8.789,0.000
1727691626.044,0.488,37.598,-21.973,17.090,0.000
1727691626.048,52.246,41.992,-29.297,21.973,0.000
1727691626.051,46.387,38.574,-16.113,16.113,0.000
1727691626.055,11.719,32.715,2.441,15.625,0.000
1727691626.059,-28.809,29.785,11.230,11.719,0.000
1727691626.063,-16.113,30.762,-4.883,4.883,0.000
1727691626.067,31.250,28.809,-25.391,3.906,0.000
1727691626.071,41.992,28.320,-23.438,12.695,0.000
1727691626.075,23.926,33.203,-20.996,14.648,0.000
1727691626.079,-8.301,31.738,-33.691,2.930,0.000
1727691626.083,4.395,31.738,-27.832,6.348,0.000
1727691626.087,43.945,31.250,-20.020,13.184,0.000
1727691626.090,43.457,32.227,-20.996,9.277,0.000
1727691626.094,15.137,28.320,-14.648,2.930,0.000
1727691626.098,-21.484,24.414,-11.719,-0.977,0.000
1727691626.102,-24.414,28.809,1.465,-4.883,0.000
1727691626.106,19.043,28.320,13.184,5.371,0.000
1727691626.110,37.109,24.902,0.000,0.977,0.000
1727691626.114,17.090,20.020,-19.043,-11.230,0.000
1727691626.118,-27.344,18.555,-27.344,-13.672,0.000
1727691626.122,-26.367,19.531,-31.738,-10.254,0.000
1727691626.126,13.672,19.531,-30.273,-4.395,0.000
1727691626.129,27.832,18.555,-16.602,0.000,0.000
1727691626.133,29.297,23.926,-24.414,0.977,0.000
1727691626.137,2.441,25.391,-38.574,-2.930,0.000
1727691626.141,-24.902,23.438,-30.762,-9.766,0.000
1727691626.145,-1.953,22.461,-9.766,-14.648,0.000
1727691626.149,8.301,17.578,-1.465,-19.043,0.000
1727691626.153,-3.906,16.113,-11.719,-18.555,0.000
1727691626.157,-34.180,19.043,-18.555,-19.531,0.000
1727691626.161,-60.059,20.508,-26.855,-31.250,0.000
1727691626.165,-14.160,18.066,-27.344,-24.902,0.000
1727691626.169,16.602,17.090,-21.484,-14.648,0.000
1727691626.172,-0.488,16.113,-16.113,-20.020,0.000
1727691626.176,-27.832,14.648,-14.160,-23.438,0.000
1727691626.180,-45.410,19.043,-22.949,-19.531,0.000
1727691626.184,-14.648,22.461,-28.320,-8.301,0.000
1727691626.188,19.043,25.879,-14.160,-1.953,0.000
1727691626.192,21.484,26.855,-15.137,0.488,0.000
1727691626.196,-3.418,28.320,-28.809,2.930,0.000
1727691626.200,-31.738,26.855,-20.996,-0.488,0.000
1727691626.204,-16.113,20.996,-15.625,1.953,0.000
1727691626.208,24.414,19.531,0.000,10.742,0.000
1727691626.211,26.855,18.066,5.371,11.230,0.000
1727691626.215,-1.465,13.184,-5.859,4.883,0.000
1727691626.219,-29.297,13.184,-21.484,6.348,0.000
1727691626.223,-6.836,16.113,-27.344,12.695,0.000
1727691626.227,33.691,15.137,-9.766,11.230,0.000
1727691626.231,34.180,17.090,-10.254,4.883,0.000
1727691626.235,18.066,20.020,-33.203,0.000,0.000
1727691626.239,-8.301,20.996,-33.203,7.324,0.000
1727691626.243,-6.348,13.184,-9.277,8.789,0.000
1727691626.246,30.273,10.254,11.230,2.930,0.000
1727691626.250,37.598,20.996,2.441,-4.395,0.000
1727691626.254,15.625,26.855,-21.484,6.348,0.000
1727691626.258,-26.367,25.391,-20.996,13.672,0.000
1727691626.262,-20.996,24.902,-20.020,10.742,0.000
1727691626.266,14.648,24.902,-29.785,4.395,0.000
1727691626.270,18.555,20.508,-18.555,3.418,0.000
1727691626.274,7.324,13.672,-17.578,-1.465,0.000
1727691626.278,-24.414,13.184,-19.043,-8.789,0.000
1727691626.282,-26.855,14.648,-22.949,0.000,0.000
1727691626.286,8.301,15.625,-28.320,0.000,0.000
1727691626.290,25.391,20.508,-20.508,2.441,0.000
1727691626.294,19.531,20.508,-33.203,7.812,0.000
1727691626.297,-21.484,18.066,-36.133,1.953,0.000
1727691626.301,-41.504,19.043,-23.438,-4.883,0.000
1727691626.305,-5.859,19.043,-12.695,-13.184,0.000
1727691626.309,12.207,22.461,-4.395,-18.066,0.000
1727691626.313,1.465,20.020,-9.277,-20.996,0.000
1727691626.317,-29.785,10.254,-14.648,-22.461,0.000
1727691626.321,-39.551,10.742,-31.250,-20.508,0.000
1727691626.325,0.000,16.113,-43.945,-14.648,0.000
1727691626.329,34.668,20.508,-41.992,-3.418,0.000
1727691626.333,20.508,19.043,-31.250,-1.465,0.000
1727691626.337,-21.484,8.789,-15.137,-17.578,0.000
1727691626.340,-37.109,5.859,-20.996,-24.902,0.000
1727691626.344,-2.930,7.324,-24.902,-16.113,0.000
1727691626.348,20.996,8.301,-9.766,-2.930,0.000
1727691626.352,9.766,9.766,-7.324,-2.930,0.000
1727691626.356,-21.973,5.371,-15.625,-16.602,0.000
1727691626.360,-42.969,3.906,-21.973,-12.695,0.000
1727691626.364,-6.836,4.883,-32.715,-8.301,0.000
1727691626.368,21.973,3.418,-43.945,-5.859,0.000
1727691626.372,16.602,2.441,-47.852,-3.418,0.000
1727691626.376,-16.113,9.277,-54.199,-8.301,0.000
1727691626.380,-44.922,10.742,-46.875,-9.766,0.000
1727691626.383,-15.625,6.348,-37.109,-6.836,0.000
1727691626.387,24.902,11.230,-37.109,-1.465,0.000
1727691626.391,22.949,6.348,-28.320,-1.953,0.000
1727691626.395,-9.277,1.953,-18.066,-11.230,0.000
1727691626.399,-30.762,5.859,-26.367,-13.184,0.000
1727691626.403,-10.254,5.859,-44.922,-12.695,0.000
1727691626.407,8.789,8.789,-50.781,-14.648,0.000
1727691626.411,13.184,10.742,-40.527,-9.766,0.000
1727691626.415,-10.742,5.859,-28.320,-14.160,0.000
1727691626.419,-46.875,7.324,-15.137,-16.602,0.000
1727691626.423,-17.090,13.672,-15.625,-8.301,0.000
1727691626.426,23.438,11.719,-14.160,-8.789,0.000
1727691626.430,26.855,11.719,-19.043,-11.230,0.000
1727691626.434,5.859,6.348,-29.297,-7.324,0.000
1727691626.438,-37.109,0.000,-20.996,-7.812,0.000
1727691626.442,-31.250,6.836,-37.598,-13.184,0.000
1727691626.446,14.648,10.254,-55.664,-0.488,0.000
1727691626.450,26.367,9.766,-36.621,-2.930,0.000
1727691626.454,8.789,18.555,-27.832,-18.066,0.000
1727691626.458,-30.273,11.719,-18.066,-18.066,0.000
1727691626.462,-33.691,3.418,-12.207,-4.883,0.000
1727691626.465,16.113,8.301,-51.758,-4.883,0.000
1727691626.469,25.391,6.348,-45.410,-13.184,0.000
1727691626.473,7.324,-1.465,-10.742,-17.578,0.000
1727691626.477,-18.555,-2.441,-23.926,-16.602,0.000
1727691626.481,-21.484,-4.395,-41.504,-8.789,0.000
1727691626.485,18.066,-4.883,-49.805,-8.789,0.000
1727691626.489,33.203,-8.301,-51.758,-5.371,0.000
1727691626.493,12.207,-11.230,-36.133,-3.418,0.000
1727691626.497,-32.227,-9.277,-12.695,-22.461,0.000
1727691626.501,0.000,-18.066,-8.301,-29.297,0.000
1727691626.504,0.000,-23.438,-16.602,-9.766,0.000
1727691626.508,0.000,-13.184,-26.367,-9.277,0.000
1727691626.512,0.000,-3.906,-48.828,-12.207,0.000
1727691626.516,0.000,-0.977,-38.086,-9.277,0.000
1727691626.520,0.000,2.930,-14.648,-15.625,0.000
1727691626.524,0.000,10.254,-30.762,-4.395,0.000
1727691626.528,0.000,8.789,-42.969,3.906,0.000
1727691626.532,0.000,3.418,-41.504,-3.906,0.000
1727691626.536,0.000,1.465,-52.734,-7.812,0.000
1727691626.540,0.000,-3.906,-41.504,-13.672,0.000
1727691626.544,0.000,-9.766,-29.785,-16.113,0.000
1727691626.547,17.578,-12.207,-25.391,-4.883,0.000
1727691626.551,11.230,-13.672,-23.926,-8.301,0.000
1727691626.555,-21.484,-15.137,-35.156,-19.043,0.000
1727691626.559,-52.246,-14.648,-48.828,-16.113,0.000
1727691626.563,-16.602,-4.883,-71.289,-11.719,0.000
1727691626.567,31.250,3.418,-69.336,1.953,0.000
1727691626.571,22.949,2.930,-36.133,11.719,0.000
1727691626.575,-10.254,4.395,-22.461,1.953,0.000
1727691626.579,-38.086,6.348,-34.180,-6.348,0.000
1727691626.583,-20.508,-2.930,-41.016,-5.371,0.000
1727691626.586,20.996,-10.254,-47.852,-1.953,0.000
1727691626.590,34.668,0.488,-43.945,5.859,0.000
1727691626.594,11.719,9.277,-36.133,0.488,0.000
1727691626.598,-29.785,10.254,-40.527,-11.719,0.000
1727691626.602,-13.672,10.254,-46.387,-14.160,0.000
1727691626.606,21.484,5.371,-62.500,-8.301,0.000
1727691626.610,20.020,5.859,-81.543,-1.465,0.000
1727691626.614,-0.977,8.789,-79.590,-4.395,0.000
1727691626.618,-43.457,1.953,-61.035,-8.789,0.000
1727691626.621,-25.391,-1.953,-42.969,-2.441,0.000
1727691626.625,26.855,2.441,-24.414,-3.906,0.000
1727691626.629,32.227,2.930,-22.461,0.488,0.000
1727691626.633,12.695,0.000,-33.691,4.395,0.000
1727691626.637,-31.738,-2.930,-44.922,-11.719,0.000
1727691626.641,0.000,-8.301,0.000,-9.766,0.000
1727691626.645,0.000,-12.207,0.000,-4.883,0.000
1727691626.649,0.000,-3.418,0.000,-6.836,0.000
1727691626.653,0.000,-0.977,0.000,-9.766,0.000
1727691626.657,0.000,-8.301,0.000,-10.254,0.000
1727691626.661,0.000,-14.648,0.000,-14.160,0.000
1727691626.665,0.000,-17.090,0.000,-23.926,0.000
1727691626.668,0.000,-18.066,0.000,-17.578,0.000
1727691626.672,0.000,-16.113,0.000,-8.789,0.000
1727691626.676,0.000,-15.137,0.000,-3.418,0.000
1727691626.680,0.000,-14.160,0.000,-7.812,0.000
1727691626.684,0.000,-15.625,0.000,-13.184,0.000
1727691626.688,20.996,-17.090,-29.785,-6.836,0.000
1727691626.692,-0.977,-20.508,-8.789,2.930,0.000
1727691626.696,-32.715,-18.066,7.324,-4.883,0.000
1727691626.700,-35.645,-13.184,-4.883,-17.578,0.000
1727691626.704,6.348,-6.348,-20.996,-9.766,0.000
1727691626.708,35.156,-5.371,-19.531,-6.836,0.000
1727691626.711,21.973,-7.324,-19.531,-8.789,0.000
1727691626.715,-19.531,1.465,-28.320,-6.348,0.000
1727691626.719,-39.062,0.488,-32.715,0.000,0.000
1727691626.723,-3.418,-4.395,-37.109,5.371,0.000
1727691626.727,28.320,-5.371,-35.156,-1.953,0.000
1727691626.731,28.809,-8.789,-21.484,-1.953,0.000
1727691626.735,0.000,-8.301,-1.953,3.418,0.000
1727691626.739,0.000,-9.766,1.953,-3.418,0.000
1727691626.743,0.000,-16.602,-3.906,-6.348,0.000
1727691626.747,0.000,-14.160,-10.254,4.883,0.000
1727691626.751,0.000,-4.883,-23.926,3.418,0.000
1727691626.755,0.000,1.465,-28.809,-0.488,0.000
1727691626.759,0.000,2.441,-23.926,0.977,0.000
1727691626.763,0.000,0.000,-20.020,6.348,0.000
1727691626.766,0.000,-0.488,-10.742,18.555,0.000
1727691626.770,0.000,2.441,-9.766,13.184,0.000
1727691626.774,0.000,-0.977,-15.625,8.789,0.000
1727691626.778,0.000,-4.883,-31.738,4.395,0.000
1727691626.782,-14.160,-9.277,-37.109,-0.488,0.000
1727691626.786,32.227,-13.184,-14.160,-0.977,0.000
1727691626.790,35.156,-13.184,-2.441,2.930,0.000
1727691626.794,17.090,-15.137,-20.020,3.906,0.000
1727691626.798,-12.207,-16.602,-31.738,0.488,0.000
1727691626.802,-10.254,-14.160,-28.809,4.395,0.000
1727691626.805,23.926,-19.043,-12.695,5.859,0.000
1727691626.809,29.785,-22.461,0.488,7.812,0.000
1727691626.813,6.348,-23.926,-2.930,3.418,0.000
1727691626.817,-36.133,-29.297,-10.254,-7.324,0.000
1727691626.821,-24.414,-25.391,-31.738,-9.766,0.000
1727691626.825,33.691,-20.020,-52.246,10.254,0.000
1727691626.829,33.203,-25.879,-38.574,14.160,0.000
1727691626.833,13.672,-24.902,-8.301,2.441,0.000
1727691626.837,-16.113,-20.508,-0.977,-5.371,0.000
1727691626.841,-23.438,-26.367,-15.137,-2.930,0.000
1727691626.845,18.555,-22.461,-27.344,-0.977,0.000
1727691626.848,29.785,-22.461,-36.133,-3.418,0.000
1727691626.852,11.230,-30.273,-40.039,0.000,0.000
1727691626.856,-20.508,-27.344,-48.828,11.230,0.000
1727691626.860,-38.574,-23.438,-41.992,1.465,0.000
1727691626.864,-3.418,-27.832,-11.719,-11.230,0.000
1727691626.868,19.531,-27.832,-18.066,-1.465,0.000
1727691626.872,9.766,-23.926,-43.945,3.906,0.000
1727691626.876,-33.203,-27.832,1.953,-11.230,0.000
1727691626.880,-49.316,-29.297,22.949,-19.043,0.000
1727691626.884,4.395,-19.531,-34.668,-5.371,0.000
1727691626.887,17.090,-18.066,-40.039,3.418,0.000
1727691626.891,11.230,-25.879,4.883,-0.977,0.000
1727691626.895,-10.742,-25.879,15.625,-18.555,0.000
1727691626.899,-49.805,-24.902,-10.254,-16.602,0.000
1727691626.903,-14.160,-28.320,-19.531,5.371,0.000
1727691626.907,26.367,-29.297,-7.324,1.465,0.000
1727691626.911,16.113,-27.344,-19.043,0.488,0.000
1727691626.915,-20.508,-22.461,-29.297,1.953,0.000
1727691626.919,-50.293,-25.391,-17.090,-13.184,0.000
1727691626.923,-22.949,-25.879,-19.043,-21.484,0.000
1727691626.926,10.254,-17.090,-23.438,-17.090,0.000
1727691626.930,-2.930,-19.043,-30.273,-19.043,0.000
1727691626.934,-27.832,-21.484,-43.457,-21.484,0.000
1727691626.938,-57.129,-24.902,-24.414,-21.484,0.000
1727691626.942,-34.180,-26.367,-29.297,-23.438,0.000
1727691626.946,22.949,-13.672,-48.828,-2.930,0.000
1727691626.950,10.254,-17.578,-35.645,-19.531,0.000
1727691626.954,-19.531,-23.438,-17.578,-34.180,0.000
1727691626.958,-49.316,-21.973,-29.297,-20.996,0.000
1727691626.962,-38.086,-35.156,-21.484,-20.020,0.000
1727691626.965,-5.371,-29.785,-4.395,-24.414,0.000
1727691626.970,0.977,-16.113,-24.902,-20.508,0.000
1727691626.974,-9.766,-20.020,-47.852,-23.926,0.000
1727691626.977,-35.645,-8.789,-57.129,-21.973,0.000
1727691626.981,-31.250,-18.066,-42.969,-21.973,0.000
1727691626.985,-1.953,-21.973,-19.531,-18.555,0.000
1727691626.989,4.883,-23.438,-24.414,-1.953,0.000
1727691626.993,-32.227,-14.648,-47.852,-33.691,0.000
1727691626.997,-41.504,-4.883,-58.105,-41.504,0.000
1727691627.001,-17.090,-28.320,-47.363,-25.391,0.000
1727691627.005,12.207,-21.484,-46.387,-10.254,0.000
1727691627.009,31.738,-21.484,-0.977,17.578,0.000
1727691627.013,-20.020,-20.020,15.137,-16.113,0.000
1727691627.017,-58.105,12.695,-5.371,-37.109,0.000
1727691627.020,-34.180,-8.301,-38.574,-22.949,0.000
1727691627.024,0.977,-22.949,-59.082,-22.949,0.000
1727691627.028,19.531,6.836,-32.227,-19.043,0.000
1727691627.032,-16.113,-8.301,-2.930,-27.832,0.000
1727691627.036,-71.777,-47.363,12.207,-34.180,0.000
1727691627.040,-54.688,-34.668,-16.602,-29.297,0.000
1727691627.044,-19.043,-29.785,-52.734,-48.828,0.000
1727691627.048,-34.180,-59.570,-50.293,-68.359,0.000
1727691627.052,-12.207,-67.871,-41.016,-37.598,0.000
1727691627.056,-42.480,-75.684,-32.715,-33.691,0.000
1727691627.059,-43.945,-108.398,-10.254,-18.066,0.000
1727691627.063,14.160,-131.836,-27.344,-5.859,0.000
1727691627.067,5.371,-156.738,-46.387,-8.789,0.000
1727691627.071,-15.137,-182.129,-17.090,-14.648,0.000
1727691627.075,-37.109,-193.848,-11.230,-41.016,0.000
1727691627.079,-71.777,-240.234,-48.340,-63.965,0.000
1727691627.083,-20.996,-326.660,-46.875,-31.250,0.000
1727691627.087,32.715,-412.109,-34.180,3.906,0.000
1727691627.091,4.883,-469.238,-23.926,-10.742,0.000
1727691627.095,-48.340,-539.062,-17.578,-32.227,0.000
1727691627.099,-60.547,-581.543,-31.738,-35.156,0.000
1727691627.103,-27.344,-630.859,-41.016,-23.438,0.000
1727691627.106,-1.465,-700.195,-20.020,-17.578,0.000
1727691627.110,0.000,-751.953,0.000,-7.812,0.000
1727691627.114,-9.766,-765.625,-13.184,8.789,0.000
1727691627.118,-50.293,-784.668,-56.641,-24.414,0.000
1727691627.122,-26.367,-799.316,-48.340,-35.156,0.000
1727691627.126,19.043,-779.297,-16.602,12.695,0.000
1727691627.130,13.672,-792.480,-27.832,31.738,0.000
1727691627.134,18.555,-853.027,-57.129,36.621,0.000
1727691627.138,-26.855,-933.594,-33.203,31.250,0.000
1727691627.142,-39.551,-993.164,14.160,-1.953,0.000
1727691627.145,-19.043,-1000.000,-57.129,-62.012,0.000
1727691627.149,-15.137,-999.023,-52.246,-54.688,0.000
1727691627.153,-4.395,-1000.000,21.484,-7.324,0.000
1727691627.157,-1.465,-1000.000,21.973,17.578,0.000
1727691627.161,0.000,-1000.000,11.719,24.902,0.000
1727691627.165,31.738,-1000.000,-5.859,30.762,0.000
1727691627.169,28.809,-1000.000,-47.363,16.113,0.000
1727691627.173,-33.203,-1000.000,-32.227,-28.809,0.000
1727691627.177,-86.426,-1000.000,7.812,-55.176,0.000
1727691627.181,-50.781,-1000.000,0.000,-17.578,0.000
1727691627.185,23.926,-1000.000,-22.949,28.809,0.000
1727691627.188,45.410,-1000.000,-42.969,21.973,0.000
1727691627.192,17.090,-1000.000,-30.273,1.953,0.000
1727691627.196,-41.992,-1000.000,11.719,-19.043,0.000
1727691627.200,-82.520,-1000.000,7.324,-42.480,0.000
1727691627.204,-50.293,-1000.000,-18.555,-46.875,0.000
1727691627.208,10.254,-1000.000,-0.977,-25.391,0.000
1727691627.212,39.551,-1000.000,6.836,16.602,0.000
1727691627.216,-25.879,-1000.000,-53.711,2.441,0.000
1727691627.220,-30.762,-1000.000,-41.016,11.230,0.000
1727691627.224,38.086,-1000.000,9.766,37.598,0.000
1727691627.227,51.270,-1000.000,21.973,29.785,0.000
1727691627.231,13.184,-1000.000,34.180,19.531,0.000
1727691627.235,-34.180,-1000.000,19.043,-4.395,0.000
1727691627.239,-59.570,-1000.000,-63.965,-34.668,0.000
1727691627.243,-5.371,-1000.000,-36.133,-14.648,0.000
1727691627.247,14.648,-1000.000,20.508,6.348,0.000
1727691627.251,-21.973,-1000.000,-19.531,-7.324,0.000
1727691627.255,-28.809,-1000.000,-2.930,6.836,0.000
1727691627.259,-36.133,-1000.000,11.230,-3.906,0.000
1727691627.263,10.742,-1000.000,-6.836,-15.137,0.000
1727691627.266,41.016,-1000.000,-20.020,-2.930,0.000
1727691627.270,-17.090,-1000.000,-33.203,-28.320,0.000
1727691627.274,-31.250,-1000.000,-45.898,-3.418,0.000
1727691627.278,-1.953,-1000.000,-42.480,51.758,0.000
1727691627.282,8.789,-1000.000,-12.207,21.484,0.000
1727691627.286,-16.602,-1000.000,-1.953,-28.809,0.000
1727691627.290,-7.324,-1000.000,3.906,-10.742,0.000
1727691627.294,13.672,-1000.000,6.836,23.438,0.000
1727691627.298,-31.738,-1000.000,-29.297,17.578,0.000
1727691627.302,-24.414,-1000.000,-16.602,1.953,0.000
1727691627.305,24.414,-1000.000,6.348,-12.695,0.000
1727691627.309,22.949,-1000.000,-1.953,-4.395,0.000
1727691627.313,-4.395,-1000.000,-5.371,-3.418,0.000
1727691627.317,-14.160,-1000.000,-18.555,8.789,0.000
1727691627.321,7.812,-1000.000,-10.742,22.461,0.000
1727691627.325,32.715,-1000.000,-19.043,-0.488,0.000
1727691627.329,11.719,-1000.000,-28.809,-15.137,0.000
1727691627.333,5.371,-1000.000,11.230,4.395,0.000
1727691627.337,-12.207,-1000.000,0.488,2.441,0.000
1727691627.341,-22.949,-1000.000,-20.020,-9.277,0.000
1727691627.345,12.695,-1000.000,1.465,-1.953,0.000
1727691627.348,41.992,-1000.000,-11.230,17.090,0.000
1727691627.352,17.578,-1000.000,-12.695,22.949,0.000
1727691627.356,-35.156,-1000.000,4.883,7.812,0.000
1727691627.360,-18.555,-1000.000,-0.977,-1.953,0.000
1727691627.364,36.621,-1000.000,2.930,17.578,0.000
1727691627.368,43.457,-1000.000,-7.324,33.691,0.000
1727691627.372,21.973,-1000.000,-47.363,26.855,0.000
1727691627.376,-14.648,-1000.000,-66.895,10.742,0.000
1727691627.380,-34.180,-1000.000,-51.758,-5.859,0.000
1727691627.384,7.324,-1000.000,-8.301,-6.836,0.000
1727691627.388,22.949,-1000.000,-21.973,-12.207,0.000
1727691627.392,5.371,-1000.000,-42.969,0.488,0.000
1727691627.395,-25.879,-1000.000,-12.695,5.859,0.000
1727691627.399,-30.762,-998.535,-8.789,2.441,0.000
1727691627.403,4.395,-998.535,-14.160,7.812,0.000
1727691627.407,39.551,-984.375,-11.719,0.000,0.000
1727691627.411,43.457,-833.496,-16.602,-0.977,0.000
1727691627.415,6.836,-428.711,-25.391,2.930,0.000
1727691627.419,-11.719,262.695,-41.504,-7.812,0.000
1727691627.423,24.902,863.770,-33.203,-5.371,0.000
1727691627.427,41.016,978.516,-13.184,16.113,0.000
1727691627.431,25.879,951.660,-9.277,9.277,0.000
1727691627.434,1.953,972.168,-20.996,-5.859,0.000
1727691627.438,-11.230,968.262,-15.625,-3.418,0.000
1727691627.442,15.137,968.262,-16.602,1.465,0.000
1727691627.446,39.551,968.262,-35.156,19.531,0.000
1727691627.450,41.504,968.262,-22.461,33.203,0.000
1727691627.454,-4.883,968.262,-8.301,10.254,0.000
1727691627.458,-44.434,968.262,-5.859,-2.930,0.000
1727691627.462,5.859,968.262,-5.859,5.371,0.000
1727691627.466,54.199,968.262,-5.859,23.438,0.000
1727691627.470,36.133,968.262,2.930,23.438,0.000
1727691627.474,13.672,968.262,-30.762,13.672,0.000
1727691627.477,-7.324,968.262,-70.312,11.719,0.000
1727691627.481,-0.977,968.262,-40.039,8.301,0.000
1727691627.485,22.949,968.262,-12.695,1.953,0.000
1727691627.489,28.320,968.262,-13.184,0.000,0.000
1727691627.493,-6.348,968.262,-8.789,-2.930,0.000
1727691627.497,-54.199,968.262,1.953,-3.906,0.000
1727691627.501,-19.531,968.262,6.348,3.906,0.000
1727691627.505,34.180,968.262,1.465,6.836,0.000
1727691627.509,37.598,968.262,-7.812,8.789,0.000
1727691627.513,13.672,968.262,-13.672,9.766,0.000
1727691627.517,-18.555,968.262,-27.344,11.230,0.000
1727691627.520,-15.137,968.262,-46.875,11.230,0.000
1727691627.524,26.367,968.262,-37.598,4.883,0.000
1727691627.528,32.227,968.262,-17.578,1.465,0.000
1727691627.532,9.766,968.262,-7.812,3.418,0.000
1727691627.536,-13.672,968.262,0.000,-2.441,0.000
1727691627.540,-11.230,968.262,-3.418,-4.883,0.000
1727691627.544,36.621,968.262,-23.438,5.859,0.000
1727691627.548,47.852,968.262,-28.809,1.953,0.000
1727691627.552,32.227,968.262,-22.461,1.465,0.000
1727691627.556,6.836,968.262,-22.461,9.766,0.000
1727691627.559,2.441,968.262,-11.230,11.719,0.000
1727691627.563,35.645,968.262,-10.742,13.184,0.000
1727691627.567,33.203,968.262,-9.766,2.441,0.000
1727691627.571,21.484,968.262,-9.766,7.324,0.000
1727691627.575,-12.695,968.262,-23.926,13.184,0.000
1727691627.579,0.000,968.262,-30.762,10.742,0.000
1727691627.583,0.000,968.262,-25.879,15.137,0.000
1727691627.587,0.000,968.262,-25.879,13.672,0.000
1727691627.591,0.000,968.262,-38.086,13.184,0.000
1727691627.595,0.000,968.262,-46.875,13.184,0.000
1727691627.599,0.000,968.262,-42.969,13.184,0.000
1727691627.602,0.000,968.262,-36.133,6.348,0.000
1727691627.606,0.000,968.262,-32.715,11.719,0.000
1727691627.610,0.000,968.262,-17.090,6.348,0.000
1727691627.614,0.000,968.262,1.465,-0.977,0.000
1727691627.618,0.000,968.262,0.000,2.441,0.000
1727691627.622,0.000,968.262,-11.719,-5.859,0.000
1727691627.626,41.016,968.262,-17.578,-1.465,0.000
1727691627.630,25.391,968.262,-23.438,5.371,0.000
1727691627.634,-9.766,968.262,-24.414,5.859,0.000
1727691627.638,-30.762,968.262,-33.203,8.789,0.000
1727691627.641,-5.371,968.262,-60.547,4.883,0.000
1727691627.645,26.855,968.262,-55.664,3.418,0.000
1727691627.649,23.438,968.262,-24.902,-10.254,0.000
1727691627.653,-15.137,968.262,-4.883,-14.648,0.000
1727691627.657,-50.781,968.262,-3.418,-17.090,0.000
1727691627.661,-16.113,968.262,-16.602,-19.043,0.000
1727691627.665,20.020,968.262,-31.250,-14.160,0.000
1727691627.669,17.090,968.262,-26.367,-4.883,0.000
1727691627.673,11.230,968.262,-17.090,0.977,0.000
1727691627.677,-25.391,968.750,-30.273,-12.207,0.000
1727691627.680,-19.531,967.285,-35.645,-17.578,0.000
1727691627.684,26.367,968.262,-34.180,-7.324,0.000
1727691627.688,28.320,967.773,-47.852,1.465,0.000
1727691627.692,-6.836,933.105,-44.434,-1.465,0.000
1727691627.696,-37.598,893.066,-16.113,-2.441,0.000
1727691627.700,-31.738,869.141,-20.508,-7.812,0.000
1727691627.704,17.578,851.074,-36.133,-9.766,0.000
1727691627.708,37.598,821.289,-30.762,-10.742,0.000
1727691627.712,2.930,784.180,-13.184,-15.625,0.000
1727691627.716,-50.781,751.953,-6.836,-18.555,0.000
1727691627.719,-25.879,722.168,-36.621,-17.578,0.000
1727691627.723,24.414,699.219,-55.176,-10.742,0.000
1727691627.727,11.719,672.852,-34.180,-9.277,0.000
1727691627.731,-3.418,644.043,-21.973,-16.602,0.000
1727691627.735,-35.156,621.094,-18.066,-26.855,0.000
1727691627.739,-42.969,602.051,-10.254,-21.484,0.000
1727691627.743,3.906,579.590,-17.578,-1.953,0.000
1727691627.747,24.414,559.082,-54.199,3.906,0.000
1727691627.751,12.207,527.344,-63.477,2.441,0.000
1727691627.755,-21.973,497.070,-39.062,-4.883,0.000
1727691627.758,-32.715,475.098,-23.926,-15.137,0.000
1727691627.762,-3.906,448.730,-20.996,-14.160,0.000
1727691627.766,12.207,438.965,-27.832,-8.789,0.000
1727691627.770,7.812,438.477,-30.273,-10.742,0.000
1727691627.774,-20.996,430.664,-20.996,-19.043,0.000
1727691627.778,-38.086,413.086,-18.066,-21.484,0.000
1727691627.782,5.859,404.297,-17.090,-10.742,0.000
1727691627.786,14.648,385.742,-30.273,-4.883,0.000
1727691627.790,8.301,365.234,-35.156,-10.254,0.000
1727691627.794,-11.719,351.562,-29.785,-12.695,0.000
1727691627.798,-35.156,346.191,-35.645,-9.766,0.000
1727691627.801,-12.695,343.262,-27.832,-2.930,0.000
1727691627.805,9.766,332.520,-7.324,-2.441,0.000
1727691627.809,28.320,311.035,-0.977,3.906,0.000
1727691627.813,10.254,294.434,-20.996,0.000,0.000
1727691627.817,-20.996,273.926,-40.527,-9.277,0.000
1727691627.821,3.906,248.535,-37.109,0.000,0.000
1727691627.825,41.016,243.164,-14.160,6.348,0.000
1727691627.829,38.086,242.188,12.207,-5.859,0.000
1727691627.833,0.488,237.305,9.277,-12.207,0.000
1727691627.837,-32.715,229.492,-7.812,-13.672,0.000
1727691627.841,1.465,227.051,-19.531,-5.859,0.000
1727691627.844,37.598,223.633,-19.531,8.789,0.000
1727691627.848,28.320,219.238,-30.762,5.859,0.000
1727691627.852,15.137,221.191,-41.504,-5.859,0.000
1727691627.856,-18.555,217.285,-30.273,-6.836,0.000
1727691627.860,-13.184,209.473,-46.875,-5.371,0.000
1727691627.864,23.926,204.590,-42.480,-0.488,0.000
1727691627.868,18.555,199.707,-8.789,-0.977,0.000
1727691627.872,-6.348,195.801,-5.371,-14.160,0.000
1727691627.876,-25.879,185.059,-7.812,-12.695,0.000
1727691627.880,-12.695,180.664,-35.645,-12.207,0.000
1727691627.884,11.719,179.688,-51.270,-13.672,0.000
1727691627.887,12.207,179.199,-27.344,3.906,0.000
1727691627.891,6.348,178.711,-11.719,8.789,0.000
1727691627.895,-33.203,171.387,-11.719,-17.090,0.000
1727691627.899,-30.273,163.086,-14.648,-25.391,0.000
1727691627.903,29.785,164.062,-25.391,-15.625,0.000
1727691627.907,44.922,170.898,-43.457,-11.230,0.000
1727691627.911,26.855,174.805,-35.156,-10.254,0.000
1727691627.915,-15.625,167.480,-16.113,-12.695,0.000
1727691627.919,-24.902,163.086,-23.438,-15.137,0.000
1727691627.923,20.020,162.598,-30.762,-12.207,0.000
1727691627.927,25.879,147.949,-39.551,-9.766,0.000
1727691627.930,21.484,147.461,-40.039,-11.230,0.000
1727691627.934,-13.184,147.949,-17.578,-13.672,0.000
1727691627.938,-37.598,127.930,-15.625,-10.254,0.000
1727691627.942,7.812,128.906,-28.809,-8.789,0.000
1727691627.946,33.203,135.742,-30.273,-16.113,0.000
1727691627.950,17.090,131.836,-25.879,-18.066,0.000
1727691627.954,-19.043,135.254,-25.391,-10.254,0.000
1727691627.958,-32.715,139.160,-33.691,-10.254,0.000
1727691627.962,15.137,135.742,-23.926,-1.465,0.000
1727691627.966,37.109,130.371,-7.812,6.348,0.000
1727691627.969,16.113,125.000,-2.930,-0.977,0.000
1727691627.973,-10.254,117.676,-8.301,-10.254,0.000
1727691627.977,-31.738,111.328,-8.789,-6.836,0.000
1727691627.981,10.254,110.352,-9.277,14.160,0.000
1727691627.985,39.551,110.840,-25.391,13.184,0.000
1727691627.989,23.438,112.793,-27.832,10.742,0.000
1727691627.993,-8.301,114.258,-21.973,7.812,0.000
1727691627.997,-30.273,108.887,-19.043,-6.836,0.000
1727691628.001,11.719,103.027,-23.438,-2.930,0.000
1727691628.005,37.598,101.074,-47.852,0.977,0.000
1727691628.008,25.391,101.562,-37.598,4.395,0.000
1727691628.012,13.184,109.375,-8.789,5.859,0.000
1727691628.016,-21.484,108.398,-4.395,-1.465,0.000
1727691628.020,-9.277,97.656,-6.348,-9.277,0.000
1727691628.024,19.531,96.680,-7.812,-8.301,0.000
1727691628.028,17.090,97.168,-27.344,-1.465,0.000
1727691628.032,2.441,96.191,-35.156,-3.906,0.000
1727691628.036,-35.645,98.633,-25.391,-9.277,0.000
1727691628.040,-9.766,99.121,-27.832,-5.859,0.000
1727691628.044,30.273,102.539,-39.551,-1.953,0.000
1727691628.047,20.020,104.004,-41.504,-2.441,0.000
1727691628.051,0.000,100.586,-6.348,-7.324,0.000
1727691628.055,-28.320,100.586,12.207,-3.906,0.000
1727691628.059,-23.926,105.469,-3.418,-2.441,0.000
1727691628.063,11.719,106.934,-5.859,-3.906,0.000
1727691628.067,36.133,98.145,-13.184,-0.488,0.000
1727691628.071,22.949,100.098,-28.320,9.277,0.000
1727691628.075,-25.391,106.445,-20.996,5.371,0.000
1727691628.079,-27.832,105.957,-7.812,0.000,0.000
1727691628.083,14.160,104.980,-0.977,5.859,0.000
1727691628.086,18.066,104.004,-7.812,9.277,0.000
1727691628.090,-3.418,99.121,-27.832,10.742,0.000
1727691628.094,-28.320,103.027,-19.531,2.441,0.000
1727691628.098,-29.297,106.445,0.977,-12.207,0.000
1727691628.102,4.395,103.516,-0.488,-14.648,0.000
1727691628.106,28.809,102.051,-5.371,-1.953,0.000
1727691628.110,17.578,109.375,-15.625,-0.488,0.000
1727691628.114,-25.879,118.164,-34.180,-15.625,0.000
1727691628.118,-39.551,128.418,-29.785,-16.602,0.000
1727691628.122,4.395,129.883,-17.578,-10.254,0.000
1727691628.125,31.738,126.953,-17.090,-8.789,0.000
1727691628.129,14.160,124.023,-12.695,-5.859,0.000
1727691628.133,-19.043,125.977,-24.902,0.977,0.000
1727691628.137,-22.461,125.977,-47.363,0.977,0.000
1727691628.141,15.137,115.723,-21.973,5.371,0.000
1727691628.145,37.598,111.816,12.207,-0.977,0.000
1727691628.149,27.832,111.816,10.254,-7.324,0.000
1727691628.153,-10.742,106.445,-4.883,-12.695,0.000
1727691628.157,-33.691,104.004,-24.414,-16.602,0.000
1727691628.161,3.418,107.422,-47.363,-7.812,0.000
1727691628.165,20.020,107.910,-27.344,-5.371,0.000
1727691628.168,7.324,102.539,3.906,-15.137,0.000
1727691628.172,-17.578,105.469,7.812,-14.648,0.000
1727691628.176,-42.969,101.562,-3.418,-8.789,0.000
1727691628.180,-15.137,100.586,-15.137,-9.277,0.000
1727691628.184,18.066,106.934,-36.621,-17.578,0.000
1727691628.188,15.137,101.074,-46.387,-20.020,0.000
1727691628.192,-16.602,91.797,-21.973,-15.137,0.000
1727691628.196,-49.316,89.355,-15.625,-22.949,0.000
1727691628.200,-27.832,85.938,-20.996,-26.855,0.000
1727691628.204,9.766,84.473,-14.160,-20.020,0.000
1727691628.208,14.648,89.355,-13.672,-12.207,0.000
1727691628.211,-2.930,88.379,-20.508,-8.301,0.000
1727691628.215,-37.109,82.031,-29.785,-12.695,0.000
1727691628.219,-11.230,83.496,-45.898,-2.441,0.000
1727691628.223,31.250,91.797,-53.223,0.488,0.000
1727691628.227,22.461,87.402,-16.113,-11.230,0.000
1727691628.231,-0.488,83.496,8.301,-4.883,0.000
1727691628.235,-50.781,77.637,-9.277,-7.324,0.000
1727691628.239,-31.738,70.801,-19.531,-16.602,0.000
1727691628.243,21.973,70.312,-21.484,-14.160,0.000
1727691628.247,20.996,68.359,-26.855,-5.371,0.000
1727691628.251,3.418,66.895,-26.367,-2.930,0.000
1727691628.254,-29.785,71.289,-55.664,-5.371,0.000
1727691628.258,-15.625,79.590,-61.035,1.953,0.000
1727691628.262,28.320,73.242,-25.879,4.883,0.000
1727691628.266,31.250,63.477,-11.230,10.742,0.000
1727691628.270,2.930,55.664,5.371,-12.207,0.000
1727691628.274,-54.199,53.711,12.207,-31.250,0.000
1727691628.278,-54.688,59.570,1.465,-21.484,0.000
1727691628.282,8.789,52.246,-7.812,-10.742,0.000
1727691628.286,34.668,55.176,-21.484,4.395,0.000
1727691628.290,13.184,60.059,-41.504,8.301,0.000
1727691628.294,-29.297,53.223,-34.668,-5.859,0.000
1727691628.297,-33.203,49.805,-16.113,-11.230,0.000
1727691628.301,-0.488,45.898,4.395,-0.977,0.000
1727691628.305,-1.953,41.992,-1.465,-6.836,0.000
1727691628.309,-3.418,48.828,-17.090,-10.254,0.000
1727691628.313,-30.762,51.270,-12.695,-10.254,0.000
1727691628.317,-52.734,47.363,-14.648,-23.926,0.000
1727691628.321,-6.348,50.293,-13.672,-22.461,0.000
1727691628.325,14.160,44.922,-10.254,-11.230,0.000
1727691628.329,2.441,38.086,-13.184,-13.672,0.000
1727691628.333,-23.438,40.527,-22.461,-19.043,0.000
1727691628.336,-46.387,38.086,-22.949,-18.555,0.000
1727691628.340,-9.277,40.527,-37.109,-9.766,0.000
1727691628.344,26.855,39.551,-48.340,-0.977,0.000
1727691628.348,13.672,38.574,-25.879,7.324,0.000
1727691628.352,-18.066,39.551,-15.137,6.348,0.000
1727691628.356,-48.340,40.039,-16.602,-1.953,0.000
1727691628.360,-16.113,41.016,-18.555,-12.695,0.000
1727691628.364,21.973,31.250,-17.090,-11.719,0.000
1727691628.368,17.578,28.320,-23.438,-8.789,0.000
1727691628.372,-6.836,22.461,-35.645,-20.020,0.000
1727691628.375,-27.832,18.555,-15.625,-17.578,0.000
1727691628.379,-5.371,24.902,-9.766,-10.742,0.000
1727691628.383,32.715,27.832,-29.785,-15.625,0.000
1727691628.387,29.785,25.879,-30.273,-14.648,0.000
1727691628.391,-1.953,23.926,-26.367,-13.184,0.000
1727691628.395,-35.156,19.531,-21.973,-19.531,0.000
1727691628.399,-16.602,18.555,-9.277,-15.137,0.000
1727691628.403,24.902,25.391,-12.695,-5.859,0.000
1727691628.407,16.602,25.879,-18.555,-8.301,0.000
1727691628.411,-5.859,26.367,-4.395,0.488,0.000
1727691628.415,-29.297,23.926,-10.254,-1.953,0.000
1727691628.418,-27.344,20.020,-30.273,-7.324,0.000
1727691628.422,14.160,22.461,-34.180,-0.977,0.000
1727691628.426,13.184,21.973,-22.461,-8.301,0.000
1727691628.430,-3.906,19.043,-11.230,-14.648,0.000
1727691628.434,-47.852,21.484,-23.438,-20.020,0.000
1727691628.438,-54.688,18.555,-28.809,-23.438,0.000
1727691628.442,7.324,13.672,-17.578,-13.184,0.000
1727691628.446,19.531,14.160,-13.184,-0.977,0.000
1727691628.450,0.488,11.719,-16.602,-7.812,0.000
1727691628.454,-30.762,11.719,-17.578,-13.184,0.000
1727691628.457,-31.738,10.742,-22.461,-16.113,0.000
1727691628.461,5.371,12.695,-26.855,-19.043,0.000
1727691628.465,17.578,15.137,-33.691,-9.277,0.000
1727691628.469,-1.953,13.184,-24.902,-10.742,0.000
1727691628.473,-45.898,12.695,-14.160,-23.926,0.000
1727691628.477,-62.500,5.859,-22.949,-29.297,0.000
1727691628.481,-10.742,3.906,-23.926,-15.137,0.000
1727691628.485,19.531,14.160,-23.438,-2.930,0.000
1727691628.489,4.395,15.625,-27.832,0.488,0.000
1727691628.492,-18.555,19.531,-33.691,1.953,0.000
1727691628.496,-34.180,17.090,-29.297,-7.324,0.000
1727691628.500,-3.906,11.719,-21.973,-9.277,0.000
1727691628.504,18.066,15.625,-22.461,0.977,0.000
1727691628.508,1.953,11.230,-17.090,0.488,0.000
1727691628.512,-29.785,7.324,-6.836,-5.859,0.000
1727691628.516,-48.340,7.812,-11.719,-5.859,0.000
1727691628.520,-13.184,16.602,-14.160,0.000,0.000
1727691628.524,22.461,13.184,-6.836,4.395,0.000
1727691628.528,23.926,11.719,-2.930,9.277,0.000
1727691628.532,-22.949,19.043,-5.371,-0.488,0.000
1727691628.536,-51.758,20.020,-20.508,-7.324,0.000
1727691628.539,-11.230,14.160,-20.996,-2.930,0.000
1727691628.543,19.043,13.672,-19.043,-7.324,0.000
1727691628.547,20.508,27.344,-20.508,-14.648,0.000
1727691628.551,-3.906,30.762,-10.254,-8.301,0.000
1727691628.555,-40.527,31.738,-6.836,-10.742,0.000
1727691628.559,-22.461,43.457,-22.461,-20.508,0.000
1727691628.563,9.766,36.133,-28.320,-10.254,0.000
1727691628.567,16.602,26.855,-12.695,-7.812,0.000
1727691628.571,-3.906,33.203,1.953,-9.766,0.000
1727691628.575,-46.387,24.902,3.418,-8.789,0.000
1727691628.579,-20.996,24.414,-1.953,-5.859,0.000
1727691628.582,21.973,30.762,-13.672,-1.953,0.000
1727691628.586,16.602,23.438,-37.598,-4.883,0.000
1727691628.590,6.836,24.414,-48.340,0.977,0.000
1727691628.594,-28.809,24.902,-29.297,4.883,0.000
1727691628.598,-24.902,21.973,-11.719,3.906,0.000
1727691628.602,14.160,21.973,-17.090,-4.395,0.000
1727691628.606,17.578,23.438,-34.180,-4.395,0.000
1727691628.610,3.418,27.344,-34.668,-6.348,0.000
1727691628.614,-34.180,31.738,-26.855,-15.625,0.000
1727691628.618,-17.578,24.414,-31.738,-16.113,0.000
1727691628.622,27.344,23.438,-27.832,-4.395,0.000
1727691628.625,26.855,30.762,-15.137,0.488,0.000
1727691628.629,11.230,30.762,-18.066,3.418,0.000
1727691628.633,-29.297,20.508,-20.020,-10.742,0.000
1727691628.637,-27.344,14.160,-21.484,-13.184,0.000
1727691628.641,19.531,18.555,-37.109,15.137,0.000
1727691628.645,25.391,19.531,-35.156,6.836,0.000
1727691628.649,3.418,17.578,-17.578,-14.160,0.000
1727691628.653,-33.203,17.090,-23.438,-15.625,0.000
1727691628.657,-37.109,24.414,-41.992,-19.531,0.000
1727691628.661,3.418,21.973,-38.086,-10.742,0.000
1727691628.664,20.996,22.461,-30.273,-8.789,0.000
1727691628.668,9.277,21.973,-14.160,-15.625,0.000
1727691628.672,-25.391,11.719,-2.930,-3.906,0.000
1727691628.676,-39.062,15.137,-28.809,0.000,0.000
1727691628.680,3.906,21.973,-50.781,-13.184,0.000
1727691628.684,40.527,19.043,-47.852,-11.719,0.000
1727691628.688,19.043,20.996,-25.879,-5.859,0.000
1727691628.692,-17.090,25.879,-8.301,-15.625,0.000
1727691628.696,-28.320,24.414,-5.859,-13.184,0.000
1727691628.700,1.465,19.531,-14.160,-7.812,0.000
1727691628.704,25.879,20.020,-26.367,-1.953,0.000
1727691628.707,10.254,19.531,-28.320,-6.348,0.000
1727691628.711,-23.926,15.625,-27.344,-16.113,0.000
1727691628.715,-48.828,8.301,-29.785,-19.043,0.000
1727691628.719,-3.906,10.254,-30.762,-14.160,0.000
1727691628.723,27.832,18.555,-41.016,-0.488,0.000
1727691628.727,19.043,17.090,-44.922,-2.930,0.000
1727691628.731,-2.441,20.996,-28.320,-7.812,0.000
1727691628.735,-38.574,23.438,-20.508,-14.160,0.000
1727691628.739,-15.137,16.602,-7.324,-10.254,0.000
1727691628.743,29.297,10.254,6.348,7.812,0.000
1727691628.746,7.324,11.230,1.953,9.277,0.000
1727691628.750,-6.348,10.254,5.371,9.766,0.000
1727691628.754,-23.926,0.000,3.418,0.977,0.000
1727691628.758,-9.277,1.953,-17.578,3.906,0.000
1727691628.762,21.973,6.836,-16.602,5.371,0.000
1727691628.766,25.879,6.348,-9.766,-5.859,0.000
1727691628.770,15.625,9.766,-23.926,-8.301,0.000
1727691628.774,-29.297,10.254,-27.832,-3.418,0.000
1727691628.778,-24.902,10.254,-26.367,4.395,0.000
1727691628.782,25.879,4.395,-36.621,6.348,0.000
1727691628.785,34.180,-1.465,-20.996,-3.418,0.000
1727691628.789,0.000,-5.371,-9.277,-8.789,0.000
1727691628.793,-41.504,-6.836,-48.340,3.906,0.000
1727691628.797,-31.738,-7.324,-56.152,4.883,0.000
1727691628.801,7.324,-7.324,-1.465,2.441,0.000
1727691628.805,29.297,-5.859,22.949,12.207,0.000
1727691628.809,22.949,5.371,6.348,22.461,0.000
1727691628.813,-11.230,14.648,1.465,9.766,0.000
1727691628.817,-38.086,3.418,2.441,-4.883,0.000
1727691628.821,2.930,0.488,-17.090,8.301,0.000
1727691628.824,23.438,5.859,-31.250,4.883,0.000
1727691628.828,6.836,5.859,-27.832,-2.930,0.000
1727691628.832,-24.902,8.301,-20.996,-7.812,0.000
1727691628.836,-30.762,7.812,-15.625,-17.090,0.000
1727691628.840,19.531,12.207,-22.461,-9.766,0.000
1727691628.844,37.109,23.438,-31.738,0.000,0.000
1727691628.848,20.508,19.531,-25.391,13.184,0.000
1727691628.852,-16.113,17.578,-6.836,14.648,0.000
1727691628.856,-25.879,23.438,14.160,1.465,0.000
1727691628.860,16.602,26.855,7.324,-0.977,0.000
1727691628.863,30.762,30.273,-14.160,9.277,0.000
1727691628.867,18.555,22.461,-13.184,11.719,0.000
1727691628.871,-14.648,13.672,-9.277,0.977,0.000
1727691628.875,-26.855,12.207,-13.672,-0.977,0.000
1727691628.879,8.789,13.672,-22.461,6.348,0.000
1727691628.883,28.809,9.277,-6.836,2.441,0.000
1727691628.887,25.879,5.371,8.301,7.812,0.000
1727691628.891,-1.953,12.207,-6.348,4.395,0.000
1727691628.895,-25.879,16.602,2.930,-5.859,0.000
1727691628.899,2.441,18.066,16.602,1.465,0.000
1727691628.903,37.109,27.344,11.719,6.836,0.000
1727691628.906,26.855,34.668,1.953,7.324,0.000
1727691628.910,-0.488,34.668,-39.062,6.836,0.000
1727691628.914,-11.230,35.645,-49.316,-4.395,0.000
1727691628.918,13.184,28.809,-18.555,-0.977,0.000
1727691628.922,30.273,23.926,-7.324,8.301,0.000
1727691628.926,21.973,25.879,-13.184,8.301,0.000
1727691628.930,-3.906,26.367,-14.160,-2.441,0.000
1727691628.934,-44.922,26.855,-15.625,-13.672,0.000
1727691628.938,-9.277,31.738,-39.062,-13.672,0.000
1727691628.942,36.621,27.832,-41.016,-9.277,0.000
1727691628.946,17.578,23.438,-13.184,-22.949,0.000
1727691628.949,-8.789,25.391,-2.441,-17.578,0.000
1727691628.953,-33.691,19.531,-8.789,-5.371,0.000
1727691628.957,-14.160,20.996,-18.555,-5.371,0.000
1727691628.961,18.066,20.996,-37.598,-0.977,0.000
1727691628.965,15.625,7.324,-45.898,0.000,0.000
1727691628.969,0.488,4.395,-32.227,-3.418,0.000
1727691628.973,-41.992,5.371,-30.273,-4.883,0.000
1727691628.977,-42.969,2.930,-39.551,-9.766,0.000
1727691628.981,5.859,2.441,-28.320,-5.859,0.000
1727691628.985,8.789,4.883,-15.625,-5.859,0.000
1727691628.989,-7.812,2.441,-20.508,-13.672,0.000
1727691628.992,-29.297,1.953,-27.832,-16.113,0.000
1727691628.996,-34.668,1.465,-28.320,-21.484,0.000
1727691629.000,5.859,2.930,-21.973,-15.625,0.000
1727691629.004,17.578,1.953,-18.066,-7.324,0.000
1727691629.008,4.395,3.906,-20.508,-13.184,0.000
1727691629.012,-26.367,9.277,-27.344,-19.531,0.000
1727691629.016,-41.016,6.836,-31.250,-14.160,0.000
1727691629.020,0.488,9.766,-34.180,-11.719,0.000
1727691629.024,11.230,12.695,-41.992,-8.301,0.000
1727691629.028,-4.395,8.301,-29.297,-7.324,0.000
1727691629.031,-31.738,11.230,-23.926,-19.043,0.000
1727691629.035,-41.504,17.090,-31.738,-22.949,0.000
1727691629.039,-4.883,15.625,-23.438,-14.160,0.000
1727691629.043,19.043,16.113,-4.883,-17.090,0.000
1727691629.047,17.578,20.508,3.906,-20.020,0.000
1727691629.051,-6.348,21.484,1.953,-19.531,0.000
1727691629.055,-28.320,19.531,0.488,-20.020,0.000
1727691629.059,9.766,16.113,-8.789,-9.277,0.000
1727691629.063,32.227,18.066,-32.715,6.836,0.000
1727691629.067,14.160,24.902,-25.879,-1.465,0.000
1727691629.071,-6.348,16.602,-3.418,-8.301,0.000
1727691629.074,-30.762,6.348,-1.953,-10.254,0.000
1727691629.078,-4.883,5.859,0.977,-11.230,0.000
1727691629.082,24.902,14.160,4.883,-1.953,0.000
1727691629.086,16.602,17.090,-5.371,-0.977,0.000
1727691629.090,-22.949,11.230,-20.020,-12.207,0.000
1727691629.094,-46.875,13.672,-32.227,-15.137,0.000
1727691629.098,-0.977,17.090,-41.992,-7.324,0.000
1727691629.102,34.668,19.043,-27.832,-2.441,0.000
1727691629.106,23.926,23.438,-20.996,2.441,0.000
1727691629.110,-9.277,25.879,-25.391,-8.301,0.000
1727691629.113,-42.480,24.414,-5.859,-18.066,0.000
1727691629.117,-26.367,14.648,3.906,-13.672,0.000
1727691629.121,16.113,9.766,-7.324,-13.672,0.000
1727691629.125,0.000,14.648,-20.020,-2.441,0.000
1727691629.129,0.000,20.996,-40.039,9.277,0.000
1727691629.133,0.000,21.484,-50.781,-0.488,0.000
1727691629.137,0.000,22.461,-30.273,-5.371,0.000
1727691629.141,0.000,25.391,-13.672,3.906,0.000
1727691629.145,0.000,25.391,-9.277,-3.418,0.000
1727691629.149,0.000,23.926,-9.277,-8.789,0.000
1727691629.152,0.000,18.066,-10.254,-9.277,0.000
1727691629.156,0.000,15.625,-18.066,-12.207,0.000
1727691629.160,0.000,21.973,-31.250,-0.488,0.000
1727691629.164,0.000,23.926,-29.297,6.348,0.000
1727691629.168,0.000,25.391,-16.602,7.812,0.000
1727691629.172,-20.508,28.320,-20.020,-1.953,0.000
1727691629.176,-24.902,26.367,-14.160,-2.441,0.000
1727691629.180,20.020,20.996,0.977,0.488,0.000
1727691629.184,33.691,20.996,-4.395,-2.441,0.000
1727691629.188,7.324,24.414,-13.184,4.883,0.000
1727691629.191,-33.691,18.555,-20.020,-0.977,0.000
1727691629.195,-28.320,16.113,-20.508,3.906,0.000
1727691629.199,22.949,22.949,-32.227,6.836,0.000
1727691629.203,41.992,23.926,-54.199,2.930,0.000
1727691629.207,21.484,24.414,-34.668,-1.465,0.000
1727691629.211,-14.648,14.648,-8.301,-0.488,0.000
1727691629.215,-26.367,10.254,-11.719,0.488,0.000
1727691629.219,4.395,15.625,-22.461,-4.395,0.000
1727691629.223,29.297,18.555,-3.906,0.977,0.000
1727691629.227,32.715,21.973,4.395,13.672,0.000
1727691629.230,-2.441,15.625,-4.883,2.441,0.000
1727691629.234,-22.949,12.695,-14.648,-4.883,0.000
1727691629.238,20.508,11.719,-36.133,13.184,0.000
1727691629.242,33.203,8.301,-24.414,8.301,0.000
1727691629.246,9.766,4.883,-1.465,1.465,0.000
1727691629.250,-20.996,-3.418,-10.254,-0.977,0.000
1727691629.254,-39.062,-5.371,-7.812,-7.812,0.000
1727691629.258,-1.953,2.930,8.301,-7.324,0.000
1727691629.262,31.738,1.465,-4.883,-3.418,0.000
1727691629.266,28.320,-3.418,-21.484,1.953,0.000
1727691629.270,-10.254,-7.324,-4.883,7.812,0.000
1727691629.273,-33.203,-8.301,2.930,7.324,0.000
1727691629.277,3.418,-5.859,-13.184,4.395,0.000
1727691629.281,26.367,-5.371,-7.324,-1.465,0.000
1727691629.285,24.414,-9.766,27.832,-2.441,0.000
1727691629.289,8.301,-11.719,32.715,-2.930,0.000
1727691629.293,-34.668,-10.742,8.789,-11.719,0.000
1727691629.297,-19.043,-10.254,-4.395,-11.719,0.000
1727691629.301,21.973,-2.441,-15.137,9.766,0.000
1727691629.305,21.973,-2.441,-20.508,6.836,0.000
1727691629.309,-9.766,-13.672,-7.812,-0.488,0.000
1727691629.313,-36.621,-7.812,-41.504,2.441,0.000
1727691629.316,-11.719,0.488,-39.551,-5.859,0.000
1727691629.320,25.879,0.977,-7.812,-10.254,0.000
1727691629.324,28.809,2.441,-31.250,-4.883,0.000
1727691629.328,3.418,-9.766,-18.555,-5.371,0.000
1727691629.332,-55.664,-12.695,10.254,-19.043,0.000
1727691629.336,-40.039,-5.371,0.488,-17.578,0.000
1727691629.340,29.297,-6.348,-24.902,-2.930,0.000
1727691629.344,17.090,-3.418,-45.898,-2.441,0.000
1727691629.348,-9.766,2.441,-39.551,-10.254,0.000
1727691629.352,-25.879,8.301,-28.809,-8.301,0.000
1727691629.356,-16.113,5.371,-39.062,6.836,0.000
1727691629.359,22.949,-12.207,-48.828,5.859,0.000
1727691629.363,8.301,-20.020,-33.691,-18.066,0.000
1727691629.367,-24.902,-5.371,-0.977,-39.551,0.000
1727691629.371,-58.105,2.930,35.645,-44.434,0.000
1727691629.375,-61.523,-2.441,-7.812,-35.156,0.000
1727691629.379,-3.906,21.484,-99.121,-14.648,0.000
1727691629.383,-0.977,-17.090,-69.824,-15.137,0.000
1727691629.387,-4.395,-43.457,-33.203,-1.953,0.000
1727691629.391,-40.527,-13.184,-14.160,-3.906,0.000
1727691629.395,-86.426,-24.902,-15.137,-38.086,0.000
1727691629.399,-55.176,-21.973,-98.633,-37.109,0.000
1727691629.402,-12.207,12.207,-53.223,-33.203,0.000
1727691629.406,43.457,-17.090,22.949,5.859,0.000
1727691629.410,1.953,-59.570,-28.809,10.742,0.000
1727691629.414,-77.148,-48.828,-33.691,-34.668,0.000
1727691629.418,-45.898,-54.199,-13.672,-39.551,0.000
1727691629.422,12.695,-83.008,-59.570,-12.695,0.000
1727691629.426,-0.488,-116.211,-67.383,-17.090,0.000
1727691629.430,-45.898,-159.668,24.902,-37.109,0.000
1727691629.434,-89.355,-225.098,38.086,-67.871,0.000
1727691629.438,-46.387,-309.570,-18.066,-62.012,0.000
1727691629.441,-13.672,-396.973,39.551,-62.500,0.000
1727691629.445,-43.457,-453.125,11.230,-69.336,0.000
1727691629.449,-79.590,-500.000,-50.293,-44.922,0.000
1727691629.453,0.000,-523.438,-22.461,-22.461,0.000
1727691629.457,0.000,-559.082,8.301,-50.293,0.000
1727691629.461,0.000,-646.484,83.008,-74.219,0.000
1727691629.465,0.000,-646.484,114.746,-60.547,0.000
1727691629.469,0.000,-645.508,73.242,-75.684,0.000
1727691629.473,0.000,-723.633,9.277,-64.941,0.000
1727691629.477,0.000,-781.250,3.418,-43.457,0.000
1727691629.481,0.000,-804.688,48.340,-36.621,0.000
1727691629.484,0.000,-847.656,20.508,-63.477,0.000
1727691629.488,0.000,-942.871,-12.695,-74.219,0.000
1727691629.492,0.000,-1000.000,-22.461,-34.668,0.000
1727691629.496,0.000,-998.047,-90.332,-12.695,0.000
1727691629.500,-17.090,-1000.000,-45.410,-39.551,0.000
1727691629.504,-69.336,-1000.000,84.473,-72.266,0.000
1727691629.508,-65.918,-1000.000,51.270,-53.711,0.000
1727691629.512,-64.453,-1000.000,-18.066,-31.250,0.000
1727691629.516,-31.738,-1000.000,47.852,-3.418,0.000
1727691629.520,6.836,-1000.000,57.129,7.324,0.000
1727691629.523,16.602,-1000.000,-20.508,10.742,0.000
1727691629.527,20.996,-1000.000,-24.902,24.902,0.000
1727691629.531,-17.090,-1000.000,46.387,2.930,0.000
1727691629.535,-14.160,-1000.000,50.781,0.977,0.000
1727691629.539,3.906,-1000.000,-5.859,-18.555,0.000
1727691629.543,0.488,-1000.000,-36.621,-12.207,0.000
1727691629.547,-14.648,-1000.000,-48.828,-6.348,0.000
1727691629.551,-50.781,-1000.000,-22.461,-31.738,0.000
1727691629.555,-62.988,-1000.000,48.340,-39.062,0.000
1727691629.559,17.578,-1000.000,64.941,5.371,0.000
1727691629.562,33.203,-1000.000,-21.484,19.043,0.000
1727691629.566,17.578,-1000.000,-23.926,24.902,0.000
1727691629.570,-27.344,-1000.000,11.230,23.438,0.000
1727691629.574,-67.871,-1000.000,8.789,-27.832,0.000
1727691629.578,0.000,-1000.000,-28.809,-33.691,0.000
1727691629.582,32.715,-1000.000,-3.906,-12.695,0.000
1727691629.586,14.648,-1000.000,6.836,8.789,0.000
1727691629.590,2.930,-1000.000,-31.250,44.434,0.000
1727691629.594,-29.785,-1000.000,-20.020,0.977,0.000
1727691629.598,-10.254,-1000.000,-65.918,-47.852,0.000
1727691629.601,-18.066,-1000.000,-135.254,-45.898,0.000
1727691629.605,-55.176,-1000.000,-30.273,-55.176,0.000
1727691629.609,-63.965,-1000.000,34.668,-60.547,0.000
1727691629.613,-95.215,-1000.000,-21.973,-56.641,0.000
1727691629.617,-82.031,-1000.000,-58.594,-58.105,0.000
1727691629.621,-12.695,-1000.000,-33.691,-32.227,0.000
1727691629.625,17.090,-1000.000,-22.949,-27.344,0.000
1727691629.629,-42.969,-1000.000,-39.551,-55.664,0.000
1727691629.633,-96.191,-1000.000,-30.762,-44.922,0.000
1727691629.637,8.789,-1000.000,3.906,12.695,0.000
1727691629.641,27.344,-1000.000,-7.324,-6.836,0.000
1727691629.644,-37.109,-1000.000,-41.016,-45.410,0.000
1727691629.648,7.812,-1000.000,14.648,2.930,0.000
1727691629.652,8.789,-1000.000,53.711,20.508,0.000
1727691629.656,35.156,-1000.000,52.734,34.668,0.000
1727691629.660,69.336,-1000.000,26.855,59.082,0.000
1727691629.664,35.645,-1000.000,-13.672,34.180,0.000
1727691629.668,34.180,-1000.000,30.273,29.785,0.000
1727691629.672,15.625,-1000.000,56.152,45.410,0.000
1727691629.676,-13.672,-1000.000,2.441,28.320,0.000
1727691629.680,11.230,-1000.000,-20.020,-7.324,0.000
1727691629.684,51.270,-1000.000,2.930,27.832,0.000
1727691629.687,53.711,-1000.000,-54.688,61.523,0.000
1727691629.691,6.836,-1000.000,-19.043,23.926,0.000
1727691629.695,4.883,-1000.000,68.848,2.441,0.000
1727691629.699,40.527,-1000.000,59.082,16.602,0.000
1727691629.703,37.109,-1000.000,25.391,10.742,0.000
1727691629.707,24.902,-1000.000,-2.441,9.277,0.000
1727691629.711,-40.527,-1000.000,-29.297,-8.789,0.000
1727691629.715,-44.434,-1000.000,-33.691,-15.137,0.000
1727691629.719,19.531,-1000.000,-41.992,11.719,0.000
1727691629.723,29.297,-1000.000,-52.734,19.531,0.000
1727691629.727,6.348,-1000.000,-50.293,0.000,0.000
1727691629.730,-28.809,-1000.000,-37.598,-9.766,0.000
1727691629.734,13.184,-1000.000,-1.953,21.973,0.000
1727691629.738,19.531,-1000.000,18.066,19.531,0.000
1727691629.742,-30.273,-1000.000,7.812,-1.953,0.000
1727691629.746,-21.484,-1000.000,-6.836,27.344,0.000
1727691629.750,28.320,-1000.000,-18.555,46.387,0.000
1727691629.754,47.852,-1000.000,-20.508,23.926,0.000
1727691629.758,33.691,-1000.000,10.254,17.578,0.000
1727691629.762,2.441,-1000.000,34.668,22.461,0.000
1727691629.766,-13.184,-1000.000,15.137,13.672,0.000
1727691629.770,16.602,-1000.000,-10.742,17.578,0.000
1727691629.773,38.086,-1000.000,-10.742,18.555,0.000
1727691629.777,12.207,-1000.000,-20.020,0.977,0.000
1727691629.781,-53.223,-1000.000,-61.523,-18.066,0.000
1727691629.785,-59.570,-1000.000,-61.523,-7.324,0.000
1727691629.789,2.441,-1000.000,-20.996,17.090,0.000
1727691629.793,16.602,-1000.000,-21.973,-2.441,0.000
1727691629.797,0.977,-1000.000,-48.828,-20.996,0.000
1727691629.801,-39.062,-1000.000,-78.613,-20.996,0.000
1727691629.805,-68.359,-1000.000,-86.426,-25.879,0.000
1727691629.809,-50.293,-999.512,-65.918,-34.180,0.000
1727691629.813,-25.879,-1000.000,-39.062,-32.715,0.000
1727691629.817,-6.348,-997.070,-47.363,-14.648,0.000
1727691629.820,-30.762,-948.242,-68.848,-20.508,0.000
1727691629.824,-75.195,-856.934,-73.242,-43.457,0.000
1727691629.828,-63.965,-731.934,-82.520,-56.152,0.000
1727691629.832,-39.062,-598.633,-80.078,-59.082,0.000
1727691629.836,-40.039,-374.512,-81.543,-62.500,0.000
1727691629.840,-60.547,4.395,-98.145,-62.012,0.000
1727691629.844,-85.449,525.391,-105.957,-48.828,0.000
1727691629.848,-55.176,922.363,-89.355,-40.039,0.000
1727691629.852,-10.254,972.656,-54.688,-30.273,0.000
1727691629.856,3.906,957.520,-49.805,-22.461,0.000
1727691629.860,-10.254,971.191,-82.520,-18.555,0.000
1727691629.864,-45.410,968.262,-97.656,-17.578,0.000
1727691629.867,-27.832,968.262,-63.965,-28.320,0.000
1727691629.871,14.160,968.262,-19.531,-35.156,0.000
1727691629.875,11.230,968.262,-12.207,-35.156,0.000
1727691629.879,-14.648,968.262,-24.902,-30.762,0.000
1727691629.883,-43.457,968.262,-29.785,-31.250,0.000
1727691629.887,-25.879,968.262,-30.273,-26.855,0.000
1727691629.891,24.902,968.262,-34.180,-11.230,0.000
1727691629.895,37.598,968.262,-37.598,-10.254,0.000
1727691629.899,17.578,968.262,-46.387,-12.207,0.000
1727691629.903,-23.926,968.262,-48.340,-8.789,0.000
1727691629.907,-21.484,968.262,-62.500,2.930,0.000
1727691629.911,12.207,968.262,-63.965,4.883,0.000
1727691629.914,20.996,968.262,-33.203,-4.883,0.000
1727691629.918,19.043,968.262,-20.020,-2.441,0.000
1727691629.922,-8.301,968.262,-6.348,-4.395,0.000
1727691629.926,-21.484,968.262,-1.465,-9.766,0.000
1727691629.930,20.508,968.262,-1.465,3.906,0.000
1727691629.934,35.645,968.262,-8.789,7.324,0.000
1727691629.938,36.621,968.262,-35.156,12.207,0.000
1727691629.942,6.348,968.262,-66.406,21.973,0.000
1727691629.946,-13.184,968.262,-57.617,19.531,0.000
1727691629.950,24.414,968.262,-18.555,20.508,0.000
1727691629.954,42.969,968.262,15.625,28.809,0.000
1727691629.957,27.832,968.262,26.367,25.879,0.000
1727691629.961,-9.766,968.262,12.695,20.996,0.000
1727691629.965,-16.113,968.262,-5.859,20.508,0.000
1727691629.969,15.625,968.262,-17.090,21.973,0.000
1727691629.973,41.504,968.262,-9.277,32.715,0.000
1727691629.977,57.129,968.262,-11.719,33.203,0.000
1727691629.981,25.879,968.262,-19.531,17.090,0.000
1727691629.985,2.441,968.262,-5.859,8.301,0.000
1727691629.989,34.668,968.262,-2.930,12.695,0.000
1727691629.993,64.453,968.262,-18.555,17.578,0.000
1727691629.997,61.523,968.262,-22.461,28.809,0.000
1727691630.001,30.762,968.262,-11.719,29.785,0.000
1727691630.004,-6.836,968.262,-11.719,12.207,0.000
1727691630.008,12.207,968.262,-3.906,11.230,0.000
1727691630.012,60.059,968.262,8.789,20.020,0.000
1727691630.016,53.711,968.262,-1.953,20.020,0.000
1727691630.020,27.344,968.262,-20.996,14.160,0.000
1727691630.024,-15.137,968.262,-3.906,10.742,0.000
1727691630.028,-5.859,968.262,8.789,12.695,0.000
1727691630.032,46.875,968.262,-38.086,21.484,0.000
1727691630.036,49.316,968.262,-19.043,24.414,0.000
1727691630.040,28.320,968.262,30.762,22.949,0.000
1727691630.044,-22.949,967.773,31.250,21.484,0.000
1727691630.047,-12.207,968.262,23.438,16.602,0.000
1727691630.051,40.527,968.262,13.672,23.926,0.000
1727691630.055,50.293,968.262,6.836,23.926,0.000
1727691630.059,34.668,968.262,4.883,21.484,0.000
1727691630.063,-6.836,968.262,-4.395,19.043,0.000
1727691630.067,-14.648,968.262,-20.996,12.695,0.000
1727691630.071,31.738,968.262,-34.180,11.230,0.000
1727691630.075,41.016,967.285,-11.230,17.578,0.000
1727691630.079,22.949,967.285,15.625,22.461,0.000
1727691630.083,-10.742,967.773,15.625,20.996,0.000
1727691630.087,-7.812,929.688,10.254,16.602,0.000
1727691630.090,43.945,874.512,18.066,17.578,0.000
1727691630.094,49.316,841.797,7.324,15.137,0.000
1727691630.098,36.133,896.484,-7.812,12.207,0.000
1727691630.102,0.000,968.750,-12.695,3.906,0.000
1727691630.106,-17.090,967.285,-21.973,2.930,0.000
1727691630.110,33.203,966.797,-15.137,7.812,0.000
1727691630.114,50.781,968.262,-10.742,2.441,0.000
1727691630.118,28.809,967.773,4.883,-0.488,0.000
1727691630.122,-21.484,969.727,4.883,-15.137,0.000
1727691630.126,-26.855,941.406,-20.020,-21.484,0.000
1727691630.130,21.973,923.340,-41.016,-3.418,0.000
1727691630.133,37.598,937.500,-42.480,10.254,0.000
1727691630.137,23.926,937.988,-24.902,-3.418,0.000
1727691630.141,-4.395,922.852,-11.230,-11.719,0.000
1727691630.145,-24.902,913.086,-13.184,-1.953,0.000
1727691630.149,1.953,905.762,-24.414,3.906,0.000
1727691630.153,34.668,885.254,-34.180,7.324,0.000
1727691630.157,24.414,870.117,-20.996,-4.883,0.000
1727691630.161,-16.113,835.938,5.371,-9.766,0.000
1727691630.165,-36.133,796.875,1.953,-9.766,0.000
1727691630.169,-11.230,780.762,-23.926,-16.113,0.000
1727691630.173,18.066,773.438,-28.320,-7.812,0.000
1727691630.177,22.461,766.602,-34.668,5.859,0.000
1727691630.180,-5.371,750.977,-48.340,-1.465,0.000
1727691630.184,-36.133,740.723,-41.016,-8.301,0.000
1727691630.188,-6.836,729.004,-29.785,-3.906,0.000
1727691630.192,26.855,704.102,-15.137,0.000,0.000
1727691630.196,27.344,683.105,-14.648,1.465,0.000
1727691630.200,1.465,655.762,-21.973,-6.836,0.000
1727691630.204,-43.945,629.395,-25.879,-20.508,0.000
1727691630.208,-25.879,612.793,-20.508,-20.996,0.000
1727691630.212,16.113,600.586,-8.789,-9.277,0.000
1727691630.216,12.207,596.680,-22.949,-5.371,0.000
1727691630.220,6.836,590.820,-39.062,-2.930,0.000
1727691630.224,-13.672,582.520,-54.199,-1.953,0.000
1727691630.227,-12.695,570.801,-30.762,3.906,0.000
1727691630.231,26.367,556.152,11.230,-0.977,0.000
1727691630.235,37.598,546.387,16.113,-6.836,0.000
1727691630.239,16.602,541.504,-4.395,15.625,0.000
1727691630.243,-29.297,528.320,-27.832,8.301,0.000
1727691630.247,-21.973,512.207,-33.691,-9.766,0.000
1727691630.251,29.297,506.836,-36.133,0.000,0.000
1727691630.255,22.949,488.770,-33.691,-10.742,0.000
1727691630.259,-3.906,465.332,-30.762,-26.855,0.000
1727691630.263,-42.480,447.266,-33.203,-30.762,0.000
1727691630.267,-40.527,427.734,-30.762,-31.250,0.000
1727691630.271,3.418,424.805,-28.809,-21.484,0.000
1727691630.274,11.719,428.223,-39.062,-15.625,0.000
1727691630.278,-1.465,421.387,-31.250,-18.555,0.000
1727691630.282,-39.062,406.250,-10.742,-16.602,0.000
1727691630.286,-41.016,398.926,-9.277,-4.883,0.000
1727691630.290,5.859,390.625,-27.832,0.488,0.000
1727691630.294,24.414,380.859,-45.898,-2.441,0.000
1727691630.298,9.766,368.652,-41.504,-0.488,0.000
1727691630.302,-41.016,352.051,-24.902,-4.395,0.000
1727691630.306,-56.152,334.473,-24.414,-15.625,0.000
1727691630.310,-5.371,313.477,-34.180,-10.742,0.000
1727691630.314,23.438,296.387,-33.691,-9.277,0.000
1727691630.318,17.090,276.367,-28.320,-10.742,0.000
1727691630.321,-24.414,253.418,-23.926,-14.648,0.000
1727691630.325,-44.434,232.422,-18.066,-19.043,0.000
1727691630.329,-7.812,213.379,-7.324,-5.371,0.000
1727691630.333,20.508,192.871,-12.695,-9.277,0.000
1727691630.337,19.531,185.059,-13.184,-14.160,0.000
1727691630.341,-20.020,180.176,-18.555,-14.648,0.000
1727691630.345,-51.758,172.363,-30.762,-20.020,0.000
1727691630.349,-2.441,179.199,-41.016,-13.184,0.000
1727691630.353,34.180,181.641,-39.062,-15.625,0.000
1727691630.357,20.508,183.594,-14.648,-22.949,0.000
1727691630.361,-5.371,183.594,-7.324,-19.043,0.000
1727691630.364,-36.133,168.457,-18.555,-16.113,0.000
1727691630.368,-11.719,166.992,-23.438,-14.160,0.000
1727691630.372,24.902,171.875,-7.812,-8.301,0.000
1727691630.376,28.809,168.945,8.789,-5.859,0.000
1727691630.380,8.789,168.457,0.488,-5.859,0.000
1727691630.384,-24.902,162.598,-13.184,-7.324,0.000
1727691630.388,-4.395,160.156,-24.902,-7.812,0.000
1727691630.392,24.414,161.621,-20.996,3.418,0.000
1727691630.396,20.996,157.715,0.488,5.371,0.000
1727691630.400,8.301,158.203,15.137,1.953,0.000
1727691630.404,-26.367,157.715,7.324,1.465,0.000
1727691630.407,-15.137,149.414,-6.836,-0.488,0.000
1727691630.411,23.926,145.508,-16.113,-5.371,0.000
1727691630.415,27.344,151.367,-20.996,-10.742,0.000
1727691630.419,14.160,140.625,-15.625,-8.789,0.000
1727691630.423,-27.832,134.766,-34.180,-8.301,0.000
1727691630.427,-24.902,137.207,-38.086,-12.695,0.000
1727691630.431,16.113,139.160,-25.879,-11.230,0.000
1727691630.435,18.066,147.949,-16.113,-2.441,0.000
1727691630.439,13.184,145.508,1.465,1.465,0.000
1727691630.443,-14.160,137.207,-0.488,4.883,0.000
1727691630.447,-21.484,138.184,-19.531,0.488,0.000
1727691630.450,28.809,140.625,-11.719,4.395,0.000
1727691630.454,33.691,136.719,-5.371,13.184,0.000
1727691630.458,14.160,130.371,-27.344,7.324,0.000
1727691630.462,-15.137,131.348,-27.832,0.488,0.000
1727691630.466,-23.438,128.418,-13.184,2.441,0.000
1727691630.470,22.461,127.930,-3.418,5.371,0.000
1727691630.474,32.227,122.559,-3.906,9.766,0.000
1727691630.478,11.230,123.535,-19.043,11.719,0.000
1727691630.482,-16.113,127.441,-24.902,6.836,0.000
1727691630.486,-21.484,115.234,-24.902,0.488,0.000
1727691630.490,12.207,114.258,-43.457,11.719,0.000
1727691630.493,35.645,122.070,-57.617,13.184,0.000
1727691630.497,37.598,127.930,-45.410,6.348,0.000
1727691630.501,3.418,127.441,-14.160,5.859,0.000
1727691630.505,-21.973,117.188,2.930,2.930,0.000
1727691630.509,16.602,114.746,4.883,10.254,0.000
1727691630.513,33.691,111.816,-2.930,0.977,0.000
1727691630.517,21.973,104.980,-10.254,-10.254,0.000
1727691630.521,-13.184,104.492,-13.184,-3.906,0.000
1727691630.525,-49.316,104.980,-14.160,-10.254,0.000
1727691630.529,-10.254,100.586,-19.043,-13.184,0.000
1727691630.532,27.344,97.656,-33.691,-7.812,0.000
1727691630.536,13.672,98.633,-26.367,-13.184,0.000
1727691630.540,-15.625,92.773,-18.555,-13.672,0.000
1727691630.544,-40.527,87.402,-40.039,-15.137,0.000
1727691630.548,-23.438,87.402,-36.621,-13.672,0.000
1727691630.552,19.043,90.820,-18.066,-3.906,0.000
1727691630.556,12.695,93.262,-19.531,-13.184,0.000
1727691630.560,-17.090,85.449,-23.438,-27.344,0.000
1727691630.564,-41.992,86.426,-22.949,-21.484,0.000
1727691630.568,-21.973,91.797,-26.855,-15.137,0.000
1727691630.572,22.949,94.238,-20.508,-10.742,0.000
1727691630.575,30.273,104.004,-13.184,-9.277,0.000
1727691630.579,7.324,107.910,-7.324,-8.301,0.000
1727691630.583,-25.391,107.910,-9.766,-4.883,0.000
1727691630.587,0.977,104.492,-15.137,-0.488,0.000
1727691630.591,33.203,113.281,-19.043,3.418,0.000
1727691630.595,21.484,128.906,-29.297,12.695,0.000
1727691630.599,9.277,131.836,-36.621,14.160,0.000
1727691630.603,-24.414,124.512,-44.434,0.000,0.000
1727691630.607,-15.137,114.258,-40.039,0.488,0.000
1727691630.611,27.832,109.375,-4.883,17.090,0.000
1727691630.615,34.180,108.398,14.648,24.414,0.000
1727691630.619,9.766,111.328,10.742,6.836,0.000
1727691630.622,-36.621,104.980,0.488,-7.324,0.000
1727691630.626,-23.438,102.051,-18.066,-8.789,0.000
1727691630.630,28.809,112.793,-37.598,-3.906,0.000
1727691630.634,28.320,109.375,-40.039,-1.953,0.000
1727691630.638,2.930,98.145,-48.340,-2.930,0.000
1727691630.642,-28.320,94.727,-43.457,-3.418,0.000
1727691630.646,-32.715,97.656,-13.184,-4.883,0.000
1727691630.650,8.789,98.633,-9.766,-5.371,0.000
1727691630.654,19.043,97.656,-20.508,-7.812,0.000
1727691630.658,-0.977,89.355,-8.789,-16.602,0.000
1727691630.662,-49.316,84.473,-4.395,-25.391,0.000
1727691630.666,-54.199,83.984,-20.020,-27.832,0.000
1727691630.669,10.742,88.379,-39.551,-17.090,0.000
1727691630.673,29.297,88.379,-48.340,-5.371,0.000
1727691630.677,4.883,80.078,-39.551,-8.789,0.000
1727691630.681,-32.715,75.195,-21.973,-18.066,0.000
1727691630.685,-54.199,74.219,-15.625,-19.531,0.000
1727691630.689,-14.160,75.195,-20.508,-16.602,0.000
1727691630.693,18.555,70.312,-16.113,-10.254,0.000
1727691630.697,1.953,62.500,-10.254,-9.766,0.000
1727691630.701,-27.832,62.500,-15.137,-18.555,0.000
1727691630.705,-45.410,59.570,-24.414,-11.230,0.000
1727691630.709,-13.184,61.035,-16.113,-4.883,0.000
1727691630.712,25.879,66.406,-11.230,0.977,0.000
1727691630.716,30.273,68.359,-31.738,3.418,0.000
1727691630.720,-0.977,64.941,-38.086,6.836,0.000
1727691630.724,-37.598,56.641,-26.855,-4.395,0.000
1727691630.728,-20.508,57.129,-31.250,-5.859,0.000
1727691630.732,28.809,55.664,-22.461,11.719,0.000
1727691630.736,33.691,59.082,-5.859,8.789,0.000
1727691630.740,-0.977,61.035,-13.184,-2.930,0.000
1727691630.744,-23.926,52.246,-32.715,-5.371,0.000
1727691630.748,0.488,48.828,-33.203,7.324,0.000
1727691630.752,23.438,52.734,-18.555,10.254,0.000
1727691630.755,10.742,55.176,-18.555,-10.742,0.000
1727691630.759,-9.277,47.363,-19.531,-18.066,0.000
1727691630.763,-34.180,37.598,-17.578,-15.625,0.000
1727691630.767,-21.484,36.621,-16.602,-13.184,0.000
1727691630.771,19.531,38.086,-13.184,-17.090,0.000
1727691630.775,28.809,40.527,-14.160,-7.324,0.000
1727691630.779,5.371,49.316,-25.879,1.465,0.000
1727691630.783,-13.184,49.316,-40.527,-8.301,0.000
1727691630.787,-7.812,44.922,-43.457,-5.371,0.000
1727691630.791,16.113,41.504,-21.484,-3.906,0.000
1727691630.795,28.809,40.527,2.441,2.930,0.000
1727691630.799,11.230,42.969,-3.906,1.953,0.000
1727691630.802,-25.391,37.109,-21.484,-5.859,0.000
1727691630.806,-33.203,34.668,-34.180,-5.859,0.000
1727691630.810,8.301,35.156,-42.969,-2.930,0.000
1727691630.814,19.043,31.250,-25.391,-6.836,0.000
1727691630.818,10.742,27.832,-1.953,-13.184,0.000
1727691630.822,-32.227,26.367,-7.812,-9.277,0.000
1727691630.826,-44.434,22.949,-28.809,-12.695,0.000
1727691630.830,10.254,24.414,-26.855,-14.648,0.000
1727691630.834,17.578,21.484,-15.137,-14.160,0.000
1727691630.838,6.836,13.184,-9.766,-5.371,0.000
1727691630.842,-18.066,11.230,-15.625,-9.766,0.000
1727691630.845,-32.227,9.766,-32.715,-17.578,0.000
1727691630.849,2.441,8.301,-43.457,-7.324,0.000
1727691630.853,19.531,3.906,-28.320,-1.953,0.000
1727691630.857,13.184,2.930,-27.832,-8.789,0.000
1727691630.861,-20.996,5.371,-39.551,-19.531,0.000
1727691630.865,-47.363,2.930,-22.461,-31.250,0.000
1727691630.869,-10.742,2.930,-6.348,-21.484,0.000
1727691630.873,24.414,7.324,3.418,2.441,0.000
1727691630.877,25.879,6.836,-3.906,5.371,0.000
1727691630.881,1.953,10.254,-35.645,6.348,0.000
1727691630.884,-32.227,12.207,-26.855,8.789,0.000
1727691630.888,-12.207,8.301,1.465,-6.348,0.000
1727691630.892,30.762,1.465,4.883,-9.766,0.000
1727691630.896,29.785,6.836,-11.230,-5.859,0.000
1727691630.900,-3.906,20.508,-22.461,-10.742,0.000
1727691630.904,-34.668,24.414,-4.883,-9.766,0.000
1727691630.908,-11.230,23.438,-0.977,0.000,0.000
1727691630.912,27.344,23.926,-15.625,8.301,0.000
1727691630.916,32.715,23.438,-24.414,6.836,0.000
1727691630.920,3.418,22.949,-21.484,-3.418,0.000
1727691630.924,-37.109,19.043,-14.160,-11.719,0.000
1727691630.927,-25.391,15.137,-11.230,-23.438,0.000
1727691630.931,9.766,11.230,-12.695,-20.996,0.000
1727691630.935,0.000,10.742,-20.020,-14.160,0.000
1727691630.939,-22.461,11.230,-25.391,-19.043,0.000
1727691630.943,-43.945,12.207,-27.832,-20.508,0.000
1727691630.947,-27.344,13.672,-42.480,-24.414,0.000
1727691630.951,13.672,11.719,-41.992,-26.855,0.000
1727691630.955,24.902,9.277,-23.926,-19.043,0.000
1727691630.959,3.906,7.812,-29.785,-14.160,0.000
1727691630.963,-40.527,9.277,-24.414,-23.438,0.000
1727691630.967,-39.062,6.836,-6.348,-26.367,0.000
1727691630.971,6.348,4.883,-0.488,-8.789,0.000
1727691630.974,19.531,7.812,-1.465,-7.324,0.000
1727691630.978,2.441,4.883,-14.648,-20.508,0.000
1727691630.982,-39.551,6.348,-33.203,-21.973,0.000
1727691630.986,-40.039,11.230,-31.738,-20.020,0.000
1727691630.990,7.324,8.301,-21.484,-9.766,0.000
1727691630.994,18.066,6.348,-17.090,-3.906,0.000
1727691630.998,-6.348,1.953,-20.996,-3.906,0.000
1727691631.002,-38.574,-0.488,-27.832,-5.371,0.000
1727691631.006,-33.203,1.953,-30.762,-3.418,0.000
1727691631.010,8.301,6.348,-21.973,6.348,0.000
1727691631.014,24.414,9.277,-10.742,6.836,0.000
1727691631.017,10.254,9.277,-0.977,-2.441,0.000
1727691631.021,-26.855,11.230,-9.766,-11.230,0.000
1727691631.025,-41.016,15.625,-19.043,-6.836,0.000
1727691631.029,6.836,14.160,-20.020,-5.371,0.000
1727691631.033,29.785,9.277,-21.973,-1.953,0.000
1727691631.037,13.672,8.789,-20.508,6.348,0.000
1727691631.041,-27.344,5.859,-24.414,-7.324,0.000
1727691631.045,-40.527,3.418,-30.762,-16.113,0.000
1727691631.049,11.230,7.324,-41.016,-12.207,0.000
1727691631.053,28.809,8.301,-40.527,-7.812,0.000
1727691631.057,16.602,8.789,-28.809,-4.883,0.000
1727691631.061,-13.672,8.789,-15.137,-8.789,0.000
1727691631.064,-43.945,2.441,-10.742,-11.719,0.000
1727691631.068,1.953,5.371,-16.602,-5.371,0.000
1727691631.072,30.762,11.230,-25.879,-7.324,0.000
1727691631.076,18.066,9.277,-15.137,-1.953,0.000
1727691631.080,-15.137,11.230,0.977,12.207,0.000
1727691631.084,-41.504,12.695,-8.789,4.883,0.000
1727691631.088,-0.977,12.695,-26.855,-4.395,0.000
1727691631.092,23.438,12.695,-28.320,-3.906,0.000
1727691631.096,0.000,11.719,-31.250,5.859,0.000
1727691631.100,0.000,9.766,-16.113,-1.465,0.000
1727691631.104,0.000,17.090,-1.465,-13.184,0.000
1727691631.107,0.000,14.160,-21.484,-11.719,0.000
1727691631.111,0.000,11.230,-37.109,-12.207,0.000
1727691631.115,0.000,6.836,-28.809,-10.254,0.000
1727691631.119,0.000,4.883,-22.949,-12.695,0.000
1727691631.123,0.000,12.207,-33.691,-23.926,0.000
1727691631.127,0.000,10.742,-30.273,-18.555,0.000
1727691631.131,0.000,5.859,-27.344,-8.789,0.000
1727691631.135,0.000,5.859,-37.109,-6.836,0.000
1727691631.139,0.000,6.348,-34.180,-10.254,0.000
1727691631.143,-41.016,10.742,-35.156,-14.648,0.000
1727691631.147,-32.715,1.953,-27.832,-20.508,0.000
1727691631.150,7.812,-6.348,-7.324,-30.762,0.000
1727691631.154,11.719,2.441,-4.395,-25.391,0.000
1727691631.158,-9.277,0.488,-18.066,-15.625,0.000
1727691631.162,-44.434,-2.441,-38.086,-23.438,0.000
1727691631.166,-36.133,0.000,-38.574,-18.555,0.000
1727691631.170,11.230,0.488,-2.930,-4.395,0.000
1727691631.174,16.602,-4.395,0.977,-12.695,0.000
1727691631.178,3.418,-3.418,-14.160,-10.742,0.000
1727691631.182,-19.531,5.859,-18.066,-3.906,0.000
1727691631.186,-20.996,4.883,-30.762,-1.953,0.000
1727691631.190,13.672,1.465,-33.691,1.465,0.000
1727691631.193,20.020,-0.977,-15.625,-8.789,0.000
1727691631.197,9.277,1.953,-22.461,-13.672,0.000
1727691631.201,-28.320,3.418,-30.273,-12.695,0.000
1727691631.205,-43.945,-0.488,-18.066,-15.137,0.000
1727691631.209,4.395,2.930,-24.902,-5.859,0.000
1727691631.213,10.254,9.766,-30.762,-1.953,0.000
1727691631.217,-3.418,8.789,-23.926,-6.836,0.000
1727691631.221,-14.160,7.324,-12.207,-16.113,0.000
1727691631.225,-22.949,8.301,-12.695,-15.625,0.000
1727691631.229,11.230,3.906,-24.902,-4.883,0.000
1727691631.233,22.949,-1.953,-20.508,-3.906,0.000
1727691631.236,18.066,-1.465,-12.695,-11.230,0.000
1727691631.240,-7.324,-0.977,-14.160,-17.578,0.000
1727691631.244,-31.738,-7.812,-25.879,-15.625,0.000
1727691631.248,-5.371,-8.789,-24.414,-4.395,0.000
1727691631.252,18.066,-8.789,-19.531,2.441,0.000
1727691631.256,22.461,-7.812,-12.695,-0.488,0.000
1727691631.260,-7.812,-6.348,-2.930,-2.930,0.000
1727691631.264,-53.711,-9.766,-12.695,-9.277,0.000
1727691631.268,-14.160,-17.578,-17.578,-4.883,0.000
1727691631.272,39.062,-13.184,-9.277,7.324,0.000
1727691631.275,37.598,-6.348,-12.207,6.348,0.000
1727691631.279,9.277,-0.977,-24.902,4.883,0.000
1727691631.283,-40.039,-9.766,-19.043,-0.488,0.000
1727691631.287,-15.137,-16.602,-15.625,6.836,0.000
1727691631.291,35.156,-8.789,-20.508,18.066,0.000
1727691631.295,31.250,-11.719,-12.207,19.043,0.000
1727691631.299,5.371,-14.648,-3.906,12.207,0.000
1727691631.303,-20.508,-11.230,-8.789,5.859,0.000
1727691631.307,-3.906,-5.859,-45.898,14.160,0.000
1727691631.311,30.273,-6.348,-35.156,9.766,0.000
1727691631.315,20.996,-14.160,22.461,-1.465,0.000
1727691631.318,-9.766,-14.648,20.020,7.812,0.000
1727691631.322,-30.762,-17.578,-3.418,-2.441,0.000
1727691631.326,-15.625,-11.719,-0.488,-12.695,0.000
1727691631.330,27.832,-4.883,3.418,-7.812,0.000
1727691631.334,18.066,-11.230,-13.184,-12.207,0.000
1727691631.338,2.930,0.000,-30.273,1.953,0.000
1727691631.342,-11.230,9.766,-28.320,8.301,0.000
1727691631.346,-15.137,6.348,-21.484,2.441,0.000
1727691631.350,20.508,-2.441,-4.883,1.465,0.000
1727691631.354,27.344,-6.348,11.230,-7.324,0.000
1727691631.358,7.812,-6.348,6.836,-6.836,0.000
1727691631.362,-22.949,-8.301,-6.348,-6.348,0.000
1727691631.365,-30.273,8.301,-22.461,-5.371,0.000
1727691631.369,24.414,15.137,-23.438,0.488,0.000
1727691631.373,46.875,8.789,-12.207,8.789,0.000
1727691631.377,40.039,5.859,-22.461,17.578,0.000
1727691631.381,6.836,-1.465,-23.438,6.836,0.000
1727691631.385,-12.695,-7.812,-3.906,0.488,0.000
1727691631.389,14.160,-8.789,6.836,10.254,0.000
1727691631.393,20.508,-5.859,4.395,16.113,0.000
1727691631.397,1.953,-2.930,-20.508,12.695,0.000
1727691631.401,-30.273,-4.883,-34.180,-3.906,0.000
1727691631.405,-24.414,-1.953,-21.973,-17.578,0.000
1727691631.408,23.926,6.836,-11.719,3.906,0.000
1727691631.412,40.527,1.953,-14.648,24.414,0.000
1727691631.416,36.621,7.812,-25.879,21.973,0.000
1727691631.420,-4.883,9.766,-20.996,14.648,0.000
1727691631.424,-34.668,0.000,-12.695,5.371,0.000
1727691631.428,11.230,0.977,-13.184,6.348,0.000
1727691631.432,42.969,-3.418,-6.836,10.254,0.000
1727691631.436,27.344,-2.441,3.418,1.465,0.000
1727691631.440,-6.348,-1.953,-9.277,1.465,0.000
1727691631.444,-39.551,-10.254,-22.949,-8.789,0.000
1727691631.448,-10.742,-9.766,-13.672,-8.789,0.000
1727691631.452,25.391,-5.859,-3.906,5.859,0.000
1727691631.455,30.762,-11.230,-8.301,0.977,0.000
1727691631.459,1.465,-15.137,-18.555,-5.859,0.000
1727691631.463,-39.062,-7.812,-37.109,-9.766,0.000
1727691631.467,-7.812,-3.418,-36.133,-13.672,0.000
1727691631.471,21.484,-11.230,-27.344,-19.531,0.000
1727691631.475,22.949,-14.160,-27.832,-21.484,0.000
1727691631.479,7.812,-10.742,-23.926,-12.207,0.000
1727691631.483,-41.992,-14.160,-13.184,-7.812,0.000
1727691631.487,-31.738,-13.184,-5.859,-6.348,0.000
1727691631.491,27.832,0.000,-20.508,8.301,0.000
1727691631.495,42.969,2.441,-28.320,5.859,0.000
1727691631.498,10.742,-2.930,-10.742,3.418,0.000
1727691631.502,-33.691,-4.395,1.465,-3.906,0.000
1727691631.506,-9.766,-6.836,-1.465,-13.672,0.000
1727691631.510,29.785,-2.930,-4.883,-6.348,0.000
1727691631.514,30.273,0.977,-19.043,2.441,0.000
1727691631.518,13.672,-2.930,-28.809,5.859,0.000
1727691631.522,-29.297,-11.719,-29.785,-2.441,0.000
1727691631.526,-15.137,-15.137,-36.133,-3.906,0.000
1727691631.530,36.133,-4.395,-28.809,11.230,0.000
1727691631.534,36.133,-6.836,-4.395,8.789,0.000
1727691631.538,14.160,-13.672,7.324,4.883,0.000
1727691631.541,-23.926,-15.625,-18.066,-0.488,0.000
1727691631.545,-20.020,-11.230,-46.387,-0.977,0.000
1727691631.549,32.227,-0.488,-53.711,8.789,0.000
1727691631.553,40.039,0.488,-34.180,11.230,0.000
1727691631.557,23.438,1.953,4.883,7.812,0.000
1727691631.561,1.953,8.301,22.949,-0.488,0.000
1727691631.565,-23.926,-0.977,7.812,2.930,0.000
1727691631.569,-9.277,-19.043,-13.672,-2.441,0.000
1727691631.573,35.645,-13.672,-32.715,-6.836,0.000
1727691631.577,28.320,-9.766,-26.855,-9.766,0.000
1727691631.581,-28.809,-25.391,-5.859,-20.508,0.000
1727691631.584,-50.293,-19.043,-15.137,-16.602,0.000
1727691631.588,-5.859,-5.859,-15.137,-0.488,0.000
1727691631.592,15.625,-19.043,-4.883,-8.789,0.000
1727691631.596,21.973,-11.230,-14.648,-5.371,0.000
1727691631.600,-20.020,-7.324,-35.156,4.883,0.000
1727691631.604,-57.617,-23.926,-28.809,-4.883,0.000
1727691631.608,-8.789,-18.555,-14.648,-7.812,0.000
1727691631.612,40.039,-7.324,-41.504,6.348,0.000
1727691631.616,25.879,-13.184,-73.242,-6.836,0.000
1727691631.620,-39.062,-24.414,-49.316,-22.461,0.000
1727691631.623,-68.359,-22.949,-18.066,-11.230,0.000
1727691631.627,-28.809,-17.578,2.441,-16.113,0.000
1727691631.631,11.719,-15.625,16.113,-14.648,0.000
1727691631.635,16.602,-2.441,13.672,1.953,0.000
1727691631.639,-12.207,-3.906,-31.738,2.930,0.000
1727691631.643,-36.133,-17.578,-45.410,-5.371,0.000
1727691631.647,-8.789,-16.602,-13.184,-9.277,0.000
1727691631.651,-0.488,-20.508,11.719,-14.648,0.000
1727691631.655,6.836,-5.859,9.766,4.883,0.000
1727691631.659,32.227,9.766,-12.207,25.879,0.000
1727691631.663,-13.184,-7.812,-41.016,-6.836,0.000
1727691631.666,-9.766,-17.090,-16.602,-20.020,0.000
1727691631.670,27.344,-10.742,-3.418,0.000,0.000
1727691631.674,4.395,-17.578,-32.227,13.184,0.000
1727691631.678,-3.906,-23.926,-5.371,9.766,0.000
1727691631.682,-23.926,-6.836,12.695,-6.348,0.000
1727691631.686,-15.625,1.465,-23.926,-11.719,0.000
1727691631.690,18.555,-22.461,-40.039,-0.488,0.000
1727691631.694,3.418,-34.180,-38.574,-9.277,0.000
1727691631.698,-8.789,-16.113,-98.633,-15.625,0.000
1727691631.702,-14.160,13.184,-81.055,-5.859,0.000
1727691631.706,-19.043,-12.207,20.508,-19.531,0.000
1727691631.709,34.668,-48.828,59.570,7.812,0.000
1727691631.713,30.762,-27.832,24.414,1.465,0.000
1727691631.717,-25.879,-7.324,0.000,-43.945,0.000
1727691631.721,-54.688,-31.738,13.672,-26.855,0.000
1727691631.725,-65.918,-19.531,-33.691,-27.344,0.000
1727691631.729,-60.059,22.461,-87.402,-64.453,0.000
1727691631.733,38.086,0.488,-54.688,14.648,0.000
1727691631.737,75.195,-36.621,-41.992,52.734,0.000
1727691631.741,-35.645,-51.758,-49.316,-9.277,0.000
1727691631.745,-53.711,-33.691,-58.594,-15.625,0.000
1727691631.749,-1.465,-37.598,-82.031,-24.414,0.000
1727691631.753,-25.391,-60.547,16.602,-50.293,0.000
1727691631.756,-93.262,-65.918,54.688,-88.867,0.000
1727691631.760,-89.844,-40.039,-7.324,-72.754,0.000
1727691631.764,-27.832,-51.270,-40.527,-16.602,0.000
1727691631.768,13.184,-67.871,-50.293,-20.996,0.000
1727691631.772,20.020,-65.918,-18.555,-13.672,0.000
1727691631.776,-12.207,-101.074,6.348,-14.648,0.000
1727691631.780,-62.012,-152.832,7.812,-29.297,0.000
1727691631.784,-107.910,-164.551,-40.039,-68.359,0.000
1727691631.788,-80.078,-165.039,-102.539,-98.633,0.000
1727691631.792,29.297,-218.262,-15.625,-20.508,0.000
1727691631.796,15.625,-281.738,-27.344,12.207,0.000
1727691631.800,-73.730,-349.121,-86.426,-33.203,0.000
1727691631.803,-59.570,-381.348,19.043,-24.414,0.000
1727691631.807,-25.879,-401.855,27.832,-16.113,0.000
1727691631.811,-33.691,-451.660,-3.906,-49.316,0.000
1727691631.815,-28.320,-521.484,37.598,-50.293,0.000
1727691631.819,-57.129,-660.156,17.578,-48.340,0.000
1727691631.823,-120.117,-738.770,-71.777,-68.359,0.000
1727691631.827,-114.258,-784.180,-137.695,-97.168,0.000
1727691631.831,-15.137,-918.457,-73.242,-0.977,0.000
1727691631.835,-14.648,-998.535,-15.137,13.672,0.000
1727691631.839,-66.895,-998.535,38.574,-46.875,0.000
1727691631.842,-119.629,-999.023,91.309,-70.801,0.000
1727691631.846,-118.652,-1000.000,54.688,-99.609,0.000
1727691631.850,-52.734,-1000.000,-4.883,-82.031,0.000
1727691631.854,-78.125,-1000.000,-26.855,-88.867,0.000
1727691631.858,-81.543,-1000.000,-65.430,-63.965,0.000
1727691631.862,-60.547,-1000.000,-90.332,-27.832,0.000
1727691631.866,-69.336,-1000.000,-1.953,-62.988,0.000
1727691631.870,-105.469,-1000.000,33.203,-121.094,0.000
1727691631.874,-81.055,-1000.000,16.113,-96.680,0.000
1727691631.878,-68.848,-1000.000,-36.621,-59.082,0.000
1727691631.882,-133.789,-1000.000,-59.570,-76.172,0.000
1727691631.885,-40.527,-1000.000,-22.949,-0.977,0.000
1727691631.889,42.480,-1000.000,5.859,28.320,0.000
1727691631.893,2.441,-1000.000,44.922,-15.137,0.000
1727691631.897,-29.785,-1000.000,48.828,-45.410,0.000
1727691631.901,-55.176,-1000.000,19.531,-44.922,0.000
1727691631.905,-37.598,-1000.000,-20.508,-15.625,0.000
1727691631.909,-16.602,-1000.000,-37.598,-21.973,0.000
1727691631.913,-29.785,-1000.000,-7.812,-45.410,0.000
1727691631.917,0.000,-1000.000,10.254,-2.930,0.000
1727691631.921,36.621,-1000.000,-9.766,52.246,0.000
1727691631.925,6.836,-1000.000,19.043,28.809,0.000
1727691631.928,32.227,-1000.000,65.918,17.090,0.000
1727691631.932,25.879,-1000.000,-37.598,7.812,0.000
1727691631.936,-16.113,-1000.000,-89.844,-15.137,0.000
1727691631.940,-9.766,-1000.000,38.086,-7.324,0.000
1727691631.944,10.742,-1000.000,43.945,15.625,0.000
1727691631.948,19.531,-1000.000,-68.359,9.277,0.000
1727691631.952,7.324,-1000.000,-57.129,-3.906,0.000
1727691631.956,-3.906,-1000.000,27.832,-22.949,0.000
1727691631.960,-24.902,-1000.000,54.688,-9.277,0.000
1727691631.964,-59.082,-1000.000,19.043,2.441,0.000
1727691631.968,-24.414,-1000.000,-42.969,-9.277,0.000
1727691631.971,13.184,-1000.000,-75.684,-19.531,0.000
1727691631.975,13.184,-1000.000,-52.734,-19.531,0.000
1727691631.979,1.465,-1000.000,-42.969,-5.371,0.000
1727691631.983,-56.641,-1000.000,-107.910,-26.855,0.000
1727691631.987,-23.438,-1000.000,-67.871,-11.230,0.000
1727691631.991,29.297,-1000.000,45.898,1.953,0.000
1727691631.995,8.301,-1000.000,42.969,-34.668,0.000
1727691631.999,-51.758,-1000.000,-30.762,-63.965,0.000
1727691632.003,-41.504,-1000.000,-40.527,-21.973,0.000
1727691632.007,33.203,-1000.000,-71.289,37.598,0.000
1727691632.011,61.523,-1000.000,-77.148,43.457,0.000
1727691632.014,33.203,-1000.000,10.742,27.344,0.000
1727691632.018,-9.277,-1000.000,12.207,1.953,0.000
1727691632.022,-28.809,-1000.000,-24.902,4.883,0.000
1727691632.026,-3.418,-1000.000,-21.973,14.160,0.000
1727691632.030,30.762,-1000.000,-7.324,11.230,0.000
1727691632.034,26.367,-1000.000,-12.695,11.230,0.000
1727691632.038,6.348,-1000.000,-29.297,18.066,0.000
1727691632.042,-14.648,-1000.000,-30.273,27.344,0.000
1727691632.046,6.836,-1000.000,-50.293,27.832,0.000
1727691632.050,43.945,-1000.000,-67.383,24.414,0.000
1727691632.053,46.875,-1000.000,-17.090,35.156,0.000
1727691632.057,27.344,-1000.000,31.738,27.832,0.000
1727691632.061,-56.152,-1000.000,-4.395,-17.090,0.000
1727691632.065,-72.754,-1000.000,-38.574,-32.715,0.000
1727691632.069,-7.812,-1000.000,-45.898,-22.949,0.000
1727691632.073,6.348,-993.164,-70.801,-27.344,0.000
1727691632.077,-16.113,-1000.000,-104.980,-36.133,0.000
1727691632.081,-62.500,-911.621,-99.121,-33.203,0.000
1727691632.085,-65.430,-623.047,-84.961,-18.555,0.000
1727691632.089,-9.766,-274.902,-63.477,-14.648,0.000
1727691632.093,15.137,259.277,-29.297,-15.625,0.000
1727691632.097,1.953,773.438,-36.133,-6.348,0.000
1727691632.100,-27.344,959.961,-41.016,-5.371,0.000
1727691632.104,-35.645,961.426,-20.996,-18.066,0.000
1727691632.108,-6.348,966.309,-26.855,-17.578,0.000
1727691632.112,0.000,969.238,-35.156,-10.742,0.000
1727691632.116,15.625,968.262,-45.410,-0.977,0.000
1727691632.120,-10.742,968.262,-55.664,-9.766,0.000
1727691632.124,-21.973,968.262,-20.020,-12.695,0.000
1727691632.128,24.414,968.262,-10.254,1.953,0.000
1727691632.132,41.992,968.262,-35.645,10.742,0.000
1727691632.136,28.809,968.262,-43.945,15.137,0.000
1727691632.140,-10.254,968.262,-36.621,15.137,0.000
1727691632.143,-31.738,968.262,-19.043,-1.953,0.000
1727691632.147,1.953,968.262,-5.371,-0.488,0.000
1727691632.151,33.691,968.262,2.930,14.648,0.000
1727691632.155,35.645,967.773,7.324,15.625,0.000
1727691632.159,12.695,968.262,11.719,17.578,0.000
1727691632.163,-18.066,968.262,2.930,12.207,0.000
1727691632.167,19.531,968.262,-18.066,0.488,0.000
1727691632.171,54.688,968.262,-6.836,6.348,0.000
1727691632.175,43.945,968.262,4.395,15.625,0.000
1727691632.179,-1.953,968.262,-13.184,10.254,0.000
1727691632.183,-54.688,967.773,-38.086,-7.812,0.000
1727691632.187,-17.090,968.262,-50.293,-20.508,0.000
1727691632.190,26.367,968.262,-56.641,-16.113,0.000
1727691632.194,17.090,968.262,-55.664,-11.719,0.000
1727691632.198,-12.695,968.262,-63.965,-11.230,0.000
1727691632.202,-46.387,968.262,-72.266,-15.625,0.000
1727691632.206,-20.020,968.262,-41.504,-10.254,0.000
1727691632.210,3.906,968.262,-12.207,-14.160,0.000
1727691632.214,6.836,968.262,-21.484,-14.160,0.000
1727691632.218,-1.953,968.262,-31.738,-12.695,0.000
1727691632.222,0.000,968.262,-34.668,-17.578,0.000
1727691632.226,0.000,968.262,-42.480,-13.672,0.000
1727691632.230,0.000,968.262,-35.645,-2.930,0.000
1727691632.233,0.000,968.262,-26.367,-4.395,0.000
1727691632.237,0.000,968.262,-25.391,-3.418,0.000
1727691632.241,0.000,968.262,-32.715,-4.883,0.000
1727691632.245,0.000,968.262,-56.152,-7.324,0.000
1727691632.249,0.000,968.262,-72.754,19.531,0.000
1727691632.253,0.000,968.262,-49.805,28.320,0.000
1727691632.257,0.000,968.262,3.418,2.441,0.000
1727691632.261,0.000,968.262,14.160,-16.602,0.000
1727691632.265,0.000,968.262,-1.953,-18.555,0.000
1727691632.269,10.254,968.262,-10.742,-19.043,0.000
1727691632.273,20.996,968.262,-19.531,-14.160,0.000
1727691632.276,16.113,968.262,-33.203,-4.395,0.000
1727691632.280,-19.531,967.773,-37.109,2.441,0.000
1727691632.284,-30.762,968.262,-42.480,0.000,0.000
1727691632.288,23.438,967.773,-46.875,4.883,0.000
1727691632.292,39.551,968.262,-28.809,3.906,0.000
1727691632.296,25.391,968.262,-20.508,8.301,0.000
1727691632.300,-15.137,968.262,-18.066,5.371,0.000
1727691632.304,-39.062,967.773,2.930,-9.277,0.000
1727691632.308,10.742,968.262,23.438,-4.883,0.000
1727691632.312,36.133,968.262,16.113,5.859,0.000
1727691632.316,27.344,967.773,-2.930,2.441,0.000
1727691632.319,10.742,968.262,-18.066,5.859,0.000
1727691632.323,-12.207,968.262,-6.348,10.742,0.000
1727691632.327,19.043,968.262,11.719,8.301,0.000
1727691632.331,47.852,967.285,4.395,9.277,0.000
1727691632.335,24.902,967.773,-7.812,5.859,0.000
1727691632.339,-1.953,968.750,-10.254,12.695,0.000
1727691632.343,-19.531,925.781,-14.160,14.648,0.000
1727691632.347,7.324,875.488,-27.344,0.977,0.000
1727691632.351,41.504,854.492,-21.484,5.859,0.000
1727691632.355,27.832,826.172,-23.926,17.578,0.000
1727691632.358,-3.418,797.363,-26.367,10.742,0.000
1727691632.363,-37.109,763.184,3.906,8.301,0.000
1727691632.366,-12.207,748.047,15.137,11.719,0.000
1727691632.370,26.367,744.629,9.277,14.648,0.000
1727691632.374,39.062,729.004,8.789,20.020,0.000
1727691632.378,25.879,715.332,2.441,19.043,0.000
1727691632.382,-17.578,697.266,-4.395,13.672,0.000
1727691632.386,0.977,684.570,-6.348,16.602,0.000
1727691632.390,41.016,659.180,-7.812,20.020,0.000
1727691632.394,45.898,642.090,-26.855,20.996,0.000
1727691632.398,22.461,629.883,-47.852,24.414,0.000
1727691632.402,-16.113,617.676,-36.133,20.996,0.000
1727691632.406,-1.953,583.008,1.465,14.648,0.000
1727691632.409,34.180,542.969,13.672,12.695,0.000
1727691632.413,45.410,533.691,8.301,15.625,0.000
1727691632.417,15.625,515.625,5.371,-1.953,0.000
1727691632.421,-28.320,493.164,-6.836,-19.531,0.000
1727691632.425,-14.160,482.910,-14.648,-8.789,0.000
1727691632.429,22.949,468.262,-21.973,5.371,0.000
1727691632.433,40.039,439.453,-32.715,16.602,0.000
