,TP9,AF7,AF8,TP10
0,-0.5649743932624641,-0.33509878807872406,-0.37178118367053703,-0.12366929438623181
1,-1.0056069316540555,-0.6532350913009297,-0.834581130044707,-0.31694359998678856
2,-1.5470671714934356,-1.0713406931381015,-1.485187275121621,-0.6034726199402729
3,-2.1950477427945727,-1.56503743694977,-2.3166340794580225,-1.0012020255498688
4,-2.90849702528908,-2.100121004985661,-3.3092323673122803,-1.5159598155259508
5,-3.598249736377405,-2.6429953676468454,-4.436050595760175,-2.139043360551342
6,-4.168233693835522,-3.1666156319957954,-5.666157597389121,-2.85277846086706
7,-4.611493877102878,-3.6558962806090856,-6.965070347788003,-3.6445572990510247
8,-5.019508712163987,-4.115683828617645,-8.302254306214705,-4.512209394587484
9,-5.503195508126733,-4.57655348331584,-9.666840826898769,-5.459452849781902
10,-6.131507379174608,-5.095326307530015,-11.081796441319462,-6.489114922390335
11,-6.9328448233118385,-5.709004130435672,-12.558910177403884,-7.6030044057087
12,-7.922984706069696,-6.439316891320613,-14.104902775277319,-8.806860532320346
13,-9.098637714062667,-7.290614608030744,-15.713549328320807,-10.105278998648307
14,-10.427052336810169,-8.246326613140186,-17.36083389872277,-11.49299016385092
15,-11.860564799319285,-9.269918000462084,-19.009468986704032,-12.95147284877496
16,-13.353318633929197,-10.313220887825526,-20.619192456831406,-14.452832370316214
17,-14.867130493272093,-11.329739765391409,-22.155898662933353,-15.964105729791552
18,-16.359546833333532,-12.287462425161346,-23.593293178998785,-17.44147930755064
19,-17.778487669103697,-13.173427835653387,-24.910649709859754,-18.82839483358249
20,-19.074956329158987,-13.989583415345107,-26.09459541841846,-20.067048853730583
21,-20.219655059516715,-14.743520623350433,-27.139702517347544,-21.112697301977374
22,-21.232155845526954,-15.44323213231679,-28.045805624925755,-21.94734955509221
23,-22.1888971834168,-16.100141390069194,-28.817042348454557,-22.581609281209076
24,-23.131678519405106,-16.726839299133832,-29.4626679175401,-23.037661302890182
25,-23.989025477394524,-17.327247313936052,-29.993729270743547,-23.337659878825878
26,-24.675035354605495,-17.89463317237556,-30.417212862610786,-23.511927246575162
27,-25.20109901162167,-18.417723668035762,-30.737907731545004,-23.607326597676412
28,-25.648012810920473,-18.88519347356887,-30.964106403389856,-23.67761996814188
29,-26.053393923758758,-19.289793600565982,-31.106180874056804,-23.754907974701922
30,-26.34971161489223,-19.633269887210705,-31.169535600282202,-23.83564396427434
31,-26.45735689909634,-19.92546738679497,-31.152504710699752,-23.898732181644302
32,-26.388500256881915,-20.17785687094509,-31.0493223203772,-23.928895854551303
33,-26.23030467405856,-20.400090406765184,-30.85244779167182,-23.926647572450385
34,-26.034718597855885,-20.60087681950237,-30.555695934147654,-23.890986196877222
35,-25.76127263359475,-20.78906170956603,-30.160275217426346,-23.80873397265527
36,-25.35374498578496,-20.97858570291662,-29.680107780738233,-23.67340432077969
37,-24.840839943636944,-21.194942504525187,-29.135119276944817,-23.494791035360308
38,-24.356713934975467,-21.471147199042672,-28.539564751547758,-23.28794190800567
39,-24.01740392444575,-21.838417431374403,-27.90170158235656,-23.06276331478519
40,-23.815778411365013,-22.319591777960408,-27.227377977969304,-22.822081448088596
41,-23.6625935929723,-22.922692141386314,-26.52025137493958,-22.55652137919913
42,-23.490618268733733,-23.63565358326081,-25.78156651755386,-22.252544084202505
43,-23.3172318634878,-24.421162850148473,-25.011458073225704,-21.91142879944207
44,-23.147690486676098,-25.217324075574172,-24.211400212550526,-21.54435787494051
45,-22.891801236016697,-25.949090521827664,-23.385976261591697,-21.157268628544248
46,-22.425909134782255,-26.54017391719762,-22.545883139045483,-20.74485837533645
47,-21.69437844439105,-26.92196584838223,-21.712254515899517,-20.305577162295076
48,-20.75921125381344,-27.04540747660829,-20.914507532779066,-19.86017590266727
49,-19.710039857216817,-26.889680231222027,-20.179795298601032,-19.436048188102973
50,-18.56991772065723,-26.46131644245775,-19.526485948869677,-19.040786170403276
51,-17.308028980753573,-25.791086399911798,-18.961519595016515,-18.657537705898125
52,-15.91847822644761,-24.927665970903497,-18.474945022728786,-18.263987618575303
53,-14.47782392807336,-23.923910011357336,-18.034870739984317,-17.84513396570314
54,-13.066102681626706,-22.824650576100712,-17.592654204722603,-17.388525813258628
55,-11.65618679414767,-21.660591705838765,-17.098090185064574,-16.874802730695766
56,-10.122848345868649,-20.444672779897246,-16.505543659247177,-16.265376370692792
57,-8.384771586081117,-19.17742684650097,-15.774696965944365,-15.514288316211958
58,-6.505659031414675,-17.86354332485471,-14.87816942076343,-14.606391887280623
59,-4.6235268617382825,-16.520877037868292,-13.807550231323741,-13.573489547698978
60,-2.818949220535523,-15.176999567535088,-12.57339666569828,-12.455861533817531
61,-1.0686678904709053,-13.864044665224762,-11.201247563447966,-11.267805594202915
62,0.6420408570514208,-12.61071997181642,-9.727278636236898,-10.01786521262379
63,2.2325159819576785,-11.4343834057675,-8.19671073229924,-8.734723791233023
64,3.577382090629228,-10.341302535410426,-6.66089608634021,-7.467434951648182
65,4.600650351917341,-9.332919083902627,-5.17226684308853,-6.259134152648053
66,5.333025612002273,-8.406239221100897,-3.7810553251331873,-5.130001416625603
67,5.823062308363585,-7.5463516369556265,-2.5310818854085766,-4.094826036548198
68,6.041373528889916,-6.731030320131389,-1.4543539927143976,-3.175705907080131
69,5.917294238104742,-5.948857230870717,-0.5723809034821269,-2.3998721081909618
70,5.43768232364064,-5.208822244041809,0.1011590695456597,-1.789204057604893
71,4.695446908518443,-4.537450500312978,0.5594172689365434,-1.352361310454266
72,3.791858570652894,-3.972269128751407,0.7995930641969717,-1.094811228909248
73,2.734065590130424,-3.5531646242450927,0.8244190747253964,-1.0378342816478747
74,1.4603495714484158,-3.309696201286079,0.6476683428120589,-1.2169679877174437
75,-0.03808235141660726,-3.2452946634099056,0.29912299323976627,-1.6415618849485667
76,-1.6458876548514116,-3.333165992490754,-0.17687909607261781,-2.2645319186887995
77,-3.21816169501529,-3.530566156588396,-0.7291089466214312,-3.002361094520108
78,-4.695505326950831,-3.793765964315823,-1.3060898462377855,-3.7803709203543034
79,-6.1064257805836695,-4.086770776360204,-1.8595862507876926,-4.55093649368789
80,-7.451932023524955,-4.386652489042352,-2.3468250594811026,-5.267625065724263
81,-8.627828629300025,-4.682800275210597,-2.7330255771508765,-5.869192524091363
82,-9.502324261304429,-4.97410545433133,-2.9948640140383587,-6.29695189952738
83,-10.032313058429107,-5.271622886016422,-3.1238178082226966,-6.521094556688084
84,-10.289070048331602,-5.596461468924578,-3.125334217519698,-6.549027211349641
85,-10.342892778319301,-5.961609937377076,-3.0144106173693386,-6.407898947923819
86,-10.180234158419934,-6.356708254950129,-2.813082735733949,-6.127776758208687
87,-9.757407880315466,-6.7548033664527685,-2.5481489763105025,-5.737111514622078
88,-9.092590318401792,-7.127001583385244,-2.246174458678192,-5.27117387821364
89,-8.309084201322062,-7.448347354634147,-1.9275754979570459,-4.779760790381338
90,-7.534861407086722,-7.698852469179636,-1.6063317421759147,-4.312227879695261
91,-6.792588463482648,-7.866585350419197,-1.2930870511558412,-3.8908108638035794
92,-6.021510495114408,-7.951497473329353,-0.9923070876487828,-3.500400797064453
93,-5.190737456239938,-7.963205132340424,-0.7017129864685969,-3.1199849956789616
94,-4.370194273681445,-7.9097125453106925,-0.4170407897187516,-2.7563206679301175
95,-3.6412365533256326,-7.7924729343362245,-0.13581122386643937,-2.4288642863075633
96,-2.9974234520668204,-7.6194812795406826,0.1400963891336784,-2.1427140445577626
97,-2.356472069015948,-7.415781726620438,0.403506832496582,-1.890032588017433
98,-1.6651139116893305,-7.213185166658592,0.6432133589811021,-1.672538795654331
99,-0.9709059097681372,-7.031573108107007,0.8474707870248115,-1.5127687048243679
100,-0.3533785480559,-6.872216937454686,1.006528103893479,-1.4452544444905655
101,0.16856833690898732,-6.725511945462786,1.1134265621655226,-1.4960685961145157
102,0.6624490513665036,-6.581191006113686,1.16697721106429,-1.6595457002648375
103,1.1860340550916737,-6.426469551077307,1.1751694569567566,-1.9051366257121773
104,1.694695571071921,-6.237022642568393,1.1544873645663614,-2.2000993918118588
105,2.0970759503018344,-5.980040305327094,1.1235542656501762,-2.5135704505352563
106,2.359854483739197,-5.6266523079570545,1.0938097328360024,-2.8062784671175183
107,2.551924993135435,-5.163492890959976,1.0627647369855946,-3.0288275191200227
108,2.734930733656848,-4.599076288066947,1.0124333291111474,-3.149825827993919
109,2.8595224106615107,-3.961517411583378,0.9137677872824065,-3.1837711225753638
110,2.8273675476704723,-3.290381483459946,0.7402004154789228,-3.173156350679272
111,2.6134844504401467,-2.6248508021916845,0.4830821927056476,-3.1402040370759203
112,2.3114828526412494,-1.9879662577540045,0.15622117885535933,-3.0731366585207907
113,2.027027612521128,-1.3790357611253374,-0.2069628520126164,-2.951962162835463
114,1.778403979512252,-0.787037216275645,-0.5588917246948981,-2.7620403147829133
115,1.5199060404323048,-0.21128524217346698,-0.8432971745560418,-2.4983276414693565
116,1.2440430394487043,0.3318653526284265,-1.0028024827678774,-2.155090141907417
117,1.0396737076250495,0.8177093583536242,-0.9916241826312268,-1.704653555452253
118,1.0124017710215585,1.2101102310351552,-0.7998790021796569,-1.1206024138379667
119,1.1058129588803887,1.5169394483192866,-0.4146947057677022,-0.37261719291959094
120,1.2337419885136809,1.7432369035561364,0.12987231172583025,0.5068983349677307
121,1.38099588178629,1.8927759754831706,0.7701099403490255,1.4648644343453352
122,1.5899057654357056,1.9728183538219075,1.4325001223674707,2.446218171430115
123,1.8615536037175895,1.9987966328714575,2.050426560048644,3.3909827178379173
124,2.126540456754,1.9956678021854857,2.5767666100091904,4.236677310915818
125,2.303688282533715,1.9924039675520384,2.9888486694042684,4.93289162905939
126,2.391149055617919,2.0112845131476864,3.284839682103305,5.460748529471803
127,2.4545458581937707,2.060261861524341,3.4757907699495094,5.830532887845848
128,0.622291718531317,-0.5128736002872467,-0.39886416956251625,-0.06797974614867416
129,0.5153034267566057,-1.1154032282912216,-0.864953998602439,-0.3490118252742921
130,0.20087171296036946,-1.9958731015849347,-1.521806766688909,-0.7878248865321984
131,-0.33177524286946347,-3.166015371398776,-2.36362694628296,-1.4088168766464302
132,-1.0638048380453935,-4.605928827801733,-3.365971336923724,-2.222052548241789
133,-1.9486186880739478,-6.2724283763330915,-4.489829774007228,-3.2057990011425685
134,-2.9164884653887166,-8.105378937865442,-5.6865151714017435,-4.314749478826808
135,-3.8859016151223154,-10.032405288956717,-6.90544637071977,-5.508579057177817
136,-4.775164325452257,-11.980375876679787,-8.1036137131114,-6.761602309623063
137,-5.493661330063299,-13.89493052819747,-9.257145335455968,-8.055198681960892
138,-5.921359751497067,-15.765013914885214,-10.37571518037245,-9.376372436408051
139,-6.0329039590387215,-17.56684032177143,-11.45761149189491,-10.719007520555921
140,-5.943560117821195,-19.279562578966605,-12.50217131281005,-12.093795651471247
141,-5.818627725421765,-20.885320486833702,-13.51138130639215,-13.517297776193754
142,-5.7587639979831495,-22.376761193266848,-14.494391849145872,-14.986184643156001
143,-5.777439203056205,-23.765321549342634,-15.467497876161133,-16.47433039803751
144,-5.852457759947975,-25.071001599920027,-16.44518932535349,-17.957939256905853
145,-6.007834195542588,-26.298439685585873,-17.42993466413929,-19.422391848438604
146,-6.324093653743366,-27.431985471626916,-18.412782421013933,-20.848284927972454
147,-6.869819137961833,-28.45108108539703,-19.381991902349583,-22.205321324741274
148,-7.6254234251488455,-29.34413742667148,-20.329264991792016,-23.457345803490078
149,-8.506865641724584,-30.107860591895804,-21.249445868135737,-24.575012978891934
150,-9.462632690656015,-30.7379932460261,-22.13799633695547,-25.548968882389264
151,-10.503274714826933,-31.22993024355629,-22.9949801163155,-26.389102895832735
152,-11.653475048109657,-31.587584143426955,-23.832456775750398,-27.104401998332694
153,-12.887729477168325,-31.822552217539243,-24.673750958163794,-27.694785560386336
154,-14.15135371272082,-31.94388886920401,-25.543715067376773,-28.17116755759468
155,-15.44106776702584,-31.95266351323757,-26.458096140624914,-28.566450146293352
156,-16.805356695962615,-31.84621238943127,-27.41714837777203,-28.92139261317112
157,-18.24557530298942,-31.625992265914288,-28.400499896829068,-29.258845562109084
158,-19.65638270743173,-31.299220301824004,-29.362881456801333,-29.566854399891916
159,-20.9284210543069,-30.874052199113734,-30.237989127308,-29.813932774071578
160,-22.050640081050567,-30.35581808044381,-30.953818344026637,-29.97616663054132
161,-23.079316724383926,-29.749078242470013,-31.453566511944604,-30.04751337319923
162,-24.03210937966897,-29.062606487356508,-31.707050019800672,-30.028919635448965
163,-24.830966882212557,-28.3083663617268,-31.70841714348828,-29.913028570049278
164,-25.383546218961122,-27.496122508931972,-31.473401428302843,-29.685239329866913
165,-25.67904811869595,-26.631012004134277,-31.04085896374516,-29.34136605773764
166,-25.793831556952846,-25.71372756967889,-30.46640097787035,-28.907560596738975
167,-25.785709107119878,-24.741976827953597,-29.80641573907779,-28.427509605944447
168,-25.612551773931937,-23.712549114037735,-29.103543659773877,-27.922903409079467
169,-25.210708825606282,-22.62324035811369,-28.37776984377696,-27.381851448149636
170,-24.602730045237593,-21.476531718203347,-27.629445723775277,-26.780362739402705
171,-23.91840659551004,-20.28541058720892,-26.855242070476184,-26.1001324445933
172,-23.286992601348608,-19.07203182935465,-26.0528125252368,-25.328559900876996
173,-22.736838738651407,-17.859583296808218,-25.21134249358397,-24.455037713013787
174,-22.240755687867708,-16.665603428479137,-24.31390675294661,-23.47937688696456
175,-21.815795160136513,-15.497753661478662,-23.348409215076543,-22.429724706323135
176,-21.560503049626817,-14.35432684219733,-22.31316697027531,-21.367737457181565
177,-21.565816218528784,-13.22944669900356,-21.218097521499526,-20.37318642930137
178,-21.830666040458077,-12.1195756195752,-20.085606179630222,-19.53337445488284
179,-22.292351160712595,-11.025530935183586,-18.94767343133248,-18.942627756967884
180,-22.931503474804813,-9.949826871655453,-17.83668980120905,-18.704553939274792
181,-23.84176531846301,-8.89364032674332,-16.778801845658414,-18.92753850509317
182,-25.151792702197575,-7.855855910563957,-15.794056848747232,-19.708903290483757
183,-26.922445407891935,-6.837069548840263,-14.90157628712082,-21.11559082712018
184,-29.144668390594774,-5.8429350412264425,-14.124014155146982,-23.175377353492177
185,-31.839232945824975,-4.883252315130378,-13.484334068554096,-25.904618590999185
186,-35.11287918199322,-3.970658139717814,-12.997818263223287,-29.330912110681936
187,-39.05995091922001,-3.1212229511219123,-12.669067827359507,-33.46864407549679
188,-43.67216961366601,-2.360232258642795,-12.49415416276157,-38.292552425924576
189,-48.83961367205364,-1.7268382490590004,-12.464655315330152,-43.73488542358987
190,-54.448897895121746,-1.2622231328958122,-12.574287985341298,-49.70111846129553
191,-60.458010140280415,-0.9879051814118434,-12.815671241390064,-56.08926295365755
192,-66.83188133367162,-0.9012225195867529,-13.17008175603229,-62.7845675658544
193,-73.45576002022054,-0.9854606229240678,-13.606784614099313,-69.64277762749244
194,-80.10595757257146,-1.210945424027829,-14.08410522210458,-76.48829454898546
195,-86.54706143046575,-1.53099597978692,-14.551503616132118,-83.13260049650734
196,-92.64436302836717,-1.8886555301288568,-14.961887241344433,-89.40995327389972
197,-98.32981779147123,-2.2303060682039746,-15.28678866395753,-95.20134030685938
198,-103.50040054781184,-2.514158960006981,-15.522312037016722,-100.42151760007086
199,-107.98308659789785,-2.7165036652740846,-15.685067229003137,-104.99698146307183
200,-111.63717794919955,-2.8375719795987315,-15.80564698917165,-108.86593231822485
201,-114.4534609599662,-2.897966392693004,-15.92065197621418,-111.99872417248936
202,-116.51249956670073,-2.9260243965953268,-16.06171086445954,-114.39830249130243
203,-117.85718347629727,-2.9439821772076638,-16.24941537269081,-116.05557725701445
204,-118.42385131127223,-2.96175661036467,-16.494382308951693,-116.92060233779715
205,-118.11820077490307,-2.9772257649644622,-16.793154379870135,-116.91666189243415
206,-116.91445876254843,-2.9780414509356783,-17.123363841246373,-115.95958998702295
207,-114.85936593845743,-2.953586349256224,-17.449600911187126,-113.97365177482904
208,-111.9665197695828,-2.9047389082986754,-17.73171904391832,-110.90007463070238
209,-108.14762361649537,-2.8334855786537547,-17.932387722281714,-106.70144325725897
210,-103.29810624325557,-2.7374932015562354,-18.025139527983832,-101.3742634522218
211,-97.415755863743,-2.6243932150841225,-17.998281318125212,-94.96523179571223
212,-90.62799955676765,-2.524397924669637,-17.853477171024398,-87.57399462712623
213,-83.07365125608789,-2.485661796193635,-17.598410194973805,-79.32384041381117
214,-74.80517143595291,-2.5574002935451605,-17.238271563399447,-70.32895427697525
215,-65.8423181275499,-2.7778845526213787,-16.773879708628826,-60.69244560603476
216,-56.265152523158875,-3.1744163086734627,-16.203379033978,-50.521857529977325
217,-46.24759710378145,-3.7679488756888593,-15.524461563069014,-39.93434567754095
218,-35.95260200585228,-4.576214880021374,-14.73641749331357,-29.03311337709228
219,-25.433555667769895,-5.614897518919505,-13.83910052818333,-17.884596719504742
220,-14.687336835076211,-6.893101011357553,-12.832249722827124,-6.539772388636802
221,-3.7608849809411065,-8.400526819337854,-11.714570817682807,4.92798166102437
222,7.200008535101588,-10.099706095362139,-10.485871559469793,16.414345821999138
223,18.036594696294472,-11.93470510531743,-9.155438607006571,27.796422259218616
224,28.672265913006658,-13.844982578559076,-7.745989735884242,38.95192880133139
225,39.09011160072473,-15.774616044937627,-6.290019996267366,49.778288606988355
226,49.231724698459395,-17.679063962920146,-4.822910598698193,60.18528898837423
227,58.93961307492465,-19.522306239988083,-3.3754723541314675,70.07764089524221
228,68.04632761916461,-21.26748534980369,-1.971132890991225,79.36451175040754
229,76.48319642098184,-22.87846523919504,-0.6276436712522186,87.98014215739782
230,84.28355683277883,-24.32591094336483,0.644201698854997,95.88317210593064
231,91.4720399858805,-25.592587839972584,1.8423461518322928,103.04019160552147
232,97.97878412666749,-26.67830898039288,2.973854625209772,109.42203774176241
233,103.71256427798416,-27.591799504615697,4.057562064095469,115.0140659408755
234,108.67220691517582,-28.33580661414529,5.121563378799661,119.82976871944915
235,112.95579620897071,-28.903476973662276,6.19271489711725,123.90811503971184
236,116.63690988211692,-29.2866630586991,7.286534857122064,127.28475303960592
237,119.68142917980927,-29.481838700502177,8.401743264377416,129.97311096635482
238,122.00987388502985,-29.49258100948714,9.517321523789843,131.96916590456215
239,123.596150174698,-29.33196575818502,10.593700813356612,133.26938298259398
240,124.51605897080894,-29.01580275515449,11.585928726010813,133.88994210521201
241,124.85459650576018,-28.55443752135596,12.462798247600512,133.86528016171346
242,124.60932512601894,-27.95323508502334,13.214457867156975,133.2305724405436
243,123.7303937304668,-27.21685406423473,13.847837331050494,132.0157496378143
244,122.22825784766567,-26.34769360705078,14.381534155336734,130.26331765662408
245,120.22599796775424,-25.339616261115705,14.84426367421581,128.04058749351375
246,118.07057315178027,-24.265638791788206,15.260588663064222,125.62691591916392
247,115.45226134054471,-22.970077920397305,15.68677176538254,122.7879236546196
248,112.26674486843163,-21.407366149670597,16.15408645026829,119.485618204505
249,108.6335100274482,-19.608187837202987,16.669088231213056,115.82106307207353
250,104.8100376351914,-17.65400549484086,17.214047147555274,111.97646796361848
251,101.03592109536754,-15.65929563920712,17.75227482475091,108.16070674456977
252,97.47561884086058,-13.751126611752952,18.24172930008017,104.57160135001547
253,94.26829474540928,-12.048162108520035,18.64750323458716,101.38263392986195
254,91.58008507440749,-10.644193325361044,18.948709318807996,98.73895950040867
255,89.56615443933917,-9.59625428374279,19.143275191374403,96.7436874324053
256,0.559194660093997,-0.7859699354982798,-0.36036196543393295,0.14367169938224505
257,0.7602991351367935,-1.6755644923854485,-0.7222776641984943,0.3119678322173004
258,0.9917877656168677,-2.9165425677540444,-1.2138497135030353,0.5809967429891669
259,1.1582704644362427,-4.509124099860965,-1.8388594576967896,0.9379711049979086
260,1.208972194034766,-6.432627952746426,-2.594072664622318,1.354284874166265
261,1.17199321247822,-8.634348118738883,-3.465974635955733,1.8016886805319323
262,1.1009595674467019,-11.033458673173769,-4.432302590267163,2.2472214841423845
263,0.9880266641279475,-13.537704871061962,-5.468965832958824,2.6380024297022655
264,0.7727404444565519,-16.062759326486237,-6.56028385081218,2.89918798640404
265,0.43631838177299187,-18.555418737224446,-7.709513745490905,2.950651580678281
266,0.044717758500399885,-21.019595297486553,-8.94751396861323,2.7353984165622243
267,-0.3906917876262028,-23.4259300827,-10.289097584257037,2.2043585391640095
268,-0.9409062885019859,-25.741350808774172,-11.740747892230207,1.3187517472026906
269,-1.676373304871581,-27.93803253024042,-13.30463726108147,0.05644901165702654
270,-2.570971610582091,-29.999010291128062,-14.982087507859712,-1.5707665583071995
271,-3.5182405402686125,-31.917042106092897,-16.76939222653487,-3.5066642930408256
272,-4.447868930662949,-33.69042568200867,-18.650640042286405,-5.669173305469067
273,-5.398597172798116,-35.32197343754365,-20.591441519408438,-7.977028871763036
274,-6.430575516935958,-36.81908072468583,-22.5356164231635,-10.352483527123791
275,-7.521416914071804,-38.182413734034746,-24.411192844248234,-12.707042459782231
276,-8.564534894485808,-39.39010809803237,-26.142715927776653,-14.933721130500576
277,-9.490822136632286,-40.40468292408318,-27.663298607279785,-16.932960817320744
278,-10.357210147663897,-41.19738095221468,-28.924402362959356,-18.647400579851368
279,-11.26663245245506,-41.75592869835971,-29.902432840390688,-20.065980760155853
280,-12.250730268655634,-42.07711658024479,-30.60080865073615,-21.200182005579446
281,-13.23595417792604,-42.165762213277276,-31.04442258298312,-22.062494993606347
282,-14.158473850927225,-42.03733210498306,-31.26974235729346,-22.674906120660065
283,-15.066663345314879,-41.71628400861696,-31.316209477536006,-23.087970942372287
284,-16.056740588034128,-41.23185729623968,-31.221419020262655,-23.374683425857334
285,-17.15070277873477,-40.61177812031114,-31.015758674521006,-23.596492554544394
286,-18.245784835016767,-39.87642818229277,-30.713523232354145,-23.77891426322104
287,-19.22431873700918,-39.034930992586574,-30.3109861184367,-23.92648839123352
288,-20.07270921224694,-38.08363754575675,-29.799205463450033,-24.049649351129027
289,-20.85568824826398,-37.01151991963502,-29.17821129998245,-24.166473812416385
290,-21.606776239670083,-35.8089308418518,-28.460616058773756,-24.27797564132258
291,-22.273331452210925,-34.475538065231824,-27.668991500040907,-24.355743434421495
292,-22.806593688827103,-33.026191156944684,-26.831913215190195,-24.364622708723626
293,-23.249191156893687,-31.49406641102268,-25.980879062387004,-24.29300085975614
294,-23.709365252165263,-29.925778435740515,-25.145959105750894,-24.15625739616814
295,-24.24841020480454,-28.366925963598018,-24.34934052376097,-23.971857377687034
296,-24.817291550806587,-26.856923847604136,-23.601701665679638,-23.74624745343431
297,-25.343688099000904,-25.435837779451052,-22.90277467269121,-23.487100177386722
298,-25.829858917850014,-24.14539058283501,-22.24756848202017,-23.22484453672485
299,-26.356203073791722,-23.02224618558149,-21.63543591657093,-23.01617236691045
300,-26.965427311437534,-22.090761975763776,-21.07304605891986,-22.915854973827727
301,-27.586580450396852,-21.355417710609206,-20.570925207346164,-22.952962497666306
302,-28.122032546527382,-20.794208437079284,-20.13889620165157,-23.12479629383182
303,-28.547100434720555,-20.359839508826308,-19.784074891878138,-23.412549152698524
304,-28.925114664662495,-19.99034914356964,-19.51052256176379,-23.805253005448726
305,-29.294854552004182,-19.624814993064618,-19.319253546893254,-24.29220251915466
306,-29.580279919769012,-19.210752921685398,-19.203641777754168,-24.83928700168848
307,-29.648454822882513,-18.699997578369775,-19.141605569558084,-25.381334421912218
308,-29.418733333983667,-18.051141794272734,-19.09774434837692,-25.851073690223934
309,-28.924254504911495,-17.243288171892598,-19.035725373838808,-26.217167144131892
310,-28.22912755810825,-16.287915039757912,-18.929640797487416,-26.48368659531327
311,-27.331838173009736,-15.222850061816851,-18.76701272885216,-26.67317602522426
312,-26.189372144906475,-14.093990363007201,-18.54816206144548,-26.81697840405381
313,-24.814815356228948,-12.941726633966956,-18.284520715535805,-26.95059088775726
314,-23.33278379406379,-11.791796709298492,-17.990566982252055,-27.105332903259388
315,-21.879065412299372,-10.653740249319082,-17.67457361332977,-27.2894605629169
316,-20.477723461620354,-9.527235180491987,-17.336004465000237,-27.47340109209374
317,-19.049487092919343,-8.407613065461899,-16.968231429772956,-27.59633286748812
318,-17.541644324276596,-7.287364323664225,-16.5623757109479,-27.59788026053884
319,-16.006941030255287,-6.155715675030501,-16.108564892633964,-27.446931218664112
320,-14.531372718798014,-5.001392544146131,-15.595962173849813,-27.133955082402252
321,-13.13684987991557,-3.812553890598452,-15.015039151221313,-26.64210126273545
322,-11.755103639397783,-2.573851715458412,-14.359935073352505,-25.949203127876906
323,-10.340911532563402,-1.27519321318241,-13.632802822282017,-25.05959757672013
324,-8.965878151562366,0.07105990581766347,-12.850205716243527,-24.01648977081442
325,-7.750372899841962,1.4242655096699166,-12.039714046766168,-22.88401068569012
326,-6.753513934237021,2.730460183169824,-11.228707239464013,-21.710130990183785
327,-5.929853116581476,3.9409759439947454,-10.439675680193204,-20.50887177828127
328,-5.231182406338514,5.016418648972644,-9.692188506062843,-19.28012161173742
329,-4.701982763985283,5.922867891033201,-9.005553374751903,-18.030786131193477
330,-4.439254194843565,6.635227498141791,-8.39854730068588,-16.784798925013305
331,-4.489712045596638,7.146424250000585,-7.887077452569633,-15.57715530909495
332,-4.793364424006615,7.470924052062697,-7.482096861063205,-14.4397353225586
333,-5.275230986328563,7.634970534226938,-7.184112661485634,-13.398046722381654
334,-5.935665387618625,7.661184840848063,-6.977412825191073,-12.474573401512755
335,-6.818589393334218,7.56470478172994,-6.832038031153433,-11.688325341488529
336,-7.907973896564706,7.356641394069689,-6.70972372257251,-11.03741400242902
337,-9.073404557080085,7.048290174897239,-6.569589656293464,-10.485019545477456
338,-10.159919997175134,6.654291887011685,-6.372281401100921,-9.969641487550012
339,-11.103969852584783,6.1874692616192375,-6.083377783338891,-9.429501717728304
340,-11.95000246947196,5.658969691237223,-5.680023332825179,-8.8299128866902
341,-12.729238104348129,5.093368593482621,-5.152135200235992,-8.161282653944111
342,-13.372755499599602,4.534870827846163,-4.496173147778131,-7.414597122450617
343,-13.789282786421847,4.033246928440868,-3.711853880468913,-6.576145280237078
344,-13.965184359803771,3.6256740838491694,-2.803695878059257,-5.6480824038038175
345,-13.977981685389016,3.328597271718518,-1.7842802665861324,-4.662418761227409
346,-13.88081265468007,3.14094703281092,-0.6729920026693219,-3.6606664990222364
347,-13.616500419135066,3.053646819086879,0.5088078171828757,-2.6641062937958626
348,-13.082198509673319,3.057730827421084,1.7353399926096789,-1.6661298610843787
349,-12.240447501926468,3.1443439562819804,2.9689316162191974,-0.6555172849351061
350,-11.174420111785638,3.304539844611807,4.160311888833325,0.3578623296798942
351,-9.986287242537346,3.5332225453296813,5.257692688010416,1.3537507921849057
352,-8.685026176361518,3.8251955322800715,6.2162181884087335,2.3272423235986097
353,-7.22223495464763,4.164431511667218,7.003227390039164,3.2877292228371378
354,-5.60022421863902,4.521306393031292,7.601253170442782,4.2325275820480694
355,-3.922213753806474,4.862545182332735,8.010678306652682,5.13385734470987
356,-2.296539504585018,5.165446538592663,8.249499205006334,5.956239643116119
357,-0.7328444892628685,5.424469393054542,8.348557355246454,6.684151570980969
358,0.8412134676670207,5.646342748043002,8.343760087984645,7.326868680459701
359,2.461077379292814,5.838621313990339,8.26616308339591,7.892845193677317
360,4.0511002596002035,6.008699344482082,8.13720103866699,8.380933913771525
361,5.51371750542358,6.173263487441063,7.973095527163067,8.796721923124705
362,6.842792526128843,6.357650440183235,7.786797689499303,9.166122995880572
363,8.131919912594443,6.585647984712893,7.584460300252775,9.532327825590219
364,9.453513222719199,6.869689569244105,7.364280796211972,9.924616600143644
365,10.762807608861063,7.2027722384003114,7.119514511898726,10.329221629219456
366,11.958484308047739,7.556600108144792,6.843567434377544,10.695540526364036
367,12.99564604497766,7.889541866060127,6.533269163132329,10.972002782904044
368,13.926798361345732,8.15573450010387,6.191245242738964,11.127589235054348
369,14.78306109760823,8.312856138993101,5.8283832883052025,11.137821500458374
370,15.481929651137683,8.331400377940705,5.461812035511135,10.979745345515546
371,15.896949721279773,8.199790212641041,5.110350048691246,10.643407271468616
372,15.960582544495045,7.921410827404983,4.790649577881258,10.147508074497699
373,15.716672467822583,7.507835273593526,4.513964167670036,9.552786915356315
374,15.33149910010843,6.996433868042418,4.299388571178636,8.951307443301832
375,14.565964219178923,6.380752885782458,4.112720833802156,8.38752954793625
376,13.325236702120547,5.690059037222031,3.93127402954248,7.897535342146378
377,11.68916907265837,4.97232422801895,3.739809946512602,7.508873000749201
378,9.843513406054752,4.275467521432042,3.529556065077907,7.233300884351813
379,7.944226588741911,3.6363544115750472,3.2984057719320807,7.058017450026178
380,6.0731349061018065,3.07966314801489,3.052281222002775,6.947635151178397
381,4.303771986045412,2.617330247384565,2.804624553303805,6.862185474259649
382,2.7676595894073976,2.251659937068071,2.5735744569509222,6.782738418045925
383,1.6124644523193146,1.983529155838159,2.379640149396942,6.7160871447319765
384,0.31244810557775865,-0.5400064196936791,-0.5057721160259863,-0.2866615556786918
385,0.14303347092616336,-1.195876334101907,-1.134726818338371,-0.6978432120394138
386,-0.20109180273812127,-2.1339813769686113,-2.0550103321891724,-1.3196910633464145
387,-0.843808553067789,-3.3630362320600113,-3.2819702500457266,-2.201391032712962
388,-1.8443040157183872,-4.869628241076493,-4.807314261916591,-3.370985399333162
389,-3.162979925660662,-6.615530392480509,-6.599734592057057,-4.824895488527258
390,-4.718196318357077,-8.536190116159519,-8.60892986497882,-6.534910187101355
391,-6.4701985484542215,-10.550667290756646,-10.772273020548205,-8.463087553812933
392,-8.409330747248752,-12.584002218348601,-13.024231341756954,-10.564969170441538
393,-10.470841165452377,-14.590328338598576,-15.311986747764688,-12.785931501637053
394,-12.517453230720683,-16.574310194283026,-17.619554666825355,-15.073693370785222
395,-14.468756999868338,-18.525283687146217,-19.911523729505692,-17.363168989953742
396,-16.34768451438824,-20.421179908839797,-22.152587034506617,-19.594210402258838
397,-18.18041321465697,-22.225162619118326,-24.307533153003142,-21.717191259373102
398,-19.899562912073467,-23.893781507359687,-26.34030945027766,-23.691812984623713
399,-21.3845412204751,-25.38835037110882,-28.208436512394144,-25.47588587478392
400,-22.568459385451415,-26.685963348480364,-29.869584761344246,-27.040140151188528
401,-23.499761812284348,-27.781828798792528,-31.301009029272155,-28.391138253642943
402,-24.256577591634773,-28.686539722474194,-32.4982026944377,-29.551878476108193
403,-24.843864397512533,-29.420891459833378,-33.459023470905734,-30.53302884443416
404,-25.200021279177097,-30.008069180953086,-34.17618921249027,-31.325175651222008
405,-25.310176577544663,-30.47126537657918,-34.635389015215274,-31.916838254322126
406,-25.27921446768674,-30.834665777820597,-34.815645989889994,-32.31284153398131
407,-25.2443432496388,-31.12104372133874,-34.692107173970875,-32.52468496985812
408,-25.256360919732302,-31.3470399428217,-34.241038336910094,-32.556459496132696
409,-25.253315227297595,-31.51905623829436,-33.445064934691004,-32.407412713102396
410,-25.178922385430965,-31.632539146742182,-32.29641002598622,-32.08467346151066
411,-25.076943803154236,-31.671840972308853,-30.80465108876943,-31.607000752854464
412,-25.012921316112045,-31.613577110584934,-28.99303391861406,-31.001556953259573
413,-24.984934425813186,-31.441418967495693,-26.879886440024706,-30.29578816962233
414,-24.94788659863245,-31.15978596564975,-24.485709071009136,-29.504891037391605
415,-24.903861520476624,-30.801396173817366,-21.857171351893218,-28.644367839793265
416,-24.905121066498243,-30.430992836888738,-19.075781720038467,-27.75662303194502
417,-24.962574756191994,-30.126841980240606,-16.24618519938877,-26.90114184042577
418,-24.990578792013192,-29.947123214887284,-13.469555254823973,-26.110187598855813
419,-24.852646848332764,-29.904172051344826,-10.83614549925827,-25.372104857627516
420,-24.463937208709496,-29.95409332927796,-8.43888151117625,-24.66475594778587
421,-23.81350657055589,-30.00435856214471,-6.367077254552373,-23.987758561530033
422,-22.89853263929912,-29.929444523722186,-4.688725569893669,-23.357042171165055
423,-21.66632841459279,-29.590279062553904,-3.4422282798005153,-22.773855107021138
424,-20.050683566716692,-28.860698087119232,-2.6325146953026963,-22.210687290334626
425,-18.06562299620129,-27.650328302770312,-2.2325912743796916,-21.629790868726687
426,-15.829146760027356,-25.915699642878277,-2.19098379322274,-21.003468135901223
427,-13.514738093172017,-23.668408657186475,-2.438258831546814,-20.321827663432863
428,-11.236896820122396,-20.982387981183265,-2.891936675494006,-19.57968795642707
429,-8.986527607496031,-17.984902710107203,-3.4706463372969774,-18.75234099873936
430,-6.705358453236645,-14.826247085203846,-4.117904997946589,-17.798908136869443
431,-4.3652329799599245,-11.645497676072436,-4.806285530272238,-16.692002607526405
432,-2.0218638429810505,-8.546019925408492,-5.519430153015278,-15.435884908957526
433,0.21189380081686593,-5.5844849027528864,-6.2442748090146,-14.048093510460903
434,2.269795999300906,-2.7826761539750087,-6.971918448741992,-12.541854506071665
435,4.164866939415225,-0.1524779065600726,-7.698315132975595,-10.936012170300108
436,5.930978065330753,2.292577859367995,-8.420653663108334,-9.271107470131021
437,7.531552116969512,4.536724588268545,-9.128889065868883,-7.614951898000134
438,8.868478204713046,6.561134731169768,-9.80686107848922,-6.035844110064916
439,9.879182033605339,8.348653229562167,-10.44027403005605,-4.570246837177648
440,10.580175280569884,9.88833664712525,-11.018426594215319,-3.2193808594522917
441,11.024936142707023,11.17307000253376,-11.53031246679081,-1.9689295579881432
442,11.21842568045251,12.198860086204965,-11.962630542273097,-0.8076133971610717
443,11.120132690340563,12.967716383068295,-12.302177986251742,0.27438447068683314
444,10.744196546229583,13.48900764888116,-12.542335849426268,1.290821674862719
445,10.199473822483863,13.776919786915986,-12.691346373049516,2.2572906382700295
446,9.583043476845125,13.845505748050375,-12.772144631564492,3.1714791185194957
447,8.883168019651531,13.707735368306796,-12.812852486316157,4.000506365174096
448,8.047827552714061,13.37784423236543,-12.839542759857396,4.7040210443737935
449,7.090415600296538,12.86808994992256,-12.870204345658335,5.259123396441079
450,6.099166054344464,12.19234960686605,-12.914522131378686,5.661288385131762
451,5.123021143254033,11.38060335783686,-12.981910827951607,5.908620261295813
452,4.103013326813436,10.477117922451576,-13.078120195039867,5.997381423525436
453,2.951507960039387,9.522200309726207,-13.200260680331759,5.931612477519295
454,1.6496140868971558,8.538813545263771,-13.344242232422376,5.736442205048192
455,0.2867040576611657,7.532167527527123,-13.505439827995106,5.462239722906416
456,-1.0456692510394627,6.498854733994966,-13.671711131080396,5.153115460266387
457,-2.356291849299013,5.436687201420866,-13.824082115543165,4.817851691592134
458,-3.705207201731735,4.35210771779071,-13.943818672980052,4.446439014414527
459,-5.104707890586891,3.2611286419311583,-14.017152256326812,4.045186724133547
460,-6.468756810427038,2.1835459882222255,-14.03256102528982,3.6452420920538415
461,-7.710258573503696,1.1367486474457158,-13.97537446252514,3.2824247703321356
462,-8.837430316071547,0.13177597779174496,-13.829767340342588,2.9775484525215843
463,-9.906078957063427,-0.8257650169013078,-13.584750078419914,2.7339906502742664
464,-10.907221190416365,-1.7298564821489986,-13.235772048828856,2.5558029041593144
465,-11.722681724956674,-2.5671716221800756,-12.781778475581676,2.4541488422424718
466,-12.238560474580304,-3.3157595172625363,-12.226109659276236,2.42984858408152
467,-12.458631369082143,-3.954566241367841,-11.582580788833985,2.465090659879088
468,-12.488473486394835,-4.480291538870593,-10.876784915119762,2.5282744490002025
469,-12.417253067667941,-4.906539737876199,-10.14048451213723,2.5900706358683876
470,-12.236462653333836,-5.241807484632221,-9.403510781317774,2.6426175192266856
471,-11.90710883971211,-5.482426427060601,-8.68669803168881,2.69266659014287
472,-11.464693432932313,-5.626333733323888,-8.001677044785662,2.7391600147587036
473,-11.03392640808526,-5.682029825971733,-7.356515928133605,2.772565329591829
474,-10.698964280136526,-5.664979543301751,-6.757553096680296,2.789492647753401
475,-10.413046162756203,-5.5990450124732165,-6.208550092194319,2.792494728194289
476,-10.069460987881408,-5.524613082315897,-5.712568589641966,2.7836242380444447
477,-9.6084404811929,-5.493607257159597,-5.2741685458782355,2.7545519585727414
478,-9.070387351316587,-5.5535267012546585,-4.902311137779239,2.6746322363568105
479,-8.506224155269564,-5.736011174912694,-4.612044710785092,2.5038151856659803
480,-7.8889650766869,-6.053586269469429,-4.418489137191667,2.2155381306941164
481,-7.1554530016183255,-6.501804036491782,-4.32932463001934,1.8025851795744765
482,-6.2976333517443415,-7.064410408993496,-4.3437896714158875,1.2656934667800859
483,-5.41427307453593,-7.716986187040386,-4.454739822374317,0.6039335704740126
484,-4.612521323665689,-8.42977741210978,-4.650207454546028,-0.17858849663950674
485,-3.90177493518378,-9.17411338879893,-4.916008579338834,-1.063665878565171
486,-3.2218746887811283,-9.927350326391657,-5.239002357950019,-2.017110060865363
487,-2.551190148927188,-10.676676789960144,-5.609699066004764,-3.0045318270901253
488,-1.971503665687546,-11.419229347192783,-6.023604948781202,-4.005877196854789
489,-1.574256695862002,-12.153778861995104,-6.479515929156585,-5.006782031233705
490,-1.3475565774500315,-12.876504858712497,-6.978294568788053,-5.986788385199414
491,-1.1838112194684278,-13.58473173317896,-7.52253760263828,-6.909953239745562
492,-1.0034295004674911,-14.2747877429394,-8.113357898971872,-7.73344677877544
493,-0.8447270960453723,-14.934086157173695,-8.747079145649161,-8.434586063242115
494,-0.7880997485738954,-15.544880987647073,-9.413154087392334,-9.013898407906638
495,-0.8406830108772705,-16.095059359791794,-10.09052278299464,-9.46733636620185
496,-0.919389848103524,-16.57693279999778,-10.74446153445732,-9.772439038015635
497,-0.9670338287932678,-16.97879864456479,-11.331222258588094,-9.90855137918096
498,-1.0287213229594148,-17.291055814810665,-11.810553642774325,-9.87888827858581
499,-1.1808906361505782,-17.52449403579684,-12.153922743518061,-9.71281201798313
500,-1.4277330410911564,-17.7112466018099,-12.34346403158101,-9.440713957012393
501,-1.665271220284455,-17.883040368826247,-12.3663586806642,-9.065083627265128
502,-1.8071023943409654,-18.106957291756284,-12.26972644496299,-8.664741185698688
503,-1.8478638701539951,-18.27683026122467,-11.947279434299883,-8.062775542237057
504,-1.7974020546777068,-18.32568104816409,-11.369169163699391,-7.184603649125439
505,-1.6137615215643668,-18.22218374886814,-10.561226399295245,-6.02255983029514
506,-1.2390802875793099,-17.96682943825534,-9.586232203703446,-4.617674295967239
507,-0.699464213810277,-17.584942307045708,-8.527431762721992,-3.0570853238864424
508,-0.11283940877942139,-17.11598601047728,-7.471477366492246,-1.4622043552337252
509,0.4046888926999533,-16.606308055251937,-6.494842524192415,0.03829358452223637
510,0.8211036619696478,-16.103880130464162,-5.658334992815736,1.3415926138371015
511,1.1651108629672189,-15.65246826504439,-5.0046392964156885,2.382083945118062
512,0.5246457862661003,-0.47854079216922496,-0.6060413146309616,0.13502772088557952
513,0.6316271123705655,-1.2868709555470597,-1.368824269758833,0.09339880049401772
514,0.6632431333674051,-2.5122240075022266,-2.4770537550235034,-0.02885041217640172
515,0.5067245122484384,-4.182160032712413,-3.945962940628533,-0.28255754551441903
516,0.10778447606612357,-6.298192143448319,-5.768745957468665,-0.7113499828706028
517,-0.5028320474062755,-8.829431043929768,-7.916209490147261,-1.3261766620689608
518,-1.2685917374386402,-11.706287789030851,-10.335517569861882,-2.1052483498108603
519,-2.1828041129079065,-14.825969972973375,-12.957639313724613,-3.0152627006042483
520,-3.264375968972686,-18.070967239730912,-15.714833576774533,-4.023747063079131
521,-4.463127816001557,-21.334656627985044,-18.559850178189066,-5.095829529906762
522,-5.6345850570310505,-24.553744827738715,-21.48692718016023,-6.1857810561310576
523,-6.687092848040447,-27.65765267390077,-24.46103485368669,-7.259837455134586
524,-7.627874680518741,-30.600716434634673,-27.438747531153474,-8.301731925477034
525,-8.477111763247008,-33.36130668741913,-30.368443669169903,-9.298372264046046
526,-9.178264666721184,-35.92635107547323,-33.1953596747097,-10.231461586686983
527,-9.639966313097611,-38.288429832389674,-35.86931203476695,-11.087207274007472
528,-9.83301876905534,-40.452921235841046,-38.349164258703084,-11.87574141183756
529,-9.839329288430045,-42.43367616327396,-40.60189278403555,-12.628537231761955
530,-9.760608870291215,-44.24377359000252,-42.59739690017467,-13.364496462766175
531,-9.614177110148171,-45.893686648264115,-44.30594431537559,-14.064305064099885
532,-9.338903771673166,-47.39443423504378,-45.700381701583744,-14.675694131449122
533,-8.897159582629435,-48.751680222995,-46.75966957309116,-15.148479388041933
534,-8.350702973555652,-49.95749061186649,-47.47334895340466,-15.469737369299938
535,-7.788370952181812,-50.99315278813764,-47.84419064318811,-15.657873311156806
536,-7.224385784863462,-51.834069615874796,-47.887778873446145,-15.727482410629843
537,-6.593608980157159,-52.456120816252074,-47.630629680685836,-15.673485534873189
538,-5.865173578089561,-52.84848232055636,-47.10758691032812,-15.492094768344407
539,-5.119348148210647,-53.0156771492297,-46.35960247873145,-15.209322868735374
540,-4.4721765781997425,-52.966439302352526,-45.42997742374488,-14.874635835159141
541,-3.965761531367809,-52.706633782376095,-44.35946183871769,-14.525339650425751
542,-3.531805117252558,-52.23641308151962,-43.182941876739854,-14.165805149391776
543,-3.1041707445753643,-51.55395731108402,-41.92595342017892,-13.775064728908774
544,-2.716657824533346,-50.668213443402244,-40.602227872306926,-13.329571935927168
545,-2.449379251481389,-49.607645275700435,-39.221307712239486,-12.821561098269703
546,-2.3306610780904142,-48.413447047202965,-37.80130190792773,-12.251679836877024
547,-2.2880135805814428,-47.12197443804838,-36.3669546862549,-11.615438385885266
548,-2.2415815767871425,-45.75072744489085,-34.937161527708994,-10.907424848570907
549,-2.20785436438619,-44.29068851901526,-33.51962379946002,-10.128800261456124
550,-2.2658947581233693,-42.72169432117323,-32.11339317917401,-9.28586175964963
551,-2.440564171262618,-41.04610025588281,-30.71322608251727,-8.373818974051979
552,-2.6444737996772223,-39.294195131451346,-29.311635246033934,-7.367560895297438
553,-2.769846698864325,-37.50372170773166,-27.897368589933322,-6.235199248255947
554,-2.7832261360259833,-35.70401938935751,-26.456993818298407,-4.95564683950687
555,-2.721295309903191,-33.91070886318092,-24.984701448534704,-3.5299844389598154
556,-2.5970043593883,-32.13461973145241,-23.490140429354582,-1.9706174015992617
557,-2.3403810689920364,-30.397613419424147,-21.997141286929228,-0.2909946732147772
558,-1.881168036437262,-28.730934426109712,-20.535128057909837,1.4831498930149043
559,-1.2394603067621743,-27.159774129484127,-19.12727551858991,3.3041580233598156
560,-0.5206722590855932,-25.693172824701595,-17.786367425546178,5.1051321832148755
561,0.2030893419474724,-24.31907725029722,-16.51951159552922,6.826997137601467
562,0.9719328892031649,-23.005478213352802,-15.330712325193128,8.446793499554921
563,1.8600272820777424,-21.71214599140666,-14.218843360969528,9.96459512331688
564,2.8659889802267777,-20.407872199622282,-13.179335648047273,11.371949530888681
565,3.8829058912852408,-19.074467813991248,-12.209458052510438,12.652043808752286
566,4.8186353532665525,-17.698484471558753,-11.306676901399014,13.802431094516468
567,5.701332601140961,-16.26869162289431,-10.45928165253088,14.846007709627772
568,6.621755331359876,-14.776409757182568,-9.657091943755402,15.819631635167294
569,7.618614092002138,-13.219895890031754,-8.916355614702367,16.745637086943912
570,8.627650624076203,-11.61249776467971,-8.271971859006324,17.61662533436028
571,9.579307304039856,-9.982287566182714,-7.748781121199274,18.413791230822614
572,10.505867758949439,-8.36650499457379,-7.342873077284596,19.134924451222993
573,11.514017420788853,-6.8069344710971835,-7.0184101570195345,19.7961633049819
574,12.66821204388966,-5.343162891401539,-6.716909718003538,20.404265764013132
575,13.92123305460736,-4.006107860149658,-6.367759555661242,20.935693766954948
576,15.193466801356665,-2.8153026701744244,-5.898869015911159,21.34640016498328
577,16.47451966581521,-1.7750625160256082,-5.242977764803582,21.602205744233782
578,17.82372934898134,-0.8735688197171588,-4.338047711433857,21.696800439140816
579,19.26308740907235,-0.09017865367473141,-3.140622178497592,21.639294914695892
580,20.70602106412785,0.6035690302738053,-1.6331256760020618,21.44481599284044
581,22.038188585732744,1.2491469271957942,0.18868132535630888,21.14226849399543
582,23.219250465004095,1.8939614576162986,2.307885205877771,20.78008121327976
583,24.291261692885353,2.575860776787293,4.669658050770925,20.42132183793241
584,25.26770856345258,3.317258984768153,7.18615248604635,20.12626815412611
585,26.06225957850109,4.1292147516977185,9.753264580878122,19.933003881421058
586,26.563698847167174,5.008795260512463,12.272469714259753,19.846130374445472
587,26.731697551734605,5.931413939592315,14.653865220178004,19.843474674798703
588,26.62558105256949,6.855865013961715,16.799712757381958,19.893255104792917
589,26.30045152503602,7.738902200958745,18.606998813369366,19.945544582007685
590,25.72136487801329,8.547251317066298,19.98611187453536,19.91863359478527
591,24.81966974969868,9.262530162990954,20.876943079482,19.724992157345543
592,23.59072353806357,9.877599373548936,21.255438481678542,19.314402468829595
593,22.13974964515942,10.390595471251661,21.13082564273696,18.690391662573695
594,20.58263065999226,10.800011111185198,20.54009751895267,17.89018412090106
595,18.9321335058574,11.10347352203474,19.540802715259066,16.954524703307026
596,17.1200735225799,11.302038047400075,18.203101235693083,15.914299617346883
597,15.114835939728192,11.401766744245094,16.598686258703445,14.803814257077084
598,12.991692812190328,11.409100621538736,14.782848056264328,13.67480461288175
599,10.852799845499264,11.33219072069767,12.794374894529392,12.580511171897545
600,8.731647943242082,11.188139708688718,10.676240696453378,11.548293023506988
601,6.595677484047798,11.00156069981209,8.476468192943464,10.573729681828484
602,4.448997119012938,10.798881422736958,6.239325655319178,9.645904031266088
603,2.3987222639346117,10.611178796492053,4.007464352487039,8.774538831415956
604,0.5661217683651433,10.470366798197439,1.8212333233927578,7.983109723727167
605,-1.0067280494558877,10.388886919261765,-0.28684223471040365,7.280440216440893
606,-2.3297816927907258,10.354515903017813,-2.290954959928252,6.656431235768106
607,-3.381758862498208,10.345233365617972,-4.168292119429288,6.108718741998408
608,-4.118133896347454,10.346142265972425,-5.901406996924393,5.652210320034048
609,-4.553060506277063,10.36313278049233,-7.4786406493995,5.304834596448283
610,-4.790597509139625,10.424720596527067,-8.891708403843213,5.075667817136316
611,-4.968483471806784,10.575032877485576,-10.134806929778183,4.957461264673122
612,-5.15095786418805,10.865793208848654,-11.202887820447186,4.9368339720471415
613,-5.315205649848704,11.347620000712961,-12.090920886660465,5.015682055067771
614,-5.440541264711719,12.056792004750736,-12.794943542665257,5.2153588486730165
615,-5.567770133956428,13.000107558124586,-13.311533925608789,5.549026067599586
616,-5.763890472809432,14.151745236256986,-13.63638935928678,5.998703216906025
617,-6.04489411332303,15.467407848265314,-13.7643250444976,6.531732317909956
618,-6.353617010841887,16.900368206814036,-13.689492328587738,7.128730289401107
619,-6.5848483552517205,18.402000539804924,-13.403701465701605,7.793544660377896
620,-6.677023931220563,19.916833890572967,-12.89814543823785,8.530132018235417
621,-6.686319306400242,21.387826961613573,-12.170922070886125,9.323071706801615
622,-6.708290907060034,22.77548926521497,-11.232536054589476,10.152784714483442
623,-6.7813808315220925,24.068612289225538,-10.110445867978436,11.007653929467237
624,-6.863296352865556,25.261884996506627,-8.855299238778526,11.872272974068567
625,-6.874320905803252,26.332961978366363,-7.538137308486752,12.70625090585319
626,-6.785481353161176,27.244025622623393,-6.23637125145784,13.438469635161074
627,-6.641656927345467,27.95698254934059,-5.018918771872657,13.989654554065146
628,-6.49916145498776,28.45000841678638,-3.938486339118374,14.306113824911291
629,-6.350425287558542,28.721477811195637,-3.0304789385814885,14.369857147608403
630,-6.120393133696726,28.80182580513139,-2.3213178918785706,14.213366953189865
631,-5.793321916656089,28.68832836752784,-1.801444972295121,13.79214386986068
632,-5.376274106422608,28.414976356241638,-1.4464743875149149,13.118677885611403
633,-4.891339177273975,28.038153895508906,-1.220549883110704,12.26792771600205
634,-4.368021008356811,27.613927350624113,-1.0823408592277874,11.352236319893189
635,-3.845617848118228,27.183486297811054,-0.9937798142593605,10.47405711686728
636,-3.3861784268571804,26.77626938707629,-0.9291119315646595,9.698692570291923
637,-3.0468138367178357,26.420445618680397,-0.876921067934603,9.059943042953039
638,-2.812357326337699,26.14075669505732,-0.8334064084776677,8.578852231025177
639,-2.618439457929381,25.94792779945278,-0.7969859316677185,8.261713630122125
640,0.5917387733907375,-0.1296493580317707,-0.48145819910381416,0.3555174663516116
641,0.8586215663684353,-0.29258506513421767,-1.0721414268996634,0.6036026572306195
642,1.178648001972887,-0.5122282752791683,-1.9130285762360053,0.9332104613738046
643,1.477093844032645,-0.7763919521618581,-2.9974807861580257,1.3316180341592954
644,1.745807319048489,-1.067241187870578,-4.2978895275040125,1.795722211065559
645,2.056554479293217,-1.3646145609309346,-5.768116881137673,2.3342347238206425
646,2.482714626572345,-1.6521186496527456,-7.349951245359544,2.953365927299397
647,3.0286584206812672,-1.9259236655616,-8.984054406274137,3.649806000270876
648,3.658895662337053,-2.195620859057735,-10.620891479526557,4.417954914883718
649,4.3966477223374705,-2.4736247703060137,-12.233106410833887,5.267069325570574
650,5.343820384698334,-2.7746287828579983,-13.831295764039856,6.226575087122614
651,6.507015772923681,-3.110845524116528,-15.408396816539147,7.281706471558126
652,7.778638702883692,-3.504765175898969,-16.95919267092338,8.378966460763792
653,9.049454742724823,-3.9873606262011925,-18.478602864059646,9.45484697603673
654,10.303532995231228,-4.588669394016909,-19.955920551599075,10.463252802983826
655,11.572476150707033,-5.334151616203487,-21.368411313475434,11.38028122071761
656,12.843756138191866,-6.247144693603227,-22.678794601652825,12.193087144262451
657,14.014922264716198,-7.345969050512522,-23.84624142744238,12.884081100459914
658,14.9847134709648,-8.636448227860217,-24.847364545094344,13.431869847084908
659,15.75271889433132,-10.10549187253282,-25.682706060583406,13.831907611481274
660,16.39190851217586,-11.719787467993392,-26.365628959735044,14.105667297890312
661,16.940793891769488,-13.43063556179976,-26.91425608815096,14.27728329040698
662,17.342316019205796,-15.180191471338206,-27.349064301123537,14.357099668253225
663,17.538657223079635,-16.90582268244362,-27.68754915512138,14.360200641054664
664,17.574723649729055,-18.54578063428165,-27.936699910542302,14.321348942472966
665,17.57714231712037,-20.051029322619762,-28.092684460384607,14.28219760887182
666,17.63056894358761,-21.39620164278712,-28.146418837838088,14.266746705379937
667,17.697550693931557,-22.57605513217656,-28.086773106308236,14.269573004262401
668,17.700121836773047,-23.58708519875128,-27.902267531771283,14.269994249535745
669,17.62756571522117,-24.413514706176876,-27.58262390421823,14.252773001081035
670,17.551244845057155,-25.029098264050308,-27.123183705720148,14.213107006446103
671,17.516590745603956,-25.406576063679193,-26.532479241981104,14.138487017787694
672,17.458525861724258,-25.522756921925787,-25.83507836609143,13.988203005946046
673,17.267350293999396,-25.361723136976508,-25.067577739287344,13.699789756736296
674,16.896547500788884,-24.92466342079318,-24.269336456659822,13.220574948665838
675,16.402311236207897,-24.239568830059085,-23.47057029291221,12.529161928050376
676,15.838971732239338,-23.35482656129635,-22.687312044137666,11.630874341598032
677,15.163930694852928,-22.318838657279727,-21.925710991836734,10.54515473597027
678,14.285860250230149,-21.17205804043843,-21.187373448496068,9.299157329853049
679,13.169167205647947,-19.955947858148548,-20.471719987758707,7.936313282145273
680,11.886807834515066,-18.714831835863492,-19.77687985942668,6.518410709691987
681,10.518707637345615,-17.486954276523186,-19.10081418659334,5.107703437243305
682,9.055180842018839,-16.296156651482594,-18.439402634183697,3.7594313964556934
683,7.445107909352748,-15.151299721448309,-17.783190194673626,2.528348814536341
684,5.70596399205022,-14.055596491288117,-17.11758737936074,1.4709492030645395
685,3.9748744750821934,-13.010298338216089,-16.423604892103818,0.6385539478972765
686,2.395896874140638,-12.009693893478149,-15.683133246226904,0.0591159491686995
687,0.9942556822487046,-11.038883506111036,-14.888530241232443,-0.28127831773195355
688,-0.3037842162034162,-10.075567181901826,-14.046410214846484,-0.43932400663974486
689,-1.5461247739449187,-9.094738357312984,-13.174585914015168,-0.4855541919204054
690,-2.6884315406683506,-8.076944955351536,-12.298238777109857,-0.4712711063510326
691,-3.6720648686986697,-7.017036536398874,-11.444606267581229,-0.42459000601099045
692,-4.5108760736211835,-5.925142885576943,-10.63408529628912,-0.3694450604375716
693,-5.294780966091568,-4.822215125146942,-9.876533484170238,-0.3401410856601099
694,-6.080877994174436,-3.740390520005463,-9.17344762233953,-0.3694547883873501
695,-6.814645602949372,-2.7169836194225185,-8.517976194328629,-0.4644687077883899
696,-7.401606528317577,-1.7772883871394032,-7.900185791910907,-0.6136738682856966
697,-7.818056414760761,-0.9318206866861488,-7.319429165561088,-0.8196414918765851
698,-8.15343901601801,-0.18750902299401445,-6.78937452512129,-1.106774043583278
699,-8.501968490221643,0.4496345122585877,-6.334306317019969,-1.5057868492631974
700,-8.86364131698437,0.9761786502897071,-5.984366826665431,-2.038494420397894
701,-9.187859581869214,1.3864069677226356,-5.771003396276379,-2.7099508232120284
702,-9.467451347877196,1.6671203215111814,-5.721089610275715,-3.5167911207642715
703,-9.78404700446465,1.7974135560269218,-5.847948095621067,-4.454805575806002
704,-10.206149264844647,1.7549267123023455,-6.1423956486482,-5.508028060097121
705,-10.697819512471973,1.5306649598452173,-6.572054997842783,-6.633289088465991
706,-11.16336860628039,1.141865399522292,-7.089569620245932,-7.76196796856591
707,-11.548930496674412,0.6313106620781278,-7.64442660401751,-8.836473634416661
708,-11.90162994037756,0.05829394721500131,-8.19407662911965,-9.845540422037256
709,-12.29482518252242,-0.5133594646603845,-8.709113131458789,-10.809087652788287
710,-12.729578282893899,-1.0286267200926993,-9.170809890780257,-11.741978364513578
711,-13.131749166216602,-1.4480884478078744,-9.5672318193424,-12.643706331481619
712,-13.457215328552884,-1.7509181433781043,-9.89243347665351,-13.517474400057147
713,-13.764737118834605,-1.9409190649438426,-10.143234888256249,-14.381387189664558
714,-14.138738968975257,-2.0466714122208916,-10.313486967997044,-15.248407487244277
715,-14.583908183707274,-2.1079282868915232,-10.393599582705052,-16.10626582071408
716,-15.00515850061927,-2.157534005582327,-10.373336986905203,-16.917231227817958
717,-15.327233572670421,-2.2128810476608023,-10.24410273547792,-17.6319511435149
718,-15.58648971671749,-2.274531507560853,-10.002520633369905,-18.214087603557566
719,-15.873630899730085,-2.332506136399833,-9.65459965082213,-18.6581057186593
720,-16.235493819513987,-2.376033646276233,-9.217163516938859,-18.978657409770964
721,-16.6212708278575,-2.394107939503937,-8.714048912842381,-19.194319995489295
722,-16.98029558690238,-2.3782344650161926,-8.172036140034352,-19.331147456274078
723,-17.36586452664635,-2.3315614321854925,-7.619164261926642,-19.42976722089428
724,-17.890478358116635,-2.2699627141454526,-7.0799649398383115,-19.538350993446816
725,-18.61724805436374,-2.2156490787712837,-6.570773674737847,-19.686725546116232
726,-19.498362854494285,-2.1945876340643036,-6.102725246816431,-19.876278476237957
727,-20.46129642295149,-2.23642680850016,-5.687299710463774,-20.09986491466462
728,-21.512411457237988,-2.368390552167198,-5.333089705552355,-20.349537168121977
729,-22.71841972395239,-2.60466332503581,-5.037752681450205,-20.609254504025174
730,-24.093103801662664,-2.9421096781826055,-4.788432070960022,-20.84551739120714
731,-25.533213219172353,-3.368313517358625,-4.568822496319487,-21.01018705761683
732,-26.902277160740557,-3.872819543468858,-4.3632889790228795,-21.06630198226378
733,-28.130051488460822,-4.445399966202856,-4.159165292578012,-21.00781865104641
734,-29.229458556964516,-5.063874681915638,-3.947980330932826,-20.85522723889684
735,-30.198246522764308,-5.691582941717665,-3.7225862565663927,-20.633559731299755
736,-30.946878783596155,-6.291010781446201,-3.4764521922902336,-20.35358704526247
737,-31.37035127359704,-6.84216253490376,-3.206747278996498,-20.016680366096388
738,-31.453098935120625,-7.353748201418498,-2.916249729015344,-19.636720959912438
739,-31.30222496168215,-7.858732568760437,-2.6123099873652067,-19.247280322530894
740,-31.024384559533548,-8.398363332978926,-2.305275433223456,-18.8837460402634
741,-30.630786537332174,-9.009070036628641,-2.010959117143446,-18.56682410267239
742,-30.10226525413472,-9.713770896914518,-1.7513205156892888,-18.309050663025438
743,-29.475068465654648,-10.513350835794636,-1.545528751824358,-18.131895224754178
744,-28.862358874036854,-11.383189843533671,-1.4002329066876937,-18.06520461533325
745,-28.34725130261163,-12.27719536487761,-1.3122515240647374,-18.13408664155479
746,-27.890013204958723,-13.135522275756792,-1.2790693724718147,-18.35296822960164
747,-27.38339084755262,-13.891514130466225,-1.303777222904365,-18.72717008367834
748,-26.772442358769474,-14.47811459574962,-1.3912354126178739,-19.261908961498115
749,-26.10156203011924,-14.841893917797474,-1.5445806937925175,-19.966752234143613
750,-25.434262219236697,-14.963143816854359,-1.7660463890141669,-20.84518953352651
751,-24.79148977875609,-14.863714134181754,-2.0551380789701708,-21.882118646964027
752,-24.183401980376534,-14.589874868632911,-2.4067537638244763,-23.036270627265377
753,-23.6699736201624,-14.191956348764673,-2.815068928071219,-24.258070895164167
754,-23.33294334931513,-13.720233214308633,-3.275425620316013,-25.52055651299827
755,-23.176202054397713,-13.222180976942635,-3.7768234267199188,-26.810512525369308
756,-23.09757558073735,-12.73610933194518,-4.29213315911354,-28.09269010616837
757,-22.95435338940371,-12.286609985603262,-4.778220204491571,-29.298901593066372
758,-22.756877358852893,-11.90924505994667,-5.212985336724211,-30.35634718544753
759,-22.318758348779944,-11.56758119664863,-5.507315634397852,-31.20462079180935
760,-21.543247377450815,-11.241578940116856,-5.6168129919509155,-31.811708951885986
761,-20.373499938217552,-10.922422347689714,-5.540612079591258,-32.172174714180116
762,-18.81560320807382,-10.607652383239,-5.308697286845204,-32.30811525838135
763,-16.996296174471176,-10.298463522916382,-4.964724597712704,-32.26449946108263
764,-15.138630794807531,-9.999663258768702,-4.556568892104264,-32.100352044012965
765,-13.454007775013054,-9.720405499436302,-4.134083581153524,-31.877151168556406
766,-12.067671487904036,-9.472454644407968,-3.7457853262385044,-31.646614202299855
767,-11.02323245443694,-9.266012861333328,-3.4316258359788043,-31.44610000159486
768,-0.13117626981284136,-0.46583112302264046,-0.45593951735548094,-0.4063174016892199
769,-0.640886671656464,-1.0308563888903042,-1.0207780436921716,-0.9864395301742974
770,-1.4311860037526576,-1.8710376509665543,-1.8564135157269288,-1.8505269051204758
771,-2.589781559197558,-3.015126578149895,-2.9830526065710745,-3.0382903152448835
772,-4.120556913630536,-4.467738840994462,-4.397145120816747,-4.556152071650693
773,-5.933780472948427,-6.2059722617626925,-6.0707647988411395,-6.368040557714376
774,-7.928382368374437,-8.182359761336617,-7.955983965527414,-8.40623768397043
775,-10.064425699439207,-10.332125213069428,-9.991766884047523,-10.594049938350178
776,-12.3362445702175,-12.583132854342324,-12.113646625931127,-12.857487567982764
777,-14.6876359322526,-14.870077605348616,-14.267939456677256,-15.128535900398047
778,-17.00769824699437,-17.157181960381273,-16.431269469901288,-17.35715661299501
779,-19.223026136662344,-19.390946687511935,-18.55879578765116,-19.47975240692519
780,-21.3576121010495,-21.522944106709847,-20.60888424914754,-21.448551410504002
781,-23.429045195154874,-23.507938417690646,-22.55071677562354,-23.227034028327637
782,-25.359267603122472,-25.306232259609327,-24.363606261171974,-24.773876168745883
783,-27.041767143804854,-26.893457552206645,-26.029719103200915,-26.043967134988236
784,-28.43621569095632,-28.265981423546112,-27.52687004485367,-27.012275000579226
785,-29.601906094444033,-29.433684968760492,-28.82617016714431,-27.684180759334044
786,-30.59707022054977,-30.400246397107363,-29.894387467974465,-28.073260384416134
787,-31.383541700119657,-31.1460619312098,-30.698839869007816,-28.18730514346552
788,-31.86925779442764,-31.63747438420434,-31.21574950066273,-28.03695211366624
789,-32.0087628661512,-31.847900901022083,-31.43500611553004,-27.652240351877715
790,-31.858875056821702,-31.765538982939063,-31.358822929906086,-27.088211091587993
791,-31.492149480329108,-31.39149456286058,-31.002213628841854,-26.409372308920076
792,-30.89374480792938,-30.73910567135126,-30.39647948246567,-25.66819936694489
793,-29.982526101691466,-29.833899423893147,-29.58853063857421,-24.894170290837085
794,-28.731267348555555,-28.709293786781306,-28.633052776114727,-24.107891409829485
795,-27.237062518054014,-27.405533952610476,-27.58443073327724,-23.3366747266897
796,-25.635440571558195,-25.973117533792543,-26.494335945218776,-22.60420686996412
797,-23.993032650156724,-24.474018111320753,-25.41351618809641,-21.908761049973556
798,-22.29872530540364,-22.97826574687984,-24.388838399648364,-21.21955511132809
799,-20.57457106141935,-21.54992432815997,-23.45843315280517,-20.507404066280586
800,-18.940795129730816,-20.230586460436257,-22.65083817766198,-19.77234136139582
801,-17.531252626028767,-19.037258374695014,-21.981761022634526,-19.032690997923442
802,-16.393120130075147,-17.97235108277952,-21.450157874351042,-18.293846085659073
803,-15.457047396732097,-17.032135768319357,-21.03919798547314,-17.53437333453734
804,-14.645180558758277,-16.21118544162111,-20.721349949242732,-16.72911268217925
805,-13.967209820375809,-15.496667294374518,-20.462819759242496,-15.876552061445592
806,-13.465052228039518,-14.852216500015317,-20.22778137356896,-14.9986767650526
807,-13.11244365218526,-14.2215806668184,-19.986245196250305,-14.121975420505755
808,-12.779545406544893,-13.549093265522538,-19.717946863778078,-13.266248021853084
809,-12.357019316211035,-12.792138509842369,-19.410366167081865,-12.454055794653826
810,-11.87476769455748,-11.930191008326789,-19.06240297401864,-11.721133000879092
811,-11.452984378419629,-10.975170587812924,-18.68935765120687,-11.11380736175055
812,-11.179699821738893,-9.97344069389806,-18.317664286350535,-10.669215271220157
813,-11.051482036743364,-8.993242649557368,-17.974023595186733,-10.401656191937624
814,-11.049170159592633,-8.109943684318552,-17.67464959301097,-10.310870793120289
815,-11.220246330679304,-7.395043085405478,-17.4201118008318,-10.39404617093363
816,-11.666454420392697,-6.9053266680392085,-17.20470172687545,-10.651772851228511
817,-12.438104173409455,-6.677286928383415,-17.029943515682902,-11.074247813725215
818,-13.457906531404609,-6.726573920818687,-16.90937380031253,-11.63352856496461
819,-14.603439798852532,-7.049129654439635,-16.864768678854865,-12.30417470360757
820,-15.824658396721084,-7.6194909819078624,-16.916699120376226,-13.080103088053447
821,-17.156259934572134,-8.385566447681807,-17.077377914998234,-13.96699367006094
822,-18.600455952622298,-9.274857262791107,-17.348956425197084,-14.957146187676209
823,-20.056315636639606,-10.215433871116844,-17.719972710944457,-16.01706761343595
824,-21.398432465194222,-11.155397725207354,-18.160582342103773,-17.09351060989297
825,-22.575572583008952,-12.064802655618335,-18.62631551009435,-18.13058751498687
826,-23.63833352485294,-12.927657491932985,-19.068696700308827,-19.08713105608199
827,-24.625884380045232,-13.736683417162807,-19.44494674795033,-19.93483541787128
828,-25.475419162154765,-14.490401751316636,-19.72324033847068,-20.64860575867163
829,-26.07856076787373,-15.192044121475833,-19.885445414237196,-21.198898461043033
830,-26.37735396699076,-15.844989283757762,-19.9285704312123,-21.566884857727338
831,-26.421462906214344,-16.446176435669802,-19.86419645035699,-21.768022572156585
832,-26.282908277775697,-16.986606624371646,-19.71582410158347,-21.83895747775417
833,-25.944403282366977,-17.454687299510308,-19.50893779569935,-21.80207379534368
834,-25.320793571930537,-17.832525250864045,-19.25702468154438,-21.649075269229478
835,-24.37584687388995,-18.09180315184053,-18.958245758498574,-21.36546881960393
836,-23.191775118734103,-18.20207591697685,-18.602867992920416,-20.956514403843844
837,-21.875509771885508,-18.1464596614,-18.18068434138599,-20.439892000774503
838,-20.453243487080172,-17.93022161786113,-17.684348791586284,-19.82705674198444
839,-18.884819118768032,-17.575823271527028,-17.10982334884157,-19.12003769754423
840,-17.171880279551193,-17.110593655868474,-16.45710943056898,-18.328589331613422
841,-15.424657957578372,-16.55957649967843,-15.734478861197601,-17.484180854154243
842,-13.783399894602548,-15.945978108080208,-14.959394980226554,-16.63610799421336
843,-12.308954717399452,-15.293706846058225,-14.15048300309917,-15.83062318884523
844,-10.96346424522268,-14.624177525845075,-13.321046455565574,-15.096383849037522
845,-9.727162843489507,-13.948065659269876,-12.479345900894705,-14.456626865380752
846,-8.681383878352811,-13.262581279531787,-11.629011771831976,-13.944489625685968
847,-7.932948799356586,-12.561135104166398,-10.766993909571664,-13.59043707318452
848,-7.505629123688733,-11.847078732009166,-9.885151769493422,-13.388117923589942
849,-7.3111819636396795,-11.132082118745652,-8.974888700454988,-13.294555470184415
850,-7.268936787038617,-10.42293672511996,-8.031545702299752,-13.268463510039973
851,-7.4024114044090075,-9.717239958561056,-7.058837850501175,-13.293860084411339
852,-7.781746359746778,-9.012677566160262,-6.070714666932749,-13.37494155286038
853,-8.416023880971002,-8.318376097138064,-5.090365278636161,-13.512406788993076
854,-9.206870546414125,-7.649623998401646,-4.147568492338857,-13.694999128911938
855,-10.051926475359204,-7.012557526047991,-3.276118691130174,-13.920393651020873
856,-10.942946655785747,-6.402302761292549,-2.5109440173235087,-14.208646926386278
857,-11.926395657399302,-5.811624560367936,-1.8830028327385957,-14.590053492721577
858,-12.994649366343435,-5.237115290634416,-1.4133810695336593,-15.07884671422337
859,-14.031340369216025,-4.679611217991551,-1.1086611709180725,-15.654308251023354
860,-14.903579751053917,-4.140585217985479,-0.9612954970148835,-16.267859414988905
861,-15.573260666392041,-3.6212919042175797,-0.9539481492195094,-16.870524369896646
862,-16.104252216409343,-3.126897794245076,-1.0632761163848035,-17.43105693808976
863,-16.551321139890696,-2.6650359519116344,-1.2640905104152105,-17.92685388725654
864,-16.87562747702847,-2.2366447046603444,-1.5357757094118267,-18.335267344427205
865,-17.017119667962188,-1.8326359731410073,-1.865437327053496,-18.648255161402155
866,-16.995911664358715,-1.4413315331172896,-2.2445062981922033,-18.883590175019012
867,-16.921335727720436,-1.0583219370955774,-2.6657296405654183,-19.068097781620313
868,-16.87322072467628,-0.6881943244761122,-3.1210223676790543,-19.21408765251043
869,-16.814459657709346,-0.33557098809671926,-3.5995741503688565,-19.305577060365284
870,-16.64772537663138,0.00538514387224219,-4.086175532839717,-19.297978239263124
871,-16.31235252487746,0.3476782066669646,-4.559289889254907,-19.140424523362586
872,-15.833854020353895,0.6976118762304737,-4.992834052012128,-18.797127294430314
873,-15.239681062976889,1.0544445090381638,-5.361116059517283,-18.24598000438539
874,-14.472712270042573,1.4223923929708988,-5.64180739501679,-17.472018473575037
875,-13.428890954903913,1.8139720399006238,-5.814831142284293,-16.467464406941467
876,-12.061396321517734,2.242476228514092,-5.860931431251732,-15.24741843135223
877,-10.446903267214788,2.7149922180039785,-5.763835363896726,-13.86482077498738
878,-8.695546171230738,3.2278192760281645,-5.51509027586285,-12.394161083178865
879,-6.840428492565927,3.7631962117570765,-5.116610251893655,-10.899180551790913
880,-4.852202493209815,4.292722002248002,-4.580000801877854,-9.413686349748344
881,-2.7523854807292736,4.784054046785635,-3.9270403674982646,-7.958324196705362
882,-0.6771693451188152,5.208703859570995,-3.1886894564649353,-6.563691568454187
883,1.2215775862199079,5.550240312026878,-2.4015463096415988,-5.263185824908291
884,2.8845492637529624,5.808214133565493,-1.6062937435387294,-4.081264453643928
885,4.342947400448415,5.998871171636813,-0.84409954799494,-3.0295754044671996
886,5.657930867857439,6.144552180569147,-0.14262561940622315,-2.1226624829774954
887,6.661970023352334,6.282146023664396,0.4543973120921542,-1.3661409646967517
888,7.278520249117614,6.435189887387714,0.920551142668404,-0.7622151088758544
889,7.550439501277134,6.615940803221354,1.2468961450271765,-0.29510440652018666
890,7.5829642716421715,6.825546510576539,1.4424353962783896,0.06374723445704
891,7.438573145483472,7.0543216517573,1.5297653190533615,0.33652637456651047
892,7.121910298447527,7.283216191289883,1.5366441900837615,0.5319876381608839
893,6.662430890579601,7.488454036296699,1.4901199819122715,0.6574636552427671
894,6.165800599564647,7.650195969951686,1.4151502217230205,0.7354958795458728
895,5.764046261447963,7.758962968105293,1.333812643819936,0.7963193528565353
896,-0.16042114092072302,-0.5665399279637146,-0.54544686070044,-0.525162836573134
897,-0.9530863721508904,-1.3315538054331497,-1.3263345862601095,-1.385322696436357
898,-2.225491583837991,-2.444089241194596,-2.5135684069753568,-2.693241140940423
899,-4.094719438297224,-3.883872106949606,-4.134610050579031,-4.497700776312113
900,-6.571843905807665,-5.58501780889684,-6.175618232057666,-6.792056649985924
901,-9.54914350302267,-7.447312047811148,-8.57943064008964,-9.506487917417111
902,-12.879934427659382,-9.353991985532396,-11.24515602812696,-12.52461990745245
903,-16.45318196948074,-11.191669484100482,-14.041905726887737,-15.712737432310025
904,-20.181586193052603,-12.87150520930259,-16.836178652336717,-18.941650045492
905,-23.934214892027207,-14.348649270567899,-19.523108292099955,-22.103888673559826
906,-27.557967030588163,-15.641279661376384,-22.058595108714258,-25.14122114161479
907,-30.980823709960205,-16.762484733674654,-24.395361119502503,-28.002137958564845
908,-34.236693948452796,-17.73867662108918,-26.5068903023133,-30.667678003571993
909,-37.34181763377251,-18.605671366701984,-28.38344224937354,-33.131051263804274
910,-40.213831316525194,-19.400612809369846,-30.0265250519157,-35.37965910690831
911,-42.739877466479825,-20.15069901090283,-31.44315146231502,-37.39537971588421
912,-44.868992740917314,-20.862543610999335,-32.63977560482307,-39.16144912383329
913,-46.647083635704455,-21.522481558488025,-33.61610385645067,-40.668235555627454
914,-48.12237594263784,-22.11438171643659,-34.36536305593594,-41.901514673645316
915,-49.24827738782336,-22.63088820527489,-34.883028629990854,-42.831305633169144
916,-49.91998063959536,-23.065813146836273,-35.168899988502915,-43.422311286106016
917,-50.08112375649333,-23.409279034263903,-35.22205744495994,-43.65631868535619
918,-49.7931213151444,-23.650772372841747,-35.04230123018225,-43.54309271123184
919,-49.1478963331562,-23.779541064951708,-34.63836109801886,-43.10792916509761
920,-48.15754895175427,-23.78666972434658,-34.0296873189318,-42.37327425243175
921,-46.778976424939145,-23.6711728984565,-33.23991904968113,-41.35714367217365
922,-45.02629393273591,-23.443898457767943,-32.2946428658289,-40.090193096213824
923,-43.03257674213876,-23.12755877651439,-31.222398821928405,-38.624821363581084
924,-40.95290121993481,-22.75331241840344,-30.055053990315308,-37.02292655517512
925,-38.85135155043754,-22.35576383613237,-28.828851777797166,-35.334074720744866
926,-36.71141217194707,-21.970225005263014,-27.58374346673684,-33.591627204060536
927,-34.550380372933084,-21.631590314386795,-26.36222161686466,-31.841819232042965
928,-32.49092657804441,-21.371878283790366,-25.20756789605131,-30.16509989705391
929,-30.675842484967614,-21.213601797210103,-24.157364577790936,-28.657673744175508
930,-29.149964378050754,-21.163014816148067,-23.234948455721604,-27.391987826675432
931,-27.845371886842806,-21.209498891190385,-22.44637269235464,-26.393978149802116
932,-26.710744725990384,-21.33171351240883,-21.78411327589861,-25.66322184993056
933,-25.809552059413328,-21.50759512867426,-21.233699550585655,-25.201902642422755
934,-25.249697923532548,-21.716416657946475,-20.780919084856627,-25.01166253163262
935,-25.065367898075568,-21.932215869434035,-20.414654044111554,-25.07587225855736
936,-25.176788439500196,-22.1223067504834,-20.124402864098904,-25.35639526696938
937,-25.50412998645454,-22.254845935659628,-19.89860255962571,-25.809846636111963
938,-26.057711555159162,-22.30892004020143,-19.724753848711646,-26.40248216522968
939,-26.872511738385146,-22.277634808120894,-19.59023118567358,-27.105071607616903
940,-27.910364531858637,-22.164858910469327,-19.483973034311365,-27.88178557521472
941,-29.02846338519462,-21.980434474519218,-19.39818414693062,-28.68945890369562
942,-30.087566779651638,-21.734056071291473,-19.32716418278159,-29.487244330300125
943,-31.062975529068236,-21.430461901960143,-19.263335030429925,-30.248539827342366
944,-32.01487805749488,-21.068482078618437,-19.19409298941828,-30.961559878088494
945,-32.967328725059375,-20.640366183588707,-19.102039313708175,-31.603240677877707
946,-33.83797448239385,-20.129451623308015,-18.969789591009093,-32.117758847226646
947,-34.5232948823539,-19.517387839445977,-18.78518180778439,-32.441139467596535
948,-34.99494351864156,-18.795529398192024,-18.543022316804684,-32.53679430366068
949,-35.287829459850656,-17.96450868642071,-18.24452580159291,-32.3992986845415
950,-35.393901585318076,-17.032010609308028,-17.895218249435977,-32.02960553409315
951,-35.20681657024434,-16.015810052161346,-17.50206501966342,-31.42011303209229
952,-34.60192620850581,-14.94232932248227,-17.068824885582867,-30.558564942969465
953,-33.525125644009,-13.838966538867709,-16.59178360135579,-29.439371397438318
954,-32.02164853215783,-12.725718757948199,-16.060771158607793,-28.083033496699176
955,-30.14512843801413,-11.605612439987066,-15.462687241632787,-26.528721171922864
956,-27.881312656379116,-10.460371829137305,-14.784337314992309,-24.808589741180402
957,-25.20891808033655,-9.263561791677384,-14.015632619838163,-22.945402044048286
958,-22.183369911071914,-7.99780238864667,-13.153241238455918,-20.963455868538663
959,-18.966539215801763,-6.658420079615645,-12.201445210175175,-18.894214759229413
960,-15.717895462997292,-5.247713701411503,-11.171255012949919,-16.768055967965395
961,-12.480945623024422,-3.769431716673736,-10.08169183161195,-14.602061702738906
962,-9.22247341998489,-2.2322028415373474,-8.959435369451754,-12.409155624406681
963,-5.95134605303047,-0.6583971476179904,-7.835208654091977,-10.230064664499423
964,-2.7814306636778547,0.9179273798593838,-6.74086777318732,-8.14099166256919
965,0.1602216136293203,2.457934274874309,-5.706643426248072,-6.221064028095631
966,2.836952889992964,3.9139417547435102,-4.7555248571188695,-4.523511156911518
967,5.289456122605215,5.227438826219911,-3.898418836258626,-3.0643637811578794
968,7.53318120118032,6.34316095443025,-3.1342085670260293,-1.8416161624115617
969,9.492192908614822,7.2214979257987215,-2.4528514130142876,-0.8638544409348128
970,11.069380975413427,7.836129381612302,-1.8404290246255788,-0.1415108390273883
971,12.24052820863512,8.171044421302026,-1.2812594282312664,0.3424876207057877
972,13.064777430983293,8.223425667504005,-0.7567044282907182,0.6391282160826126
973,13.586106571600157,8.000671855808314,-0.24841605436460534,0.7990004039139778
974,13.777796657942686,7.515973521129482,0.2584469482335613,0.8465786514834367
975,13.627112704640712,6.796191091265484,0.7756162330263491,0.793572452350603
976,13.201099668709467,5.8832039563008935,1.3095431570824911,0.6588742199453153
977,12.607774823303682,4.820099622408235,1.8574158505608973,0.4776678290764239
978,11.904243099088625,3.640918598192051,2.407329466297133,0.28867126454755226
979,11.093522790413024,2.37098560981132,2.9434802375431723,0.11476281691115853
980,10.216870480964758,1.034747094527531,3.451868658468733,-0.03411578747555452
981,9.406750063556167,-0.3394078852063439,3.921812499934119,-0.14231378010505807
982,8.834824928809379,-1.7179087311856898,4.344242013069958,-0.18471087974720482
983,8.60236289903992,-3.0575935113189643,4.712400487794554,-0.14419383888850168
984,8.720366819647687,-4.30873452073033,5.021913180452429,-0.028159805503734425
985,9.182278598332815,-5.4281013164770915,5.268947530882404,0.13206788019113452
986,10.021262872692164,-6.387190748560885,5.451356801770624,0.3159858973781181
987,11.280005010081052,-7.174787455222519,5.570559763017658,0.5359769083183894
988,12.927358308764937,-7.798568401610103,5.633019627787115,0.8165395323985261
989,14.848597971023828,-8.28166321983619,5.651743513026517,1.1735582035654566
990,16.89684167561414,-8.647677380756914,5.647364068741799,1.6075819054309919
991,18.97572043482777,-8.90071133391555,5.646691841289524,2.116665860249638
992,21.095413046940937,-9.024688016463438,5.676361297614733,2.7070161175114733
993,23.308478907924755,-9.00245389097813,5.756472778983742,3.382571954751895
994,25.61870364041737,-8.83210743590065,5.900152155792356,4.1302494809837595
995,27.93593190855997,-8.530094029515775,6.114962995977176,4.91631052664449
996,30.110414957939646,-8.123675855843306,6.3998385388483054,5.704335338977613
997,32.024851663076404,-7.643545698681481,6.7409855730240205,6.467442368890237
998,33.625527432218966,-7.121203924853379,7.112837990523636,7.1807126781652455
999,34.87413675240729,-6.585566849621821,7.484174306745493,7.813778963049088
1000,35.67851795413246,-6.057041917650758,7.822503900816768,8.331719605755973
1001,35.920900899821895,-5.543668494892694,8.095690268209271,8.709873714541324
1002,35.56259752556525,-5.045762316158059,8.277456981109813,8.951029742861206
1003,34.68124434798828,-4.56517065135223,8.352782866495565,9.079235436963817
1004,33.41321427982335,-4.102180977661091,8.318068838944262,9.110070297381313
1005,31.855682453669655,-3.6439394915090735,8.17723134087262,9.038822171770684
1006,30.051765118451062,-3.1699327880522064,7.936111224087566,8.860093604630533
1007,28.05656225644413,-2.6740285467149354,7.601054626147392,8.58451703226554
1008,25.967559233784634,-2.178093322180007,7.184354341341928,8.237859114052334
1009,23.854523326245864,-1.7226850712063422,6.710234882493673,7.842103086495855
1010,21.692116686208443,-1.344664615220675,6.210312406294801,7.400848160594567
1011,19.43579394873545,-1.0616902922281999,5.714093109419722,6.910355364533674
1012,17.116082754068255,-0.8696094371689064,5.2450035202306005,6.3817018910843535
1013,14.84014199587477,-0.7475713703641783,4.820575529606281,5.84922551278189
1014,12.748649516429698,-0.6664433846353776,4.477759477230504,5.373368266978515
1015,10.718427803668725,-0.5848670465560349,4.167308557633994,4.914695336886686
1016,8.723218528207079,-0.47755279266729894,3.859400022111379,4.457576667583167
1017,6.839389171124746,-0.33682161112551945,3.5386255822594497,4.004995100371071
1018,5.169643415452583,-0.1699400760202184,3.200370781393168,3.5678336228668805
1019,3.741416202297508,0.010196521985468786,2.8480211053291336,3.151115608536803
1020,2.5104471642622617,0.19451373414943296,2.490543011641915,2.753266917909379
1021,1.4525160202070324,0.37577973735121045,2.1417000231208356,2.378646145163069
1022,0.6054759763139697,0.5390548887874543,1.8207890379037484,2.0446726461141576
1023,0.024777845730229744,0.6649233404984859,1.5510617748709643,1.7746159905095973
1024,-0.23064636144074535,-0.6651562676535793,-0.6706355506045256,-0.6288912769296706
1025,-1.042504726226548,-1.4714836607194137,-1.4147710891132166,-1.406716812245913
1026,-2.2976471382625534,-2.6226263521937687,-2.4522529830623707,-2.5105445703834492
1027,-4.082304586824974,-4.12441069983833,-3.7756100176230807,-3.958115423730501
1028,-6.372889643062088,-5.959170625045192,-5.3530972801707755,-5.724240871221204
1029,-9.032131971557497,-8.086724191090582,-7.128849445345636,-7.7329672683269095
1030,-11.898308811523888,-10.450041366446294,-9.0291700238746,-9.878075913043165
1031,-14.862658748022175,-12.987341242448341,-10.97374047860317,-12.05937586480027
1032,-17.85516388998918,-15.642427377122388,-12.889551070060918,-14.200609426875634
1033,-20.76910053468162,-18.37313429978977,-14.731232156335796,-16.250497538450322
1034,-23.48558278308921,-21.1729113041158,-16.50823515099567,-18.20627757474489
1035,-25.978669509778456,-24.003186704200427,-18.209890002811537,-20.06475102620926
1036,-28.327558214363524,-26.826296445656443,-19.82394448286391,-21.838777383705022
1037,-30.591053020416464,-29.608917954233082,-21.336835967001054,-23.53994731568933
1038,-32.728775620644015,-32.31999055513349,-22.73745716049205,-25.16859810090632
1039,-34.670608605583304,-34.93237174477595,-24.01746852922222,-26.718785832793664
1040,-36.408813524491435,-37.4259916688609,-25.16742083113831,-28.198066546470006
1041,-38.02015287250535,-39.78519738301499,-26.178175740559443,-29.637061403973682
1042,-39.558911543805976,-41.999613826478424,-27.046629053714103,-31.05932475174674
1043,-40.974333259382384,-44.06708364666702,-27.77721692958002,-32.45842160573337
1044,-42.17354133702059,-45.98937104085749,-28.380338524563875,-33.81170085126713
1045,-43.121724692818624,-47.76672099913872,-28.871873931196248,-35.1044607009974
1046,-43.88780835300695,-49.39580907279931,-29.272767640121987,-36.34231576697658
1047,-44.55051690434053,-50.87031424011964,-29.6078295473366,-37.53346885333633
1048,-45.09414107403943,-52.18415668859123,-29.905314468169287,-38.66215251901356
1049,-45.430777722865194,-53.336009859453846,-30.193509547706835,-39.687824205245626
1050,-45.51507085595582,-54.33231392201647,-30.49305568174603,-40.57431355017393
1051,-45.41253623992847,-55.185639269137376,-30.81084059591348,-41.309558056752415
1052,-45.2053624336783,-55.911600938321726,-31.14301813422152,-41.89368582534574
1053,-44.9018945807509,-56.52608101693227,-31.4835467439078,-42.329372980410575
1054,-44.45321766152487,-57.0399179376303,-31.824130312434583,-42.620789752912465
1055,-43.843511608451195,-57.454996575657916,-32.15034052870761,-42.77645389594765
1056,-43.149139349510186,-57.762755841778564,-32.44306154291048,-42.817191103776025
1057,-42.46228840607333,-57.94350686482409,-32.68259519801612,-42.76290881830039
1058,-41.79053926562882,-57.96778992182348,-32.85008276520269,-42.60080744013743
1059,-41.041176246186915,-57.79654929406802,-32.92519284634143,-42.2820160901165
1060,-40.131233381548256,-57.38414575967879,-32.88979356778633,-41.75661541129369
1061,-39.07818152053462,-56.69220284439976,-32.73491730074269,-40.99687679584772
1062,-37.94527326716022,-55.70248134072282,-32.46291973174333,-39.992675201803465
1063,-36.74474584765191,-54.42376402794223,-32.088198694188584,-38.73943544897819
1064,-35.4004764726498,-52.89860867769399,-31.636554442135147,-37.23499343683883
1065,-33.86462318021237,-51.19956931883106,-31.139739015264894,-35.503145267128744
1066,-32.22627243510024,-49.415314723788846,-30.630261385736894,-33.61440801738153
1067,-30.64420511656942,-47.636662182483114,-30.139133093273827,-31.667430765543106
1068,-29.21504531690153,-45.93906717003258,-29.69048220529437,-29.75003807705518
1069,-27.918938577842457,-44.35991385371602,-29.294085457936962,-27.92050147698319
1070,-26.712101805212935,-42.88719693446527,-28.94210896859894,-26.215708612811948
1071,-25.622690051083246,-41.47195346264245,-28.613426196392222,-24.66218177982902
1072,-24.736855571327748,-40.04967608541658,-28.28128033758744,-23.281428513285583
1073,-24.096922042411304,-38.55874542514094,-27.918523930110858,-22.080966491248827
1074,-23.634987063082583,-36.95905637337121,-27.503035785832758,-21.047484738926258
1075,-23.26092583328058,-35.24544677986033,-27.022884949222426,-20.161715799035036
1076,-22.96256988409348,-33.44850491737112,-26.478305175701003,-19.41146713755827
1077,-22.793313229588186,-31.61716133935139,-25.880131825074134,-18.792737257639175
1078,-22.760621956824423,-29.793021025782647,-25.244116166468302,-18.294942505456945
1079,-22.761626566144294,-28.007415838783068,-24.58567430043013,-17.886077034125687
1080,-22.67133711975635,-26.290582103848635,-23.917346205637145,-17.52614257736989
1081,-22.458586086526335,-24.667477853004574,-23.248112071663876,-17.190230432805606
1082,-22.20807294491989,-23.155251550147877,-22.585292369485078,-16.87139585994042
1083,-21.991125136700205,-21.76615601468816,-21.936140174641295,-16.561931744974693
1084,-21.769042905454842,-20.50478901375857,-21.30579681965067,-16.247385146656338
1085,-21.4590276699071,-19.366309287065675,-20.693576081960273,-15.92165788106612
1086,-21.027529956321043,-18.340244440162394,-20.0921304630613,-15.5973941814363
1087,-20.528814745416913,-17.412639971545186,-19.48997982001765,-15.30322222629133
1088,-20.00998297197585,-16.565225764368826,-18.876594113957093,-15.067845546340235
1089,-19.411159256214276,-15.776926265314314,-18.247582767198438,-14.899347156810423
1090,-18.60763055858804,-15.024066381663761,-17.60352512163709,-14.772651156678108
1091,-17.525471126556145,-14.276428256349922,-16.943852063307656,-14.646671433042226
1092,-16.209070360748242,-13.499190529879703,-16.26407724752295,-14.491566191923141
1093,-14.734320482207114,-12.659310706865782,-15.557038345367719,-14.28118780178238
1094,-13.102880494628938,-11.730188638394223,-14.815471335398229,-13.971943893977073
1095,-11.254164703303564,-10.700357743555754,-14.035743436486339,-13.513045237278769
1096,-9.170786629281276,-9.57204046604489,-13.219457955037694,-12.878405460351507
1097,-6.9426503827842705,-8.346585580150078,-12.37065199073032,-12.07115697546891
1098,-4.679983099533936,-7.025777599283385,-11.492507082480804,-11.1043058069587
1099,-2.4168576434857396,-5.622405236955286,-10.58645266538294,-9.990084128003845
1100,-0.12261895079284618,-4.1607180709661575,-9.654145957912844,-8.734488968573244
1101,2.182136393702179,-2.673974220811537,-8.70031712139075,-7.3499816418983235
1102,4.359756793668805,-1.1977321658503928,-7.73112309063078,-5.873695956428426
1103,6.249505444518973,0.2393477927100499,-6.7509003707505695,-4.3587511729619335
1104,7.789372009189751,1.6162343781490263,-5.761039693137431,-2.8505073980806026
1105,9.045510458733203,2.9245637492668792,-4.758659476391595,-1.3746418700690228
1106,10.092087219991248,4.182531084401603,-3.73807730589059,0.05076432492457486
1107,10.914640358544478,5.428888337351259,-2.697323156628971,1.4026261047012365
1108,11.470224585526909,6.696758329322672,-1.643599794115892,2.656788397412906
1109,11.78559117456968,7.996787403895578,-0.5944472204617727,3.8072397571562546
1110,11.979373509030529,9.31180146276539,0.42182038381445697,4.870351873912903
1111,12.141175422781723,10.591368228347058,1.367756897373186,5.857227189367059
1112,12.23140991585172,11.759873922837706,2.2017638688393633,6.756430030292023
1113,12.133179096892166,12.742177111425631,2.884594067625275,7.53952774388751
1114,11.772320214779445,13.486757751476716,3.3872515779873758,8.170690177760045
1115,11.18150606588594,13.978218830592706,3.697060147136516,8.61623960253132
1116,10.423049381245312,14.239055171451247,3.822052114750315,8.85283966160457
1117,9.497576116588272,14.315904131650989,3.7925510891877243,8.868322792186094
1118,8.355865045114195,14.258033905154543,3.6563932192813042,8.664946816661699
1119,7.005193950000221,14.109395203661835,3.4695358290774023,8.281458876716615
1120,5.574097417315301,13.90860581672346,3.286205603196323,7.799221209125051
1121,4.2160283069887035,13.686771858016966,3.1505246473184143,7.31098518910875
1122,2.9968163885874706,13.465075484464512,3.088415463303917,6.886549916675156
1123,1.8928834255977913,13.24888943431955,3.1047261732542455,6.559123672547325
1124,0.8994994994209691,13.035247010357317,3.1876143781940236,6.336187659324469
1125,0.09686139534338395,12.832006932848735,3.3142080047815203,6.211077214307885
1126,-0.42333650982952775,12.658985381173027,3.456915517443944,6.164265857820969
1127,-0.646467621584943,12.53753257005124,3.5938977111976222,6.1589121805851095
1128,-0.6534518657692456,12.48537570424783,3.717303952051554,6.140273018442335
1129,-0.5154055183798575,12.512341742814176,3.8313774661766717,6.063370580604905
1130,-0.20053817004951796,12.61382577853151,3.947722447106868,5.927518759202553
1131,0.3693869247042518,12.76710350869606,4.081734120797108,5.777585586263453
1132,1.2174945440100693,12.935231989914895,4.247582091762303,5.671166873353218
1133,2.285859923009345,13.078476708454183,4.452773120097816,5.645909180745547
1134,3.518450878506704,13.168251808119049,4.695207984255719,5.714511853275916
1135,4.902830027573551,13.199057565983557,4.966750029834082,5.8782857090195835
1136,6.411563581962446,13.190338085076945,5.256576802520532,6.137367579759425
1137,7.953329106960818,13.169960189749972,5.550760809142683,6.476024869875391
1138,9.416413546552612,13.154597622982214,5.834030331461644,6.847047698918878
1139,10.770865496090194,13.144903024154285,6.094583265354369,7.195143213081318
1140,12.085627999373884,13.130031315339423,6.32488144737451,7.486062782963702
1141,13.450222755045207,13.09431578189269,6.518412546332407,7.707508951152764
1142,14.798251185947848,13.002683525397815,6.639796928933356,7.849459390055285
1143,16.290858536340046,12.890976713188442,6.739455481922296,7.923280482070062
1144,18.00879390216659,12.78610803156734,6.8501833542753365,7.949825961946612
1145,20.00355907934778,12.709650191855815,6.988065268077344,7.962643028321066
1146,22.261798567388063,12.678136492854293,7.156145806222774,7.995648163129829
1147,24.64578814956079,12.70172375801746,7.350971083845914,8.059498010609607
1148,26.931699699646508,12.782685860349732,7.565506081447492,8.138549079401718
1149,28.92513432677742,12.91557978546091,7.7892107924878085,8.214011839263504
1150,30.520283047263955,13.08715779987887,8.008978273902692,8.283181661781635
1151,31.688511331593894,13.275559758928022,8.20973068849657,8.352938847078692
1152,-0.1702326154541557,-0.650485925532166,-0.3284751346147519,-0.467439774344703
1153,-0.7482536373317261,-1.5197255178720281,-0.8724435102537642,-1.1557399028610738
1154,-1.6500915753764307,-2.7763365716260067,-1.6973481653968019,-2.1804447175581965
1155,-2.968005426069486,-4.414250289766267,-2.8136349304277877,-3.572844539333784
1156,-4.70433225845473,-6.384084102046084,-4.212388157401557,-5.323835015615758
1157,-6.7735681143281745,-8.596842648348337,-5.86355234076283,-7.372321368065606
1158,-9.088161231894007,-10.935564136965128,-7.709450347619374,-9.619129933282267
1159,-11.605904268069441,-13.273388702873117,-9.666499174570692,-11.951817719201891
1160,-14.30157155334255,-15.497628062726529,-11.642158822551458,-14.261828612618231
1161,-17.10197505073917,-17.536924844895495,-13.562782763621936,-16.463227173568114
1162,-19.90708015528415,-19.388132213097187,-15.396264691038152,-18.525356595746103
1163,-22.686207773638756,-21.039087737469867,-17.10968146870916,-20.43540615514291
1164,-25.49444225656537,-22.49018250075505,-18.682734994965493,-22.218820524628537
1165,-28.354646904815418,-23.748785829144737,-20.103356271994606,-23.925561231406324
1166,-31.19593303888424,-24.822316322503255,-21.3611885907761,-25.60996735222577
1167,-33.948454305318734,-25.71479880706831,-22.436942983861105,-27.320369409631155
1168,-36.6243728130032,-26.42229088036898,-23.301830791381796,-29.11265888647335
1169,-39.31195451206116,-26.928511279866747,-23.929860655559114,-31.052379284483116
1170,-42.07737982878249,-27.211798370035964,-24.3091962417423,-33.189341858976384
1171,-44.89963959955755,-27.256735058249,-24.447767316418005,-35.54468606429421
1172,-47.735938146860455,-27.06184140917847,-24.373071222382187,-38.12733835738062
1173,-50.6119414525124,-26.644256321439897,-24.12810387414028,-40.96318886430977
1174,-53.65411498272703,-26.038725070177442,-23.770519480823605,-44.10890014679289
1175,-56.983632088007134,-25.29235606235988,-23.375694752217044,-47.635649628189114
1176,-60.619550907579494,-24.45885604270508,-23.029857300955392,-51.60542602318025
1177,-64.51950673545177,-23.589546618271847,-22.812005357183384,-56.06050418584935
1178,-68.66949069740555,-22.722703422347347,-22.77398098637058,-61.01957066953888
1179,-73.12945604074683,-21.882218574937323,-22.932901640291544,-66.47473503289083
1180,-77.94283971799084,-21.084882932494715,-23.282244250758353,-72.38444415153435
1181,-83.0451188319422,-20.345710887612196,-23.80324664082764,-78.6616911606506
1182,-88.27866423329691,-19.677156837955177,-24.469228855462756,-85.1738538689637
1183,-93.48588933695603,-19.09326988635758,-25.249057956550114,-91.76236482584758
1184,-98.58151366853723,-18.62225959152984,-26.114236298266853,-98.26401571283856
1185,-103.49491685736675,-18.305958663341944,-27.045260821116873,-104.51481417411736
1186,-108.10185324624784,-18.186728837451223,-28.031490893662202,-110.34689710506993
1187,-112.22043903833195,-18.29124110988575,-29.072473341506623,-115.60029998668684
1188,-115.69699137353125,-18.61566814373369,-30.174887557368905,-120.14547796827028
1189,-118.48112966046808,-19.122340028805706,-31.3406880713741,-123.89454381627039
1190,-120.55976781633736,-19.744428033883747,-32.55940673662488,-126.78608900685143
1191,-121.86770301520316,-20.395242358856347,-33.80907421174881,-128.76078825584364
1192,-122.26797906907136,-20.982482430219985,-35.060695667725746,-129.75055236872586
1193,-121.65648784263982,-21.423511732857524,-36.27929227079172,-129.68655664038462
1194,-120.0480465107312,-21.659095227322545,-37.42435798307115,-128.52098811383502
1195,-117.51051481472442,-21.666878785318644,-38.45448396228607,-126.2387697893254
1196,-114.06205243979183,-21.46656424127261,-39.33056805590735,-122.83711279391022
1197,-109.62971080728212,-21.108947164871104,-40.01409756446609,-118.29860754814312
1198,-104.1507633082521,-20.658702972894773,-40.46923141374234,-112.60972849465105
1199,-97.68241905845814,-20.17939938959311,-40.67229290979695,-105.79762020747658
1200,-90.3820970829343,-19.723408463372508,-40.61706018298152,-97.93549933602384
1201,-82.3973962282683,-19.32426564862429,-40.3113555855736,-89.12733552536181
1202,-73.78562806071074,-18.993491957642142,-39.768243249652166,-79.49248064315235
1203,-64.58478655684206,-18.728579990832245,-38.99626486418662,-69.16543428587366
1204,-54.9089459357314,-18.51988821717325,-37.99672004623382,-58.30752567536633
1205,-44.95128017961043,-18.35637439532517,-36.76923481918248,-47.10375303827318
1206,-34.88257886736737,-18.237187612244398,-35.319401631775776,-35.73614756901727
1207,-24.7701764403044,-18.17624526710001,-33.66184117996656,-24.368276461841152
1208,-14.649361082672975,-18.19545688263807,-31.816679278238393,-13.154400848237225
1209,-4.615151906246171,-18.31464742657698,-29.803654278162888,-2.240024905460188
1210,5.170691067771541,-18.544126178104147,-27.64280800958302,8.252224388218755
1211,14.586443897806706,-18.881487972052902,-25.360338757733782,18.242024503757303
1212,23.62514709313481,-19.309946253786073,-22.988632631380895,27.70356182083527
1213,32.318050722952165,-19.798577150500993,-20.563785834142163,36.647791563175616
1214,40.63666807826269,-20.31007754821087,-18.124500207010467,45.08258395489061
1215,48.46351635306214,-20.81288714558771,-15.707936560049415,52.99203052701623
1216,55.7028725886805,-21.28452943886092,-13.34567851760039,60.35291986878078
1217,62.37528067048817,-21.705884917011275,-11.066215810072753,67.14674823154934
1218,68.53811219700711,-22.06122569206438,-8.896517166654496,73.35259181283611
1219,74.18919689198913,-22.34604843071038,-6.856348219617287,78.9364349978669
1220,79.28601842093974,-22.572966306177083,-4.954798210740558,83.85084140504553
1221,83.83461941520605,-22.77154741809737,-3.1923776098151424,88.06070086941088
1222,87.89738494189537,-22.97816155633016,-1.564320398593197,91.56352540823416
1223,91.510346063755,-23.216673217173376,-0.06207069170830953,94.38119891650227
1224,94.619343557972,-23.48522066808931,1.3263731951953086,96.54299052173843
1225,97.1180522387623,-23.757797147003387,2.615110723117912,98.07929153136948
1226,98.95174521077917,-23.99033677118649,3.8171491870311582,99.02632326592563
1227,100.14240480108478,-24.12514549152616,4.940350902962949,99.43369417973867
1228,100.7332919779085,-24.09869851464082,5.987745284310022,99.36785120296092
1229,100.71415316633293,-23.851564388968416,6.960890249342414,98.89376724170586
1230,100.01252738796376,-23.336536829948905,7.862157773936088,98.05250548155155
1231,98.5908150989102,-22.52921511465898,8.696785364124,96.86903239392916
1232,96.54341841208004,-21.439521139412662,9.473066154765554,95.37645372526254
1233,94.1019379819889,-20.110238078171403,10.199520125585853,93.62317091962892
1234,91.49737470730504,-18.603431240368806,10.881852056672225,91.64962498450049
1235,88.84617767876288,-16.98590696568137,11.51997749184399,89.46609556205084
1236,86.18085968471138,-15.31654758074114,12.105625370255634,87.064835682972
1237,83.51337161541905,-13.638595175918155,12.627136880890006,84.45203830144617
1238,80.89814770999618,-11.974765693267539,13.077365471777494,81.66191194026703
1239,78.41081241347764,-10.329532970979503,13.454246217534216,78.73952530425846
1240,76.05159445370228,-8.704511129390589,13.756515672667492,75.72376514178087
1241,73.71534630853438,-7.107921328823466,13.979622642185078,72.64835879158433
1242,71.25385711857442,-5.551342174278459,14.115780557123436,69.55213181673047
1243,68.57863318184552,-4.049344167721824,14.156098365183553,66.48454815442558
1244,65.67874975095307,-2.62221298960456,14.09095439759312,63.48841124274948
1245,62.55368361371332,-1.2950741960059213,13.9109356481332,60.571038285356636
1246,59.17842695250641,-0.0944711643950801,13.608121879286097,57.69887975345194
1247,55.55952728841211,0.9552417879361799,13.179923277025903,54.8287975997825
1248,51.79968371519675,1.8414411157650454,12.636151075535958,51.93858605685296
1249,48.03382040419198,2.5742671686011995,12.002100930166787,49.030681704553636
1250,44.323501324741024,3.181398906987366,11.315091068994878,46.12018213970172
1251,40.648948407647566,3.689241022011067,10.614891352216565,43.223747665026195
1252,37.014371116968974,4.113344535842045,9.931035903088196,40.368788100628514
1253,33.51385530368455,4.464999811129112,9.278488266716185,37.596661328525016
1254,30.251286511928033,4.756939761479264,8.660555682824395,34.94417877057957
1255,27.241097932438777,5.001811457461027,8.0702959191284,32.42792226522042
1256,24.40114929429029,5.211598911096961,7.492909337065626,30.03967408374528
1257,21.67438536304571,5.39925593743942,6.909575778159676,27.761824836441765
1258,19.11175365818169,5.575413180937187,6.303546710029202,25.584459619561194
1259,16.80946455883826,5.742385901268399,5.669700825476554,23.506446733203564
1260,14.811928813033136,5.898421389662959,5.017013505039574,21.522630889318375
1261,13.061362402117288,6.043565228487362,4.364119382020507,19.612143525576528
1262,11.494518444207328,6.174992055336562,3.7358523009888236,17.760278019324705
1263,10.147158937900652,6.286254382789134,3.158534785374495,15.987660393463184
1264,9.111680071372914,6.373438331381646,2.654736128898539,14.345765789027318
1265,8.427377322054665,6.436851305351004,2.2382539305766778,12.878358661772229
1266,8.021103487131402,6.478986978690829,1.9119599590616594,11.586249756699843
1267,7.801502431753752,6.506017281236337,1.6722707393885468,10.445211720090233
1268,7.7639494279317,6.533011720961193,1.515765029245425,9.448461183227389
1269,7.9575893827798065,6.584566979741944,1.4430958685217101,8.613069607818213
1270,8.379648474857008,6.674133481272314,1.4406679758881074,7.96750732089652
1271,8.95132497008548,6.841673729687535,1.5299303316287975,7.469526539805407
1272,9.61403878610641,7.1002278861507735,1.708934578448914,7.084849308279849
1273,10.363319635862135,7.4423689389589835,1.9635433236610997,6.795469671600868
1274,11.19212111297712,7.844763572311249,2.2735149541413064,6.5914829981012595
1275,12.022477154633762,8.273211446576969,2.6129202278096995,6.450969155822211
1276,12.733346208255302,8.688767080802283,2.949860728592411,6.339917526475105
1277,13.25678686630765,9.053055390525241,3.252657624688075,6.233549404131942
1278,13.618635381878281,9.33568395161356,3.500267189625153,6.1332698572989095
1279,13.888082429263157,9.524621078583433,3.6839995285379836,6.0563659461236945
1280,-0.2635038086050324,-0.2110170232618212,-0.41279867652477203,-0.22960049400837557
1281,-0.9360780881769443,-0.6001941017184205,-0.96199879934073,-0.6522068631736392
1282,-1.9576146707496411,-1.2223525123147132,-1.7920658656918498,-1.304236962260271
1283,-3.4155094711244445,-2.1032270482972657,-2.9301085710504,-2.2287372848173694
1284,-5.304248918089888,-3.2461451967486448,-4.380018360287982,-3.441471633455904
1285,-7.524287646255884,-4.632937409810378,-6.120740968135487,-4.927279376527745
1286,-9.969184048272771,-6.227863777575017,-8.108710216708017,-6.657881496765299
1287,-12.569752686243822,-7.985117893930612,-10.283440276416059,-8.601480461972677
1288,-15.294207276770218,-9.859432612488956,-12.57708662903499,-10.722839740781177
1289,-18.120563290619412,-11.815830548790089,-14.931195174822381,-12.98334552445898
1290,-20.98471675454102,-13.839635842982052,-17.317356777508625,-15.345288617316815
1291,-23.799435062475244,-15.904075151421091,-19.687479476464308,-17.754737503085035
1292,-26.49929614801463,-17.984507196325826,-21.998950659265635,-20.15087532599116
1293,-29.025010022892484,-20.061131990273857,-24.222144153964408,-22.46785164915181
1294,-31.314199544692414,-22.112640494724356,-26.341189910284804,-24.643161800852706
1295,-33.31507378975121,-24.111042581885847,-28.35191372801037,-26.624403280455567
1296,-35.0036315572507,-26.02403689415099,-30.25713104341478,-28.37721658368463
1297,-36.39057934274229,-27.820852413923376,-32.05956129243828,-29.88957943197395
1298,-37.496455852061565,-29.47775987083608,-33.75717727366777,-31.16519010667445
1299,-38.33414943674935,-30.97812326220885,-35.3443037137025,-32.218724200624955
1300,-38.909896202793384,-32.31248114569228,-36.81738309017914,-33.076463318450394
1301,-39.232210102914884,-33.482649723683934,-38.17800577258021,-33.77269702797995
1302,-39.3210118024976,-34.497455046290916,-39.42928660752641,-34.33757144320079
1303,-39.19903631462762,-35.36226376723626,-40.569425896216856,-34.781866885383906
1304,-38.867573345937224,-36.07482306886628,-41.588138834776224,-35.09415591508374
1305,-38.2875562978753,-36.62592314979202,-42.46683755766505,-35.24533049807212
1306,-37.38928454902014,-37.00326167636745,-43.18002345733878,-35.18550231836277
1307,-36.14351011503053,-37.197741520349695,-43.69805639140404,-34.86164295607233
1308,-34.62352809137326,-37.210492675751844,-43.992288775020725,-34.24960828278513
1309,-32.91874501641003,-37.05771197296258,-44.03817207414679,-33.354018309144585
1310,-31.03199112836992,-36.76237001126945,-43.81605861641126,-32.187912083278746
1311,-28.90716513364527,-36.338975371718696,-43.31479997501913,-30.765571717943242
1312,-26.54006221048054,-35.78914698983839,-42.53236378678763,-29.11900684233105
1313,-24.04270848418464,-35.105943602604604,-41.47498490404068,-27.304686051045667
1314,-21.551894402782864,-34.28218311511384,-40.163098382691146,-25.382127589307206
1315,-19.12156858919183,-33.31967311755941,-38.6359089467053,-23.396421995673276
1316,-16.731487141732774,-32.23368378504091,-36.94760949213601,-21.378427369531416
1317,-14.390314439674547,-31.05161316852298,-35.157224886303624,-19.35279937983535
1318,-12.192348904519786,-29.807456630516352,-33.319538445879765,-17.34711195979968
1319,-10.246985973013654,-28.541140628047433,-31.486192749620788,-15.399063976518592
1320,-8.589160776136564,-27.299449938752577,-29.710259982890697,-13.550138690651696
1321,-7.154035342476883,-26.124547236128926,-28.041870317421562,-11.837190346935431
1322,-5.884213247646264,-25.041089317771664,-26.51673314364048,-10.3017735029439
1323,-4.822448234276326,-24.05556957077334,-25.14895804376218,-8.996879939562232
1324,-4.047237349297302,-23.16303878459951,-23.93248003038813,-7.969460654665127
1325,-3.564527919783717,-22.353091052705512,-22.846354456858634,-7.225662255541877
1326,-3.269555027111957,-21.611548537619633,-21.859713091539245,-6.720572068347179
1327,-3.0624091863029506,-20.924859501303555,-20.938932830907916,-6.3926746557933205
1328,-2.9494695081767617,-20.289201565691435,-20.05729693369596,-6.198437578237302
1329,-2.986894711016322,-19.711143297211468,-19.202853108344538,-6.117842491815329
1330,-3.175420301509746,-19.19900257879906,-18.38278300434175,-6.137166097836494
1331,-3.4228864512465758,-18.757622132848333,-17.6157436882944,-6.235485129431216
1332,-3.6473037753292092,-18.38440204976349,-16.91652276408542,-6.395184509632059
1333,-3.8704715659878257,-18.065947313487015,-16.28760007131863,-6.614573944788066
1334,-4.182313007717094,-17.782018695630867,-15.719304101072876,-6.900378613430692
1335,-4.637776170134849,-17.513093132442073,-15.192359687247091,-7.250999808146375
1336,-5.198514770612345,-17.245485495629033,-14.677377152244318,-7.647945618356372
1337,-5.798992848310798,-16.973470887010063,-14.137918920260748,-8.058481992066982
1338,-6.441581712963469,-16.701246199305125,-13.542138730251969,-8.45243688844598
1339,-7.207065923300552,-16.44357077504369,-12.878257153173143,-8.817640451709224
1340,-8.134468085960512,-16.220644516023704,-12.16348841044465,-9.150372576994137
1341,-9.137562623540875,-16.047445089990827,-11.43470073701337,-9.441407841750602
1342,-10.087537192955788,-15.923566464299263,-10.729190838079223,-9.679846008267198
1343,-10.918815517791623,-15.832186376043806,-10.07324139335978,-9.864842786295924
1344,-11.65302975947716,-15.751842173672431,-9.478956645727076,-10.00560421917056
1345,-12.29664413128582,-15.668984553809343,-8.945097056582316,-10.09917833669462
1346,-12.767308996882083,-15.57825321771626,-8.462675768020246,-10.11827568751853
1347,-12.956592696991528,-15.476707167497402,-8.019847074511024,-10.028888179740232
1348,-12.821377878593665,-15.362271045277833,-7.6042718943324505,-9.815660249065068
1349,-12.430469536864097,-15.23473186820564,-7.207895534612358,-9.490956901606577
1350,-11.879704727944679,-15.098345025853195,-6.831324882431698,-9.082824808973376
1351,-11.195093715984644,-14.962451122742454,-6.486969373765711,-8.622786234132521
1352,-10.348988623773783,-14.833953324995166,-6.198427310059297,-8.138613794846961
1353,-9.344620262645305,-14.712359610711404,-5.993871813481347,-7.653878757858761
1354,-8.27615169544659,-14.590775254428772,-5.897019838942191,-7.1929799981988705
1355,-7.24763349095231,-14.453622086978134,-5.915476249223852,-6.776731584463621
1356,-6.267806807644603,-14.275236917316217,-6.031525183262922,-6.405649244957838
1357,-5.262752503554471,-14.025593002647982,-6.202610086256681,-6.051575035015171
1358,-4.19413317620799,-13.683190475969205,-6.375366193669923,-5.683764111779877
1359,-3.1353494175797705,-13.24717033299556,-6.507204653206161,-5.296994957308967
1360,-2.184527868823088,-12.737407365476935,-6.575211455171196,-4.908151710874061
1361,-1.356554031404045,-12.187524317964092,-6.572596611352453,-4.537869476586209
1362,-0.5809292811579072,-11.637584152911126,-6.506220357142233,-4.195956139424217
1363,0.18482914506526343,-11.127512856829963,-6.391100190417468,-3.8887192368174897
1364,0.8778408556062102,-10.692793189547697,-6.243933325523997,-3.629359545629685
1365,1.4018116390912758,-10.35792918473035,-6.080475028214079,-3.426605931673299
1366,1.7344438507214615,-10.129838943942872,-5.911213195498214,-3.2696589450936013
1367,1.9627984730932773,-9.993311165419765,-5.735214423050521,-3.1260717875061776
1368,2.173084144127241,-9.908411933122013,-5.533903226073559,-2.9541615862787736
1369,2.3488359640085434,-9.819391534695894,-5.2689685496617065,-2.7208579480971733
1370,2.4188322680028524,-9.673902909887675,-4.894854874892865,-2.4121589311487206
1371,2.3654897563239645,-9.437829934019113,-4.377262419978144,-2.0184961245390602
1372,2.2746708625809227,-9.100356430748011,-3.701250873825418,-1.5161455261972554
1373,2.2335516335216226,-8.670653602823645,-2.8742693128774297,-0.8804776361321217
1374,2.2303942023657477,-8.168952525110543,-1.9254183764702417,-0.10938572389627332
1375,2.190950039923223,-7.6191871834161935,-0.8951833355685486,0.7767644483734546
1376,2.09374625621782,-7.0436545194997295,0.17650236816332532,1.7620897497240953
1377,2.031609924679664,-6.457000261542185,1.2560523580113334,2.850389362197643
1378,2.11503142493292,-5.8616368327157735,2.3192506806729556,4.048509098201402
1379,2.3731321344057035,-5.247444036017767,3.3564123361797824,5.349298946709263
1380,2.7645889916195947,-4.596781512024277,4.370099944497374,6.732053015491878
1381,3.271459925020632,-3.8893754946500025,5.362928698168845,8.17466377389502
1382,3.9550617102621457,-3.104095137198085,6.334368699045807,9.65691386735893
1383,4.871878199296563,-2.2228888877371658,7.285737139846491,11.152258323202132
1384,5.9858496811692055,-1.238320306645217,8.218704854192055,12.624456199131826
1385,7.192948424322736,-0.16070341911509775,9.128714631567796,14.029302758763047
1386,8.419106442586182,0.9821544149758726,10.001542358774339,15.325243319505995
1387,9.63912747984797,2.152826605942784,10.817728721094896,16.490968989840724
1388,10.80800511486171,3.3115907508169324,11.560852169804415,17.525847863185938
1389,11.834631131842047,4.417460050115831,12.220274775138474,18.42084951263566
1390,12.634825703707877,5.42445213625797,12.786836829518919,19.1401763588341
1391,13.224038005217256,6.28843041710908,13.249124689187342,19.640272627664864
1392,13.713203469769084,6.983083184618877,13.593112978930645,19.88748820399752
1393,14.206693945672935,7.5011708843258935,13.804129046263066,19.856876545097926
1394,14.732760635935685,7.8444677086014805,13.871034753329946,19.528212961719813
1395,15.27392481165787,8.021924222801049,13.790468620263004,18.891052493411696
1396,15.844186682047004,8.049222239254748,13.568838028391113,17.95370505402517
1397,16.508996044853248,7.941947711229128,13.223193398108569,16.750548602867205
1398,17.404176959362168,7.722214055754382,12.806826622755437,15.400023508920043
1399,18.500959995250327,7.367710716589862,12.30974944724033,13.90388388813535
1400,19.68093498212827,6.88493650755416,11.745306283155335,12.314455218473888
1401,20.837151828092804,6.301276986131774,11.138455060267061,10.713237870856485
1402,21.908510828774542,5.657582388103797,10.522026737423044,9.193301008388412
1403,22.853900945437164,5.001244994400309,9.931623584616137,7.837570889644357
1404,23.637604659501793,4.37909551157834,9.39857081902093,6.69643394467751
1405,24.2356181302529,3.8317739840589997,8.945249748535304,5.780328003033433
1406,24.642891569050306,3.3905877875681143,8.583438458632772,5.076743177725203
1407,24.872874673673728,3.0758009951259133,8.31540808911465,4.573555788346639
1408,0.31146358874030616,-0.7527752642727487,-0.6463074014977742,-0.31674902649978476
1409,0.09218172238777772,-1.6773795951378943,-1.3345520082519537,-0.7441115137053358
1410,-0.2841491057548369,-3.015869832555959,-2.2937076676166206,-1.3174549862804525
1411,-0.8934859883127417,-4.7816890191825205,-3.5150782921756956,-2.0145039732652243
1412,-1.807103003520005,-6.958227805283991,-4.9632869489861156,-2.8072538137596093
1413,-3.00356153112631,-9.494471796969234,-6.579767826382897,-3.6538567282496817
1414,-4.3746097494611655,-12.302801600195348,-8.290881342093185,-4.49970503176863
1415,-5.818628338683334,-15.265403313890523,-10.019936856034738,-5.293692393133061
1416,-7.287978234628001,-18.253323297023798,-11.702921221743287,-6.010537530571379
1417,-8.751872581457885,-21.15776277329765,-13.306991689749179,-6.658328844622094
1418,-10.123493934009746,-23.926015128380943,-14.849679795499444,-7.268227566162831
1419,-11.308052028677517,-26.47842817813795,-16.31966280925933,-7.841776646503735
1420,-12.275303947474454,-28.747849816651026,-17.698677135501942,-8.367248803526484
1421,-13.066487483430176,-30.691769409334924,-18.971557449874375,-8.840318936208957
1422,-13.70407522911808,-32.29633734031854,-20.133634236916908,-9.25858805341737
1423,-14.134436923239592,-33.57744745994907,-21.192339739743513,-9.608148013524652
1424,-14.308654955655948,-34.572872385800814,-22.163925914564384,-9.870580899105207
1425,-14.273755206223571,-35.32555207684786,-23.069716609132772,-10.041944733769624
1426,-14.168309866354202,-35.874878056664265,-23.934638777992838,-10.149107752419551
1427,-14.10548172436388,-36.255345673043685,-24.78138982761643,-10.237188679006776
1428,-14.092484920890453,-36.49233929879068,-25.622365756261434,-10.338196002785027
1429,-14.09123076240597,-36.596445081952524,-26.456588141027588,-10.460056395020068
1430,-14.10800323607678,-36.56687611227496,-27.274157978141286,-10.607524114319338
1431,-14.228327920510806,-36.40466788377341,-28.064402140081857,-10.80246561847606
1432,-14.513029493767489,-36.12473198988529,-28.818559166810836,-11.069430584997702
1433,-14.909475452624623,-35.75837089282098,-29.527393497952264,-11.410988773721417
1434,-15.309420395450674,-35.346195283804505,-30.1807874546564,-11.80872865215182
1435,-15.647424869146075,-34.93063875370647,-30.77036041337993,-12.249768356472718
1436,-15.951643165069873,-34.551351975548755,-31.292611700264786,-12.745310134781846
1437,-16.26015296014891,-34.237333771744936,-31.748358864535817,-13.314162161672797
1438,-16.521786294980977,-33.99938158182397,-32.1369986769244,-13.952201361980025
1439,-16.612513590154727,-33.833893878843014,-32.4515612648789,-14.627151136333655
1440,-16.44195764983994,-33.72482433370886,-32.67811813285431,-15.305252924549803
1441,-16.025584666152113,-33.63943696276199,-32.79712989188782,-15.970128854399789
1442,-15.412225239074594,-33.537500021363115,-32.78632421580237,-16.61175488853261
1443,-14.599159252058417,-33.38431578212508,-32.62639702188584,-17.206716850748027
1444,-13.543319438445407,-33.157406265039974,-32.30849066119357,-17.714433422986897
1445,-12.262539643206068,-32.851200743680494,-31.839382755465827,-18.104191784563472
1446,-10.896725137860457,-32.47518236907484,-31.240374252518077,-18.37686741009336
1447,-9.620473657063863,-32.048344730609955,-30.541323437803516,-18.54779531188687
1448,-8.528484031733633,-31.591335516251526,-29.77351027003223,-18.616915402011962
1449,-7.604903690655757,-31.11436315280967,-28.963990139969187,-18.560617254468994
1450,-6.824869867693156,-30.61152447251597,-28.133420726720807,-18.355527400195538
1451,-6.235125524728103,-30.065424559895163,-27.295456709111928,-17.997900741415616
1452,-5.888055209324047,-29.453029596710888,-26.457339991189883,-17.49931663910305
1453,-5.742086700817329,-28.7471121106789,-25.620460919059386,-16.869492044145407
1454,-5.639528351267997,-27.91689801437705,-24.78011671916626,-16.104285278581166
1455,-5.430777226820301,-26.932653483480305,-23.926921696153347,-15.198011453424321
1456,-5.078217531493724,-25.765387137457907,-23.049324635832036,-14.158680265787408
1457,-4.615799840020459,-24.385659685280647,-22.13469577760336,-13.00450111227644
1458,-4.055984880543267,-22.78641340785924,-21.169321527215555,-11.746961233492321
1459,-3.3437976618591914,-21.007241284591924,-20.147564230287976,-10.389670310846695
1460,-2.4458889181675683,-19.126319797435915,-19.084119482647502,-8.94990836764054
1461,-1.445448069858021,-17.23342482535625,-18.010943176654507,-7.473611597146684
1462,-0.5121633110328518,-15.405592752071232,-16.96576765746806,-6.028709125140431
1463,0.22042211370133233,-13.701270897398993,-15.98465253726509,-4.677920057634222
1464,0.7367276172671138,-12.164584840333369,-15.098254936896218,-3.4639917878908855
1465,1.0626798202648287,-10.826498889953948,-14.328122546207187,-2.4229447568397133
1466,1.1701198926537257,-9.70603837834754,-13.684813075097505,-1.5926165757055373
1467,0.9864076607847101,-8.80820455928604,-13.167821215391381,-1.002631392131144
1468,0.5016581912593201,-8.116919199363723,-12.762443481339046,-0.6547186648457889
1469,-0.16933051522295778,-7.596124849528928,-12.439324765065656,-0.5169783548588002
1470,-0.8808913754109272,-7.2004224708596025,-12.162296180666234,-0.5402991687719968
1471,-1.5725710630018943,-6.885141561333261,-11.895669382771016,-0.6830345685324861
1472,-2.2946830606538042,-6.61752319725183,-11.606435608963714,-0.9247035033569053
1473,-3.104046077885665,-6.392360694645522,-11.26848671467968,-1.2587225227917722
1474,-3.9705720482197946,-6.238538619406479,-10.870030015347712,-1.6820972825456295
1475,-4.822178883988345,-6.196793506494937,-10.41734506867811,-2.1876635943895804
1476,-5.643001500136709,-6.283236049203804,-9.928582780400241,-2.768192191395784
1477,-6.512638491708444,-6.481101701139968,-9.421541409282092,-3.4262593779481834
1478,-7.490492482924782,-6.762031945435357,-8.910298224572887,-4.167252947338748
