,TP9,AF7,AF8,TP10
0,-0.31136864975399614,-0.48143484548218596,-0.642122654771464,-0.33938919454901695
1,-0.774043469732669,-1.074545074250386,-1.462017836648831,-0.8208600761791438
2,-1.4522494712730283,-1.9361501470006695,-2.6329039788747517,-1.5213362386344516
3,-2.350749236514253,-3.078382932224378,-4.149062002248943,-2.443818526059607
4,-3.4517824306648346,-4.490544059691861,-5.973915376972777,-3.571827365379394
5,-4.71956304913899,-6.138129151418951,-8.04363163784831,-4.873986100016246
6,-6.108472783673232,-7.966234284772652,-10.273648428581444,-6.306943716817981
7,-7.568580787246567,-9.907086066567913,-12.569663042495188,-7.817721073384323
8,-9.048351419534896,-11.891807871707424,-14.843538571587668,-9.349525164328877
9,-10.504913456754535,-13.866169336926706,-17.035189748756263,-10.853410594076262
10,-11.928351725458583,-15.810150894438317,-19.142648476846187,-12.311728681775374
11,-13.322155621133843,-17.685610435798175,-21.15607053260592,-13.715335797606983
12,-14.692861938185937,-19.460956559300882,-23.074024891220066,-15.057202070679589
13,-16.02742917314429,-21.116283180602476,-24.887434902535933,-16.30926961260335
14,-17.29266629828506,-22.641040998038278,-26.572572182631784,-17.424048954762917
15,-18.446962887406322,-24.028247713016267,-28.0972619241077,-18.35168652462791
16,-19.451907297117806,-25.271052649021048,-29.43255681718666,-19.055581892345593
17,-20.276791753689352,-26.361026684086372,-30.56387219110586,-19.51675608966777
18,-20.897980359780345,-27.28835911617653,-31.492572160735115,-19.729737110374213
19,-21.303921032074708,-28.043382926520156,-32.230275319380674,-19.70769867492961
20,-21.50510578919151,-28.617405700028367,-32.794751574921754,-19.494969446584236
21,-21.538891106841547,-29.005732727014212,-33.20756270376746,-19.17096319354022
22,-21.464618295711897,-29.212610944457776,-33.49153604966177,-18.832912572315006
23,-21.352676987455943,-29.251019780311022,-33.66851911952913,-18.568719946003966
24,-21.273474990399883,-29.138197474644354,-33.75733997160367,-18.4467144225901
25,-21.290839627239304,-28.895209985046094,-33.77202903403797,-18.517414102765585
26,-21.45408211059641,-28.548950783327264,-33.72072771272431,-18.81050365300777
27,-21.783319376554005,-28.130269866714844,-33.60387756710074,-19.323110221553186
28,-22.26066833276119,-27.667627769360333,-33.41399892606886,-20.013014018679506
29,-22.839727783392952,-27.181180829763715,-33.14282058991922,-20.81384483998475
30,-23.46875404582719,-26.682413440264096,-32.791399490470965,-21.66136234288406
31,-24.103682439227743,-26.17743572853877,-32.37170408836644,-22.50425147382368
32,-24.704919054621236,-25.669812671492338,-31.899208920755036,-23.298393439639423
33,-25.233323101935632,-25.160981791138575,-31.386179664939466,-24.006429390891704
34,-25.648298855276646,-24.650058616222815,-30.838742618493313,-24.602739632655922
35,-25.916728513998613,-24.13430424858926,-30.257500945917513,-25.078860825862357
36,-26.026937684006338,-23.60967207467437,-29.641514319040756,-25.441130696290323
37,-25.98784198336525,-23.072831083710092,-28.99082411898411,-25.694327328496218
38,-25.816199225209132,-22.521963158181354,-28.306516443513402,-25.831001304419075
39,-25.524636862472434,-21.953667823849276,-27.590841455079197,-25.836075936472973
40,-25.11980072626354,-21.36180054666869,-26.84800720026015,-25.70017627984212
41,-24.606737752506923,-20.740926151567457,-26.08420320059492,-25.424130053159875
42,-23.990956117088643,-20.087109599018735,-25.30539574411395,-25.009491903578553
43,-23.273397054503892,-19.395178587279485,-24.514682390159138,-24.451044141774346
44,-22.444338663106105,-18.660348248648255,-23.71228761028412,-23.737157766499237
45,-21.491610479669014,-17.882397054972316,-22.898098992874523,-22.85774921823615
46,-20.413837365476006,-17.065888875270815,-22.0732098883471,-21.81157053661582
47,-19.222416479564906,-16.216910453268664,-21.2400492182187,-20.609541292886373
48,-17.931159757703973,-15.341389871250373,-20.401124598921765,-19.26907040928418
49,-16.546439163214934,-14.44769147217293,-19.55624361932892,-17.79964550580571
50,-15.075860235006102,-13.547485141553533,-18.7041097809938,-16.20487018808402
51,-13.545256629856485,-12.653337029707128,-17.847361679585987,-14.49712080478709
52,-11.998072094046478,-11.776751884521902,-16.993069478364212,-12.703019502812479
53,-10.474305102476194,-10.927200059142653,-16.150542998683317,-10.858283926571211
54,-8.996307073461558,-10.112550931916967,-15.330517070685909,-9.002907975296816
55,-7.577605748946273,-9.339560169605308,-14.543769952493927,-7.181518591641097
56,-6.235513817338695,-8.613028970770923,-13.799409100622565,-5.440565916109507
57,-4.988597841056752,-7.935916750995143,-13.103521943818752,-3.8199249092987695
58,-3.845899611662221,-7.310004151831725,-12.458010541551085,-2.341974636170332
59,-2.802503632869884,-6.735993420891092,-11.860625683255297,-1.008775356343085
60,-1.8454348647844945,-6.214906785964373,-11.305756252106981,0.18821448950325173
61,-0.9626924151274966,-5.748812686834673,-10.78457609089287,1.2584697968248448
62,-0.14526146308511959,-5.340405719177814,-10.28607377581489,2.2126025329787145
63,0.6150318570134602,-4.993444439863911,-9.800057231243693,3.06970753751788
64,1.3243978101933351,-4.712857151285028,-9.319658513400757,3.857993673989465
65,1.9849033946386712,-4.503262250386688,-8.842480331521145,4.602496092799117
66,2.5902640240846266,-4.366231464965712,-8.371328127988075,5.309756570755451
67,3.1264284507061104,-4.297463726252881,-7.912413375647878,5.968618218327149
68,3.585094034409407,-4.28784638883121,-7.471263512503309,6.5673937056886045
69,3.9708158095911448,-4.327215339514566,-7.052181948337135,7.103506176010661
70,4.293813547525216,-4.406035403091507,-6.6593204489717115,7.58192121518466
71,4.562624747654097,-4.515851838963188,-6.294830604034637,8.008015338096643
72,4.784179573873535,-4.649859017277793,-5.957008888129397,8.37834216301223
73,4.967273772058528,-4.803921893169042,-5.640165331658237,8.68276344912598
74,5.121422371868551,-4.976872106162421,-5.335501756739717,8.91529799132027
75,5.253510930905786,-5.167389766724873,-5.032980085941345,9.078150204852994
76,5.365896914230584,-5.370194962592304,-4.723903808294103,9.178402067518055
77,5.454389063863529,-5.575027522090718,-4.403272911550576,9.225342803805507
78,5.507470963314667,-5.767931080028207,-4.070887295113379,9.227776033912187
79,5.512000315163452,-5.933974851570066,-3.7305983656183095,9.192019004828017
80,5.4632824502838595,-6.059150384432211,-3.3876432553160076,9.123193593258524
81,5.365494332633728,-6.132994332127301,-3.047455954367234,9.023253618255321
82,5.2216255019179965,-6.15194812111341,-2.717120689810062,8.886634653751761
83,5.031649878147417,-6.119725450771223,-2.40429409119177,8.699212855156347
84,4.801177777131432,-6.045413407129166,-2.1127989699983365,8.444693035200471
85,4.544980675774917,-5.93970991843399,-1.8399564501877468,8.115533284446458
86,4.282781573431729,-5.808439574379955,-1.577828567614486,7.712446713977875
87,4.0341000475257225,-5.6489314372983275,-1.3159556488474384,7.236893416625727
88,3.813907041461778,-5.453401115341969,-1.0440288317011117,6.694123754430878
89,3.631423496086059,-5.2140311649826385,-0.7557347474353111,6.1025108488973165
90,3.4929316297977473,-4.926307889702035,-0.4525288834957745,5.489171919378025
91,3.399004615921474,-4.591462302786774,-0.14321874085491265,4.871448199451955
92,3.3365277141572114,-4.218029558723901,0.16034802504483192,4.250734089274486
93,3.2820691215393776,-3.8212001942172615,0.4470380538415269,3.623778845556822
94,3.217075965527884,-3.4186357339942943,0.7082078417277775,2.9919172451021394
95,3.138128080523991,-3.0265511432994745,0.939709990563403,2.3626845472945677
96,3.053989291286157,-2.6597466901136517,1.1415877927409257,1.7481725747917216
97,2.9751451732028174,-2.329422449852096,1.314482730506313,1.1608213943991352
98,2.9080321247739214,-2.037049375510952,1.4595280695275004,0.6148575247897153
99,2.856730388605038,-1.7715208690512247,1.5814809243575438,0.13150909971835464
100,2.821480475687485,-1.5129882250352105,1.6876021517934128,-0.26678498555453356
101,2.8017828883861093,-1.24224583396748,1.7857550904029527,-0.5607859993226133
102,2.810203559162462,-0.94797165771031,1.8882622425205902,-0.7308314123252839
103,2.8688922685130134,-0.628282361809848,2.0112878967710355,-0.756262146035036
104,2.9925160428150552,-0.2906513666566356,2.165484200421489,-0.6156398499663038
105,3.188189169987308,0.053824776412012346,2.3527087056818536,-0.29424372703154794
106,3.4613068413226586,0.39956806466060424,2.5737928045355183,0.20471113030752375
107,3.81610343425973,0.7480139047325663,2.8332185258446487,0.8622307138984217
108,4.25657116751569,1.104949028651092,3.133603252700217,1.653561278570102
109,4.787601045209106,1.4814820141050422,3.468012525349073,2.552519095367786
110,5.416497063967646,1.8974192559937735,3.8172878818370988,3.5287412624268932
111,6.1526266196494355,2.3821494053487893,4.153911996025458,4.547704074146854
112,7.005362481827593,2.970700845011124,4.447342763549309,5.577532808946993
113,7.9838270503035655,3.700227194805446,4.667068764739399,6.59589435285037
114,9.10133343070777,4.607038471843847,4.785779050872984,7.594618325313569
115,10.379677756508865,5.7200079340930055,4.779453302989498,8.580041889932648
116,11.845934507067891,7.057399923341759,4.623748835693213,9.565772897295531
117,13.521354779551778,8.630497469889182,4.2949294164124785,10.564304584848475
118,15.316673646772456,10.321702546411094,3.8495670031390445,11.551717641735046
119,17.363942287943523,12.363244109318611,3.1355952267159197,12.566443844274545
120,19.66253450201465,14.81940805259203,2.1024586916128185,13.598224318087118
121,22.138061366229437,17.630290941062153,0.7825674243401302,14.615407983160507
122,24.677194310287078,20.655302590183826,-0.7351052051375045,15.579249508136234
123,27.142428560302164,23.7107806507848,-2.337690638725496,16.451006411994438
124,29.39695256064175,26.604417254081923,-3.910386438467045,17.199737560067415
125,31.329759467299052,29.166367674372776,-5.345751166297571,17.80663003562995
126,32.87002774623625,31.26925876051889,-6.553368205518898,18.267020922790536
127,33.99024552239127,32.83831293337603,-7.472189520076717,18.58839379205751
128,0.2941263917101296,0.3328552857468122,-0.7600067897396985,-0.06309991133171075
129,0.617674879629251,0.698075920725273,-1.7042675031060226,-0.12969428011438366
130,1.056129602067772,1.1883766840435244,-3.0717575378787676,-0.2182311194737287
131,1.6025990458194448,1.7813923938224168,-4.8698616852281695,-0.31248239933851807
132,2.234425055017488,2.437509995024171,-7.065702659123503,-0.39271855971494024
133,2.913358528733537,3.1056295298148107,-9.589004962631027,-0.44266225942983983
134,3.5981803645507386,3.7324144507381294,-12.337961032259054,-0.4484564524955147
135,4.256302367449439,4.268864127305675,-15.190612616629474,-0.39139575156019113
136,4.866159829608336,4.676153962989332,-18.024278399478806,-0.253663801507555
137,5.418096165329361,4.93499730353637,-20.743140675992386,-0.033227754998467474
138,5.916952834629942,5.057156153722469,-23.31335127182213,0.25051503711869233
139,6.347109711395382,5.049774033644418,-25.682464588827596,0.5684596801767461
140,6.6844124229955675,4.918787840343911,-27.814339415909313,0.887055734534401
141,6.899826659967527,4.665149469462932,-29.6912908517941,1.1724817154936862
142,6.9636838325174795,4.289412706430723,-31.310028817208657,1.3925551851969964
143,6.848795073488067,3.7933490217862005,-32.67758240868416,1.5186209181009673
144,6.53165245257883,3.1752533761352515,-33.81082485858774,1.5260961711661563
145,6.004266315305786,2.4313217917723,-34.73125091135595,1.402952480664735
146,5.2861009645544526,1.5622246789502354,-35.45500133874082,1.158411402711893
147,4.414703986963665,0.5761233836071875,-35.98963059268104,0.8125537464868057
148,3.4352107311172144,-0.5119059168105489,-36.33765789080812,0.38704668781406637
149,2.3993902418044195,-1.6807934135665286,-36.49890210369051,-0.09243950080326646
150,1.3563591332192872,-2.905489191531097,-36.47212686896647,-0.6006530525739583
151,0.3370870309264345,-4.161939116025482,-36.25914959883659,-1.1238993062409888
152,-0.6494843676712636,-5.429921778703034,-35.86964593993404,-1.6678866098000937
153,-1.609770248070897,-6.692835342513619,-35.323455577186145,-2.251134155541407
154,-2.562829034156354,-7.938909405850448,-34.648700886831385,-2.889111217621064
155,-3.533507314181885,-9.161283011602146,-33.8777482963671,-3.5928260170226785
156,-4.536649410320296,-10.356654943616993,-33.04104196246489,-4.374608674492502
157,-5.569066761550422,-11.524986670990375,-32.160678732952924,-5.244201786342292
158,-6.614485102848757,-12.667554012182903,-31.249226585964873,-6.2020273007033895
159,-7.654426817838931,-13.783669240470225,-30.312512222208873,-7.237684228373769
160,-8.668735453574104,-14.868962558826734,-29.35250141222846,-8.326783423196424
161,-9.626958683410384,-15.914446409925592,-28.36879629711413,-9.424246524705207
162,-10.493441714081694,-16.90786464541705,-27.362574930066838,-10.473661130816815
163,-11.24913028890358,-17.8368545440735,-26.34428344619554,-11.4345801063199
164,-11.90333961919476,-18.69198121737387,-25.33406122995939,-12.296704849201722
165,-12.480307356165973,-19.469187382136766,-24.35400366306661,-13.064295136758759
166,-13.002411140135974,-20.169996233580505,-23.422606151165024,-13.736942921238231
167,-13.48216828165462,-20.80080703186635,-22.552656582760402,-14.310055126618302
168,-13.921976211506248,-21.369346052849032,-21.75080615508709,-14.783469698409451
169,-14.321585931703309,-21.881812139170957,-21.019046127352173,-15.16207383209748
170,-14.683885425767869,-22.34527364220046,-20.356282198570472,-15.451136695149241
171,-15.007798988145662,-22.76675567267456,-19.75894033802845,-15.652605661687458
172,-15.281788586822712,-23.14893416812396,-19.221095285603862,-15.762406216183955
173,-15.49476392842303,-23.487332722986068,-18.736450551295665,-15.773706460024908
174,-15.643825516475006,-23.76881864460756,-18.303441899244596,-15.685395752262266
175,-15.728029789259617,-23.974615306802942,-17.925742520802228,-15.502125395559117
176,-15.74231828102428,-24.08718631706158,-17.606428774623858,-15.225894557989163
177,-15.681708512130172,-24.093453476127472,-17.34285786861428,-14.857773903256616
178,-15.552693523690788,-23.983451035867677,-17.12472608026407,-14.410293250203946
179,-15.372458937156274,-23.75045603164367,-16.934309884250855,-13.90726242786698
180,-15.153266201073796,-23.393609607809207,-16.74754847397918,-13.36217243034452
181,-14.890881829029894,-22.919704100176244,-16.53840514102431,-12.76014936615058
182,-14.572297082759329,-22.34039223729501,-16.28590091338005,-12.073104701358874
183,-14.196441304469406,-21.66861200626301,-15.97922268938237,-11.290283596121434
184,-13.77953134069187,-20.919582167001646,-15.619077241434129,-10.42235735463401
185,-13.340371052108171,-20.110584085373358,-15.21518520659225,-9.486806823150943
186,-12.885770364336777,-19.2573918047562,-14.78187288083611,-8.502426709548333
187,-12.40716005543296,-18.371522620857565,-14.33324013489965,-7.48921875620593
188,-11.892505479734977,-17.463325436081828,-13.88248210415723,-6.468186156361428
189,-11.343388491036542,-16.548653312391117,-13.4447091750087,-5.461823703573661
190,-10.774202950757378,-15.648160438123186,-13.033370431061272,-4.491215738575793
191,-10.198388871135887,-14.782248951254786,-12.653060772507216,-3.5714438674831306
192,-9.622087654622636,-13.968096185297137,-12.29872125085495,-2.711164040464979
193,-9.04727210343425,-13.217694759248472,-11.960117766317344,-1.9175845899942459
194,-8.477755424141769,-12.535454041379,-11.624482040042382,-1.199788238111823
195,-7.918277719394458,-11.91692555938636,-11.276564775501337,-0.5582326734628741
196,-7.367003245562518,-11.352760977535839,-10.900911893484897,0.02538000082018911
197,-6.8147337041540235,-10.831960597083702,-10.486391470758196,0.5757204244387513
198,-6.253014794267081,-10.341072702513072,-10.027445955553313,1.1046757849329583
199,-5.678593803057935,-9.868339184369674,-9.522163836964413,1.610008928149473
200,-5.0917325194747916,-9.411621301689259,-8.971591809159632,2.088781577302518
201,-4.4949688170519995,-8.979164152227979,-8.379795997749559,2.539775144062925
202,-3.89395963080095,-8.585070413814115,-7.753608783974413,2.9556030057883094
203,-3.3012191503217343,-8.24794459825205,-7.102537044174526,3.3188545707889356
204,-2.7407577178471088,-7.988741068798361,-6.439093032683295,3.5998407574072515
205,-2.247653629438709,-7.823856740711162,-5.778682038933567,3.7617367051742736
206,-1.8567335017917714,-7.7591614676921985,-5.134549786280264,3.7770820936153853
207,-1.5911408066080848,-7.789280718369884,-4.512564202688336,3.6421684374937477
208,-1.4637425877992667,-7.900149585096085,-3.9136079889986375,3.3729814991530476
209,-1.4803794907881613,-8.071350974905384,-3.338385085997222,2.991602754838484
210,-1.6366565855809894,-8.279232356755172,-2.7909132273312554,2.523296883903007
211,-1.9127366591164436,-8.501149353334366,-2.2797321694204795,2.0006320543729728
212,-2.2741743917990114,-8.718918596243574,-1.8148379013474034,1.4581785631735782
213,-2.684205242014358,-8.918446750578502,-1.4027568898422604,0.9148569624797975
214,-3.1144072448187963,-9.089296874242326,-1.0429083359164855,0.36786889938829226
215,-3.5431201112162656,-9.228496723087682,-0.7269308218682282,-0.19150220443094465
216,-3.9510240029916797,-9.339510278792375,-0.44279593114677945,-0.765876854691274
217,-4.320236287359493,-9.425063721976064,-0.18043864658774478,-1.35139976309164
218,-4.6382768622689925,-9.483065585029276,0.06569463596397096,-1.9393666290097709
219,-4.90547043026263,-9.506812311709636,0.2966311883960879,-2.5177072558633737
220,-5.134505535981251,-9.485831342596832,0.5118432256234264,-3.0716835212552587
221,-5.334066401241157,-9.408319642478597,0.7129598565844888,-3.5807942033644524
222,-5.4929772503880505,-9.26583595889445,0.9033150522162017,-4.016930829078025
223,-5.586251752144781,-9.055970080440789,1.0834921654283403,-4.351056907494272
224,-5.5951299060289,-8.781655503174902,1.2465514274333318,-4.5672382504853
225,-5.519336156210997,-8.449664809986979,1.3802489985908457,-4.672087491741877
226,-5.368829805355491,-8.068214221398064,1.4750774941800695,-4.684386499237455
227,-5.151031446174354,-7.644228478426651,1.5281767052701698,-4.621781240363202
228,-4.871988679749313,-7.183527530805845,1.539984368414937,-4.506776277771578
229,-4.542012742122649,-6.692287702568983,1.5096949661104477,-4.376372043739863
230,-4.175931533594228,-6.17808661086252,1.4350966364765219,-4.270750495472518
231,-3.7879214109036417,-5.650994986791419,1.3140832343299864,-4.209440721522186
232,-3.3888455432879057,-5.122043994499368,1.147432810538949,-4.183731370556536
233,-2.98785554649755,-4.601500039202209,0.9437409168602836,-4.170667394227285
234,-2.5924110339800346,-4.098909405961253,0.7217011385894339,-4.1483393820758625
235,-2.2084921409445735,-3.6221547969120027,0.5059280416603922,-4.1022053906264775
236,-1.8406705561224583,-3.1763122765997527,0.3208126031456571,-4.025852282834618
237,-1.4896248545867545,-2.7623186952625476,0.18543641584183673,-3.9195130486225613
238,-1.152759265497005,-2.375732141253289,0.10896070647996278,-3.791031944563079
239,-0.8314560556860628,-2.0076623911006903,0.09201358074402824,-3.6590854032134743
240,-0.5309398307947544,-1.6466901620029153,0.1341092990308046,-3.550194810255688
241,-0.24676892615192553,-1.2799138517410646,0.23873056636564102,-3.485116869980152
242,0.0434919329712206,-0.8957184709740239,0.4124827345311347,-3.4634730346603586
243,0.3699450217053349,-0.488705330610953,0.6620052434265433,-3.4631441298440997
244,0.7496044545686108,-0.06393437393176457,0.9926884932996665,-3.4563777644255484
245,1.177411357531254,0.36366647190173834,1.4093384672760996,-3.4199616646529845
246,1.635424758322615,0.7769381261512269,1.8777844054986015,-3.350382902619655
247,2.077262307737435,1.149646744923197,2.462978466660582,-3.207015873744537
248,2.465165742708424,1.463196731902855,3.1810815517020243,-2.9818320940822844
249,2.7698630611417916,1.708607802423696,4.011495616645396,-2.700389129658838
250,2.9719192769936673,1.884334958394838,4.9074439155938245,-2.401550379104113
251,3.06479306173813,1.9940354009690433,5.808041674225764,-2.1185182756256076
252,3.0582122520553643,2.045804744113386,6.652212014997229,-1.8722129232252636
253,2.978147086554509,2.0517964189968625,7.388477147210881,-1.6738364911449108
254,2.8590287112016757,2.0275443465487593,7.980857224643914,-1.5285002398481635
255,2.7326213638333448,1.9898833754032863,8.413245089718426,-1.4349204131164577
256,-0.41044079636184094,-0.500577715617024,-0.5915410478952678,-0.2369248206338026
257,-0.8640755619377318,-1.0831898550777925,-1.2586458178883406,-0.49204182301170185
258,-1.5076602639425332,-1.9237955706896073,-2.2005699846557225,-0.8681157108637558
259,-2.3361492166807336,-3.027947893324014,-3.419445243980866,-1.3766028867728946
260,-3.3288703987766914,-4.376205947818669,-4.896164218773402,-2.0191659542384075
261,-4.456622439828708,-5.9255927494753315,-6.5943362303578965,-2.7902491238977536
262,-5.682353886408895,-7.616540653293635,-8.465466674024375,-3.677680298652135
263,-6.9591884734102125,-9.3842245404778,-10.453300272036408,-4.66049431830209
264,-8.237065960327111,-11.16877555161278,-12.500499173830175,-5.709478546224053
265,-9.478381122141826,-12.925490262810566,-14.564191652802547,-6.792932110163614
266,-10.67822722903192,-14.642873115848321,-16.64053954204887,-7.887370344534515
267,-11.82281487885765,-16.287473291845057,-18.701855380319227,-8.95182882137285
268,-12.899753286253208,-17.83123689230037,-20.71633946470518,-9.936015994997907
269,-13.895737925030177,-19.260955429209858,-22.647992430178455,-10.790836988397631
270,-14.801310691367977,-20.574986124477448,-24.46158738718357,-11.488788878939168
271,-15.606707709730133,-21.77194175393688,-26.127166329690183,-12.026133836689139
272,-16.28979668649014,-22.847626316154116,-27.620826465159148,-12.407427812979645
273,-16.81851387694672,-23.79886290867262,-28.92452121116109,-12.639824010865901
274,-17.1634268326698,-24.624435488513956,-30.027519169524343,-12.741472445868295
275,-17.304204271449464,-25.321520026218167,-30.93269342334818,-12.747095979771492
276,-17.228726193784574,-25.884565546060145,-31.660028890462122,-12.695300959492092
277,-16.929268199586993,-26.310180283980905,-32.23697071608487,-12.602734627452378
278,-16.41080435446249,-26.59951235844096,-32.68349323267022,-12.44751611079057
279,-15.692368430202848,-26.75565415405422,-33.00547269062203,-12.177976862177697
280,-14.787884012978264,-26.784755654110427,-33.19802346961944,-11.739669962405149
281,-13.708629191274978,-26.701385305454604,-33.25255014552499,-11.09958080450141
282,-12.47579962596161,-26.533654292801852,-33.159332060874085,-10.256261267106021
283,-11.120401442093673,-26.322206205109865,-32.902423449467555,-9.239860178608083
284,-9.691092184181228,-26.11398734378232,-32.45742718535654,-8.113411160255351
285,-8.265599490958577,-25.959953278000864,-31.798597938532826,-6.973227526999649
286,-6.952999037847032,-25.91360608826396,-30.903604469589364,-5.936917015827646
287,-5.886839194627161,-26.027464224499983,-29.751753934391385,-5.122605916000978
288,-5.207825540843825,-26.352449167239673,-28.326488089874044,-4.6320776599354145
289,-5.038490440872454,-26.935553886085632,-26.62363915607036,-4.536962549566123
290,-5.470206754122337,-27.812619963269324,-24.658579735545306,-4.871433706597524
291,-6.563813520240438,-29.00333696885911,-22.4645150408309,-5.633478248802395
292,-8.34070700603684,-30.508788435112034,-20.080839367280074,-6.786790120466343
293,-10.769726083876794,-32.31021679750472,-17.548096407629497,-8.272417318635746
294,-13.764319781431682,-34.36797785001821,-14.917088839558906,-10.03072853186738
295,-17.195627060126927,-36.62306643191478,-12.255251358247843,-12.014521758199601
296,-20.92115747302389,-39.00543755819896,-9.638141738952227,-14.184277529765556
297,-24.81725462403749,-41.43991465900012,-7.134449569211496,-16.496725755567716
298,-28.780298923431246,-43.84848879549485,-4.79479851421719,-18.897468283812866
299,-32.70079444411624,-46.15517282662015,-2.651143570891538,-21.319568365128113
300,-36.46622557312685,-48.29108966148378,-0.7276188116632847,-23.687885363012583
301,-39.97459798713164,-50.19825927010825,0.9529043927036283,-25.92420492186058
302,-43.13339844889867,-51.830297370451305,2.3741372803414276,-27.95269812579817
303,-45.86315191215598,-53.151949063114685,3.530765493949279,-29.709770156490872
304,-48.101350880699876,-54.14161876305086,4.4272617904172735,-31.151091784802457
305,-49.80680363174725,-54.79088494271141,5.080140421001656,-32.253582137640784
306,-50.96827150460397,-55.098471308379224,5.521128335145477,-33.01841225022108
307,-51.60357752645364,-55.06826502557836,5.795215515846629,-33.4658030137192
308,-51.74243958190355,-54.71094292310847,5.9547641088174235,-33.61770573034324
309,-51.41658976162809,-54.0411182292534,6.04649941851646,-33.491842566497226
310,-50.66781651611212,-53.07745022892052,6.102661616598885,-33.10994027372457
311,-49.55048345809851,-51.846421844873404,6.144313335267493,-32.4971707768843
312,-48.122206093560855,-50.379177217387806,6.179454783187626,-31.671827438293697
313,-46.4283626214941,-48.70483273939055,6.192659591025503,-30.6366803932067
314,-44.4908872360249,-46.848680396114595,6.141493643170839,-29.380678377383596
315,-42.31918038098986,-44.834182669677375,5.968745041801673,-27.892151739658562
316,-39.93009024266298,-42.68381534241328,5.622789882513797,-26.17430566725319
317,-37.35457047101207,-40.41933154462461,5.073618218518851,-24.251237846823265
318,-34.63018865735402,-38.06060872976016,4.319058310366522,-22.161063541585005
319,-31.79121472497742,-35.625257584479236,3.3830393443559266,-19.944302703201746
320,-28.869951291529496,-33.13075618372254,2.3124302992168277,-17.640973511428506
321,-25.904192095877658,-30.59458358343305,1.1688414428142184,-15.297132483513463
322,-22.936130288021758,-28.033737418548167,0.014523589793279723,-12.963352651729421
323,-20.001688092676662,-25.466164598926046,-1.0979230213276192,-10.682862109246388
324,-17.121913147239827,-22.911455177818546,-2.1307625563155916,-8.485151287676048
325,-14.308495846456374,-20.38946703794562,-3.0622201385650736,-6.389687670594723
326,-11.57513589281857,-17.918608274677872,-3.880311228426635,-4.408493855943676
327,-8.939141895221796,-15.513267374853548,-4.580153040733154,-2.542668366329341
328,-6.412736865833633,-13.179236992186869,-5.171081354091063,-0.7831059732851562
329,-3.998933436607715,-10.915470909675108,-5.678634239150621,0.8815472316367345
330,-1.7015010854680317,-8.72346989397854,-6.136372720940595,2.455071598926754
331,0.46293236702631957,-6.609501753165596,-6.579213299037566,3.927690546125896
332,2.468069055954487,-4.580431488097108,-7.040105416020577,5.279738169468377
333,4.2956929307657035,-2.643299596151133,-7.544568167875138,6.491774908186144
334,5.944292771658454,-0.8069723635543784,-8.10650356621338,7.551782133893321
335,7.422552199069585,0.9177948996309842,-8.732033694653394,8.454082955690353
336,8.741728591391782,2.520164529664865,-9.421841446782974,9.19437033903963
337,9.914111252820533,3.992650880802162,-10.16271565472142,9.77285941908945
338,10.957494206224961,5.33349079261659,-10.928352684699263,10.203087633545211
339,11.895657784017178,6.546875870668751,-11.69346145242346,10.510796868257623
340,12.750068796936086,7.6437403986959715,-12.441572654879211,10.725574210727064
341,13.53093529248929,8.64142061104611,-13.166102614257367,10.876886567089986
342,14.236088896649353,9.56017303640346,-13.872461645570077,10.990537995167461
343,14.860019850181173,10.41824214374405,-14.57892283954186,11.080575046048487
344,15.401253350065977,11.226828767973638,-15.308522058031075,11.143974272852343
345,15.860866553179106,11.98763172987789,-16.074399354162505,11.164943450215054
346,16.234590231712097,12.693896641293746,-16.870242913007125,11.123618685229989
347,16.50665829479034,13.332903834152615,-17.667123718457585,11.000454171808768
348,16.655602201471744,13.891416875968387,-18.42250545087607,10.776014827436592
349,16.671315787907982,14.361601844766218,-19.098680943581115,10.440920014429294
350,16.570287719025636,14.741653656644596,-19.667643725156967,10.012483487840106
351,16.385872155339523,15.035945569345321,-20.103494048264213,9.528184818600957
352,16.146377910815584,15.256051780421215,-20.37884432439126,9.02636240272988
353,15.86538975789932,15.41690124721381,-20.469842667687207,8.538707014105725
354,15.542621757545374,15.531104752258946,-20.365092483838836,8.08731352740271
355,15.168958675616684,15.605419818455445,-20.06295872144385,7.677216214813622
356,14.727645380899911,15.63666473820129,-19.556522131612425,7.291433988693216
357,14.193270828967822,15.607644180742776,-18.835323440204007,6.895379168375963
358,13.534534456917136,15.488621890089444,-17.897080622401376,6.446451018484546
359,12.72262926061938,15.244997473207537,-16.745382584270402,5.906363087799007
360,11.741625180504382,14.847407798361717,-15.38949924135244,5.251240816668265
361,10.59094873031951,14.279904914600724,-13.855203950186343,4.4725039180434845
362,9.282540916954556,13.543507628373366,-12.196879232548001,3.5725463543630647
363,7.842768149813673,12.65504813606053,-10.49791733735511,2.5650814107251447
364,6.318999986968356,11.643355140970687,-8.854474621046217,1.4812901494108222
365,4.77681012078662,10.545751313933103,-7.349272765895216,0.37332498280046866
366,3.2804508386739073,9.403772007859382,-6.020071263963516,-0.7002446588178664
367,1.8710701041058078,8.259431482427097,-4.847734258867535,-1.7017999319644106
368,0.5674969500438689,7.152500983558941,-3.7794672592295235,-2.6148390324732014
369,-0.6107167846818671,6.11708824538572,-2.758226941146566,-3.4204416920277065
370,-1.6346454464177411,5.181878250545389,-1.7387606726056735,-4.093507467329419
371,-2.4745249217298033,4.370720001757671,-0.6893741488544245,-4.612529694138034
372,-3.107689178393235,3.6995770910382215,0.4140074122118727,-4.960751678494821
373,-3.5203060518024363,3.175884456214389,1.5851147639084555,-5.122164860936634
374,-3.772201767373824,2.777551163572757,2.7991115098765182,-5.130706053468929
375,-3.750381750271586,2.541586723749036,4.064888042081221,-4.905921189779509
376,-3.415456946468212,2.476175444168262,5.340065640967525,-4.433692295287768
377,-2.7922369580549784,2.5658952064217986,6.554838798087146,-3.7469980882199674
378,-1.950299259562497,2.7782013071596317,7.642705925205536,-2.906730439460768
379,-0.9783726627588427,3.0708211243326224,8.562938441125343,-1.9852728868479832
380,0.03287653540973827,3.399130821733385,9.308084193182815,-1.0575287674897575
381,0.9967332568864327,3.7222731719968354,9.894338758184409,-0.19656947098601468
382,1.8346962338599124,4.007646342882236,10.343562602371257,0.5327639636619019
383,2.487424460901425,4.232906521697787,10.669355054705958,1.0845338324775917
384,-0.29360030690327193,-0.652215838409778,-0.31449974753024557,-0.3519721711209264
385,-0.6353873110294292,-1.404381426553239,-0.723263812727525,-0.7444892542943302
386,-1.1421587362965262,-2.4775753676215078,-1.3374127731507408,-1.2895527335801082
387,-1.8265828927484087,-3.8793647671539286,-2.1814990110195684,-1.97909415763169
388,-2.690160602260125,-5.588810193260216,-3.266191676916155,-2.800224045877343
389,-3.7196459231057757,-7.553217009091038,-4.586109696630532,-3.7309683005727803
390,-4.882335722350761,-9.692939809710726,-6.117709682410716,-4.729753903278114
391,-6.129814115647733,-11.91452006460657,-7.819095098901062,-5.740794455024013
392,-7.410637175432577,-14.129591473660884,-9.637158399708749,-6.713047573802883
393,-8.684259083342761,-16.27646365029526,-11.520177472381576,-7.614186607969325
394,-9.935242092900475,-18.344245148755412,-13.433330382526078,-8.442170746166159
395,-11.131863609912934,-20.300330556082436,-15.326800616784677,-9.180882590402065
396,-12.235987879189455,-22.117357987371708,-17.15450887340848,-9.809392045477543
397,-13.218139090020582,-23.776202170054866,-18.878418209188975,-10.311908122365674
398,-14.067605259584202,-25.26696554789874,-20.471869289005955,-10.688994964501585
399,-14.783448521768435,-26.589058395699894,-21.92044343601858,-10.950974549225888
400,-15.371754855806602,-27.74979813394725,-23.222882066554416,-11.108437428196352
401,-15.8488714975985,-28.760330541554737,-24.39464216806998,-11.179033902047328
402,-16.236994486676995,-29.630221839667776,-25.46142819792835,-11.194776178570793
403,-16.55882939385122,-30.36588873482223,-26.443811628539674,-11.196106824243016
404,-16.83695630413201,-30.97242054909245,-27.351702378386296,-11.220817056115264
405,-17.08881701982204,-31.454426827260328,-28.18574363153666,-11.296807417304896
406,-17.31816232575532,-31.817119332217924,-28.935768328963942,-11.444669737866715
407,-17.51864294027341,-32.06635197946521,-29.585415168125884,-11.683939395394013
408,-17.68198003856041,-32.20768029078908,-30.122900481908808,-12.027503302924936
409,-17.7987855208823,-32.24652669579511,-30.543619663593155,-12.467155599269605
410,-17.857560277487064,-32.18828876183887,-30.847216775897753,-12.972144606979512
411,-17.8459173932813,-32.039529304556744,-31.03689586886034,-13.502770418265387
412,-17.756986268670982,-31.80866207915402,-31.117392237239617,-14.022434860858807
413,-17.598344502273537,-31.503972510895203,-31.0932703285464,-14.505070118346234
414,-17.390288419162864,-31.131600289592267,-30.97070888921276,-14.93241394053556
415,-17.152153827066044,-30.695388061766955,-30.75734299288062,-15.282831616872183
416,-16.896092597521985,-30.196848079176736,-30.46084920428976,-15.535771265863685
417,-16.631013001801495,-29.634078579011536,-30.089116715445016,-15.687746735633961
418,-16.367017780909503,-29.00364823467605,-29.64821630196652,-15.752477410798573
419,-16.118587020136243,-28.30486252777343,-29.145274418944627,-15.748795209239594
420,-15.898644452529755,-27.540882239265937,-28.597381140417966,-15.698924584323652
421,-15.709145015524946,-26.718975972590844,-28.029655458035364,-15.628430463845502
422,-15.544074147010935,-25.85263803940122,-27.465985965953177,-15.5577924998071
423,-15.401820017863912,-24.96041125132712,-26.9248520773031,-15.500223467787752
424,-15.28957101919375,-24.061910418406452,-26.417128002757494,-15.46668733822626
425,-15.210398278652036,-23.174722614958362,-25.943235585844853,-15.470178092543584
426,-15.153471692081823,-22.31114826942106,-25.494116166047405,-15.522111931728523
427,-15.101817753190883,-21.47575158826387,-25.055939877431843,-15.622194712417036
428,-15.043681192639939,-20.663089913640135,-24.6108707870215,-15.754525672627492
429,-14.975687712092622,-19.856495040442034,-24.136513551110095,-15.89159130538862
430,-14.894372088643332,-19.031892107641053,-23.608313940132895,-15.998067460786872
431,-14.788521385233583,-18.166333257576913,-23.007119889187358,-16.03673045958368
432,-14.64858657978488,-17.24671658300578,-22.329019642899297,-15.987202850717493
433,-14.479308649636993,-16.2728520591449,-21.586276710991093,-15.85682647544853
434,-14.306187887287242,-15.254945809225902,-20.79898668741231,-15.674467963820652
435,-14.176729659202985,-14.208897297799352,-19.992832010364047,-15.489867742750642
436,-14.14013322995994,-13.152755318878183,-19.2038852865362,-15.36448103006654
437,-14.232775698201916,-12.107162059213007,-18.468576510876247,-15.354450674698349
438,-14.500112922637744,-11.094911550308755,-17.80490397414521,-15.51945300077075
439,-15.017260211840782,-10.136856489392104,-17.208641788493047,-15.944429473393381
440,-15.878728536502063,-9.248493821503306,-16.660777101535135,-16.73577347959327
441,-17.180242236789645,-8.439503355618832,-16.129484754482068,-18.000568575518376
442,-19.017678744645405,-7.714743320833999,-15.566654859313696,-19.837552682971285
443,-21.496588892018607,-7.075460199987352,-14.91004525626331,-22.344638890544218
444,-24.731697406357792,-6.518364400597158,-14.091774059138721,-25.631947349969003
445,-28.823478276717534,-6.032268163788281,-13.047142287698502,-29.803805548316433
446,-33.82946084206876,-5.599882869751992,-11.725207470351545,-34.914255429058414
447,-39.756548466995085,-5.203762622129148,-10.09706373503279,-40.9528962402046
448,-46.57204416687837,-4.825446177000812,-8.155641880958008,-47.86529962566888
449,-54.20787224500085,-4.440867596850864,-5.9105952365645305,-55.56289839484785
450,-62.54865981461713,-4.0249934230020425,-3.386701113835744,-63.912450809439804
451,-71.42892458351464,-3.562406178129458,-0.6244654234896959,-72.73702537035139
452,-80.65233777915638,-3.051503639709465,2.3254224981210134,-81.83526190422216
453,-90.02370841296687,-2.5023592614346324,5.4095631655988585,-91.0058755504498
454,-99.37461880762632,-1.9340856639522355,8.56980350946159,-100.06616144376441
455,-108.55542984078713,-1.3723731042331004,11.739062517464014,-108.84861307080563
456,-117.4110717400757,-0.8441733667511028,14.853226319248035,-117.18823442185423
457,-125.78119277989987,-0.3701372358969564,17.864408525647608,-124.92643564218423
458,-133.51462902786633,0.03850379421562073,20.736566515813664,-131.92415434265575
459,-140.47099734360364,0.37915365717317395,23.43539732163757,-138.06523209915173
460,-146.5097829765638,0.6556043343160061,25.927256334604824,-143.24930142389417
461,-151.48995613120715,0.8720531273906162,28.17585562173268,-147.39069806468183
462,-155.28543634366645,1.0288408748409774,30.146726398008894,-150.4306625042117
463,-157.80323329794015,1.12411488204958,31.82565321120848,-152.34720747209252
464,-158.99803755184644,1.1578108008085857,33.219661088944335,-153.14600951893442
465,-158.87091369551052,1.1320196250829062,34.34297067753336,-152.8378879606887
466,-157.45047155162266,1.0458947762663227,35.203395460195,-151.42840509489034
467,-154.78620190865405,0.8954284116319635,35.798851706426035,-148.93248408667463
468,-150.95310626215098,0.6809060907000292,36.11100040918578,-145.38475422741112
469,-146.0421866546817,0.41085282642888504,36.09029469553415,-140.82823881980158
470,-140.13859526287783,0.1018568122328394,35.67365075324879,-135.3016550452638
471,-133.29994028616986,-0.22063120834439395,34.805374285849034,-128.83296877803951
472,-125.54703993765457,-0.5235469479126791,33.4252117267521,-121.4370162415596
473,-116.87554855060623,-0.7736840990432515,31.484614383914007,-113.11853586109798
474,-107.27817637491084,-0.947519162224394,28.99957269850127,-103.8813762204619
475,-96.75526675193302,-1.0354310024315245,26.077289379169667,-93.74122575676837
476,-85.31912412027138,-1.0413962858713806,22.900869789165647,-82.73159458234373
477,-73.00094523509881,-0.9834626057156586,19.697639283680346,-70.90020176317283
478,-59.85897583121981,-0.8903629046544322,16.691644704493207,-58.311973165166854
479,-45.98095083026342,-0.7930755522195982,14.041487470920421,-45.05374246639189
480,-31.479795054198647,-0.7176529384097879,11.797076727926875,-31.232598959464518
481,-16.484177571867956,-0.6813046986337757,9.9139365020784,-16.97225282380616
482,-1.1264366809120823,-0.6911873070553926,8.308506171851624,-2.4017067282787057
483,14.45022307801165,-0.7440248960531917,6.893858773746732,12.350770717209606
484,30.083388528717556,-0.8252708072552556,5.589828807270496,27.158730551713923
485,45.61039430048639,-0.9095263341599917,4.313829179131658,41.90492140862011
486,60.88732941783016,-0.9650018354064366,2.979701914409384,56.48280369342487
487,75.78874078167505,-0.9616777275707951,1.526918316937155,70.79450433445032
488,90.19313478667593,-0.8782463955987219,-0.04784474277870385,84.74045209379922
489,103.97145542047714,-0.7053831135335188,-1.6712920874115134,98.20503293027804
490,116.99581986666509,-0.4460278649983401,-3.224280890031754,111.06454287760369
491,129.15479861148822,-0.11441559987915124,-4.603453614414043,123.20273371299544
492,140.35843394469987,0.26283464289072606,-5.731090376626769,134.51218252969227
493,150.53296038385636,0.6458918362447591,-6.529730866392558,144.89301838218927
494,159.614087372698,0.988471236516981,-6.914535494491569,154.24996757014216
495,167.54527816961445,1.2477755561142938,-6.806864142771725,162.49218775498952
496,174.28331401007551,1.3887152621269219,-6.152054622619051,169.54828050684156
497,179.8053207678719,1.3874516727693917,-4.932072859389743,175.37390419035177
498,184.11173668297616,1.2343053989319397,-3.1806749709034934,179.94753748887686
499,187.2244153065608,0.9322491915666431,-0.9918739975802964,183.2714217185942
500,189.18265662332033,0.49540028694182486,1.4965220111489157,185.3721822246023
501,190.03832338717535,-0.05183917305897032,4.143062197754216,186.2956723753781
502,190.13659094705469,-0.6739656816570365,6.808013928814046,186.38708346437662
503,189.097550667187,-1.3527374363054043,9.46374201062241,185.27995781894646
504,186.83417658533978,-2.055432251457342,12.0565928936523,182.90969594525606
505,183.48086393049917,-2.7442888997381574,14.503393945923275,179.43461930432858
506,179.32575357930182,-3.3864324355687443,16.7175206564549,175.1622972507475
507,174.7407656905662,-3.9584126984463928,18.642995313206615,170.4761435816383
508,170.11821221824792,-4.4438009479467615,20.255340598463174,165.77200540731081
509,165.82025276197066,-4.830355121104751,21.53908312043248,161.41442149435804
510,162.1425949994152,-5.110737919795917,22.480217257669302,157.7024967328883
511,159.28942731667237,-5.286778403510516,23.080131234677506,154.83943825468032
512,0.4071253230605568,-0.5810456980729315,0.0607318586812369,0.39100282812448345
513,0.887355184259742,-1.2365403440606957,-0.12088407962015268,0.8759471422078321
514,1.5719814875558593,-2.1563070344855535,-0.43231230333294834,1.5728762759177535
515,2.4636401088444333,-3.338989505738914,-0.8732319275844849,2.4867090042749007
516,3.545181123776094,-4.7583274565530465,-1.4426652744872945,3.6097108202399824
517,4.783200427773098,-6.363757050629827,-2.1379259159080597,4.920586312089758
518,6.139788172931444,-8.086859404966132,-2.9462941027777947,6.388132417178651
519,7.577085547540013,-9.852285049981644,-3.844799215617091,7.973068271702651
520,9.05647758095879,-11.591720946044259,-4.806943694580439,9.628102315272665
521,10.544236482422656,-13.261512025727193,-5.80944816228151,11.308704273281808
522,12.02721806482836,-14.864277175487889,-6.839666290687661,12.997741434592454
523,13.475344330603962,-16.385865096367713,-7.898387114436972,14.668765624610623
524,14.85198305993273,-17.813576764802384,-8.99363180211666,16.298177600027813
525,16.114542224614357,-19.134288756311694,-10.130200950564346,17.856031255912324
526,17.22454868366089,-20.336897229216373,-11.29845776713773,19.304976858665803
527,18.156435271205726,-21.415963504164235,-12.465469216673853,20.607532288942686
528,18.900670916736953,-22.36984939206561,-13.583993822669495,21.733263462562427
529,19.460718906891998,-23.196824287566667,-14.61643958663241,22.66179621473732
530,19.846539500762397,-23.895396403911157,-15.553460125801148,23.380299044146323
531,20.068190191629157,-24.466482445179356,-16.41618696836557,23.87817980268612
532,20.134144399210534,-24.916050937248976,-17.236233035883355,24.144535976200203
533,20.05486952756849,-25.257601386323284,-18.035883100373617,24.174228962602268
534,19.841001870946272,-25.51056879755252,-18.832482336867535,23.97442468096111
535,19.492581302096177,-25.697195340765347,-19.656197031274118,23.559022811404407
536,18.994930322222324,-25.839847196192352,-20.541958984441035,22.93915877519893
537,18.33121403328207,-25.95756265666411,-21.49975572669675,22.126973155401277
538,17.49362718613611,-26.062432505475087,-22.510070401150053,21.14171331993546
539,16.48192684900211,-26.156877584902237,-23.539439994311532,20.001107092457826
540,15.298504364354336,-26.23293856407181,-24.55420750918657,18.713481735910005
541,13.947172757520054,-26.274476682202238,-25.52669446136608,17.283084758551492
542,12.439899188836847,-26.261598277112306,-26.43039607424889,15.719033985975448
543,10.803226027388522,-26.173463144479644,-27.24374524736443,14.033860119459044
544,9.06864728419204,-25.99063687760972,-27.965406195283652,12.235157699191033
545,7.258044414854954,-25.701498679074152,-28.614051406060117,10.327191610860519
546,5.383949875287989,-25.308470620982078,-29.21626578449653,8.322322466662957
547,3.4593473039075593,-24.826100799178132,-29.7955033025454,6.248867107900442
548,1.5026220301937478,-24.27370745098451,-30.35991620791161,4.146687257652904
549,-0.4661994045100358,-23.673885427029628,-30.898875381817973,2.0544849567355374
550,-2.436247768328718,-23.05510394995675,-31.38963727884903,-0.002148929164699831
551,-4.410845351400813,-22.448411306269154,-31.796014804151262,-2.014889240731242
552,-6.3945950808291485,-21.879940529140494,-32.062427748424874,-3.980879045502984
553,-8.379185603834522,-21.366599331001094,-32.12915187544322,-5.886312518565213
554,-10.343827365067407,-20.91704638320426,-31.959850847775044,-7.709096145540236
555,-12.264311155238058,-20.532785136659186,-31.54455210509769,-9.43411398629513
556,-14.116132299564269,-20.207499244020944,-30.889200203130166,-11.056047700006816
557,-15.87036468512729,-19.928617284752455,-30.021894063851885,-12.571903883744866
558,-17.494644056102352,-19.681221725772527,-28.998226518288828,-13.977499312805811
559,-18.960493018891466,-19.451126862162255,-27.891828843684824,-15.26876580907495
560,-20.257493324614998,-19.226841203938307,-26.77464859196893,-16.449038003660956
561,-21.40071429356096,-19.000894766090838,-25.69779119348128,-17.53289610020214
562,-22.411395264181866,-18.768754242923166,-24.69851258383321,-18.53797210981742
563,-23.293704667110493,-18.527163543666163,-23.808217606446263,-19.4670468563487
564,-24.031501283667048,-18.2753863955704,-23.031845205819103,-20.29424910928943
565,-24.601593768671286,-18.01687206120353,-22.343364960650916,-20.97487441815211
566,-24.988941790224338,-17.756347077147144,-21.717882929496383,-21.465621760949173
567,-25.186752480765346,-17.494065559256068,-21.158558710812393,-21.732010615289713
568,-25.188177943094754,-17.224512650699676,-20.689751121086687,-21.748141370516496
569,-24.98621197648023,-16.93983071693851,-20.327623234035396,-21.50372467140389
570,-24.584082981776362,-16.63196150649545,-20.056462407473916,-21.016116991169678
571,-24.001704011788913,-16.292475674267003,-19.83128771426514,-20.33094449803473
572,-23.273899582030914,-15.91301963794853,-19.600362796747092,-19.510349351751074
573,-22.443985544213326,-15.48728697696114,-19.320947626120045,-18.623425961619105
574,-21.55361444971531,-15.012062772719089,-18.958534937894623,-17.73634060863127
575,-20.637226535031317,-14.48632504515565,-18.48618313770021,-16.899681330719257
576,-19.721668035518064,-13.912462543102096,-17.88901404088175,-16.140652994786677
577,-18.826508906487597,-13.299983081677368,-17.163080301367064,-15.456819523178398
578,-17.959411622484307,-12.66565674932962,-16.310287129097063,-14.819645086145991
579,-17.117499987288,-12.028776590402217,-15.338802607168663,-14.196159820770262
580,-16.304334706731442,-11.405753547841222,-14.273946379474058,-13.573079189998483
581,-15.539289507074958,-10.807030330081043,-13.167954814804082,-12.967990576914682
582,-14.847579072925592,-10.235385847380451,-12.082857310598657,-12.41588777493251
583,-14.241886195432318,-9.685860703690409,-11.054253518337198,-11.94211868131619
584,-13.71274176372256,-9.147948813012443,-10.079231795608864,-11.557928093688652
585,-13.239574954550298,-8.60656031087632,-9.141732896861235,-11.273535037981434
586,-12.803703449769689,-8.042635687200235,-8.240930737927867,-11.095907049158537
587,-12.388398449015543,-7.436725097295632,-7.391828299828608,-11.017880326489767
588,-11.97097089523785,-6.773282948281612,-6.610966909067924,-11.013284840082619
589,-11.51811749288856,-6.043435132884626,-5.90634145186424,-11.036049291940909
590,-10.995200361035856,-5.247583361953239,-5.275484957255598,-11.026745441604369
591,-10.382586114977086,-4.398308081158944,-4.715096982170126,-10.92910675470876
592,-9.682964922646262,-3.5202902638509137,-4.22609657057352,-10.709934021130968
593,-8.912208603841448,-2.643432697891919,-3.8045711046385167,-10.363201318131214
594,-8.087492540029958,-1.7926720641576506,-3.440918377883448,-9.899249495543097
595,-7.230043069362113,-0.9839721043473845,-3.1262200236410522,-9.341562396209943
596,-6.375215270855541,-0.22671839679435843,-2.849724314708621,-8.727829098495324
597,-5.567221625128174,0.474821747869848,-2.593483811829879,-8.102889935231197
598,-4.839147731853838,1.122085204286741,-2.333527050870347,-7.504148762805895
599,-4.200342983319089,1.7214783659593271,-2.0450624932466326,-6.95033395581444
600,-3.6421617613093686,2.2821519047242362,-1.705820501533641,-6.443688069262767
601,-3.1551596672960738,2.8142171134708844,-1.3011623574212225,-5.9807602196722565
602,-2.738181198612685,3.3252967951158263,-0.8300847514440639,-5.561029837609343
603,-2.389081049811835,3.8174812254302233,-0.30862154170106093,-5.19012202245075
604,-2.0985122140508525,4.288244988173212,0.2309045799601596,-4.881677307668536
605,-1.8583833144988207,4.730703480228241,0.7508617866215659,-4.656748813823345
606,-1.6701993304825036,5.132868458621731,1.2216376365524921,-4.541862859133669
607,-1.5442700798531297,5.481278801227379,1.619421763060464,-4.5650747925183275
608,-1.488799858299557,5.76697009706859,1.9217066178505302,-4.746367662539218
609,-1.5002248248038232,5.986682449790484,2.11239338978103,-5.086824940108631
610,-1.5659502306889779,6.1379076007914914,2.1785075932688978,-5.565785315260791
611,-1.6775610182436635,6.214153928039674,2.11437600233775,-6.153175591565271
612,-1.8393768692556964,6.206910912100111,1.9428006620195497,-6.820655920895562
613,-2.0596721503674877,6.109548961348643,1.7090636349375112,-7.540660891492739
614,-2.33891456236517,5.9178514772865105,1.44979480594349,-8.284009334760812
615,-2.667932807280264,5.63099534287507,1.1805110989424534,-9.019364419422606
616,-3.037032035466418,5.253584099373414,0.9010126590963414,-9.720168027818701
617,-3.447204227479434,4.795987480210331,0.6034271436138218,-10.373697338678687
618,-3.90316343998543,4.271501245004844,0.28351100969913334,-10.97498063572858
619,-4.396292273204135,3.697343809149766,-0.05371061181357754,-11.513254324125162
620,-4.903128736407821,3.1012969377421333,-0.3989011767721581,-11.972186987212877
621,-5.401154641130674,2.5170196811203573,-0.7404492626965654,-12.343461009864338
622,-5.879165503512124,1.9710627756952523,-1.0609723513334566,-12.634928788774362
623,-6.3336055887610385,1.480959607789559,-1.3349506539812188,-12.865189704077977
624,-6.765026522453486,1.0598315340264841,-1.5257728402288384,-13.054886093535766
625,-7.177434937833528,0.715594659569719,-1.589507655034722,-13.221854138640655
626,-7.579944956125444,0.4478635387771467,-1.4926653205814193,-13.379626219527514
627,-7.986601737093693,0.25000726168603465,-1.227172768572057,-13.538057011028013
628,-8.405696976012447,0.1144047996807445,-0.8104520515653797,-13.695655462417562
629,-8.826894006688793,0.03462710703748982,-0.27948082240744565,-13.82622816943338
630,-9.21126872391805,-0.00848403673826073,0.3229310767352418,-13.895013242138765
631,-9.554233185798578,0.00291589261025315,0.9404263412241726,-13.852890282383871
632,-9.857854096378984,0.07470866027110462,1.5316688933433906,-13.688150237590984
633,-10.123038364909561,0.20271189826437574,2.062050240977257,-13.417259433804725
634,-10.342785075654268,0.37593340488674215,2.5020062727087207,-13.066896499117293
635,-10.507830379199106,0.5796861877883546,2.83191138603897,-12.669316954388798
636,-10.619931485099725,0.796356371544384,3.0461548339150535,-12.267299134083007
637,-10.69296541308991,1.0040809773073436,3.156980195316122,-11.906816522296605
638,-10.742253449765945,1.1812654290809514,3.1908733027707217,-11.62184413737625
639,-10.77661026151196,1.3168015212166584,3.1779829480724877,-11.425853060935957
640,-0.28681899834505503,-0.5741675815334881,-0.34385122215687636,-0.3484702967201868
641,-0.6328103769123296,-1.2405769649212879,-0.9307246519304563,-0.7401770407094022
642,-1.114551733122231,-2.179412470547146,-1.8935969143975364,-1.2666558809849855
643,-1.7318793394527041,-3.385556931895711,-3.2809180882926374,-1.9304871875026612
644,-2.4793136141629666,-4.8313038608527075,-5.089345245828606,-2.729657756233002
645,-3.337935855267421,-6.469131543556548,-7.260019735764703,-3.6503900225055474
646,-4.2782161673415,-8.237759326865199,-9.685685254897805,-4.670896805571727
647,-5.277028636821132,-10.070839116245129,-12.228449371170234,-5.773469179376234
648,-6.322953829000332,-11.910095111905028,-14.749880062179054,-6.94219046531176
649,-7.404330561702944,-13.723855824118308,-17.14907794380453,-8.148637921773753
650,-8.505802719749203,-15.524702879183756,-19.388848096117233,-9.35889103048487
651,-9.584261066827311,-17.299342663090904,-21.440331334027675,-10.517531853613589
652,-10.596265531057174,-19.027391544628305,-23.29377816905142,-11.570269956348078
653,-11.511382746288612,-20.684336958281765,-24.952161914288617,-12.465250159597153
654,-12.315793873730314,-22.24433505163408,-26.43376850141918,-13.164509216349028
655,-13.00953860923307,-23.679129358788252,-27.765868139133694,-13.662437956523403
656,-13.60540797796926,-24.958513406186427,-28.955561873608794,-13.985707276305389
657,-14.133971226928711,-26.05951615809502,-29.97091636762808,-14.182384326984877
658,-14.642584439618497,-26.97476349243809,-30.75643253334878,-14.312192508640605
659,-15.17519312958157,-27.710048994228597,-31.26999273138305,-14.427840628223706
660,-15.749810981217617,-28.277938184132726,-31.518237025474498,-14.555300698154461
661,-16.35884695836478,-28.69560946891451,-31.562049895099978,-14.697024564309453
662,-16.983352472501974,-28.984543698947,-31.49073004999583,-14.845331317184435
663,-17.595964069195553,-29.16691543114423,-31.391055557127952,-14.983100418705993
664,-18.15670325534257,-29.260652291204913,-31.324275365449655,-15.08344712572132
665,-18.62194757864872,-29.27650712946165,-31.31085331779241,-15.123359675195227
666,-18.964847034288134,-29.216658842656635,-31.326857258388557,-15.103429280482718
667,-19.184970426144247,-29.076978750840585,-31.319939550861335,-15.045636805057136
668,-19.2986473598916,-28.85257912994872,-31.233033149752703,-14.9688128893216
669,-19.324278677385706,-28.53939175922275,-31.015618900509462,-14.875114534290422
670,-19.27569771732329,-28.132555947867846,-30.627547216146592,-14.753857912331943
671,-19.16097164850868,-27.62957606127634,-30.041615864873016,-14.587601039862705
672,-18.98451518249301,-27.036697963830086,-29.249691346347028,-14.359869585844688
673,-18.750917717104436,-26.36866163418637,-28.27627984736527,-14.065698944951677
674,-18.462330900468928,-25.640330718407636,-27.184053742526807,-13.714283421286535
675,-18.110881508795615,-24.860455399725197,-26.05273164988719,-13.320432387628895
676,-17.680859019489898,-24.03399184813687,-24.94256217846729,-12.897806997150676
677,-17.164641161451136,-23.167306765330448,-23.87125276111643,-12.463292492315713
678,-16.568647012453024,-22.269218618725887,-22.81752145579818,-12.036360271154033
679,-15.902263032300027,-21.3496595214918,-21.747264732788544,-11.626166183747323
680,-15.172930545048368,-20.419699842093916,-20.63656224464532,-11.228090154002249
681,-14.387463495994139,-19.49149781184227,-19.473899097128253,-10.830770602476099
682,-13.553469333910769,-18.578075525788407,-18.2584575715279,-10.42047181201381
683,-12.685865536960074,-17.6944337242249,-17.002740270668408,-9.983807666526687
684,-11.808881822842407,-16.85655145362933,-15.732692217521576,-9.510594226508857
685,-10.946047944974481,-16.078100440078657,-14.490034869617844,-8.997421574840038
686,-10.109221937056919,-15.36820086266495,-13.329840253284015,-8.448043166107379
687,-9.301082251325793,-14.728879071655,-12.307129264720437,-7.871972031165798
688,-8.524922710440222,-14.15207354537977,-11.46687192309717,-7.287650191801555
689,-7.787598573940035,-13.619937735638139,-10.839363126969007,-6.722736455009627
690,-7.091870624970531,-13.11285207910328,-10.431437615726304,-6.202542049581425
691,-6.428133528204758,-12.620351714112529,-10.219033209776027,-5.7377194897239745
692,-5.783178139621408,-12.14154866879264,-10.151366221039828,-5.325697589219021
693,-5.152517360433572,-11.678106009032067,-10.165633383626707,-4.959601155893166
694,-4.536577141667009,-11.231200095767058,-10.203485989754077,-4.629280678779762
695,-3.9308791401529373,-10.799817167776641,-10.219893664470048,-4.314803982071069
696,-3.3242740993022246,-10.37804599844721,-10.185908482735467,-3.987711313040498
697,-2.7062696059941937,-9.956850129654216,-10.08999784346085,-3.6211872418809605
698,-2.0732779711672413,-9.527166844840652,-9.941433569435882,-3.1984027441354934
699,-1.4291407506248202,-9.078829849953728,-9.77318830344727,-2.716686943588762
700,-0.779649350409612,-8.600302313368823,-9.62954140046895,-2.187712130958733
701,-0.12739287436551583,-8.08339748673838,-9.545783589377713,-1.634338947173551
702,0.5230760554701792,-7.528162710009102,-9.53758597894302,-1.0884905534399028
703,1.1565718013589747,-6.942815264864538,-9.601321901782185,-0.5889226802139332
704,1.748399778963389,-6.342206783786567,-9.71871878963297,-0.17540938522310212
705,2.2777722154052458,-5.747617515092174,-9.860943853900334,0.12254823754958433
706,2.7361997587704328,-5.183687540810866,-9.994218041214749,0.29263397547828374
707,3.1191441715300856,-4.671014238688804,-10.088707275949114,0.3330690773656397
708,3.415314206523211,-4.219657405140416,-10.128473518309852,0.24364126587853913
709,3.608400386220483,-3.8294555081692723,-10.116555237970376,0.025867127215704555
710,3.6896505078064297,-3.4961633465102078,-10.070380731351145,-0.31092894148169503
711,3.662454497444392,-3.217540557699828,-10.009054882235713,-0.7482631318465913
712,3.53306144928094,-2.9965756414181293,-9.943671934820161,-1.2633276089811454
713,3.302958408656059,-2.840310342802755,-9.87828748412473,-1.8316206703765805
714,2.971233536748093,-2.754792759743883,-9.816266876131449,-2.4260569967087453
715,2.542859609255639,-2.7402979021895564,-9.763338359428595,-3.018417800290956
716,2.033066616358509,-2.790100109496206,-9.718900979827172,-3.5825426102207327
717,1.4654031379930295,-2.8927809520510666,-9.668109605095133,-4.097388783580498
718,0.8645530490077634,-3.0356416573731577,-9.59247084660663,-4.550521061994046
719,0.25010151003183007,-3.2057808750383736,-9.478446763429153,-4.936767821292774
720,-0.36041315823576897,-3.389278706906534,-9.312419259043963,-5.25183080731072
721,-0.9470622500330326,-3.570621741527079,-9.078605455213975,-5.488975910111242
722,-1.4873681072279783,-3.732930747976977,-8.765924288321692,-5.6395866065340705
723,-1.9641093339111806,-3.859716762296477,-8.375936062661397,-5.695792025350227
724,-2.373819062982658,-3.9380789152572717,-7.921854793237543,-5.652478032636068
725,-2.719617193117309,-3.962692903790589,-7.428489496236566,-5.506724421320237
726,-3.0009307506376524,-3.9365596876975224,-6.936808785584019,-5.25725345958828
727,-3.2139054898864488,-3.8663106379407073,-6.4946198544277545,-4.905318829195657
728,-3.3577044198393624,-3.756001757516023,-6.13674629049941,-4.458005467756547
729,-3.438599830051615,-3.604707634585359,-5.872545708415876,-3.9310619849907873
730,-3.463490065650299,-3.40993654211808,-5.683381408534234,-3.346967407146523
731,-3.4332600711847574,-3.1725269674581904,-5.522594337559507,-2.72966186216012
732,-3.3476626733451336,-2.8980702661481033,-5.320084697498525,-2.099994302705859
733,-3.210835364545801,-2.595771448613225,-4.999005149920071,-1.4751888570531098
734,-3.0306210590998517,-2.2734641363193098,-4.5027572599450565,-0.8714275607141418
735,-2.814959007388796,-1.92955017004658,-3.8141885341621475,-0.30341032690914327
736,-2.5681142959276175,-1.555037953313903,-2.953949339044006,0.21958315788028762
737,-2.2917946524686874,-1.145747947192169,-1.9736347504471157,0.6957183940326108
738,-1.9916789703631177,-0.7088448817476225,-0.94575680323248,1.1294153199752652
739,-1.6798826652182417,-0.258780640556062,0.0585094517569264,1.5289753521175475
740,-1.3706165608193994,0.19049888845411228,0.9913124405588868,1.9052780327057615
741,-1.0701752461240002,0.6289713541941524,1.8337949206383024,2.272643059357017
742,-0.77156066500621,1.0504953349433543,2.589917147235932,2.6493621112024246
743,-0.46543811269808216,1.4521093767015016,3.285248077416626,3.051977939383277
744,-0.14885338279315957,1.8313118291439396,3.9602030777473702,3.4847166463773744
745,0.1780123502193886,2.184240371818424,4.650815941462057,3.940376718281801
746,0.5146228841696889,2.5064960782462777,5.373364197250563,4.41508726272882
747,0.8573721439950637,2.7951313131288447,6.118308952615077,4.914573662009515
748,1.1943445778084976,3.0494785449642374,6.85446560375694,5.442452757076771
749,1.5067526684662673,3.269241249800102,7.535175061829878,5.987447561941901
750,1.7761361679548167,3.454082722635112,8.104800012250902,6.523811630481647
751,1.9909235778962517,3.6055838046041453,8.5161485284239,7.020881372971448
752,2.1511741410459075,3.726078765798158,8.750975954843794,7.451748818465482
753,2.265457424469335,3.818500007804667,8.82174911797449,7.7956287646857945
754,2.340631683260266,3.889869937405988,8.76033682569013,8.03593541108991
755,2.3747174538830724,3.949917129414175,8.613161977736619,8.156662106899224
756,2.361527734566634,4.004880977068434,8.42999602142652,8.146254359898268
757,2.300386103561502,4.053239904858626,8.24650539669744,8.008642058935504
758,2.2059647669931515,4.090911410656584,8.096240672935734,7.790772790637274
759,2.052174925263384,4.106553778594354,7.954678338336517,7.456624998361773
760,1.8265337281108915,4.094995374376594,7.804726928332222,7.006954058832734
761,1.535091466590437,4.056283218755053,7.631055596495834,6.472721766876766
762,1.1997693444807644,3.9948144720652716,7.41940679229902,5.900507954527602
763,0.8492064207948073,3.9177653439763955,7.163253398181935,5.3316329876384625
764,0.5129166640501716,3.8338231846608317,6.873267315389397,4.7938727497438745
765,0.21783082423194447,3.7526426311683534,6.5750864994739135,4.309483272020579
766,-0.015175608368663551,3.6844040362126003,6.297429732445133,3.90235774421029
767,-0.17486032059650655,3.637276156799382,6.066639769323091,3.592953829756883
768,-0.2851460660443669,-0.47690665163467716,-0.06349296783446068,-0.26256820385097546
769,-0.6655039974700709,-1.0398764480242968,-0.25155619323488115,-0.6285181838325387
770,-1.2098793064524995,-1.8412755555894635,-0.6283251238106113,-1.1542162099050328
771,-1.9172994041885585,-2.878643763679907,-1.2591508533446263,-1.8385272031326827
772,-2.767044624262532,-4.128123295152696,-2.193295355870793,-2.663674133208604
773,-3.7222627758960316,-5.548509047327161,-3.460115622336006,-3.597721571129471
774,-4.741106242360351,-7.0872741937475805,-5.063288509980808,-4.602946550536421
775,-5.786715625608145,-8.688493331696783,-6.975501394202574,-5.643649439709004
776,-6.834037338288579,-10.303520083294954,-9.141277132719615,-6.6919548160462
777,-7.875692196156249,-11.90474813241174,-11.483773936842486,-7.733873195657475
778,-8.928991452970811,-13.502261150217528,-13.916775546998055,-8.777546260075155
779,-10.002804778078174,-15.088241061417568,-16.341515470369554,-9.82274090624146
780,-11.106205957799842,-16.654298860342692,-18.677927710358716,-10.867436806705744
781,-12.247031348963056,-18.193251884664306,-20.877142929113347,-11.908971349260083
782,-13.426361879874609,-19.697737261798917,-22.921379777163168,-12.941632184630372
783,-14.633060929737793,-21.157155561490537,-24.822733312477357,-13.95104553732764
784,-15.844449982649127,-22.554847059629736,-26.60925404734354,-14.913127182233055
785,-17.0320754494219,-23.86787307166321,-28.301123617754264,-15.800804062468321
786,-18.169924531068627,-25.071223991675247,-29.8986311400268,-16.59314325960302
787,-19.235303601863553,-26.14464554493231,-31.385257456846375,-17.27419955502402
788,-20.204597220503558,-27.077616985392854,-32.73691979971636,-17.826433274448373
789,-21.056634185453394,-27.868573940459505,-33.92406453837768,-18.23528177344067
790,-21.777957014777986,-28.522474926983286,-34.90949626239161,-18.496918197312485
791,-22.363561990431364,-29.051289571525682,-35.65443463798377,-18.61560879091753
792,-22.813074725359744,-29.473972373936977,-36.13082361386128,-18.598651312992605
793,-23.124747628571264,-29.811834163153105,-36.329463595114724,-18.45875735969241
794,-23.29438516054168,-30.08335776608925,-36.26286439782869,-18.21906683301912
795,-23.32312745321165,-30.30222895045054,-35.9654518820155,-17.91234697912687
796,-23.225042947799224,-30.47439590197549,-35.48804298371708,-17.575051349132444
797,-23.01903866832353,-30.59359682824495,-34.88847550517193,-17.236945892236065
798,-22.715584493804528,-30.639908773620103,-34.223720180419285,-16.909878381017403
799,-22.315673419958863,-30.584372014057937,-33.53816222758465,-16.58842834224949
800,-21.817482634604044,-30.398265493245876,-32.84855616970255,-16.26065761642726
801,-21.216106041378094,-30.062491193853383,-32.14739607122242,-15.91326429714004
802,-20.49801204491424,-29.573554566355167,-31.42039432398845,-15.527444369402033
803,-19.64166042021979,-28.94286445140086,-30.652296892251538,-15.074661144039169
804,-18.6260592258184,-28.193223424618218,-29.823198738773375,-14.526997856553113
805,-17.442463747650184,-27.356008407014087,-28.908963967404727,-13.877208898047439
806,-16.099797628264064,-26.465856087810117,-27.890525864011728,-13.140977795885012
807,-14.61310027680349,-25.55365447532282,-26.76619580132289,-12.342073418178595
808,-12.987120217149984,-24.64147396608327,-25.553508046191975,-11.510355292357136
809,-11.22582617464929,-23.741279450236515,-24.28107023082439,-10.690059922531974
810,-9.355594681358575,-22.856824741033677,-22.983308749037626,-9.932832380630892
811,-7.428753809486029,-21.9839219536451,-21.699784747570522,-9.280716861794161
812,-5.5088118395810755,-21.108597030357565,-20.46876856357935,-8.75770419773721
813,-3.6557584417728743,-20.211536764289676,-19.314559360874288,-8.370097829598887
814,-1.9252655861232049,-19.27766399638217,-18.240376591159183,-8.110220309229753
815,-0.3746757087727513,-18.301384397331137,-17.234359647398723,-7.962191045604193
816,0.9417514984070191,-17.286803546892322,-16.283543730830285,-7.908160661752309
817,1.9827205069771041,-16.246393231408902,-15.379096580769058,-7.932566625813748
818,2.727257393869523,-15.199917827388584,-14.508386994595856,-8.022694879333478
819,3.1768032193443623,-14.172206331774905,-13.6535391266789,-8.16703077290097
820,3.3480399214247383,-13.187683327545722,-12.805330061441383,-8.357428386983091
821,3.2658798499360997,-12.2653195393228,-11.972961782984532,-8.590115850591978
822,2.965853993868126,-11.415683728751096,-11.184322482882855,-8.856286413457227
823,2.4982386667752796,-10.639387584378042,-10.481460303752158,-9.13722127211818
824,1.9203987998221284,-9.926461213824908,-9.906581848346843,-9.409344285176756
825,1.2791233145393066,-9.25602049813026,-9.492177458796004,-9.6437098447356
826,0.6080208313275708,-8.599687272618915,-9.25776060681826,-9.801640111061676
827,-0.05875956180271552,-7.930009567961488,-9.20432864168494,-9.843359393648946
828,-0.6854349675020547,-7.229791575675488,-9.303794028266624,-9.7452332116669
829,-1.2402016550438304,-6.498257289194494,-9.492920885365274,-9.503915346110624
830,-1.7012466598693126,-5.750501334920339,-9.68928850761197,-9.132254361576857
831,-2.06604071903344,-5.01166471781728,-9.81056807283068,-8.657817058226213
832,-2.3472370427087625,-4.311573067793017,-9.788201731652782,-8.11531158650119
833,-2.5606397449261475,-3.6792950076238675,-9.583872060426039,-7.532544236743672
834,-2.7208327247055912,-3.1377271186559503,-9.19817504121296,-6.921679246349007
835,-2.843336908588119,-2.7005310535620777,-8.66747888029405,-6.286458374000593
836,-2.946858078544154,-2.370503554910577,-8.045679679747776,-5.636070628155341
837,-3.045021198051452,-2.1400394891963646,-7.384412344311693,-4.985540736256313
838,-3.135062456783945,-1.9923142342098554,-6.73152520754807,-4.347675248838869
839,-3.2011829589248215,-1.9019290860872267,-6.126469596968618,-3.7304530415155255
840,-3.2290756870212634,-1.8395839391170532,-5.578979077454495,-3.1405891535164296
841,-3.214507671671981,-1.7809172397432425,-5.069860886312448,-2.5854698759011656
842,-3.1618141083943345,-1.712880523926903,-4.5800963895716595,-2.071149444062348
843,-3.078565048748711,-1.633121411112053,-4.096187261818113,-1.6011660839930466
844,-2.967814718561999,-1.5460071238952866,-3.594534074225337,-1.1762189078759895
845,-2.829660472677611,-1.462467277923126,-3.049066276165407,-0.7927477637916764
846,-2.6739756430694603,-1.4001204614250007,-2.4564537030083327,-0.44627867499660334
847,-2.5245480553360755,-1.378659585874497,-1.8387694968624002,-0.13940678187810582
848,-2.406358059948813,-1.4142462663632775,-1.222989949171984,0.11926177643523025
849,-2.3359555223218575,-1.5155727420807854,-0.6272715013192898,0.3223577094022249
850,-2.3269227822108665,-1.6817649391921494,-0.05860356187586428,0.4587883558173782
851,-2.3896648525816033,-1.9003379089928922,0.47754903745995303,0.5063554704708082
852,-2.52159870736639,-2.1477877658329008,0.9715429891710134,0.44426489042351863
853,-2.7035595962002277,-2.395773969412121,1.4200427997922183,0.2706643767447365
854,-2.906014201670936,-2.618530807849836,1.8306800422796514,0.006418872836580608
855,-3.100178264963229,-2.798294631751845,2.2188612846338915,-0.30949382938955033
856,-3.264646356291505,-2.9264740118993116,2.59998863557712,-0.6288375647052024
857,-3.3848845793297437,-3.0013405665329533,2.9775396423092872,-0.9063354579330798
858,-3.4468375079434663,-3.0251085856408744,3.347182797861469,-1.1058010901300226
859,-3.433486697490393,-3.002407092327913,3.713788736861755,-1.2003292590721755
860,-3.3328890149600756,-2.941207690847673,4.0876961606764715,-1.1743950381719939
861,-3.147237995308276,-2.8504518483629306,4.4602824115730995,-1.0246730643002042
862,-2.8897099796509047,-2.733011119943514,4.802651266338162,-0.7601164713027598
863,-2.567582367410128,-2.5843382354164235,5.090694880231947,-0.39849010669768137
864,-2.170670199193205,-2.3995439153597498,5.314268370355076,0.04483395658096262
865,-1.682736040209487,-2.1792611002091493,5.466954119545416,0.5571197410149242
866,-1.1018739727228168,-1.930195198589177,5.541060153600089,1.116129914950288
867,-0.446429800936189,-1.66372945874724,5.534166820341503,1.6921877719668958
868,0.25636562606939406,-1.3938254652066475,5.457454196426957,2.2650224839060233
869,0.9821655846515427,-1.1329210480367136,5.330111805106256,2.8302590279279776
870,1.7121724274017442,-0.8861960221784221,5.164716551347735,3.389179070618511
871,2.431811582580862,-0.6501545424746702,4.969009186020863,3.9407446727097657
872,3.1297659210465296,-0.4163851752513615,4.760923788448748,4.4810641325433895
873,3.801966890301958,-0.1744169359749978,4.570117211244967,5.006867769076435
874,4.456221270546176,0.08655759403627769,4.430974672756212,5.522747169464659
875,5.1065115388190065,0.3753086751657835,4.3787447355850215,6.042537097027171
876,5.7610654175970435,0.69868090026391,4.442104619080397,6.58314061435075
877,6.419050331804042,1.0643336602777524,4.636578420734287,7.158443465192485
878,7.07561028154965,1.4788460123462277,4.964354825622358,7.77849817446376
879,7.7226723783491,1.94150033500249,5.412372280982404,8.452497073011132
880,8.34427591749591,2.442934750205628,5.942132126328547,9.183168743118832
881,8.912231979571136,2.9707399806885464,6.485651013262838,9.95466026916172
882,9.39410885748876,3.513388712004494,6.964058600425066,10.734949692669762
883,9.772783071456576,4.058217325396415,7.318504689659884,11.492564679906737
884,10.052635316164901,4.589541056119108,7.5254483473560745,12.202737450053299
885,10.248914703155492,5.090498909542966,7.5883750303905675,12.840324479436632
886,10.394218600593941,5.551271344816735,7.53615174082241,13.404928378849762
887,10.460376152086884,5.947813313904992,7.362316544907029,13.823804314982443
888,10.440125964408614,6.26338216666005,7.090718409997007,14.06183552547208
889,10.342696891574969,6.490055802451651,6.76015695864687,14.118541414405614
890,10.185378677431146,6.629476818657227,6.4117291363794795,14.018086876490123
891,9.986301827207612,6.692641378609341,6.080154292359209,13.799682801447661
892,9.763492148316054,6.698015707787816,5.787389194842008,13.509342381697763
893,9.536400435316882,6.667157714285118,5.541229291029042,13.193081522069498
894,9.324457404660881,6.6186913463885,5.3398139409698935,12.892819978794787
895,9.144383915636165,6.56641008646673,5.176000198983536,12.641886459724546
896,-0.15592195807995082,-0.5323191746609555,-0.2703371360292385,-0.303974885775385
897,-0.37571173972596617,-1.2023289827442771,-0.5634416700697725,-0.5977960897344516
898,-0.7053779314418508,-2.1792786579151358,-1.0102996164189995,-0.9944335091418905
899,-1.1614226268546504,-3.4719124704519073,-1.6868434550258251,-1.4869743846509351
900,-1.747406358469113,-5.060176512671627,-2.6669729547667824,-2.0589086562172914
901,-2.4519207128549985,-6.894575110999895,-3.995160176676425,-2.6887425006894983
902,-3.2552734317770904,-8.90235158360569,-5.668450545849921,-3.353009473457378
903,-4.139564696816412,-10.999551320876703,-7.631611595273171,-4.030706625653408
904,-5.091733691627038,-13.10650047489521,-9.789614548886869,-4.70864543365479
905,-6.099997100188222,-15.168825938334104,-12.031171841278024,-5.386264271461167
906,-7.15987166033937,-17.18162668740275,-14.25554803706096,-6.084040128916842
907,-8.265299398331539,-19.126329365996593,-16.35661532322748,-6.81302568375978
908,-9.410457058522221,-20.988648465335892,-18.24931485967179,-7.5793449035784946
909,-10.5823107914726,-22.75592219188456,-19.88434697340445,-8.384688956682558
910,-11.756968229353586,-24.41498806981997,-21.254377213977786,-9.232370125284188
911,-12.905279448941121,-25.950354568918055,-22.391014180192265,-10.126107779414527
912,-14.002343706362478,-27.343048490476573,-23.352900741165993,-11.064448774527277
913,-15.027309614776879,-28.570593033714534,-24.209766742902215,-12.038430307357265
914,-15.95653489327632,-29.611557495116795,-25.018242102953163,-13.032511211339596
915,-16.76380077285693,-30.45369541936326,-25.790418666236175,-14.028064985609552
916,-17.425588464859974,-31.095468606135867,-26.495749885886024,-15.004893708354194
917,-17.931147368144135,-31.543739187216804,-27.094890221771166,-15.937571399091608
918,-18.293886681139686,-31.81509824946848,-27.555561492356027,-16.7945883025596
919,-18.539852878515653,-31.932059192616904,-27.860595735157123,-17.544930607038324
920,-18.68539633667023,-31.913099013020148,-28.027124314874793,-18.162575317653403
921,-18.7350985198039,-31.76996609694919,-28.108455916625164,-18.630449498003795
922,-18.693511822896415,-31.509970918764626,-28.170595397497326,-18.947760143696666
923,-18.570562687304474,-31.13661955826971,-28.267628926384056,-19.129266250058617
924,-18.37232607514338,-30.651914110006235,-28.427613544315346,-19.19456424196257
925,-18.092095867925888,-30.061582525208163,-28.64430338466524,-19.15844837726082
926,-17.72082861008032,-29.379284396245495,-28.878011840285822,-19.030337797311724
927,-17.263396829641124,-28.62623884855639,-29.06966048583708,-18.8183044735969
928,-16.739504158558876,-27.8281532726196,-29.15708105912313,-18.529478206040025
929,-16.17298656753857,-27.011193293841835,-29.088761080531246,-18.16643774894631
930,-15.58643271988186,-26.199345023340943,-28.838203968941382,-17.728242676689927
931,-15.002826657333221,-25.413128254410058,-28.408900221654985,-17.21726928220827
932,-14.446104440820047,-24.665475750331584,-27.827415687419123,-16.640872696534586
933,-13.938901156089868,-23.95972103783995,-27.137708176469584,-16.010076907457304
934,-13.496413099197486,-23.29233167878567,-26.39767782400406,-15.34132568737164
935,-13.117066873826005,-22.6544564212374,-25.67212937755052,-14.654649726374638
936,-12.783803076577279,-22.034936693495286,-25.0208374314231,-13.967903676270046
937,-12.483019386513817,-21.425620361907974,-24.477377276193653,-13.294147951612153
938,-12.211846104918445,-20.82109492005674,-24.034298910401805,-12.641879885481096
939,-11.968324684345435,-20.21575829145018,-23.654914102706254,-12.015213709380856
940,-11.747113935825116,-19.605566319374898,-23.292905743431273,-11.415338017424764
941,-11.541299655641286,-18.98935186751967,-22.905207272824732,-10.84399380159207
942,-11.349788906289142,-18.366479134130422,-22.464734906043855,-10.30640614656874
943,-11.179640697737522,-17.73476230259631,-21.96394032477762,-9.809834672663587
944,-11.037549791026468,-17.094018057636035,-21.404796759946116,-9.358469870606232
945,-10.925823416454453,-16.45227034233321,-20.794932021386696,-8.95293564930848
946,-10.84362407227534,-15.824589944009766,-20.15304516740687,-8.596276222469399
947,-10.788772056493503,-15.226202354441288,-19.502266499278633,-8.29644151834858
948,-10.75983196659592,-14.667244771672719,-18.858954050011945,-8.058840237646164
949,-10.755861114438396,-14.153338194084165,-18.234100128942988,-7.882025070210829
950,-10.774646401311045,-13.687449102321388,-17.63723761845786,-7.7610526533510455
951,-10.81195442270999,-13.267615239485432,-17.074206719815354,-7.686205963273898
952,-10.862383725934334,-12.884899321618725,-16.54157714396526,-7.643397063228633
953,-10.922589552113413,-12.524084327361406,-16.026653958657587,-7.622290740297414
954,-10.991648808594837,-12.165569008458688,-15.520822377692594,-7.619287987682223
955,-11.06383322045386,-11.788623006873289,-15.030813866733608,-7.631753038873403
956,-11.12537697714282,-11.37487409395912,-14.569674347836603,-7.651515472157751
957,-11.160621453695045,-10.911515220604738,-14.140752883503309,-7.665447900749312
958,-11.158783754006807,-10.394020200498932,-13.735853846992772,-7.66351868730245
959,-11.111836134555274,-9.825678123704735,-13.343084455959195,-7.639683634568642
960,-11.004237109857742,-9.21602494358741,-12.952079155069754,-7.583241217507516
961,-10.81046014452221,-8.579780797271425,-12.557496437567359,-7.476016521881526
962,-10.506732645420842,-7.934772656371797,-12.155783949951495,-7.298613318804193
963,-10.088530565981214,-7.300256824968052,-11.73759518234065,-7.038106392120713
964,-9.576449103142451,-6.697163721641782,-11.289147064212738,-6.689333622837039
965,-9.002812390553729,-6.147369900668507,-10.799084635926075,-6.255485524637236
966,-8.397289109030895,-5.668402099822624,-10.25958251614837,-5.75380682997322
967,-7.784545751283667,-5.268764413792909,-9.66752380586122,-5.214333107764618
968,-7.186061772988048,-4.948260903900657,-9.037639563854613,-4.67140758365002
969,-6.620034847058173,-4.699942443730851,-8.409067119588324,-4.154840580634905
970,-6.09441213702442,-4.512345119938093,-7.8316393201813215,-3.6787495264334202
971,-5.594838275202738,-4.3712054975132055,-7.345038789668931,-3.236432995329213
972,-5.0916403116704085,-4.260342274211093,-6.967453743252768,-2.8078621748403876
973,-4.56072773757145,-4.16280274544388,-6.699874592207669,-2.3685873072501735
974,-3.991793645343684,-4.06284952003251,-6.53202151154414,-1.8949341933722275
975,-3.38386063865087,-3.947585258327185,-6.441726524471366,-1.3671141144950756
976,-2.7400781508813195,-3.8069374213491556,-6.391219297457876,-0.7726596318745805
977,-2.072840387164858,-3.633891581173176,-6.33138661491225,-0.11384586182611477
978,-1.4093889068574683,-3.4247864418400407,-6.214819640198956,0.5866192753991908
979,-0.7837457126703113,-3.179589527304005,-6.004701452909234,1.2900641948018037
980,-0.22426065117447874,-2.9021689934985417,-5.678482061565055,1.9544651270519726
981,0.2532490725585922,-2.597638464252797,-5.2290325500976085,2.541944855041751
982,0.6442818646061754,-2.2665697337252446,-4.666411008947202,3.023781997403744
983,0.9485388987667946,-1.9040777896250591,-4.017283329337452,3.390570140314946
984,1.1666827897994816,-1.5055294761825235,-3.3169937700743524,3.653140957915371
985,1.306499406790741,-1.069285429703748,-2.594962983310927,3.8350574218887887
986,1.3874380069089594,-0.5966487621378219,-1.8620113209645213,3.9692574410160057
987,1.431031152548309,-0.09266679313613728,-1.1154890670018447,4.090271386416867
988,1.445471332370365,0.43296441028573995,-0.3575785373818134,4.220811350584613
989,1.4251083636715978,0.966124504088919,0.3919966101368077,4.368349621763802
990,1.3683423337519611,1.4909303490818984,1.0995528596524502,4.530913549539054
991,1.2884529682293897,1.9903948197352448,1.731982006649348,4.701488789897905
992,1.2013993105486849,2.4447310911326245,2.2673454223927783,4.865148772716841
993,1.1078271708831287,2.833161594143862,2.696525336596581,4.992267937988406
994,0.9932856278855996,3.1401742320857324,3.0202755012961986,5.044354077486787
995,0.8461155016071371,3.3618882552891165,3.2473002132946287,4.992027029998131
996,0.6700222169520227,3.5063385389260926,3.3912827038513647,4.829130097285356
997,0.48210020876457554,3.5887721240517787,3.467803565589464,4.571151210348292
998,0.3060967747284612,3.6275765301212255,3.495032408893893,4.246703940865671
999,0.16675189400263934,3.6402528121177755,3.4903335626385386,3.8934540329857863
1000,0.08558355291500631,3.639499160737575,3.4639282561243396,3.5478569316108666
1001,0.08150631209962352,3.632835815455551,3.4216258510989683,3.2369159742401203
1002,0.17244977188430222,3.624937213684482,3.369108321254838,2.980643356152498
1003,0.3659381022550339,3.6198228829066434,3.306548951733697,2.786763897709552
1004,0.6510088867003162,3.6222435691983854,3.224602414391033,2.642694268520093
1005,1.0070331962966987,3.6373770505471685,3.1146620485570797,2.5237269164776217
1006,1.4111991117461553,3.669307133873658,2.983789434537303,2.4052062529353018
1007,1.8350668779932442,3.7210214910709967,2.855101316932822,2.2624619198416522
1008,2.2432611659395025,3.7966436753028847,2.7521066238558403,2.06864329329947
1009,2.601949323568273,3.9027848462663606,2.6829454219202793,1.8027645739433333
1010,2.8916019773464794,4.046385103981086,2.638764812921318,1.463392762766773
1011,3.1106335288592386,4.2314216172071735,2.603686825028339,1.0740542377399922
1012,3.2705362654236674,4.456710004666169,2.5686468289666236,0.675178357063892
1013,3.3871613240889933,4.714729289479674,2.538684233930208,0.3106467115889125
1014,3.4684637292385356,4.9890026072992,2.513218542691622,-0.0007658039959444404
1015,3.5147607212426903,5.270749011865833,2.52888910574078,-0.22016993938199036
1016,3.5325629230202815,5.546487134815017,2.6015096536268425,-0.3312056542027025
1017,3.5301685418111037,5.802576127649056,2.739719782816419,-0.33839839289996376
1018,3.5142382544869197,6.028898384495543,2.947092283506114,-0.25979492623348993
1019,3.4865843060010024,6.219377896714871,3.2136824715881285,-0.12238053270706425
1020,3.4463655958832002,6.370525806319318,3.5176801100680017,0.043005049579800565
1021,3.398257422473607,6.48161470977632,3.833139782005079,0.21060017519881463
1022,3.3515710993461787,6.555578641564668,4.131555538283272,0.3615738460347876
1023,3.3118301894778566,6.598601220243643,4.38067516896844,0.4788025024044581
1024,-0.31943040873806394,-0.5175807184934406,-0.6224514167841756,-0.2908028762447226
1025,-0.7153188667623646,-1.133541467855443,-1.3386775250355483,-0.6145836321806121
1026,-1.2882936397787483,-2.023157279249402,-2.3428694007020976,-1.0724070358149294
1027,-2.04227940495188,-3.193103362084604,-3.6248940823033964,-1.6551246376831537
1028,-2.959962181665572,-4.621680422322112,-5.15213254776105,-2.3352251180679957
1029,-4.008501087916227,-6.261958653586655,-6.870997162442931,-3.080499342628422
1030,-5.146656298167055,-8.049048393514655,-8.712447308648748,-3.8582401269474813
1031,-6.329671765571185,-9.909932871645461,-10.59984563458263,-4.630339242904157
1032,-7.514139385629918,-11.776098970164869,-12.459310431745756,-5.358067092787783
1033,-8.668532525338493,-13.600420778362407,-14.240994458914312,-6.016239506209531
1034,-9.790381155061095,-15.378314496976314,-15.942014444447517,-6.608778736284579
1035,-10.87962400422639,-17.089256394478575,-17.530338738951194,-7.138170303242952
1036,-11.941195744971278,-18.716211253390213,-18.970255310309145,-7.61419532440053
1037,-12.972810547165945,-20.247270984151086,-20.240676792940334,-8.05120134197222
1038,-13.966941145033713,-21.67683264453232,-21.3486304889105,-8.465789220210201
1039,-14.924746203529681,-23.00278527157738,-22.323560254107036,-8.87513227116022
1040,-15.857728837300437,-24.221763854275512,-23.202569155443793,-9.294174413563278
1041,-16.771464376492485,-25.32636875058723,-24.019661205779286,-9.729823376992325
1042,-17.65323260855188,-26.304376197979273,-24.799896793974877,-10.176121819755075
1043,-18.477593682533527,-27.141062929161333,-25.553500307688925,-10.617650045105972
1044,-19.220060209150333,-27.82417113189918,-26.266327959230836,-11.038284921551027
1045,-19.863016317061003,-28.344905648038537,-26.898045294230617,-11.423406331287246
1046,-20.39119688067377,-28.69545958462546,-27.395071773972706,-11.754589768348179
1047,-20.787419100319116,-28.871003325741665,-27.70801613684216,-12.01569012268761
1048,-21.0393616336128,-28.87488875023715,-27.806572218236873,-12.208216737414563
1049,-21.15094249206315,-28.720569519916072,-27.68851310736445,-12.352603311946973
1050,-21.14382234001099,-28.430183093979203,-27.379516717615573,-12.479330301996761
1051,-21.047933652777594,-28.031997835616846,-26.92742255475207,-12.62562959542146
1052,-20.891112861197037,-27.556598527361622,-26.397454742875457,-12.827728753491039
1053,-20.69825996338953,-27.031933213219844,-25.859216756700963,-13.1056206903022
1054,-20.496819692711302,-26.477418482073688,-25.36258651750381,-13.462142007509561
1055,-20.31325012420176,-25.89990982403479,-24.92601004243023,-13.892661785395887
1056,-20.162490652584893,-25.29720533747567,-24.546623874647818,-14.387708244721466
1057,-20.044372725659898,-24.665845417907438,-24.21409554006621,-14.933984958836044
1058,-19.94764255145357,-24.003047960211877,-23.914424542905046,-15.515640203895948
1059,-19.858843596515843,-23.3023221060857,-23.632745397684612,-16.115197803992462
1060,-19.770161301537648,-22.552113505750743,-23.3575945022604,-16.717097796615942
1061,-19.684298594985098,-21.741997833009183,-23.080857578804224,-17.31343023375674
1062,-19.61354940984662,-20.8722181087935,-22.79834711069199,-17.903593558528193
1063,-19.573051395021515,-19.959804371386355,-22.506383810939102,-18.484914088519474
1064,-19.583374847600606,-19.034069895527487,-22.195027364581502,-19.0538951864188
1065,-19.673381278937498,-18.123917825931503,-21.847167986943305,-19.614119447039506
1066,-19.874015798191795,-17.250162162833472,-21.44031046015482,-20.177967450460674
1067,-20.215027468562226,-16.42528005687401,-20.951305425272967,-20.766306250009
1068,-20.730169556281947,-15.650990507858307,-20.36316466820438,-21.41427281473222
1069,-21.462323472641025,-14.915310048609946,-19.667903392028755,-22.180396610531677
1070,-22.461088106214348,-14.195917715072929,-18.86341879103578,-23.14806931807171
1071,-23.785342792409555,-13.466457516630994,-17.94854005921236,-24.419209095054548
1072,-25.506584862934915,-12.700262336524792,-16.921203600223006,-26.098348673753357
1073,-27.70087996556004,-11.870776932983425,-15.776462139054209,-28.27868385688542
1074,-30.445704877097974,-10.953541866433422,-14.50425945923462,-31.03879826936024
1075,-33.82187988901385,-9.934506882542635,-13.092335153626019,-34.44082649611759
1076,-37.9021561115441,-8.819511288611563,-11.534100071168151,-38.52845373647289
1077,-42.72955991433563,-7.633627004373129,-9.835201366791134,-43.32374953048146
1078,-48.299002894361806,-6.408490532185505,-8.012570932582324,-48.82170645769932
1079,-54.55653563540124,-5.168114289810435,-6.088585475678821,-54.98720711327561
1080,-61.41775228323137,-3.9231774344660137,-4.086078006309119,-61.760058854202214
1081,-68.77412770966559,-2.676482376261579,-2.025005436989904,-69.05445867258146
1082,-76.48436750359824,-1.4332816755345235,0.07891642546685806,-76.74940601558926
1083,-84.37730065337496,-0.20574297748159,2.2101531240423555,-84.69138561278255
1084,-92.26399570669095,0.9901982954351424,4.347939938408797,-92.70588888323898
1085,-99.95970454050033,2.1393933052021348,6.468231645298922,-100.61380670692985
1086,-107.3054040312937,3.2282212563254933,8.546397507600261,-108.24948238242058
1087,-114.16842526623506,4.243153322572575,10.557981929531698,-115.46394806514297
1088,-120.42832453192773,5.170416486154316,12.480982505972145,-122.11319227346067
1089,-125.97276910527079,5.995510556165256,14.296347245397717,-128.05991233672603
1090,-130.71476817400517,6.703082160992635,15.985878738766907,-133.19911603241673
1091,-134.60026263389517,7.278447251281023,17.528192899546323,-137.4669119403331
1092,-137.59562675666942,7.710825528133496,18.898815039163946,-140.82808083040743
1093,-139.6803223792389,7.9961338141449065,20.0747609132368,-143.2685931664383
1094,-140.84637577307288,8.13641382419567,21.04048356134072,-144.78619108577539
1095,-141.0976341380789,8.136088891010774,21.791155977307696,-145.37888434762021
1096,-140.45035852665737,8.002300785174846,22.32916038823521,-145.04918830903875
1097,-138.92960757326054,7.7513715380692405,22.656453649502755,-143.81658708953017
1098,-136.56623991233295,7.411300018882353,22.76447361130495,-141.71841872202066
1099,-133.40704430811164,7.014519307468647,22.637218758580012,-138.80598540478167
1100,-129.52446853650238,6.586343930443588,22.269472434972524,-135.1442388525512
1101,-125.01123402598948,6.139754508486316,21.676558615649345,-130.80997278042236
1102,-119.9653784010954,5.6771466832050805,20.889505112063702,-125.88267234228981
1103,-114.47470484107822,5.19631713117141,19.94537338433959,-120.43495883204884
1104,-108.61558284877314,4.696027710664742,18.878187646284612,-114.54190506736026
1105,-102.46482441074309,4.1756968545592805,17.711531133449505,-108.29926244626294
1106,-96.10003319149186,3.6368277710505263,16.457651367613927,-101.81636290561457
1107,-89.58256508616816,3.0892845538355163,15.12209915344793,-95.18792484726691
1108,-82.94707020246115,2.5525395071823587,13.708606757077693,-88.484843222379
1109,-76.21082245234078,2.0508735030529186,12.221875701924008,-81.76262032193357
1110,-69.39367011172538,1.6075959763529908,10.668525828691013,-75.06056576229405
1111,-62.53378547513418,1.241305619069923,9.059910045275121,-68.40474095676251
1112,-55.68184774683236,0.9654396850183569,7.410287495236748,-61.81584698053131
1113,-48.88346581940772,0.7864646054475583,5.733233233618162,-55.305727734211374
1114,-42.17226669012246,0.698091464077356,4.046675358206917,-48.869926162400404
1115,-35.57549084703903,0.6799612809306506,2.3794992967908706,-42.49629568108622
1116,-29.119717158024137,0.7090547097567906,0.7639305790656223,-36.18410744113496
1117,-22.824415294229766,0.7717025035561361,-0.7850239570846961,-29.944905057597804
1118,-16.695842952135347,0.8631657589295132,-2.2758025643791164,-23.791296888777993
1119,-10.728611648693747,0.9807184562516665,-3.7291574599507853,-17.732483532431637
1120,-4.91193339866615,1.1198683773857376,-5.1662133767155805,-11.779564492820247
1121,0.7557312070723179,1.2752439524289396,-6.594390727447257,-5.952872790767335
1122,6.262415137024128,1.4443936634222085,-7.992564890814258,-0.2758324424851535
1123,11.597196014236683,1.627251626052957,-9.326085851813778,5.239525775828202
1124,16.759539902367628,1.8200530473472682,-10.585753876015872,10.595862710041615
1125,21.751901269340937,2.0140327952607953,-11.793364714029495,15.804215501263315
1126,26.570146488373346,2.1997288528950034,-12.972195471944058,20.875877577595986
1127,31.208565786555017,2.3686989283959674,-14.120444277259997,25.816861804543905
1128,35.67899116899644,2.512654216497445,-15.210174127003373,30.635255625471057
1129,40.018431908061764,2.6260371230541764,-16.20433440617042,35.353749099432044
1130,44.273360130478025,2.710105223050171,-17.071339045320453,40.010609929355596
1131,48.491225143381875,2.7753668616626115,-17.800037999600576,44.65602001543437
1132,52.734427852289656,2.844211252020756,-18.40928786439891,49.358764943925934
1133,57.09317663672043,2.9464297551561085,-18.937257473033092,54.212852725595866
1134,61.67453831484733,3.1042025773257698,-19.41767083362692,59.32073351473387
1135,66.57456339476222,3.322227831604635,-19.86038602948909,64.76323808939152
1136,71.85680084752711,3.5857233081839848,-20.241645545955095,70.58533958907422
1137,77.54627351292582,3.8591244142718972,-20.49316270575102,76.79869299543205
1138,83.64250992027303,4.092249286103755,-20.543159872574584,83.39746985682532
1139,90.13464512019415,4.233189929563413,-20.394476507973316,90.37157213926073
1140,96.99817076525511,4.236437017022364,-20.11689321486064,97.69936136140856
1141,104.18789841941545,4.064898745120491,-19.769987017365793,105.34107583042127
1142,111.36756926027067,3.7721103592186207,-19.469385710529917,112.96109047314562
1143,118.95210373455927,3.2069324193852022,-19.045507373468663,121.00593106604816
1144,127.01237989941248,2.32359424159425,-18.442563292554002,129.55473920828507
1145,135.379189477154,1.1535537531696718,-17.683583805401913,138.43392150099533
1146,143.7333486147158,-0.22066520056586136,-16.82702096464493,147.31244980444646
1147,151.69780906936091,-1.6895915952268763,-15.932974112682828,155.79024420778023
1148,158.91388935259957,-3.137306417230105,-15.045459160899235,163.47472879147767
1149,165.08212990402882,-4.459700057655141,-14.186472932443635,170.03439104233627
1150,169.98584155931303,-5.578718477475504,-13.366909500198997,175.2339434254242
1151,173.52031874073717,-6.445256724881935,-12.607042633990066,178.96690578018328
1152,1.8575273561329608,-0.7846478006173071,-0.030446955062853248,2.0061088659377857
1153,4.13229535159126,-1.7220115062634789,-0.113381300932211,4.430569586419665
1154,7.381885786775629,-3.077432477023975,-0.24739115277397197,7.891484914437185
1155,11.6037614425522,-4.867185155810138,-0.4670905930661615,12.389177188652589
1156,16.696338047611707,-7.074375823601685,-0.803728652095389,17.8204751801133
1157,22.459042314486314,-9.647411990452888,-1.2664277205711842,23.979222886317935
1158,28.612767727023726,-12.502719698695207,-1.8373525489115046,30.577060959318114
1159,34.844464998175496,-15.536566089793087,-2.4817589503231483,37.28448962710793
1160,40.86627692496599,-18.642862904192235,-3.161037614942821,43.79170867333076
1161,46.47794580273308,-21.736844553954977,-3.8387195324990255,49.87802657504432
1162,51.63814751758836,-24.78788841912859,-4.478396462655622,55.48914487817054
1163,56.258659845597464,-27.73518617563818,-5.056265528555206,60.51749377626236
1164,60.27626428353913,-30.522570134545752,-5.593678578638644,64.88842707002873
1165,63.658072621889836,-33.10101358189159,-6.155716717945834,68.56584325712872
1166,66.39185670953212,-35.431817179150165,-6.822182362951255,71.54102484116882
1167,68.4759338550705,-37.49035131612611,-7.667051043536051,73.82353494543233
1168,69.9181734189165,-39.265434086974196,-8.750810094108473,75.43724469314981
1169,70.73189836920997,-40.75628699097717,-10.111248760987772,76.41240836392244
1170,70.934598736302,-41.96878731908559,-11.744293517854612,76.77758901356802
1171,70.54832353633526,-42.91059906281867,-13.589357813925675,76.5538739537362
1172,69.59667643489361,-43.587773863155064,-15.549986505934758,75.7562650161225
1173,68.10585907813525,-44.00404694429102,-17.532246557978,74.40080071560566
1174,66.11179994752403,-44.163242616147016,-19.459757061988334,72.51417379377618
1175,63.66558640357218,-44.07280158814107,-21.27870775890983,70.14073885594404
1176,60.827079471374866,-43.743607429753006,-22.958069150719208,67.33743528672012
1177,57.65482389589657,-43.18877984492084,-24.481946068858964,64.16076815352838
1178,54.20816692779097,-42.42494218443478,-25.857650626907127,60.666992963167544
1179,50.554994080351676,-41.47228910287037,-27.12906164827295,56.92511690928742
1180,46.768060913910865,-40.35189252689244,-28.358133870028187,53.011190274833865
1181,42.91077902214442,-39.08655685975183,-29.583005472013767,48.98572984281135
1182,39.02398357639743,-37.7054518365565,-30.808634328997417,44.88130587828368
1183,35.12795644344812,-36.24325197834527,-32.029974786942944,40.71191782873073
1184,31.23730407495274,-34.73295631541527,-33.24053389478047,36.49002847885005
1185,27.3667326434138,-33.20054606835303,-34.424906568335864,32.2310966349303
1186,23.528511416554455,-31.665406612285068,-35.55135885399107,27.952381017744926
1187,19.732313979035467,-30.142491973205367,-36.576498977299615,23.67493506753802
1188,15.989645432447485,-28.6431794905149,-37.458693610301985,19.4268417756014
1189,12.320502565219375,-27.175550957549888,-38.15836196911568,15.243487788499056
1190,8.755120978548327,-25.745356168457363,-38.634113817995576,11.165936824951514
1191,5.32769879683809,-24.356051337069317,-38.85433669236606,7.238728307735143
1192,2.0648059931003018,-23.008300013552283,-38.807206684242374,3.5006948128056807
1193,-1.019110593089127,-21.699749870569782,-38.5130806660414,-0.020194904396181657
1194,-3.913873267662409,-20.42404214666843,-38.043069227392394,-3.301528161632186
1195,-6.607690161797625,-19.172213109174464,-37.49795685446453,-6.3282125982977995
1196,-9.093757507756962,-17.93606444636663,-36.95883971552493,-9.104031232985115
1197,-11.377403281069356,-16.711033290609283,-36.46771675357351,-11.652506353264998
1198,-13.47297453831688,-15.497535340890185,-36.03133605583931,-14.001852768287286
1199,-15.397646928500162,-14.29879318351135,-35.620097951806706,-16.173199343322274
1200,-17.168887655595466,-13.120727317583087,-35.175540139577265,-18.183685689463168
1201,-18.806492245888055,-11.97613271134346,-34.63072864935579,-20.056321836762116
1202,-20.33656708528877,-10.88537968123537,-33.9294999780667,-21.817287573248663
1203,-21.786978034899068,-9.869988491455722,-33.04122441814312,-23.480556526883486
1204,-23.175940075677783,-8.94322112631338,-31.960696290215747,-25.03917418088946
1205,-24.509311049590067,-8.109226162770002,-30.69551621719148,-26.472660234585618
1206,-25.785889162642533,-7.369017650065292,-29.266232127030403,-27.76095993693003
1207,-27.00183859201142,-6.720398394215105,-27.721398743462565,-28.89265887519254
1208,-28.1540545343194,-6.155231205853272,-26.134802414634947,-29.869839217397693
1209,-29.23845598982722,-5.660685160031984,-24.58179406893878,-30.703348812371658
1210,-30.24280468313269,-5.222599652115431,-23.125325986717275,-31.399272525240498
1211,-31.152203755201878,-4.829516782107586,-21.807360319437567,-31.963422114916515
1212,-31.96673463520105,-4.475085089820357,-20.645593667195353,-32.4174484345666
1213,-32.70462580370741,-4.1566737785650325,-19.640909601981704,-32.79763615179449
1214,-33.388524722411574,-3.8728523426618637,-18.777491482115355,-33.14119948637006
1215,-34.03442312745253,-3.6237978912474196,-18.02121608021645,-33.478563532358265
1216,-34.648038330609225,-3.4134821872027534,-17.32777353785363,-33.83256728279101
1217,-35.22747095538989,-3.249102022864438,-16.650795062714476,-34.21640656212863
1218,-35.769373502419114,-3.1376677969097977,-15.943085284538313,-34.63139659533485
1219,-36.27085718863294,-3.084068935150894,-15.157946632118252,-35.06985790543707
1220,-36.730017279030506,-3.0921888496078713,-14.266178166229793,-35.522507989558775
1221,-37.14782220257248,-3.1659190358895515,-13.282391413407815,-35.98061800062065
1222,-37.52711850822226,-3.3057703424396143,-12.265433633339775,-36.43272853531549
1223,-37.87159050591334,-3.501778610663092,-11.289325452372923,-36.866006998626176
1224,-38.1818426892507,-3.7330715134721313,-10.421502271660163,-37.26886867575195
1225,-38.44941969657161,-3.9749818003648683,-9.71692864325744,-37.63159726177206
1226,-38.65938394148837,-4.204003507581333,-9.207942882364865,-37.948269130811106
1227,-38.798884943244275,-4.399942166416956,-8.891105170496951,-38.21988895140811
1228,-38.85969334301738,-4.547099082222558,-8.725607385043395,-38.450230578129386
1229,-38.832332469551446,-4.634543819323302,-8.646102150443804,-38.63450052228002
1230,-38.705729349596126,-4.656334861437768,-8.57984693347116,-38.75972143437271
1231,-38.47170880726028,-4.611750706644422,-8.45689549460996,-38.81345789442627
1232,-38.13316515546128,-4.504395766511839,-8.22208144987073,-38.78774439128116
1233,-37.71316771973842,-4.339755668387672,-7.852843223488492,-38.6807499125526
1234,-37.24960138584451,-4.1243940968217485,-7.362921944325128,-38.496760934758235
1235,-36.77872568859615,-3.8672911383332873,-6.796490077052656,-38.241892027568404
1236,-36.323079209112784,-3.5790552542082317,-6.222999515936121,-37.919302698873075
1237,-35.89081290305204,-3.269289071391531,-5.717737926950764,-37.53402753346299
1238,-35.4830517076831,-2.9444357695462964,-5.326029822246979,-37.09861160480054
1239,-35.10357306036333,-2.60702714084287,-5.048472650020695,-36.62955535384172
1240,-34.754907704016176,-2.2572661205052995,-4.860034420388308,-36.13994976278616
1241,-34.4299631158333,-1.8949218813496733,-4.7208121201043864,-35.635052185911896
1242,-34.1204960762617,-1.5188879316118915,-4.579508030236819,-35.11472813832973
1243,-33.82439111366404,-1.1261437407474366,-4.398796684250239,-34.57808987129554
1244,-33.54282607762889,-0.7132835122843951,-4.178031739584083,-34.02791095456486
1245,-33.27606228547763,-0.27886868812980686,-3.941270663637435,-33.470766871725104
1246,-33.019046991276895,0.17583426726977594,-3.716576928423345,-32.91391808745262
1247,-32.76205083240577,0.6459317776896916,-3.5280210011885744,-32.36530776596102
1248,-32.49538506000598,1.1219001198958054,-3.3835973190792683,-31.83338923006976
1249,-32.208144865791134,1.5908937273130481,-3.267767264180292,-31.324986067926158
1250,-31.881262757153277,2.0386947963339055,-3.145256930969375,-30.843015534897255
1251,-31.492004270067376,2.4502403988904544,-2.968824488299543,-30.38585514676202
1252,-31.026550750094145,2.8136792730156737,-2.6911480922556255,-29.94885867572279
1253,-30.487908872476044,3.127279716522498,-2.2766165502218434,-29.52736965159739
1254,-29.89746751195207,3.4000754964868443,-1.7119164321033415,-29.115878697300282
1255,-29.281391938787568,3.646884886350538,-1.0141239794009622,-28.702302277617914
1256,-28.652580737809995,3.882855222490909,-0.23249274805729664,-28.268543893576826
1257,-28.01101569565717,4.120616548770076,0.5617419727015873,-27.798870476404307
1258,-27.35882489522699,4.3696189741460625,1.2935325399701054,-27.288063713117555
1259,-26.70479494137541,4.63476291465992,1.904527632360071,-26.74333907613869
1260,-26.053947165104567,4.9150279111926025,2.3724532907176075,-26.1771044743286
1261,-25.400902708001304,5.204215314651284,2.7127901407042327,-25.59797753567226
1262,-24.736788076847017,5.49366076792074,2.959004585554058,-25.012685759500307
1263,-24.06142082027046,5.774113687415704,3.137798036665194,-24.43306267480342
1264,-23.388369004626153,6.037548729998964,3.268377720130538,-23.87472775617428
1265,-22.73744650783439,6.2805946131860475,3.380019334284883,-23.350048185854245
1266,-22.12214333222016,6.506368137166966,3.515315914823679,-22.861644891006527
1267,-21.547600363338244,6.723506499648783,3.709913299676475,-22.39928732686629
1268,-21.0139120953759,6.944055601015082,3.9617088324547804,-21.942297196519043
1269,-20.520182051666048,7.179608920584385,4.233116163012158,-21.469459403968028
1270,-20.089006312778636,7.415578395147974,4.433345419659854,-20.993362599448133
1271,-19.709505486714587,7.67648152915279,4.591177260422917,-20.479932060432184
1272,-19.37045929119199,7.969212123325121,4.716937322520276,-19.921099265865813
1273,-19.069117429689435,8.289809246370618,4.808738391484049,-19.328567812414008
1274,-18.81083559603259,8.626419710763155,4.865983962050367,-18.72765916851423
1275,-18.599942798180013,8.961639028070783,4.898533166642199,-18.15081496560488
1276,-18.436006631277348,9.276099079210857,4.926431613150421,-17.63092959668956
1277,-18.315978604833926,9.552757298532713,4.970946715318566,-17.19582951442057
1278,-18.23762322633209,9.779436985254724,5.046597440950417,-16.863802127145366
1279,-18.197757533401493,9.949406780869223,5.158398697547348,-16.639610174661232
1280,-0.11634048605923789,-0.38059916419708334,-0.4155912778010299,-0.0298868312022553
1281,-0.3655549262706219,-0.9616672218716056,-0.9382764520856506,-0.09817435373837236
1282,-0.7354291784573632,-1.816088445925317,-1.7393929547660572,-0.2198061837879377
1283,-1.2205787954845073,-2.9458678338707505,-2.8485781011751024,-0.40105513772433943
1284,-1.803636797840757,-4.327327627953657,-4.264608237281392,-0.6440279821357368
1285,-2.4574672778417526,-5.913722851934221,-5.9636415270480505,-0.9468465384154924
1286,-3.1454699723779465,-7.642729432292393,-7.90659714379298,-1.3020285578865485
1287,-3.821803047528442,-9.448291601997372,-10.042235867780049,-1.6971763921108707
1288,-4.440482231496873,-11.271742096450122,-12.314534314434482,-2.117972307912198
1289,-4.97106820291072,-13.072398019238786,-14.674422088564457,-2.551855203248848
1290,-5.411311899397685,-14.8424325876992,-17.092879777278696,-2.9896582942015226
1291,-5.773910933112586,-16.565122410787502,-19.502958478605823,-3.41658224756045
1292,-6.075108075851214,-18.221898459231422,-21.819307678348235,-3.8178507383914244
1293,-6.329769420361901,-19.788898050032568,-23.95502960008057,-4.187918402183503
1294,-6.553313435260181,-21.23857527064268,-25.838346939767817,-4.534425363929537
1295,-6.760939603608463,-22.541485042939023,-27.417424283393764,-4.870859975349242
1296,-6.962552968326367,-23.6708080448284,-28.659653410974897,-5.2080397074341835
1297,-7.156433215839317,-24.610339141034345,-29.55108415414813,-5.549011391658282
1298,-7.334807691092929,-25.360943340552303,-30.098054713048626,-5.888287306066974
1299,-7.4955984203916115,-25.94060716279666,-30.329890218548286,-6.220285967562089
1300,-7.646629761713101,-26.379524107563636,-30.300728584761096,-6.547329752225205
1301,-7.80082866206553,-26.712388276314396,-30.09140387355002,-6.874245553074201
1302,-7.968730546161355,-26.96907002544677,-29.802457085388387,-7.199911795812346
1303,-8.157640475402143,-27.16804836632499,-29.53290470250524,-7.5184542623865545
1304,-8.376886690347105,-27.3122126281634,-29.35853660832782,-7.823994562494983
1305,-8.63923253898398,-27.38861146091156,-29.314960663133935,-8.110083828954792
1306,-8.949688994627566,-27.376423958440917,-29.394671860294608,-8.368200987036253
1307,-9.29481671090191,-27.256219066436316,-29.563484190488857,-8.589428111228738
1308,-9.648698260151184,-27.01457642013146,-29.775514172249476,-8.765915353739649
1309,-9.984432341509343,-26.647308140904325,-29.975422958568664,-8.888361988180584
1310,-10.279563804474229,-26.16020813633288,-30.094750027525272,-8.940190398609543
1311,-10.517670050441529,-25.565331143706317,-30.05914784219282,-8.89916125669957
1312,-10.691211661993378,-24.877309455274215,-29.80950480044066,-8.749678494521536
1313,-10.803051269086408,-24.1118184494904,-29.31708985620556,-8.490647738372314
1314,-10.864374049019364,-23.28497842309417,-28.58366155764796,-8.131875489572181
1315,-10.890092263601382,-22.412014646990386,-27.637110502532394,-7.689639579764747
1316,-10.89062111094509,-21.507188713465965,-26.52962277664957,-7.183498476195207
1317,-10.86865157010458,-20.58576485627517,-25.327555266458546,-6.630979156922985
1318,-10.825431232795395,-19.66528482602032,-24.089496901208506,-6.052233265798138
1319,-10.768145612258598,-18.767086633019677,-22.84898179040402,-5.4822598934455105
1320,-10.7086366291605,-17.91570909027951,-21.620918972952218,-4.964200550803592
1321,-10.651911239829719,-17.13542221083477,-20.419335108434666,-4.527547243174776
1322,-10.587045289776253,-16.4474829149755,-19.26024506048287,-4.177278694732308
1323,-10.493149862998367,-15.866487082098402,-18.154629835886777,-3.8994173135562957
1324,-10.354863967863952,-15.395414449139482,-17.10034554978534,-3.6702560266892887
1325,-10.168492898671701,-15.024318236417555,-16.090145088866823,-3.463040185481189
1326,-9.934261279926927,-14.73368808435223,-15.134123727113993,-3.2538018608484847
1327,-9.649422882748098,-14.500417831484715,-14.264985082353814,-3.02516983472382
1328,-9.30884183450017,-14.303939061663938,-13.526064472879705,-2.7669179014135077
1329,-8.911594120638519,-14.12797874818374,-12.952970839334892,-2.47555712741509
1330,-8.4709402194379,-13.958876559854154,-12.55805061487707,-2.158637536347548
1331,-8.019453839857562,-13.784415930989324,-12.327399614439996,-1.8412640222856946
1332,-7.599896135324101,-13.594087868099594,-12.231685945445605,-1.5614907527144914
1333,-7.2454714214287534,-13.380896375815091,-12.24221434005926,-1.3551287758291655
1334,-6.974781084210374,-13.142909534442389,-12.33248457862073,-1.248393148402112
1335,-6.801977491775758,-12.883314582785273,-12.470180376724004,-1.260106480264506
1336,-6.737370051758168,-12.609286039876906,-12.618396720400067,-1.4011302342697152
1337,-6.7790851884830445,-12.330223976123529,-12.743017212300742,-1.6741923574192088
1338,-6.9088496457914,-12.05598585203255,-12.818418692304018,-2.079222415612348
1339,-7.097937416488468,-11.795304644589484,-12.834488699169677,-2.614346256706487
1340,-7.314209683586241,-11.554119954166815,-12.803597247995873,-3.2712179729489392
1341,-7.522243457415822,-11.333882921277871,-12.759906621366861,-4.028407656793596
1342,-7.685490845273386,-11.130174716052926,-12.74187198195385,-4.84609164446811
1343,-7.773886093477475,-10.932332348805554,-12.761368270338762,-5.674261298086208
1344,-7.773247521043078,-10.724991662054789,-12.79380922395305,-6.469030733117829
1345,-7.68726010840887,-10.492269993870096,-12.795730337929015,-7.197897303825097
1346,-7.529258902462715,-10.222652641673802,-12.724728787705379,-7.8365201430077
1347,-7.312914113124202,-9.910266199373902,-12.558945747802388,-8.36724232810396
1348,-7.047508657134423,-9.555061295751395,-12.30705486204243,-8.78077182085457
1349,-6.741311140031239,-9.164100323628274,-11.999713765387549,-9.07878088324461
1350,-6.406943014931983,-8.750214714628731,-11.666621510481848,-9.275023858499097
1351,-6.058206210429291,-8.32885467879731,-11.317735045288329,-9.388207056569232
1352,-5.699246899982916,-7.914114554386368,-10.949113031304444,-9.426269272143228
1353,-5.321468533863808,-7.514324171732896,-10.553124508197033,-9.383983125447894
1354,-4.916646118282352,-7.131552087677737,-10.117032280954115,-9.257197555956793
1355,-4.4911486356181705,-6.764927696926806,-9.624891662604718,-9.051131116912204
1356,-4.065514000095643,-6.412760362344142,-9.0633847917076,-8.7774183649479
1357,-3.663458206359564,-6.071932068724459,-8.423202384052665,-8.449252791459697
1358,-3.3039626427744566,-5.737313158337606,-7.6988424924080885,-8.081982113210909
1359,-3.000593057016439,-5.402688816407244,-6.890376643195129,-7.698876942317042
1360,-2.763818201565776,-5.062457828741381,-6.008856261746328,-7.325293200057809
1361,-2.6001537752309005,-4.711993567990982,-5.085346170038694,-6.972702170544487
1362,-2.501532972640373,-4.347077413788961,-4.175064306588917,-6.634443711072135
1363,-2.434568746883763,-3.965062651160595,-3.346476073763546,-6.29033696179046
1364,-2.353150215349743,-3.5668504274415,-2.657077233974137,-5.916580332234402
1365,-2.224378912338153,-3.15523912847982,-2.1263190247514907,-5.5004137718464765
1366,-2.0385617088806725,-2.7301528008857026,-1.726252717247264,-5.045493720705522
1367,-1.8034660707486272,-2.289100902214958,-1.3998932920279596,-4.569904547296027
1368,-1.53795264477644,-1.8323801645971278,-1.0954351546378616,-4.102250700563074
1369,-1.2701526230454652,-1.3663221447076044,-0.7926632149570183,-3.675588272100944
1370,-1.036749875449598,-0.9048796897821628,-0.5015873060001619,-3.3211461860128475
1371,-0.8773813649270232,-0.4686097698143565,-0.2470323130197907,-3.0606501141699596
1372,-0.8207854744521574,-0.07968038504010025,-0.052374382669471864,-2.905191770836824
1373,-0.8739725622774763,0.2414625562135797,0.07694443354122325,-2.8596149803980104
1374,-1.0264520972301674,0.4771864628688669,0.15394046782066306,-2.921873831523691
1375,-1.260799931953895,0.6157854563410443,0.1962328767739936,-3.0813710223445856
1376,-1.558178308987331,0.6530954736084226,0.21446290624038994,-3.320715554607906
1377,-1.896173450429788,0.5919819437826612,0.21158554394094758,-3.619370151365496
1378,-2.2479269845735557,0.44115378116658277,0.20065986535920244,-3.958069287137986
1379,-2.594769861247548,0.21234093137568882,0.2283584414643312,-4.325213864892345
1380,-2.9391578737418045,-0.07991946849920432,0.359458157443011,-4.724382397572589
1381,-3.2938952041677814,-0.41682494607585996,0.6249250324088522,-5.1661966543724445
1382,-3.6567490796528013,-0.7772471193954026,0.995481299564152,-5.646234344763654
1383,-4.009800026198994,-1.1420207949593824,1.3967309472305596,-6.141710875282435
1384,-4.339095644071676,-1.4953503847336276,1.74285813156738,-6.625900060549204
1385,-4.637712544684156,-1.8225513722454054,1.9690127143929501,-7.074004027196439
1386,-4.896412144217458,-2.1087136274536697,2.0529687889339625,-7.470074706052357
1387,-5.097907544084241,-2.3392995976668938,2.019974223759102,-7.821036533279095
1388,-5.217666527216482,-2.501582381339905,1.920134818568364,-8.144347841802109
1389,-5.230626329149309,-2.5855556966106596,1.798574951997808,-8.439837740738911
1390,-5.117756146952553,-2.5842703793195905,1.6838435683016348,-8.686585840247094
1391,-4.864740551956554,-2.4950116914388127,1.5968281559808766,-8.856097336233088
1392,-4.455684970735303,-2.3216742320897463,1.565813899981058,-8.922741838663937
1393,-3.874640010661397,-2.075754039855117,1.6213536093503065,-8.871059877635027
1394,-3.117355337896546,-1.775434496278354,1.779927391415851,-8.70058879019963
1395,-2.1975850940865187,-1.44568349880374,2.0334282358028393,-8.432738302506246
1396,-1.1362484236498898,-1.115997928485718,2.3444370138514747,-8.11403776088095
1397,0.048964570883362146,-0.8150860578026586,2.660932608653493,-7.800683844800832
1398,1.3328288709149272,-0.569099527328546,2.9333249494345512,-7.545625056963635
1399,2.7000166603950317,-0.39012360881289126,3.1648473279838427,-7.3940184386485654
1400,4.10025515205683,-0.28078708962126653,3.3623177271612184,-7.3746649478102615
1401,5.472784854832923,-0.2348372634905744,3.524891250867529,-7.493906039090595
1402,6.759227644847494,-0.23944446869052635,3.647398479201015,-7.7328677808514
1403,7.905304698993449,-0.27755172070739303,3.725187231342088,-8.049014799664143
1404,8.866921312582706,-0.3300521856427365,3.757052764194768,-8.380394333771857
1405,9.617667419743135,-0.3787144480566557,3.7503869995575836,-8.663289726406418
1406,10.151112971144192,-0.41036824644976944,3.725686424534714,-8.862932913498433
1407,10.480739917808465,-0.42043319586101396,3.70922923695653,-8.978165017052966
1408,-0.3728956465477248,-0.5743233299696211,-0.3386146771201114,-0.3303809229154496
1409,-0.7321512327888248,-1.204078632851996,-0.9327618735080541,-0.7582647530365065
1410,-1.2111010069905517,-2.094738950157316,-1.8320486466439942,-1.3571547250630156
1411,-1.8057257551043924,-3.2537372342750164,-3.058154053598955,-2.1237321641989872
1412,-2.5109122985588646,-4.666540385657396,-4.615256696467142,-3.0450864658106855
1413,-3.3162822067688715,-6.294965236696255,-6.470327436375411,-4.097313925127027
1414,-4.201222686062513,-8.081082829327078,-8.55215177231959,-5.239657411540705
1415,-5.139347274943108,-9.957692578476328,-10.767486552799797,-6.420914599150356
1416,-6.111918974625228,-11.862114654387351,-13.016641017698415,-7.598250060473423
1417,-7.116286921874964,-13.752390919352552,-15.207547164340836,-8.75111063698122
1418,-8.170634600027242,-15.627613107947628,-17.280874490562237,-9.890254106732405
1419,-9.269362326445034,-17.463634663489852,-19.183260090003927,-11.020561907468101
1420,-10.39215852621446,-19.232360625937893,-20.888304986606517,-12.138168684564732
1421,-11.509120766354092,-20.902997031063276,-22.397276705499117,-13.224811438565869
1422,-12.590806167708942,-22.445030767744473,-23.730587306328434,-14.255751019014514
1423,-13.61381063654219,-23.835267393984378,-24.907677769124874,-15.21062924095947
1424,-14.558603852552283,-25.062704332633135,-25.927460023529232,-16.076432943223196
1425,-15.406602720889751,-26.122807256209356,-26.776934214593968,-16.845308904060165
1426,-16.144567519416317,-27.00820037515334,-27.461641890878315,-17.512978048251817
1427,-16.768553937321293,-27.706929660061494,-28.011517485940047,-18.077993004784528
1428,-17.277967927355895,-28.20935957574413,-28.455985281117556,-18.539467102670123
1429,-17.67291300454719,-28.515562782828795,-28.813672579720194,-18.8923683243475
1430,-17.95967382534519,-28.636890583092647,-29.102957695185577,-19.12674026378784
1431,-18.15367842183808,-28.593096045777905,-29.33940115614429,-19.23436445003502
1432,-18.277469313039482,-28.40803831770739,-29.524854497184208,-19.21106914478744
1433,-18.350455673359797,-28.105549668525473,-29.648046160547405,-19.05069166689386
1434,-18.381372318037265,-27.70690821691238,-29.692253869169654,-18.746650256288206
1435,-18.374022586837548,-27.230096980472133,-29.638776985257728,-18.301823330447718
1436,-18.334088033508056,-26.690249013959416,-29.466389623245934,-17.732798627121582
1437,-18.270637727569405,-26.09982713575516,-29.151674706792548,-17.06913726980446
1438,-18.1935811599807,-25.467640314996935,-28.670075235259585,-16.350576465122764
1439,-18.10643180140669,-24.79958730894818,-28.011365683508686,-15.614714962903953
1440,-18.001932120301337,-24.09866679709966,-27.205366461877766,-14.883537371243907
1441,-17.8699585163979,-23.362476795259376,-26.327847037323806,-14.166438763653282
1442,-17.708118135306727,-22.588794970896142,-25.471808906437506,-13.471089257393068
1443,-17.52146851027212,-21.78832456658618,-24.699963932379813,-12.805143730043929
1444,-17.314705830252944,-20.986030754112274,-24.018958171030697,-12.171805708647994
1445,-17.087910377206747,-20.211612427709042,-23.397326261060897,-11.570553168807056
1446,-16.83891368026716,-19.493016379145775,-22.799282102964625,-11.003944243830468
1447,-16.56418768959874,-18.85202511247306,-22.197992724416537,-10.481804100798222
1448,-16.257485393186094,-18.298489198828847,-21.571104272305178,-10.015954586759392
1449,-15.908572862242911,-17.828903830060078,-20.896980053859135,-9.611227554734853
1450,-15.502338355698303,-17.431235029568235,-20.16205579650057,-9.260975622760332
1451,-15.027661646688259,-17.09041874398722,-19.36594071696706,-8.948961695159717
1452,-14.488723516849227,-16.79270139658278,-18.511949030123095,-8.657682165592307
1453,-13.897792273457357,-16.52288529228972,-17.603585778242863,-8.367196544302285
1454,-13.259916273049663,-16.257186911666917,-16.659960184800156,-8.046185719762224
1455,-12.572472091208828,-15.967440652948948,-15.730609754635838,-7.654641587607619
1456,-11.834095759142341,-15.630607075223027,-14.877768291895428,-7.153140665529395
1457,-11.056372769770208,-15.233748892018108,-14.138028638589606,-6.519769975218829
1458,-10.271531493898252,-14.77693308350056,-13.507125233773534,-5.762949149935034
1459,-9.51794134528218,-14.270095670592509,-12.952016114764124,-4.910450849473164
1460,-8.820313390499969,-13.72554148859196,-12.437350898329889,-3.9990778653341934
1461,-8.188227014771645,-13.156911046455,-11.950074813726259,-3.0750887830651172
1462,-7.622564881390808,-12.579752763581299,-11.492544009128457,-2.1870231433718996
1463,-7.120991137170492,-12.005639702949958,-11.058327276886311,-1.3775979469678925
1464,-6.676918092724402,-11.441570627243356,-10.632752786166007,-0.6782773428625501
1465,-6.273421934976349,-10.89657215806891,-10.211284316073133,-0.10465567174594148
1466,-5.889058385867364,-10.38219716218169,-9.805452418740613,0.33770289633699413
1467,-5.51104984195558,-9.906493475339925,-9.437325638410275,0.6459747843066775
1468,-5.140195806450572,-9.47015400790827,-9.134955381389503,0.818615628332947
1469,-4.7843075141204405,-9.066345279572435,-8.930527559503595,0.8552819413616095
1470,-4.453990127556832,-8.685880409024374,-8.848801781369957,0.7540703834063842
1471,-4.176061457199382,-8.327869453908564,-8.882663946298416,0.4987677264413186
1472,-3.999609455982586,-7.9987597149366305,-8.984495793056576,0.05451947927538153
1473,-3.9773473816660916,-7.699968388128548,-9.090952129661476,-0.6172725859389292
1474,-4.145072722352528,-7.424805617000549,-9.158011982556689,-1.5415235073638476
1475,-4.5101562138078695,-7.161789579845338,-9.171806928110199,-2.715249736167861
1476,-5.057124288751659,-6.895806274660987,-9.140157050660099,-4.109697998017748
