,TP9,AF7,AF8,TP10
0,-0.5338194433397145,-0.1661677975615207,-0.4095253287957211,-0.5490034677050333
1,-1.303219028181068,-0.40126278205417876,-0.9458200811816919,-1.197564459060733
2,-2.3850725706441933,-0.7284095266416616,-1.7237213115772478,-2.0935225826101016
3,-3.81117054802751,-1.133300121899321,-2.755998394460605,-3.218966025266524
4,-5.556704517376208,-1.5939688788721829,-4.025458000785742,-4.536316026558698
5,-7.522000433736312,-2.0816016869353584,-5.486509250015107,-5.991521117757536
6,-9.572812778144577,-2.5582348424498913,-7.084169381499423,-7.5167655064622725
7,-11.601428766317945,-2.984283730222357,-8.769806247869896,-9.044133407057966
8,-13.548711705672014,-3.3344335230493365,-10.505025417269215,-10.532281234309409
9,-15.388704214817501,-3.6043534710821272,-12.263135780939765,-11.986649078879754
10,-17.12995882594722,-3.809922054891871,-14.041384812502734,-13.464484209640549
11,-18.780561700110894,-3.9651359638337778,-15.821591020490692,-14.992045741963146
12,-20.388131447149554,-4.089348542553527,-17.588934702486934,-16.577937746783373
13,-22.01655534236443,-4.203287447553093,-19.323792614929427,-18.220840489366353
14,-23.69441477876371,-4.318715958886314,-20.99604471048266,-19.907263792216835
15,-25.392587773341248,-4.431304616763494,-22.570766668549723,-21.60068400912611
16,-27.07929912777807,-4.526121603673828,-24.017498036419102,-23.244586679088055
17,-28.772880651419573,-4.594152846506722,-25.316190978078303,-24.786252542746624
18,-30.5058113321358,-4.641723125624393,-26.45061407219121,-26.185267401366495
19,-32.260720949032596,-4.6833193092576035,-27.40029636326115,-27.405040095307804
20,-33.967141087432296,-4.730852534763216,-28.146393105662096,-28.41808772760723
21,-35.57506742482555,-4.787968680951351,-28.685014087646117,-29.214352043059073
22,-37.093109710710316,-4.850752573704278,-29.02796522594146,-29.800675121312327
23,-38.53804909596371,-4.913997660194693,-29.187860954649675,-30.19914538533131
24,-39.87975634050555,-4.973698027109527,-29.171331389335418,-30.44208884406982
25,-41.040572237240134,-5.021348330192995,-28.98399615803552,-30.557859489521896
26,-41.95089117016903,-5.042961210175632,-28.641806904055834,-30.56440087101141
27,-42.59072352527577,-5.031052173416005,-28.180227865315185,-30.481795755485248
28,-42.98449377687032,-4.993291054533695,-27.644868251006006,-30.344097521048276
29,-43.16137061787358,-4.947472794765102,-27.070642013081375,-30.192737870295183
30,-43.115772821176485,-4.9150144739640975,-26.470155194933973,-30.05379866303334
31,-42.8423063776542,-4.921310249946574,-25.844573710264303,-29.925743491183134
32,-42.39179451424249,-4.996497906934572,-25.200084626882614,-29.7960036670803
33,-41.85917522987946,-5.166088135047494,-24.547626681883877,-29.66330143157186
34,-41.31677377557347,-5.435150243388212,-23.892606932533475,-29.541240254946533
35,-40.77954846477068,-5.786856419078126,-23.233362734449443,-29.447527215272313
36,-40.24912871517652,-6.199412833452943,-22.575765448817727,-29.394578089164888
37,-39.75559407482582,-6.657830264120671,-21.942268817030673,-29.387116171347316
38,-39.34729598855693,-7.154475525405182,-21.357297614383565,-29.425248653186653
39,-39.04663553354881,-7.688913278152436,-20.843843254822374,-29.510828276701844
40,-38.82730550146041,-8.26412271973705,-20.439910492653645,-29.648197550131187
41,-38.64573139264351,-8.876418593260663,-20.191337868226835,-29.835406565296758
42,-38.47637268220227,-9.506986151711573,-20.127201541595916,-30.05468432182046
43,-38.32145224017413,-10.12420785730998,-20.240928216337476,-30.278078725373522
44,-38.1767113821724,-10.693086569903661,-20.478625995671216,-30.482621417652567
45,-37.994324335486915,-11.181931056105704,-20.74899185367656,-30.64936128896724
46,-37.70326115381769,-11.566169931079376,-20.950990286912,-30.755063758463507
47,-37.26602202150443,-11.831528504718316,-20.991630581683637,-30.780711941187292
48,-36.705924337890536,-11.973040038881901,-20.786424433470913,-30.72568872526058
49,-36.04810041633865,-11.990187336048322,-20.257979352859753,-30.6009876477059
50,-35.26898133286461,-11.881861093533098,-19.355571563303393,-30.406319564338347
51,-34.330338008958435,-11.647563504031186,-18.071776347982937,-30.12594104571204
52,-33.23392564166723,-11.290723276622778,-16.42581542356342,-29.74466339102502
53,-32.03944333228591,-10.816473192702743,-14.452715243315781,-29.260111883011298
54,-30.815798967043825,-10.235550618658793,-12.207034116155452,-28.685723047452697
55,-29.596474744531463,-9.57030894525399,-9.76099147790969,-28.044850826286762
56,-28.393079294916273,-8.851022553416666,-7.204228130153224,-27.36250524241121
57,-27.23049608139114,-8.114878836716047,-4.637492486633389,-26.660670114695144
58,-26.16292903725152,-7.407838852685754,-2.1725479643049743,-25.96172061531857
59,-25.241011244237814,-6.779606920444699,0.0618859297528164,-25.296757006960487
60,-24.461135999123382,-6.272423144182262,1.9401866984917602,-24.698185488132044
61,-23.752906824385434,-5.906751740905822,3.365463573239144,-24.175745886052106
62,-23.043478592165915,-5.6734381511402185,4.276093244174992,-23.70809507024415
63,-22.31998282528044,-5.539641897121577,4.642266057403395,-23.26412277333103
64,-21.601547690385733,-5.4622326645972645,4.469755903413178,-22.82112498453207
65,-20.88483626233019,-5.397509318248018,3.809164787725172,-22.362460388954975
66,-20.139283724916073,-5.309819935113664,2.7510692612342655,-21.87571387915426
67,-19.363969074071004,-5.182460567462656,1.4055875966331155,-21.355959608027963
68,-18.615435890781466,-5.02159542547059,-0.12567820656325485,-20.805851217332926
69,-17.955046926758563,-4.846246434259649,-1.774577770934663,-20.23198608697708
70,-17.398946838377867,-4.677986646362952,-3.5048436189403116,-19.64196886708431
71,-16.919394897840924,-4.5394277993982035,-5.287434708723105,-19.044991945957143
72,-16.489263214869897,-4.45166108801836,-7.097394305627917,-18.450146759773297
73,-16.11032269750202,-4.4280857392890285,-8.921441823264761,-17.861073588077932
74,-15.797947046684678,-4.471179867513427,-10.745141363387733,-17.276313365400473
75,-15.548023473104505,-4.577583470479018,-12.543158379668649,-16.695262839303393
76,-15.315934234740944,-4.739983500428583,-14.282229168485994,-16.11523004964859
77,-15.059323214355558,-4.938994025989944,-15.930167773801216,-15.527377205434234
78,-14.792582861820526,-5.142892307203681,-17.464731923191714,-14.927650997133828
79,-14.568797096413194,-5.318733412637701,-18.86798373085015,-14.32709537979453
80,-14.408129300944987,-5.43818643450567,-20.11323106109717,-13.742388549806826
81,-14.263487453463194,-5.475814543818252,-21.163314247056235,-13.176281727956074
82,-14.078422526026468,-5.409562644345987,-21.989854249612502,-12.615368997247591
83,-13.84008969840309,-5.2248449056672,-22.59080120001603,-12.043549458560202
84,-13.556620084071342,-4.916453359288976,-22.979793995710615,-11.447817195736016
85,-13.20799413362515,-4.48673436622653,-23.16740372606734,-10.813333609678914
86,-12.731733912128808,-3.9403998504230016,-23.156579922576558,-10.116441121300147
87,-12.06198410732574,-3.278696470072325,-22.952814584448188,-9.323347133961459
88,-11.16667085044044,-2.5001199998313175,-22.57230158017227,-8.392234935424304
89,-10.052233757952049,-1.6080095837102444,-22.036162241320834,-7.286107212207366
90,-8.7316750300437,-0.6155479411183455,-21.357779990586376,-5.994306310926598
91,-7.1909599628141105,0.4573590117356949,-20.536403068025717,-4.532417475879636
92,-5.412658505386567,1.590602446396359,-19.56887501333654,-2.923364749293476
93,-3.426914672578857,2.7649119815114025,-18.46568030495402,-1.194647870010052
94,-1.324606722317876,3.956910424918548,-17.25340567718381,0.6083439258951631
95,0.8089685670045467,5.143815968752032,-15.960568989465983,2.4309984270856027
96,2.9579250363228122,6.316555644177261,-14.60468174951864,4.236853297892135
97,5.140390032681677,7.478910073255873,-13.202032753078333,6.013937280790648
98,7.340249379592842,8.63598983758073,-11.778735724490097,7.761231760002714
99,9.493717747889887,9.78992363894994,-10.362820005837207,9.479000096055936
100,11.547339893732786,10.9409166804211,-8.967407463196395,11.166255051935444
101,13.495609544379889,12.08611797685705,-7.587623426066277,12.817636064513719
102,15.34968702992948,13.219246426303265,-6.216666162575383,14.423554827649733
103,17.098171025955782,14.330568392433547,-4.855779675528381,15.973467091434635
104,18.69081161530077,15.402890584138214,-3.5138419532767173,17.452959763647858
105,20.065152673720917,16.410293821623206,-2.201658559598251,18.836275515171625
106,21.18833617668953,17.325694219841623,-0.9278108291586993,20.082843240465483
107,22.07257658710861,18.12746389307663,0.2962405771477373,21.153331030476874
108,22.735853413032423,18.79738433851806,1.452105238484238,22.0280046054991
109,23.159112211743984,19.318091326233404,2.5179421524219023,22.699125503966826
110,23.325666087765313,19.67178783635679,3.4818384183012645,23.161636166708504
111,23.271948411102017,19.838887746101726,4.349721650942395,23.41800663067639
112,23.07430850231074,19.800110188979694,5.133160648372814,23.47701730574989
113,22.782013849618046,19.538737454736086,5.831781119003151,23.342801233878795
114,22.37838756237235,19.046943497315564,6.431193981800135,23.01553359854417
115,21.840819491053075,18.336947518441157,6.919284443643796,22.50417260435475
116,21.200893518003433,17.44031376607572,7.295112304308786,21.830086155027974
117,20.52714605737687,16.396124335221536,7.56258013145269,21.021875547541256
118,19.895208556737046,15.284151701581507,7.7368234905799875,20.130980205613955
119,19.27198166751528,14.067069083602682,7.7922041214896405,19.147018431179784
120,18.649626018087705,12.754390855890211,7.725618610126847,18.086682108777513
121,18.058445912246892,11.38778857345126,7.557098887260367,16.98712807103166
122,17.543644117536566,10.030319743017078,7.32095145604879,15.904716086325791
123,17.125368294411523,8.750558948041558,7.052298345178999,14.905331101382846
124,16.786736798229743,7.606911525361705,6.781279084681793,14.046147957742622
125,16.503088591433194,6.64092759093246,6.534486989455311,13.3576634564057
126,16.280580591659383,5.8778053095611345,6.333773978636035,12.843943749550586
127,16.143270094041835,5.326193498382056,6.191506223202798,12.49745890698642
128,-0.3426514919221971,0.01258572270927745,-0.7024492944404661,-0.3665114860408112
129,-1.1321866016774744,-0.09006816946546485,-1.493452072853901,-0.9300622815877646
130,-2.351335489411271,-0.2556906752767769,-2.600117744935417,-1.7745497397616137
131,-4.0545563259050965,-0.478581116635815,-4.023435991309904,-2.9136396697242457
132,-6.229355785964093,-0.7453124697993251,-5.732352077858479,-4.341743437092145
133,-8.795974208420594,-1.0386695971162287,-7.670822652348046,-6.032811187435892
134,-11.645779246764842,-1.3446540882940803,-9.772820821877978,-7.9352666472463635
135,-14.679527431974014,-1.6551590246444818,-11.972830250201683,-9.979926039790183
136,-17.808478597641837,-1.967906560685702,-14.211788085277949,-12.102557471641735
137,-20.93524421421059,-2.2845684870857315,-16.44782683228619,-14.258321823886371
138,-23.975334434964182,-2.6081022845140445,-18.677348317673395,-16.428896780803278
139,-26.874927302858133,-2.9390818821645883,-20.870713585421985,-18.579485090618928
140,-29.63356025434426,-3.280552854116198,-22.99819220429525,-20.68554253925746
141,-32.25063081836914,-3.6342039992793476,-25.02723394951739,-22.73445475931168
142,-34.682800067912936,-3.9852241708874585,-26.91995528113041,-24.713105660171685
143,-36.88209100025853,-4.299899068765491,-28.647279586657287,-26.599997100306563
144,-38.83972114772443,-4.542230748914513,-30.203489394063812,-28.374004612136595
145,-40.583584929243706,-4.68950907864389,-31.6037619343084,-30.027730342395223
146,-42.13212992770813,-4.738878308406236,-32.868108141249586,-31.569768727865835
147,-43.47073719201087,-4.703712745214437,-34.00928146764818,-33.01484393929206
148,-44.584120530003595,-4.60431775301919,-35.04023837994234,-34.37478381334208
149,-45.48966122849404,-4.461168432407421,-35.980763963331654,-35.6537882755345
150,-46.24170072465731,-4.294087656935581,-36.847361305068134,-36.848947547014035
151,-46.88968516928081,-4.124866950971754,-37.6393984946273,-37.961952989612534
152,-47.43971639657855,-3.977023611119632,-38.338355578286965,-39.005954531485386
153,-47.86510785653112,-3.87212733110655,-38.92127052664885,-39.988239888628705
154,-48.151327956938964,-3.824982938928964,-39.374350018184046,-40.89304655308764
155,-48.32349877036854,-3.841105344480303,-39.69939553039042,-41.69369833255013
156,-48.40087981309584,-3.9158968966554557,-39.906395653753016,-42.3682895721671
157,-48.34592020933362,-4.0333975815262955,-39.99932835660762,-42.89288370160925
158,-48.08441762054617,-4.170081172141027,-39.9788045551174,-43.234534102111034
159,-47.572665332940176,-4.304644535458149,-39.86010455438414,-43.36154015736997
160,-46.82597722381888,-4.423578987839396,-39.67241423008129,-43.257778123900785
161,-45.87036865925842,-4.5158827315800725,-39.43394573781928,-42.925362836636666
162,-44.69949123912417,-4.565973536504046,-39.13706786997825,-42.37749510490951
163,-43.286279581562994,-4.552556271159785,-38.75678741497565,-41.63531994230109
164,-41.62976279234069,-4.4513424226188025,-38.26933331219815,-40.72900470409616
165,-39.78274946163455,-4.242863167108845,-37.6587847545289,-39.694491032096046
166,-37.825399069892434,-3.9196498221424023,-36.9089378915712,-38.570175661532744
167,-35.82163828023372,-3.4844435470118817,-36.002590434264256,-37.396864581314894
168,-33.797092023671354,-2.9399813743048777,-34.92761285812048,-36.20134663464007
169,-31.77041442024086,-2.2840083796822483,-33.6829976177324,-34.97209056225742
170,-29.78592771702866,-1.5189955396798478,-32.28511298720299,-33.671317825308904
171,-27.896616522546335,-0.6598416812814091,-30.759116436396692,-32.27130646505108
172,-26.12445877088259,0.2675656082617819,-29.122185164600964,-30.7661863893906
173,-24.44190259552177,1.2285960829569662,-27.38273010766896,-29.158009936999452
174,-22.820198535483705,2.184725559703052,-25.552041865520433,-27.450123460480718
175,-21.268409680411587,3.1025824284501367,-23.647901874730703,-25.65492744025448
176,-19.811832723470456,3.9590157717724375,-21.687741047512965,-23.796228709588497
177,-18.459559173428627,4.735409003667685,-19.68407911075953,-21.903914631852583
178,-17.19247269629713,5.412709850122766,-17.64805469568371,-20.013059082510463
179,-16.00133988175838,5.975745162591076,-15.597932863914851,-18.160293710945925
180,-14.919716132652207,6.416916164303868,-13.562746187439448,-16.37355727935612
181,-13.998859953923457,6.730042210848588,-11.577347252974869,-14.674964407458187
182,-13.262361665429315,6.902405412746768,-9.673553853329942,-13.09345995088467
183,-12.705423279046213,6.921672111556065,-7.87419024208627,-11.658681923459994
184,-12.33761472824642,6.7852278029730435,-6.196292981746302,-10.383885551752709
185,-12.18867233458223,6.499109980244105,-4.65705482180271,-9.272750615440405
186,-12.268260865547159,6.074410600170468,-3.273759455543487,-8.343020729618855
187,-12.522850494089134,5.527787055438367,-2.0522985648911605,-7.623087710702366
188,-12.841061961540742,4.884732134602921,-0.9792803984421761,-7.12344799804507
189,-13.097554020776952,4.176931023766102,-0.03862557261702716,-6.828718424790314
190,-13.1817278781643,3.437435937192895,0.772502485213986,-6.711628367414846
191,-12.99613641570511,2.6988602156873673,1.4517344909958985,-6.743743316009018
192,-12.435886977123781,1.9915976331922105,2.006621147383449,-6.8967083324153755
193,-11.40617686752631,1.3413446286458746,2.459299091839589,-7.1358956158198215
194,-9.869506029033348,0.7665800477197057,2.8353906439377528,-7.4160403781519
195,-7.86337722977218,0.27510892042413565,3.1474870657978378,-7.685224564452873
196,-5.481615308631601,-0.1411329524997308,3.3908703172572667,-7.897808053327114
197,-2.820939912753221,-0.5030157089995693,3.558209352294123,-8.029214558131107
198,0.05810722833366144,-0.8283120559654356,3.656017938554157,-8.069110762650105
199,3.1184136139245746,-1.1180964806182427,3.7000180519303925,-7.999191808925639
200,6.311974530888429,-1.356003479828996,3.697024505886076,-7.793774085693258
201,9.552263903503041,-1.5232501407576902,3.638437115992205,-7.444866066931363
202,12.723185744142576,-1.6153693333227184,3.514139305332642,-6.974286347785782
203,15.711983816880744,-1.6375418419931471,3.32702026966596,-6.411853600478099
204,18.43519983735285,-1.5867317490049606,3.092054472326723,-5.771562025312824
205,20.835451040374803,-1.4444449029296509,2.8249731386153902,-5.05317225586933
206,22.852177464718874,-1.1858813080180735,2.5364851098893832,-4.251792543904828
207,24.42690013699997,-0.793595902484099,2.2428581954692404,-3.3631942023761834
208,25.54164819170545,-0.2657035424496017,1.968423456432053,-2.3873980609673278
209,26.235935786329467,0.3854529489537128,1.7310504464912622,-1.327888582051634
210,26.583939365482493,1.1420499634629955,1.5333876616652915,-0.18791759038631028
211,26.653348353461375,1.9847495845260168,1.3648231833410944,1.02837332462108
212,26.488501941694643,2.8875516297064605,1.2126028204856314,2.306729232484555
213,26.125209880757485,3.8135151209267346,1.0748176437331656,3.611521140905764
214,25.608616290940898,4.722592190280579,0.963710096036064,4.897158078242584
215,24.967522329922105,5.583041186194663,0.8900456819480028,6.129585331817052
216,24.183284512407337,6.364932865692338,0.8469373339270282,7.282558408388725
217,23.22318526247807,7.027921989841685,0.8237002309820426,8.332807684817784
218,22.09729636964345,7.530086698068138,0.8246660702290931,9.270459291534333
219,20.868326064825137,7.849814864625934,0.8625765075126877,10.103284692080747
220,19.58884721305417,7.989740701849515,0.9385224744531036,10.8467350102852
221,18.25541925391697,7.956274822350098,1.0335002720846223,11.509830326183678
222,16.838167931622284,7.747874033890564,1.1208866206622277,12.091152668932795
223,15.330950647708823,7.363062396241109,1.1828629683316554,12.580249182861259
224,13.772097506161364,6.8115896841761385,1.2149294245266566,12.960565781237081
225,12.197955286902022,6.118798917867019,1.2178495486887202,13.217112002593115
226,10.59944510597554,5.320453297874265,1.1925464587975205,13.339246627732505
227,8.945338502283304,4.455361249497365,1.146565269181499,13.318183485996684
228,7.2290541776301165,3.5580563605708893,1.1021672491653927,13.147287516688516
229,5.488828525682649,2.652827617261467,1.0936453392275391,12.829509631071215
230,3.7683439631383093,1.7537438363516893,1.1451572070789942,12.387392279303223
231,2.0689888078868908,0.8614594708876083,1.2495042830215684,11.853314956307612
232,0.3503033632880761,-0.04023308555295868,1.3782555364373286,11.239787606763047
233,-1.4159944947361567,-0.9677603456196158,1.5135329451999866,10.531880600869904
234,-3.208523824098635,-1.9098637597902233,1.6601089897880588,9.71264295961031
235,-5.00007531332199,-2.8253709798701667,1.8225397747112668,8.777259166398649
236,-6.798005016048868,-3.6668941620553035,1.9889678845827483,7.72009913230366
237,-8.631860250975368,-4.391222019004287,2.143673012167914,6.52442423653495
238,-10.513411466931164,-4.952483456267564,2.283125226013107,5.162283533869319
239,-12.420322737511217,-5.295662495879217,2.4174902418023314,3.595578016128289
240,-14.34720097873849,-5.353877796487813,2.555212609700429,1.7806869529097482
241,-16.3563419258665,-5.059317899275783,2.689835740558092,-0.3297973987643752
242,-18.56170981408748,-4.36421689097821,2.802154821080336,-2.785247035187864
243,-21.063261062885708,-3.2478740192846867,2.8705245718841326,-5.634305620781302
244,-23.911707970419485,-1.7058690694703822,2.8795811755586405,-8.92345670304882
245,-27.126048178674203,0.2622716743737662,2.8168678336216715,-12.680322341434259
246,-30.585051712281015,2.4783648696116174,2.6929614955020975,-16.742640158937334
247,-34.58581801614933,5.249681046974838,2.450375495679389,-21.359576379483777
248,-39.14767046875272,8.646512597831734,2.08292824912579,-26.52617087699531
249,-44.087576193364974,12.572700712146684,1.6202585550401087,-32.057921952218884
250,-49.12567160273807,16.82513151925852,1.09974665707366,-37.66465400711467
251,-53.978341162248,21.137738804936106,0.5522429079095309,-43.02722480516724
252,-58.39744638933995,25.2285651939535,0.008230631510628902,-47.86055329478585
253,-62.167374865466606,28.848060343979324,-0.492375153300473,-51.94562288054063
254,-65.1306853365391,31.812987468748553,-0.9084944453516967,-55.14291117289678
255,-67.22744594601171,34.02078866203423,-1.2174273316820956,-57.40697535859815
256,-1.662711041580438,0.8757268797811487,-0.8008796671587536,-1.0838937364408245
257,-3.409152367526989,1.7130318537444111,-1.8261840973661634,-2.3521954825545937
258,-5.761139296829148,2.800366977835766,-3.319933632782956,-4.112875468644134
259,-8.666746158811339,4.079657320193278,-5.2938215020238655,-6.332804472954595
260,-11.976169437801431,5.456787346987708,-7.704358580598986,-8.921128740875364
261,-15.464978379307706,6.811209073465201,-10.460039281982134,-11.728024408742113
262,-18.902882739897308,8.014670058065064,-13.440208341617788,-14.56253215324345
263,-22.092795874051113,8.946731664826133,-16.513404392785986,-17.232277694795837
264,-24.8733378992614,9.509303435513136,-19.554825240643616,-19.572524430277202
265,-27.128178787882547,9.648475999836334,-22.469245786266086,-21.463958475616877
266,-28.856058814714213,9.380561234192992,-25.230426014712172,-22.875703816246087
267,-30.0673876097929,8.703207208601698,-27.809482823514596,-23.7648450872608
268,-30.802807387659485,7.621290357316339,-30.194974818244454,-24.119062447616294
269,-31.077641786334905,6.154559653430073,-32.375836411744864,-23.949598525974206
270,-30.880146290920944,4.346878341048589,-34.33589759289144,-23.283871952997277
271,-30.22617724647115,2.261128604521957,-36.063157744920865,-22.16215930528978
272,-29.185936475375442,-0.03198014099242519,-37.55763114473542,-20.635301848352288
273,-27.84998898475122,-2.4650467761409494,-38.82304615689102,-18.766017795258808
274,-26.28391512588364,-4.980027431186724,-39.856242885348436,-16.626066140283974
275,-24.506383369608155,-7.521322977791803,-40.64740186610789,-14.281917628494904
276,-22.522598372309847,-10.025442692261121,-41.19462643472107,-11.784546097648116
277,-20.368416060443973,-12.425145476730677,-41.51716538946867,-9.172642690278225
278,-18.10873371688306,-14.664904748493072,-41.64818788531341,-6.478439479327027
279,-15.78584038186698,-16.709683490050097,-41.616344426526034,-3.731178591073772
280,-13.386334044618948,-18.53722203705426,-41.43494167889687,-0.9502324621910175
281,-10.892637070066364,-20.122707325989754,-41.1118119052345,1.8577506743058843
282,-8.331648530225907,-21.437588809649753,-40.66427253360748,4.678014405533
283,-5.756958256707741,-22.45808171280969,-40.11408690107934,7.480641628005922
284,-3.19515116643938,-23.171865985012786,-39.470854194744696,10.233515004463989
285,-0.6276921688204256,-23.58197469789199,-38.73112444860924,12.901195891864065
286,1.9526702088790833,-23.70404725705943,-37.897104008772345,15.437098923868824
287,4.494985519649152,-23.564370128719375,-36.98785567710115,17.785524783765773
288,6.903652647305108,-23.202533027250425,-36.031677381325686,19.88843883069966
289,9.094049740774269,-22.669783092698143,-35.04979206255658,21.691961948035036
290,11.027452411769072,-22.012647563868033,-34.048282592988386,23.156788530342098
291,12.688462237650985,-21.262408822601657,-33.02713759732216,24.268315912863947
292,14.049801038522606,-20.447024272265708,-31.990439169366947,25.034306198594457
293,15.058285263881475,-19.597366940330957,-30.94516673012201,25.472816595837063
294,15.681133518902596,-18.738254750104737,-29.88929421360016,25.602146278814025
295,15.951759791887007,-17.87724017619531,-28.808330961471263,25.440648376656803
296,15.938764728232258,-17.00835345113208,-27.69178591439159,25.011176631698678
297,15.683856941891122,-16.12829194065457,-26.545621032205858,24.3347663417777
298,15.170814922037623,-15.244834328149947,-25.385604314089143,23.41437171062812
299,14.373366336470315,-14.375697071264453,-24.220227774353898,22.236843988245433
300,13.306205547062797,-13.545430695681098,-23.045004102033808,20.795163029420944
301,12.00768563054477,-12.78608232124347,-21.855415808987285,19.097431180805476
302,10.494808383599421,-12.135235711442595,-20.657536724225935,17.164077182117435
303,8.742560950814584,-11.629393918487528,-19.466518785847573,15.02308651738341
304,6.724187305287677,-11.296523466518309,-18.295704514022614,12.699085191378387
305,4.452148809501842,-11.148509475157159,-17.148171199203407,10.203917514029092
306,1.977930881712556,-11.17588025132055,-16.02050098242807,7.545659493960651
307,-0.6430537053161969,-11.347673916522856,-14.913047744002778,4.751675947879895
308,-3.3827423131034746,-11.625040374955274,-13.836169666694994,1.8620934773978584
309,-6.219419167478149,-11.975869401250003,-12.79895996963632,-1.097036926873116
310,-9.099249762324748,-12.370608143302913,-11.794512960618134,-4.1071067924321705
311,-11.922086922443595,-12.77495405079652,-10.804857450808397,-7.134001534954502
312,-14.597503973085788,-13.153192515952659,-9.817681078585835,-10.127502832621927
313,-17.1024128204297,-13.474526232983912,-8.834190552896278,-13.03316263207605
314,-19.440319153246126,-13.71542534360879,-7.8586561704754,-15.797872887930211
315,-21.581219791984015,-13.858889283586679,-6.888695678450343,-18.370085614202715
316,-23.465220080284407,-13.892946357894347,-5.920395333228679,-20.70384280808207
317,-25.06641696228348,-13.808569857373305,-4.956888596922172,-22.76800766491288
318,-26.422171023958718,-13.598204809796384,-4.0097811660255465,-24.548298932166055
319,-27.586756991314342,-13.257283656051024,-3.0909766504040292,-26.04346366520481
320,-28.58026197025433,-12.784947199414745,-2.2040700908619324,-27.26635547750652
321,-29.367963650122952,-12.17874776123909,-1.3418432842224841,-28.23317156387834
322,-29.904000865361407,-11.43379650652933,-0.4953918697871752,-28.947101807550066
323,-30.184466082110276,-10.551491520221301,0.333844914760283,-29.406626500624075
324,-30.238545629677976,-9.545520951615485,1.1380594830296522,-29.625760626614927
325,-30.076376915098358,-8.433872557369385,1.9207367136475866,-29.628545786784134
326,-29.656119703875593,-7.223631075545048,2.7073541322017323,-29.418862251955826
327,-28.936935077194278,-5.916018224727954,3.525211877789612,-28.978314105749238
328,-27.946200216607753,-4.52754114175714,4.380893924340866,-28.298762542470214
329,-26.76827046175825,-3.090493135879345,5.2661100066619815,-27.397504365757925
330,-25.474770994560384,-1.6375606751165979,6.170447885260961,-26.309718288960607
331,-24.09354389410221,-0.19518818520807774,7.085902450100019,-25.08293058366306
332,-22.665158287280622,1.2133647225174902,7.9975872455601404,-23.7742598242078
333,-21.278180690250498,2.563754376473541,8.875199704827896,-22.445491386827143
334,-20.03546245691388,3.832634517732036,9.683326944785827,-21.15563202178027
335,-19.004975531833615,5.0019857720877114,10.39881048317042,-19.954832602608214
336,-18.19926576178508,6.060589455264478,11.018377160596327,-18.8828631531899
337,-17.59925051156395,7.004833659847228,11.546205761417712,-17.96415664164614
338,-17.189468130881217,7.836378718070371,11.975245134555413,-17.206535841823428
339,-16.976989540958332,8.557818559341841,12.28913209085183,-16.614925464032734
340,-16.96782642382048,9.171005709366662,12.480949413246593,-16.198143381953567
341,-17.149101237906674,9.672667109447278,12.556434868828601,-15.960043258372927
342,-17.507399931294813,10.048061903698333,12.515416747357987,-15.897379990622774
343,-18.036679653380443,10.272993236629432,12.339963663295237,-16.007941812156076
344,-18.71052386682681,10.322259037533959,12.005381044751104,-16.29629645681996
345,-19.435615344436407,10.173635771871332,11.50478289692858,-16.769535621850277
346,-20.066307464589947,9.805580966310272,10.854929244358319,-17.425504714250213
347,-20.465709963003405,9.199105210489412,10.07961357745565,-18.249436741462997
348,-20.537622847256312,8.348502555592718,9.196868710075405,-19.21927759361338
349,-20.217700033789768,7.272111690449213,8.217379053387685,-20.30794303763834
350,-19.451898131749893,6.012389840104253,7.157902600654747,-21.483962588279372
351,-18.19725080871663,4.627107744571723,6.050613330942179,-22.7127536470484
352,-16.426786466379518,3.18162673780464,4.929647728995924,-23.955268344007965
353,-14.162895879529854,1.743578622895035,3.8163524475947765,-25.166062856775934
354,-11.523224916596217,0.37665461820534313,2.7217082440356153,-26.300634785769493
355,-8.681695837496182,-0.8649271649920333,1.661310692225043,-27.328550226972588
356,-5.7808615320691095,-1.9360944465717176,0.6609262371194689,-28.23246411389333
357,-2.897344092408522,-2.797851156800467,-0.2546539558876176,-28.99200991881176
358,-0.08516730754560536,-3.4194863948425933,-1.0698423617889465,-29.57687157261923
359,2.569255401359315,-3.783794055757981,-1.777261109518656,-29.960010196327712
360,4.956917337654509,-3.8895454046118605,-2.372511742663413,-30.130247309168766
361,6.9936446547596915,-3.749550348426331,-2.847789255703134,-30.089992094313747
362,8.646678547345802,-3.3840374468696304,-3.190500006795801,-29.848518279212822
363,9.92040017469576,-2.815730519936662,-3.3934861823543794,-29.42062634970943
364,10.821014424000515,-2.072321109032725,-3.4646579260663906,-28.829385420015715
365,11.345920434534857,-1.1880902399663837,-3.421715723636102,-28.10534531631865
366,11.506271012716502,-0.1998042895481078,-3.2825885234127123,-27.28430691606129
367,11.353035104755689,0.8582560618784472,-3.0647478994952513,-26.402931471542676
368,10.951886122098085,1.9582849524053203,-2.795537239588683,-25.489466886289872
369,10.31942319383578,3.0773196597705894,-2.513658045662351,-24.561917236528537
370,9.424527273115118,4.192263303949808,-2.2544458851759726,-23.633970966795555
371,8.267257744153186,5.280745695539496,-2.0396278948076727,-22.71886157556326
372,6.912612392049969,6.322829090397157,-1.8755740481615406,-21.823158121629476
373,5.427158402163764,7.302112084713095,-1.7628102630794782,-20.937121125373416
374,3.8972197087564266,8.19579649865815,-1.7133803422322529,-20.06464659085928
375,2.1530440456628983,9.024555684347856,-1.7347045876776195,-19.180392799913474
376,0.17053600485509596,9.79223546257165,-1.8159347472663927,-18.292858641297546
377,-1.980092560630302,10.49511391545995,-1.9365800207987305,-17.422151063058845
378,-4.2039735986028335,11.127026788503485,-2.077671366844045,-16.59153274191609
379,-6.409977305336573,11.682319749432764,-2.2278610607641998,-15.82737561675287
380,-8.496599809256256,12.157051838211544,-2.378481535471207,-15.155533677809425
381,-10.345292487434703,12.548422504385274,-2.515663917965678,-14.597009182420463
382,-11.847551904784398,12.854133332908207,-2.62398707242786,-14.164415342729187
383,-12.94977643273045,13.073650843029174,-2.6970448998073815,-13.859580178821366
384,-1.0650133339300516,-0.12872691064961325,-0.6568538826989844,-0.6973757047828848
385,-2.2536790965517697,-0.46789971410322184,-1.4411691343697253,-1.5820165083159097
386,-3.9427916241640903,-0.9654720480482806,-2.558353467701982,-2.8415533344443418
387,-6.13041332857225,-1.6024412636824947,-4.002582067351712,-4.491465814047931
388,-8.734403104281796,-2.336181088993979,-5.732467590538642,-6.497237396439161
389,-11.63478430115105,-3.110141595309736,-7.687161052036693,-8.77300188515035
390,-14.72087955990117,-3.8677106958978045,-9.797713828463436,-11.204863793671713
391,-17.892879596118892,-4.5667875176995425,-11.989573493078344,-13.672057986782452
392,-21.036020426513403,-5.18573976879103,-14.185745303529504,-16.06628699652107
393,-24.043863418596462,-5.720124386857851,-16.325229779289053,-18.313781101607514
394,-26.890354791100254,-6.181359781342561,-18.397798322054967,-20.39972545244128
395,-29.55168864364207,-6.581246627163662,-20.38250931182652,-22.291214800834776
396,-31.990584300435376,-6.9211313654707745,-22.257966362350803,-23.959879930409414
397,-34.12925129818191,-7.173658676904026,-23.99432904705393,-25.378537013644465
398,-35.88224475981998,-7.281169942010049,-25.56116498499677,-26.515636209234238
399,-37.19943430430718,-7.175807218534957,-26.935916735730363,-27.339727728063618
400,-38.08908512541806,-6.803643701314428,-28.105945061284704,-27.844579026341513
401,-38.58740632779023,-6.137701699999003,-29.0618648187462,-28.059889188857614
402,-38.70218617130553,-5.179368467280264,-29.791726898109065,-28.028239172731308
403,-38.40267795928437,-3.9510913327625605,-30.28685980791057,-27.775364462831213
404,-37.685005220552796,-2.492416390160572,-30.553156835874933,-27.320507789397944
405,-36.63195537583365,-0.8608160631054325,-30.617385043975943,-26.719475083915093
406,-35.36001317231735,0.876777929271437,-30.51278106415257,-26.058638916549146
407,-33.938833096154205,2.6589021263091697,-30.263072080334993,-25.40777524887488
408,-32.396078285774905,4.439729097079771,-29.88582000323105,-24.80522667787645
409,-30.77967047800613,6.183562996219789,-29.402986118227656,-24.26932730066107
410,-29.186070905770347,7.848257011348444,-28.845489122342546,-23.805846548467805
411,-27.71794289521431,9.38090035853711,-28.2427711795768,-23.418119086898237
412,-26.43942186542364,10.72489246279039,-27.610768842221926,-23.12162923371113
413,-25.37201027208791,11.828743584019806,-26.952428598496663,-22.940640645981304
414,-24.52787923767268,12.65935008580689,-26.26820727746911,-22.890204349030817
415,-23.933619492315785,13.20810523321511,-25.56361768522314,-22.971437821512925
416,-23.613642732754712,13.484966419982317,-24.847668031563604,-23.183889421756373
417,-23.561697505589745,13.514972514983414,-24.128036747141444,-23.536559843459102
418,-23.726614765902678,13.333129528452542,-23.407087734459683,-24.034476262404414
419,-24.06543903764679,12.969677964140377,-22.69131699274601,-24.659171329323474
420,-24.59896484167367,12.437280719878611,-22.00217209344908,-25.381366541560983
421,-25.367347749949417,11.730977623535399,-21.366030619724967,-26.175896614316574
422,-26.3500564130855,10.834286361758169,-20.797727014663714,-27.008758302097398
423,-27.482865412799686,9.720934204556205,-20.29845943362432,-27.837879534179862
424,-28.75044732329234,8.359815198744768,-19.87489150764599,-28.635313194928464
425,-30.179830370294148,6.730300056549291,-19.553436812553574,-29.389312931122085
426,-31.755258056807808,4.84188290628154,-19.36630744612623,-30.093963641555494
427,-33.38177379988716,2.7433892578476713,-19.329157503350608,-30.74926599836837
428,-34.91044151771663,0.5124087512557576,-19.432434322197622,-31.359609201420877
429,-36.19341597706816,-1.7608688694336632,-19.652235592346422,-31.92299149713813
430,-37.11222995240137,-3.9825280134241146,-19.965612890436862,-32.423082168812094
431,-37.56439365119729,-6.067808112797591,-20.352924330316068,-32.84267365008276
432,-37.44489702564376,-7.9537034994324625,-20.78714647805177,-33.18039663634989
433,-36.664053888747816,-9.595341512081017,-21.22547958244057,-33.43312985553236
434,-35.19419165729958,-10.959794319043663,-21.621354003730225,-33.5680509844105
435,-33.0849877326199,-12.028579890597172,-21.943665123139855,-33.5374326620449
436,-30.42082054538404,-12.799664628979217,-22.17610436567449,-33.31966316615379
437,-27.274249660890913,-13.285219268159171,-22.300686207304093,-32.92119659318231
438,-23.72822169491022,-13.506955570968689,-22.291874987921265,-32.347428243952315
439,-19.908298090676244,-13.486572247579014,-22.133127114146045,-31.59924125961103
440,-15.946587645252752,-13.239706154662539,-21.83165003420286,-30.68803930653253
441,-11.941589666842116,-12.78470923471817,-21.41027424615688,-29.637804022818752
442,-7.98142155760881,-12.153099295384004,-20.886171524803572,-28.479040000288254
443,-4.19062373329597,-11.387358421713255,-20.26151284161573,-27.24479609011465
444,-0.7115898419494289,-10.531734415753466,-19.536051533857638,-25.96104048363767
445,2.3500531180306785,-9.6227442414688,-18.719548644302048,-24.637473969751436
446,4.939175270632311,-8.688916469835478,-17.827122401755435,-23.27638167741991
447,7.043231580190389,-7.7559301849265525,-16.869577382049783,-21.88726224148207
448,8.681483785757184,-6.8412063042281295,-15.857994626071784,-20.484993348752592
449,9.897138322365366,-5.946293701877118,-14.809432249891364,-19.074475964857633
450,10.74067157703973,-5.064888249685348,-13.742677376722103,-17.653958847413485
451,11.234448405328806,-4.200243441741883,-12.667117154117276,-16.242451582546014
452,11.371575724502346,-3.3717248183707347,-11.569111714800428,-14.882172351775617
453,11.144659488353192,-2.6067331322108305,-10.415783090703048,-13.611862242735533
454,10.568657570124149,-1.9296411864717393,-9.17153751977436,-12.459945107942845
455,9.687059294948542,-1.3593149307734362,-7.806886332675344,-11.453761203426454
456,8.536181981801132,-0.9125022727316761,-6.296378916601359,-10.615736311241513
457,7.121711512573099,-0.6026299149516592,-4.611891105099062,-9.957068250714022
458,5.459519610227859,-0.43338033828368905,-2.7328230813423775,-9.479135788059587
459,3.630447092986333,-0.3975205131898283,-0.6620322211668327,-9.174461644347607
460,1.7615027655905422,-0.48160711420755353,1.5775322690408988,-9.025068571884583
461,-0.056177689380027374,-0.6691750797482836,3.9474924040944566,-9.006154916517506
462,-1.8107481291955825,-0.9451391041862657,6.398804083794558,-9.100077077711244
463,-3.534719350541148,-1.2989570494864768,8.879538560926783,-9.300210962504805
464,-5.240952251820681,-1.723974556454193,11.336714784520558,-9.596455331219381
465,-6.918398882243065,-2.2162853011374426,13.716261619137862,-9.963564758828376
466,-8.567252145072038,-2.772062428658965,15.956221070644927,-10.365814996809139
467,-10.196230432042082,-3.3826060468616954,17.98211940463572,-10.769174029794666
468,-11.782088517979744,-4.024591975535431,19.72115107199301,-11.132379349621011
469,-13.241921332798071,-4.654604070688461,21.12023718823651,-11.386553776787162
470,-14.482728115046383,-5.218446164948928,22.149029962762896,-11.443313111245725
471,-15.457823765522267,-5.665439191180508,22.793082073076373,-11.222104446790683
472,-16.148170450024686,-5.958556211693623,23.0551886407765,-10.666127738503693
473,-16.519495588726485,-6.077214158676543,22.964809773527026,-9.745685185523659
474,-16.51038705647923,-6.013778706855975,22.582493915838327,-8.455490321608735
475,-16.078595865701605,-5.768496609159086,21.988129856561926,-6.810174786769864
476,-15.246173676143108,-5.346879993149211,21.256750491120506,-4.842420368408343
477,-14.08299359660553,-4.761117370492528,20.440053855740235,-2.605197760180481
478,-12.650612293305237,-4.031049584237178,19.571455509040465,-0.17560027152261137
479,-10.973781667889662,-3.1760970123455103,18.686959925838323,2.3662301566795874
480,-9.076278354958637,-2.203350553098387,17.821636980817686,4.97096046813844
481,-7.010865460909289,-1.1080848357137931,16.99278360589453,7.616279885944645
482,-4.85123578136522,0.1182264258420187,16.202293584071228,10.283461750007278
483,-2.6469843057850895,1.4825185697881444,15.453688134614461,12.948681008428865
484,-0.39510676406623485,2.986023750096268,14.764329739972007,15.58715970255399
485,1.9134434255268253,4.617716014940556,14.148566350628743,18.16841124562808
486,4.241667577752783,6.347587093210025,13.594989821246173,20.638305949926224
487,6.504569922052846,8.130510122243503,13.072388948032874,22.92391839845668
488,8.625616344682035,9.914891566372043,12.550242325704808,24.954257703298065
489,10.5713050923447,11.650631941999936,12.005594346275563,26.66142950591615
490,12.31281850519862,13.296949142332766,11.414131274915952,27.98227560950208
491,13.792444186291991,14.819226329948668,10.747863784313715,28.87651005015777
492,14.929582652104353,16.178227031248575,9.986217130713829,29.33297285453566
493,15.672271869074725,17.326114076425434,9.129494247449331,29.361404737866977
494,16.03583468192462,18.218226295633272,8.198911355055655,28.99500552989553
495,16.077404920601182,18.828920147838826,7.220121171580798,28.299685971852337
496,15.845380610740667,19.15037741125213,6.210532357303145,27.358245171052587
497,15.348386849159667,19.184138054368074,5.182619973902563,26.233069693489266
498,14.590516240593395,18.94217862016335,4.157005660219114,24.960125003534333
499,13.616664429353968,18.45013472643156,3.1640567087051656,23.57202596671494
500,12.501565640305552,17.743427016917586,2.2254558589012974,22.10219489455147
501,11.298914828096159,16.860803519034885,1.3397309927126664,20.578672293536354
502,10.01020592284131,15.921226735275834,0.5088492948641711,19.060668088862155
503,8.612915458705826,14.798320742777197,-0.31048691190719296,17.49610650462623
504,7.158185260059977,13.455244766990296,-1.1204316467944637,15.887696942502348
505,5.722116664325538,11.91875089401678,-1.9090927860709228,14.275453193315865
506,4.361577839809643,10.256238274512802,-2.6609543310926163,12.722505597678463
507,3.1119376542045374,8.553088198007131,-3.3560984914527032,11.297957369731028
508,2.016117044314924,6.899981527772574,-3.9717260802340544,10.0565242945005
509,1.1279208856948837,5.389602164078241,-4.487440723488765,9.032981832135361
510,0.4833806223925561,4.109200022683055,-4.891818763247862,8.249498093935452
511,0.06840319179448584,3.1248245075375842,-5.18469014318657,7.711581558408824
512,-0.7951789611213625,-0.07399598637684793,-0.7177699247598381,-0.4800202419119802
513,-1.7049066236667443,-0.11798497120729629,-1.5687423442088182,-1.2159452841324505
514,-3.0253702808548133,-0.1602758161972827,-2.8020582055392587,-2.3122639347265017
515,-4.742075372573508,-0.2021594169044611,-4.4196840869933895,-3.7958571239574446
516,-6.78529973009534,-0.24768017253547167,-6.383460397626657,-5.659839278393833
517,-9.084640081932767,-0.3024589536944975,-8.631874954736627,-7.859346576554714
518,-11.585604398925112,-0.372041839920375,-11.087158875990095,-10.317611203614678
519,-14.226984190839369,-0.46058221837575714,-13.65328792699002,-12.940095641963818
520,-16.927339836114832,-0.5708883354982858,-16.226123539986375,-15.629565781208434
521,-19.614608059094504,-0.7049365762244006,-18.72335596517917,-18.30150867601145
522,-22.287121692209027,-0.8641104479684378,-21.12657829027351,-20.913234127806057
523,-24.952233705004712,-1.0465144289544568,-23.404466848367512,-23.430910146430932
524,-27.60831531913169,-1.2432652329699798,-25.530699293554864,-25.854577495999436
525,-30.21123752298048,-1.4380481238452798,-27.476020974759592,-28.193890169470887
526,-32.707689747084764,-1.6142053233724987,-29.220593868737932,-30.435855646370065
527,-35.08222754860011,-1.7663337005891944,-30.76800199141735,-32.551620064153106
528,-37.35861206058877,-1.9012988950220846,-32.13363318573871,-34.53374552283
529,-39.544780585692955,-2.02816513458522,-33.329351768122656,-36.39231299246493
530,-41.58972641947665,-2.151523631916517,-34.3598914058883,-38.116855772439735
531,-43.437330982998866,-2.2700681145102912,-35.229620415516656,-39.6699293460883
532,-45.09129079082031,-2.382279736255642,-35.955319073004304,-41.00839037779996
533,-46.59665533119285,-2.4940992174293113,-36.564259218375284,-42.10173226940806
534,-47.97363618360804,-2.6175540846892416,-37.07264148835468,-42.93790874618859
535,-49.18865618185053,-2.7663948293434553,-37.473416557589836,-43.51986493662342
536,-50.197892977312286,-2.9556671020528733,-37.752061465646335,-43.857653871513406
537,-50.994523605189364,-3.1968839866060907,-37.899254034063915,-43.96112810269876
538,-51.61191035378525,-3.4893051149348233,-37.90563223529582,-43.8441131472502
539,-52.07938506418,-3.819768547715525,-37.75466892946083,-43.52853083576459
540,-52.38390302676603,-4.1679153977126555,-37.42545366028562,-43.03362388257457
541,-52.48884091424146,-4.509245877130207,-36.90735311525999,-42.36839678947352
542,-52.37853477416755,-4.817591431167679,-36.21136035356246,-41.54164733846803
543,-52.077792464381666,-5.069730642807825,-35.3683274218638,-40.579548955114525
544,-51.60729452413431,-5.25093298307975,-34.412722639516204,-39.52418384299097
545,-50.943477691134625,-5.357924107207531,-33.37434997212144,-38.40786885731413
546,-50.04886055938371,-5.399558746322719,-32.28976648389596,-37.249055520329826
547,-48.931020459888295,-5.394466163726079,-31.20603619434769,-36.073476899645236
548,-47.65575293709163,-5.365113593410732,-30.1677832969389,-34.913524144556966
549,-46.27777740460683,-5.330060262790327,-29.198316981532876,-33.79317112477525
550,-44.798765334205726,-5.29408764288137,-28.294461027421136,-32.72372492898252
551,-43.2025597599302,-5.243525291548702,-27.442796635467115,-31.704456748937435
552,-41.497115629100534,-5.154836176743346,-26.635404386438246,-30.725177877169756
553,-39.72865719003388,-5.006779070917353,-25.87016422827026,-29.770398456858548
554,-37.940690480042,-4.787942914725163,-25.138913692397,-28.82737533263696
555,-36.12975048862028,-4.500654504797934,-24.422362871876338,-27.892186822081413
556,-34.25594935576221,-4.154646381818511,-23.69951214522338,-26.960697510269476
557,-32.29874475901985,-3.755292308127542,-22.96096383365517,-26.021619740614405
558,-30.297908250444536,-3.300768838686464,-22.21476481527768,-25.064977212080446
559,-28.318078503780722,-2.7858498385939012,-21.47515003240709,-24.088972795689504
560,-26.388312495693267,-2.2071825224832837,-20.746398699444985,-23.09622990720376
561,-24.490132537429478,-1.5672767815429325,-20.023351897658117,-22.087694460609498
562,-22.611969150359297,-0.8761238411829257,-19.30623577236453,-21.064104526169043
563,-20.796070847543824,-0.15114191657664505,-18.605808261773465,-20.032139109337997
564,-19.09760618364029,0.5827903156212362,-17.93090392827539,-19.00466069356158
565,-17.52080289281088,1.2921325509408959,-17.27773280897226,-17.994038615421776
566,-16.01474710877042,1.9379150847104691,-16.631366100323856,-17.00520715900448
567,-14.542791432584181,2.4823797985996596,-15.97479076895649,-16.036427510090913
568,-13.140493764192247,2.891962432548029,-15.296859601283986,-15.0865915617915
569,-11.877283260322784,3.1411953952307914,-14.592721473779426,-14.164922328033928
570,-10.796792065838932,3.2237400409570722,-13.859777961981848,-13.297030926515037
571,-9.90859139093036,3.1571006886503015,-13.094803811156886,-12.511817916940485
572,-9.211202905917451,2.9742005069643977,-12.29825954630357,-11.81849005090259
573,-8.690565763666712,2.7121124868133597,-11.478091995344741,-11.207066687155697
574,-8.288307339296658,2.4029621357902826,-10.642606853415453,-10.667907788448362
575,-7.884139742868905,2.070090902948223,-9.790585676066238,-10.19412120611247
576,-7.328415513780547,1.7275885962520274,-8.912617626065831,-9.769418415252684
577,-6.508636414645407,1.3858052646855792,-8.009267693630147,-9.36608426454257
578,-5.371648252602281,1.0638716611285277,-7.103813944612222,-8.952738957927378
579,-3.892679198799674,0.7868352034876328,-6.233813338887334,-8.501640085926205
580,-2.0342514617383642,0.568797287402428,-5.437256277124749,-7.994072244160278
581,0.2461430020681895,0.40743931900621855,-4.743655279308913,-7.421180489443411
582,2.924567779574248,0.2907067228610419,-4.17796686837697,-6.780022105323462
583,5.880817132071374,0.2052675015895054,-3.768758802896001,-6.075005450801616
584,8.942998370101451,0.14211587697315253,-3.5427054343241884,-5.322239996240583
585,11.957462267324793,0.09784980738085877,-3.50908070381734,-4.547507304001246
586,14.819647065374834,0.0775547188180996,-3.649530289834681,-3.777125984366528
587,17.447224270697,0.09720871072556302,-3.9248877683067747,-3.026891699404946
588,19.762827304672896,0.17703889148637225,-4.291647835076587,-2.3029509564470856
589,21.679655749342906,0.3321514378162794,-4.711975676066478,-1.613898390168979
590,23.112518205100475,0.5639852899148964,-5.148489576790932,-0.9719613055306419
591,24.026377845665056,0.8567211225270411,-5.557232513808841,-0.37919804062392615
592,24.4466118820684,1.1818701701666208,-5.899462910691532,0.1776932240267094
593,24.425818149617974,1.5097171272967962,-6.156117694673396,0.716426862702727
594,24.007046889834747,1.8204632594686176,-6.321488813577283,1.2513097965684867
595,23.226136819687287,2.101182030604487,-6.386666988879177,1.7900742483050072
596,22.1381012689195,2.3442477999335103,-6.336420210292196,2.328078145903536
597,20.807230991499157,2.5565146932515797,-6.162282878908951,2.8487462096053884
598,19.27479870226719,2.7546733967797548,-5.873071454603325,3.3311739783758396
599,17.559007767808783,2.94949035373081,-5.492361286320741,3.7569608585406935
600,15.685418330393395,3.1350302156577095,-5.042803282722811,4.111416065476215
601,13.70709413624449,3.280800578795571,-4.537345873994095,4.380039513173955
602,11.705561796577134,3.3394327277328273,-3.9876872950882394,4.553670617521951
603,9.752453146938597,3.2657949335629337,-3.4139656643702927,4.639730913936803
604,7.863151784169946,3.0220951047578493,-2.846812594565571,4.656542193786822
605,6.022824645937546,2.5819123274614135,-2.313352032722881,4.618754116326218
606,4.247976934451785,1.945299318124057,-1.8216599836403062,4.537780546415433
607,2.6009567885845923,1.1414996121566907,-1.36550628939625,4.430492591231094
608,1.1323137446911804,0.21536538264939675,-0.9422775992474299,4.316579040204271
609,-0.16362734209455124,-0.7869677972865883,-0.5612373886540959,4.205951585326687
610,-1.3098333042148265,-1.8293319866084583,-0.22952753386806324,4.0972886599741125
611,-2.2987947092786136,-2.8936753298601747,0.059348413723692275,3.988740703400681
612,-3.092880917284556,-3.976943061886027,0.32157203992417377,3.8853969438729323
613,-3.6712794859358624,-5.079810117019194,0.5716297763195207,3.804858756115281
614,-4.060789705332432,-6.201564270940369,0.8106494795840049,3.776492822587168
615,-4.308068370424106,-7.3356330871495725,1.0332174556839324,3.8249684095520036
616,-4.4402304886460815,-8.46253194625121,1.241897915816702,3.955497251147738
617,-4.443024124958724,-9.546878334206435,1.4496336554144582,4.1613228089522165
618,-4.295491246233992,-10.539400329659408,1.6689653140265885,4.441510369299637
619,-4.027482069800558,-11.388707890322204,1.899960480704503,4.798176900422262
620,-3.7075566301510694,-12.059756771551545,2.136382405683389,5.216957527622799
621,-3.3722440359680776,-12.536348365553504,2.381656442007577,5.667846039064948
622,-2.992525226365603,-12.807841479496652,2.6520197291520047,6.128563614091022
623,-2.5385011849852495,-12.865202468067642,2.960104764868056,6.595628749235787
624,-2.0406192481159384,-12.705771350955997,3.304165765248696,7.073984504072205
625,-1.5601555455312446,-12.335920393875831,3.6776249933100056,7.569132817039856
626,-1.1226944082815644,-11.77808452182949,4.080105320400541,8.08797219270361
627,-0.6949214821155153,-11.078162502899932,4.518630778834838,8.635317863002284
628,-0.23799200018702985,-10.292292194946654,4.994641269602115,9.21087555363765
629,0.24915489295382923,-9.462629604687208,5.496403985704696,9.813400658050918
630,0.7073321270540384,-8.635508048602372,5.9814710390262045,10.438175639954137
631,1.2031463687345674,-7.776705731845214,6.487951663950642,11.07622242902994
632,1.785041345239337,-6.88614717448253,7.032998513659099,11.703800269650179
633,2.4535088518814043,-5.985245464540406,7.6070014073422625,12.298057601168694
634,3.157578379299071,-5.105320177116693,8.181218840527553,12.840293805261041
635,3.831770023363898,-4.277265421094398,8.72629288549391,13.310356498347444
636,4.447130741518986,-3.525828504762373,9.223642332372046,13.691118684469204
637,5.006726625989236,-2.8698932428630632,9.662821710430896,13.979773921698914
638,5.496155678570776,-2.3250676814979103,10.029320016404615,14.186910858541685
639,5.870763253526384,-1.9057994954935769,10.304508354318243,14.325759986040435
640,-1.0329526858987672,-0.16557254294662221,-0.7525647942130076,-0.45360757776324007
641,-1.943998110329722,-0.34663109135215975,-1.523394158388276,-1.0384679192261062
642,-3.2114173238419794,-0.5883022881739103,-2.5983557191907978,-1.8885872222708169
643,-4.813153004395703,-0.8755711840939866,-3.9635919065154983,-3.0172972117176604
644,-6.700572230314505,-1.1827349263138571,-5.58086910699707,-4.412380854699699
645,-8.830961653459848,-1.4848353182725214,-7.395865775340033,-6.034960225114844
646,-11.166065424154414,-1.7630706338932167,-9.340978403433727,-7.825526635195873
647,-13.64206064902581,-2.0051552563905526,-11.336446339440046,-9.718333604416244
648,-16.156228754825623,-2.2041365825197032,-13.304611517833003,-11.6489970599445
649,-18.612127494929744,-2.3626599837614584,-15.198981184466591,-13.554044736618943
650,-21.003471156647134,-2.503558525148942,-17.038611380112485,-15.394812781577981
651,-23.30060369841192,-2.651965847502212,-18.818565622862845,-17.13313500006788
652,-25.449392151619406,-2.8211175736394987,-20.526751042995482,-18.744914686747872
653,-27.382741271149158,-3.008501129903769,-22.151023044978444,-20.209496676864998
654,-29.076743296480053,-3.204812181017633,-23.691684292546082,-21.51172406111764
655,-30.572159039376125,-3.3974839910578796,-25.160028972429632,-22.654723310915745
656,-31.921605819467366,-3.5705450739280957,-26.560334551990405,-23.658210122750784
657,-33.13772866102364,-3.705989971079844,-27.882491358690125,-24.54324561382816
658,-34.1960098999599,-3.7818493156148105,-29.11071582436041,-25.327478762474183
659,-35.08122667865406,-3.7723777384094856,-30.230569535771586,-26.02419053503677
660,-35.81449095952543,-3.657592826558753,-31.23202944438933,-26.636113215513685
661,-36.42010584021408,-3.431299673532387,-32.10292827237355,-27.158395489617128
662,-36.88723848154265,-3.101488627920261,-32.82422963722909,-27.591333649246828
663,-37.17074781853599,-2.691305849663735,-33.37710679139635,-27.93932755941822
664,-37.24627013586918,-2.238430735573251,-33.7535268826222,-28.19801506789843
665,-37.15885127217637,-1.7883430299705532,-33.959896697647366,-28.36016098524161
666,-36.99301303675357,-1.3815992701802133,-34.00508523795656,-28.438698506576713
667,-36.804980569031216,-1.0387295918125934,-33.88875488258453,-28.468229422054453
668,-36.59705010840447,-0.7605484932056614,-33.605548128801374,-28.478545064466175
669,-36.36953233452738,-0.5450218335124599,-33.1605004017677,-28.482964790540855
670,-36.16510025491443,-0.39661588207147697,-32.576716111305416,-28.487886112682553
671,-36.03813608381952,-0.3210884969124511,-31.88373376574251,-28.49648933294613
672,-35.99907468670844,-0.31669675966546473,-31.102820235637427,-28.5062375316475
673,-35.995802074746734,-0.36980822998670587,-30.243623499923103,-28.50815324071018
674,-35.96815135776028,-0.4615635048897726,-29.315309109173633,-28.4851838873894
675,-35.90145596187622,-0.5822121789492215,-28.338297244038692,-28.409186234794973
676,-35.81123468499246,-0.7371513477468182,-27.338999716501824,-28.253688785899126
677,-35.69891809118739,-0.9361695854944477,-26.333987064071096,-28.014399835995647
678,-35.53182707457893,-1.1786830866983735,-25.32184857584407,-27.703687903967563
679,-35.27776537200277,-1.448473582642082,-24.296365992957224,-27.32945777231271
680,-34.951377989832224,-1.7204333412317694,-23.26249388645804,-26.89273686176378
681,-34.613618433127264,-1.9735929199161557,-22.23375725301276,-26.407821788627313
682,-34.30935454763109,-2.1953192859279347,-21.219152423227612,-25.9133897666678
683,-34.020410231340165,-2.376735163147183,-20.21602649052094,-25.44594551325157
684,-33.69890546213347,-2.511134405268542,-19.21957344293075,-25.008747378034943
685,-33.3094132618253,-2.5913739232730526,-18.231011781380296,-24.578688412621027
686,-32.82982601795201,-2.603126196764732,-17.2552917326722,-24.12911385515197
687,-32.2256716651038,-2.5267527868162225,-16.295851630543645,-23.636728138492174
688,-31.452692649496335,-2.3489364822301537,-15.350351913062882,-23.07835208877782
689,-30.495811212323307,-2.070526325488769,-14.422623327609491,-22.430628445285368
690,-29.375348520004582,-1.7030154988980724,-13.537200037418163,-21.67632042724276
691,-28.110222524577118,-1.259055829599154,-12.732372705264831,-20.81181196369327
692,-26.67928731384017,-0.7455986806624668,-12.039584441687154,-19.851578714368646
693,-25.031798413316356,-0.16387923474344246,-11.472652616067293,-18.828871272015412
694,-23.132363655702864,0.4893639253639911,-11.035768814587117,-17.77595291362668
695,-20.980818045259017,1.2223910919238472,-10.731043230518301,-16.70223697851742
696,-18.594979054266553,2.043572620615871,-10.553832114640828,-15.60947950381103
697,-15.974438961130566,2.9572941454345107,-10.478432933705932,-14.514198414536928
698,-13.099477860801045,3.9634089403379957,-10.45456056698631,-13.435228709190785
699,-9.971766683396927,5.048910131479146,-10.428063661895681,-12.367955216182832
700,-6.644353949228918,6.176687939349691,-10.360362224639088,-11.290138814511092
701,-3.211930239521099,7.28709239918027,-10.23068498879939,-10.194917630918692
702,0.2371918945384378,8.311445818592945,-10.02826444220294,-9.100515829215055
703,3.655546888030709,9.18509406905118,-9.747199351286328,-8.033151745080522
704,7.027302032244487,9.857063218274561,-9.388589710275893,-7.0194544891072805
705,10.327025232951895,10.295351162913489,-8.968397086441044,-6.088464890946724
706,13.473114265362012,10.483573658800731,-8.519349953074055,-5.272015174592401
707,16.33599168667127,10.418086009548748,-8.074074612938732,-4.606161232894518
708,18.78961314298002,10.10891010464096,-7.65437000599632,-4.130193091868233
709,20.74864147360129,9.578534044256905,-7.276932550674576,-3.8775363235025115
710,22.161996769053495,8.859788236710466,-6.958279802812695,-3.8615627536323442
711,22.980378847901893,7.991291973638545,-6.714419911388234,-4.078317538222547
712,23.15488641450171,7.011302357284259,-6.5517557407460485,-4.528329012504273
713,22.67393885380715,5.9585564774329285,-6.458367158812736,-5.209870151844831
714,21.606556164190103,4.876097707516665,-6.4075191885261695,-6.086700506577504
715,20.082706795596547,3.8082721416944483,-6.37165210916439,-7.088704177389364
716,18.21932133477881,2.7978572752724755,-6.332254925531441,-8.146132576109846
717,16.09144507509721,1.883983018115357,-6.27356952756979,-9.20852894621614
718,13.761152353150143,1.0957784016424177,-6.177739318732309,-10.232040264756352
719,11.31363786478626,0.4465279208399288,-6.032360890221061,-11.16716920184112
720,8.834359960983607,-0.0692828737403238,-5.83996671813886,-11.964459987281229
721,6.368508405860006,-0.4734653388059513,-5.619213516272605,-12.584484503753504
722,3.9429491774333654,-0.7964101134387315,-5.394732579900671,-13.004766228583954
723,1.6084643131973178,-1.067105747411315,-5.185978985795397,-13.221001094795577
724,-0.5560212515415721,-1.3022271222729431,-5.003880116884352,-13.238896356576971
725,-2.485445998041796,-1.5010226821576031,-4.8582897751350655,-13.065947227338773
726,-4.159156621996442,-1.6493383000068953,-4.765178708105231,-12.712816466536383
727,-5.593495201724348,-1.729762013747962,-4.740599699621488,-12.20020210085692
728,-6.800962248696119,-1.7312505554734325,-4.786191817528682,-11.559920592264229
729,-7.759698040024669,-1.6530316734923964,-4.880789348917779,-10.818543527823698
730,-8.452241747714298,-1.5064739765038107,-4.992946317346563,-9.983460711749046
731,-8.908899994806845,-1.3161984197930585,-5.098431282886818,-9.056889349831364
732,-9.197209915475884,-1.1129613940587368,-5.182065959639157,-8.05306784276693
733,-9.3589502457196,-0.9219103799197775,-5.227713984742338,-6.9916636903176625
734,-9.378376239476658,-0.7612074081176345,-5.210667377553574,-5.881736558519548
735,-9.238073998249062,-0.6483213825503231,-5.10796454117891,-4.7226742391296375
736,-8.972476609578363,-0.5996213083470842,-4.91182101180786,-3.517845404513795
737,-8.668774961596412,-0.6226394210471008,-4.630184994551317,-2.2814499306713194
738,-8.411364562612341,-0.71318862938012,-4.278651321585868,-1.0394525066188876
739,-8.234409709490318,-0.8639304009542612,-3.8690947146046395,0.17115304722926372
740,-8.144497803829156,-1.0763912389506323,-3.409151871991014,1.3106464668092401
741,-8.160664204305366,-1.3651430039380086,-2.9083777453114434,2.347350147146774
742,-8.326666969636555,-1.7562774022331933,-2.3784527683205865,3.253526555994355
743,-8.672370880930522,-2.2797539337086308,-1.823825973278262,3.9939270047920234
744,-9.164108265066456,-2.9535221237669105,-1.2360677389493206,4.536718927619546
745,-9.708332039525475,-3.775635402512089,-0.6087294879840873,4.879522757750715
746,-10.215017742915743,-4.727516439002253,0.04682364514317486,5.044695764003213
747,-10.65065634995162,-5.776296761041754,0.7024189682087062,5.050767045005046
748,-11.00048033236446,-6.8751826805206235,1.3293162258031168,4.909522470937707
749,-11.219783098779924,-7.967841165788505,1.9105217147730962,4.641603740676494
750,-11.25104531565317,-9.000138545325969,2.431036216321531,4.274736621036948
751,-11.07593939672475,-9.924600019644794,2.863560686117763,3.830241775731934
752,-10.740300002220733,-10.700598152936307,3.1742638505175247,3.323981820874883
753,-10.303728181366507,-11.307626283658891,3.3445526010987017,2.7724088180228468
754,-9.78311862870314,-11.75203994447843,3.3803368722229887,2.187461920655323
755,-9.156351303133105,-12.054099649686936,3.3013538569695204,1.5851325615239573
756,-8.417550320639746,-12.230972893305777,3.1265029951681442,1.0042841243908236
757,-7.602735659485043,-12.291301099077849,2.8692837050666467,0.49874860105997265
758,-6.80753846130848,-12.296298823478097,2.5593005171108483,0.08782462776397043
759,-5.97723430607849,-12.157461549745037,2.187304477491103,-0.1697271270505134
760,-5.081936873385762,-11.836638951382348,1.7623042369415172,-0.2421211030726687
761,-4.147910234687131,-11.33264896986933,1.297773113063452,-0.12505386082995643
762,-3.245036460635166,-10.673760517119518,0.8095907637589698,0.14622799249884327
763,-2.4352623768926374,-9.906697443997695,0.3227356819137814,0.508737224941955
764,-1.7363485642097989,-9.088253309430435,-0.13113384682217394,0.9035140768784956
765,-1.138898888182597,-8.28386922753111,-0.5247538051325085,1.2850967429274727
766,-0.6582715188633521,-7.562743474643031,-0.8437528781981872,1.61572933631966
767,-0.32962798553486894,-6.985107525987079,-1.0846703876351471,1.8684687673326013
768,0.0,-0.08273270311670963,-0.7137060299916439,-0.6590795652469348
769,0.0,-0.12881988397992236,-1.5370661153255682,-1.3397472027792094
770,-0.00037493358330921385,-0.15666719049197833,-2.709777796239978,-2.2600141767342965
771,-0.006508591887383588,-0.15472559711828218,-4.231318422985653,-3.4107708354753474
772,-0.024044758898324768,-0.1227894903320447,-6.078852118986741,-4.762744647790693
773,-0.050561923179414096,-0.07010595775015793,-8.20487476830213,-6.270421806095511
774,-0.07348370237445898,-0.006503159114495084,-10.531246997924653,-7.885772149988135
775,-0.058231376919534616,0.059233010760665505,-12.956112113632969,-9.566341401711718
776,0.031209214750257036,0.11400412138255088,-15.377629020986749,-11.27738341357679
777,0.1811919384508145,0.14111945505881338,-17.727727531603886,-13.005966757984739
778,0.30758644302607135,0.1259840997413852,-20.000470895521143,-14.78901248178664
779,0.2864722662630129,0.06379843355228865,-22.157549152212756,-16.640229388108523
780,0.013992047133431829,-0.03234708363854309,-24.14784702491068,-18.553476244384655
781,-0.5789023681286753,-0.133578103363846,-25.922082016189925,-20.49889232077953
782,-1.556667743620862,-0.20730803679135246,-27.449718149159196,-22.432765508559726
783,-2.9910039842896126,-0.22835235231561393,-28.720408877162743,-24.310706480705736
784,-4.935396903880437,-0.18219081526887837,-29.736397482259427,-26.103051500157807
785,-7.386940218831449,-0.06313382219596678,-30.504420179080476,-27.798064357611963
786,-10.275149569064425,0.12384711374848956,-31.041783842561504,-29.388718858270433
787,-13.490045160103323,0.36304677310550304,-31.3857178412811,-30.861986298718914
788,-16.926205250019176,0.6346363966159891,-31.586302708818714,-32.20546830483782
789,-20.494583964195918,0.9199454574106912,-31.690768207973534,-33.42472857761836
790,-24.10837365744044,1.1998140165692814,-31.734373573357228,-34.53646770577569
791,-27.669126079341027,1.452214311296762,-31.747948351700536,-35.53875996187083
792,-31.085660091198978,1.6553198970191287,-31.764901304064292,-36.41137529141844
793,-34.31405432522128,1.791175921605478,-31.813673188997416,-37.14184821847728
794,-37.318510956959734,1.8491469199934567,-31.906493448633586,-37.72979068020936
795,-40.02145396154453,1.8280598892468263,-32.0366133361418,-38.17221784708919
796,-42.334953331361866,1.7379002852649006,-32.193452930414665,-38.46070510610915
797,-44.21676124775027,1.6021880663339945,-32.377482335486505,-38.592124504992825
798,-45.68687043220666,1.4558815608286422,-32.591665671290095,-38.56981334114743
799,-46.77448614235223,1.3375192197554198,-32.82247856163052,-38.398720390385684
800,-47.47248408631181,1.2809223564654564,-33.03683492406358,-38.08730064271548
801,-47.749278569008936,1.3113507209040436,-33.195218114854434,-37.643218078919425
802,-47.59283358805355,1.4422207526292408,-33.2677048791398,-37.06673091950053
803,-47.04719394582306,1.670576622614197,-33.24085198678695,-36.35659707441439
804,-46.185699811171986,1.9773786147091013,-33.10315199992071,-35.51689289500381
805,-45.05238428222536,2.333065504764564,-32.834880554253544,-34.549350165721464
806,-43.644795224305824,2.7050793691011044,-32.4151482740239,-33.44151078781002
807,-41.970786851880874,3.0636447002150096,-31.835626106059273,-32.173878345948495
808,-40.10525062048219,3.3845774540488667,-31.11141222086288,-30.745017460407418
809,-38.15569282993695,3.6550602585351926,-30.265341483741743,-29.18031186726639
810,-36.18637711479569,3.8830808029093675,-29.310180644919345,-27.509130859651222
811,-34.204208479435074,4.096986800726063,-28.250032529076808,-25.750510485508766
812,-32.22772793028191,4.330643369333507,-27.082435548302843,-23.926103835799964
813,-30.32809664094247,4.613186609652193,-25.794628086125314,-22.070146788149657
814,-28.579577866197116,4.966855135666437,-24.35830950544677,-20.224908399515556
815,-27.001010881361147,5.396865851670542,-22.73675945635559,-18.432230389340067
816,-25.556578144054313,5.87800631911446,-20.901787444676227,-16.72912082446196
817,-24.212358191191104,6.359810092723984,-18.842861011021558,-15.140737602391743
818,-22.971830988160903,6.786752465387099,-16.57136817398877,-13.673639022727103
819,-21.854562882776097,7.10721322771197,-14.110843133088604,-12.323431025654612
820,-20.855255749293562,7.271885219068943,-11.472548392882375,-11.083344767541707
821,-19.930977878487177,7.240171408115853,-8.658964100118634,-9.944791585531648
822,-19.057358721377483,6.990168110032487,-5.698451616801295,-8.901600983790333
823,-18.279791734524693,6.522527207550749,-2.6638856778901068,-7.960576212746195
824,-17.68609971499307,5.857639896484318,0.3429230835713996,-7.144557962511366
825,-17.33109149195546,5.029284358748893,3.2227392250185454,-6.48392672911806
826,-17.198728835699242,4.0790118926997465,5.891490534576126,-6.000048503812557
827,-17.253986687358054,3.049270597921688,8.267961720182521,-5.690615917993847
828,-17.48751255182539,1.9792840920573516,10.271639467320567,-5.535373736000937
829,-17.88733225777374,0.903147378336281,11.830510528951866,-5.506575053932937
830,-18.394390983732933,-0.1536594676238916,12.888503615076509,-5.572250969311921
831,-18.919790739598128,-1.1731747539598352,13.417410411382557,-5.701603156710566
832,-19.412394871129564,-2.1382921216149486,13.420678147799228,-5.86766840700627
833,-19.866557926709774,-3.027082449962548,12.92573967600406,-6.04363706041255
834,-20.271792423891863,-3.819320268595299,11.978666094389276,-6.20769236174432
835,-20.581410774571886,-4.509667576662507,10.645090063665636,-6.360159601012301
836,-20.722149507176816,-5.101041343716505,9.007658856846321,-6.51912052287063
837,-20.625075972959692,-5.5849463510870985,7.14716170630553,-6.694096369070736
838,-20.24621825918084,-5.943465419244156,5.131627791268206,-6.881478311028553
839,-19.5556657956026,-6.165195446122801,3.0307486472553173,-7.075692932839607
840,-18.50355659215909,-6.245612273424229,0.924421594126465,-7.2682229364540065
841,-17.027228407444834,-6.181331584968243,-1.1068722169607392,-7.4396582652908325
842,-15.100829881468059,-5.973766488350161,-3.0038088474071687,-7.560209745478263
843,-12.765567431353002,-5.632862016284679,-4.743514051838205,-7.60186341645265
844,-10.115035309333765,-5.17655373811517,-6.332555359617389,-7.549922553721021
845,-7.237647824565328,-4.62898343144748,-7.789919192943511,-7.404200023545917
846,-4.184225495623665,-4.018536270168335,-9.133528941054749,-7.172364017117557
847,-0.986224854000061,-3.3720907176888826,-10.374860200147076,-6.862654084145972
848,2.3162068790513137,-2.7083604730347353,-11.521355338098074,-6.4811081833983994
849,5.645959860530562,-2.0389101287072697,-12.57909804154384,-6.037175278461171
850,8.886902257653972,-1.3711545895996222,-13.544163480777096,-5.5493436523568915
851,11.91872867330269,-0.7077657021780023,-14.395645341551543,-5.044717229685742
852,14.661113191365573,-0.04851241711032968,-15.110002093847097,-4.547102404480141
853,17.066250586250394,0.6013656863160788,-15.68033004829276,-4.064036753004981
854,19.06753078847468,1.2234502002036365,-16.119665705846288,-3.5975144900608362
855,20.57951281834298,1.7872709841407113,-16.446922745047893,-3.1553646424879807
856,21.54447370786931,2.2572268998818177,-16.672413348344623,-2.742556614539322
857,21.963613602661358,2.597875651416314,-16.797664348408546,-2.3574523562226846
858,21.879535038810136,2.7786400145777685,-16.825916297195306,-2.000048833290161
859,21.326765838694104,2.7800264979204785,-16.77023100540813,-1.6788786783001417
860,20.3261731048658,2.5960707853435077,-16.643849718264583,-1.413224098146216
861,18.916605883205442,2.229764537922545,-16.449564171176448,-1.2313905489105328
862,17.163205977543395,1.6904319135989851,-16.184297765328537,-1.165592997965612
863,15.128697223387173,0.9976164628878704,-15.850476781529522,-1.2360103718606004
864,12.853637773053793,0.18323797593441163,-15.464632508050489,-1.435596812531022
865,10.383082570439955,-0.712968290356508,-15.049234366799451,-1.738392424898943
866,7.806510335229971,-1.6488517290349551,-14.616444104738306,-2.1151113905472347
867,5.263920140923905,-2.580780782734886,-14.16409301402955,-2.5314756893560206
868,2.876330301619846,-3.47334575496456,-13.685452059827952,-2.942773624952806
869,0.6769174037683394,-4.314839212081573,-13.17510239552272,-3.304735785398095
870,-1.3584574197549244,-5.113420813731174,-12.621446232718219,-3.591922618905876
871,-3.232201608186215,-5.8803032696076025,-12.004223186778795,-3.7977767388049557
872,-4.898007178437382,-6.61781259410929,-11.30204714633658,-3.9185743603142886
873,-6.323448167054408,-7.31332531288819,-10.506849973179664,-3.953131194416157
874,-7.543754325659641,-7.940529358572765,-9.63541086994669,-3.9124617733598006
875,-8.627118973367004,-8.46626333474945,-8.717648358765548,-3.816168973949411
876,-9.60015101317579,-8.856782907817395,-7.774094304680628,-3.6801854887125574
877,-10.42003090532381,-9.082791376057134,-6.807593587640408,-3.506463405849104
878,-11.031985333249944,-9.12482049573282,-5.817669531544195,-3.282951198645935
879,-11.426526824672447,-8.974841222436197,-4.815262118887687,-2.9889424279345653
880,-11.639362700872656,-8.63560656099562,-3.8182546295728197,-2.605579909938947
881,-11.712369709409417,-8.123049848758232,-2.8376186542958046,-2.1349008846684545
882,-11.660378326647422,-7.467564722236223,-1.8708998974769568,-1.5954968628828028
883,-11.486285486807722,-6.710361536693231,-0.9129258017690938,-0.9947498111697216
884,-11.21425024212436,-5.896661054493334,0.03473952952972495,-0.329134477463188
885,-10.889127666171303,-5.06639696124883,0.9681115199782453,0.3932481366369137
886,-10.617893156934482,-4.257114297566153,1.8375993517608047,1.1048072645696587
887,-10.248126710471775,-3.4558067999160853,2.7306060282308433,1.8615601917127678
888,-9.710886082144906,-2.6667025691484465,3.678616095170953,2.679746465647019
889,-9.019330039940884,-1.9094268703947967,4.6720494095976814,3.545831539325828
890,-8.221616348118173,-1.2124574975334947,5.680681704831248,4.429122916154378
891,-7.3477920764135645,-0.6046812357566402,6.672140309357304,5.2937994084903375
892,-6.414280230645571,-0.1059959926203255,7.614495495930371,6.104429375219864
893,-5.473648926961137,0.27639149409991964,8.465214106022003,6.82715496834134
894,-4.622744559178252,0.5472676743779037,9.174017871244894,7.4308692539939125
895,-3.956827439087868,0.721169379659916,9.70279541775626,7.890632898211447
896,-0.48509326484081083,0.09516018707006027,-0.2271191765492126,-0.45641551204168435
897,-1.1716802687488919,0.05641763636654805,-0.58161789501554,-1.0030524956731148
898,-2.203342009437382,-0.062048143735601274,-1.1229441335472718,-1.8223683568399394
899,-3.563056142298327,-0.283268283914758,-1.8615539703356052,-2.937036120810996
900,-5.2350485050673,-0.6248852772667537,-2.7986747502521414,-4.339486672231662
901,-7.202841929745361,-1.0931132401176824,-3.9243774474225583,-6.003072474901062
902,-9.405737734228977,-1.6717550768644394,-5.209318135415476,-7.883686068593303
903,-11.728234140827217,-2.322358948043863,-6.604946846257203,-9.914617089434456
904,-14.036715398016398,-2.993045219652686,-8.05767779475805,-12.015217450605373
905,-16.23927749612481,-3.628432558501966,-9.529257678791625,-14.110506061561692
906,-18.31791023104889,-4.178667761897377,-11.010914652221818,-16.158264524778804
907,-20.230941425562435,-4.609566578178205,-12.488046424258595,-18.105940947101093
908,-21.918250329428346,-4.9086667988807555,-13.951642850438791,-19.913668048425446
909,-23.336010760866582,-5.081827192058343,-15.402795520495893,-21.550311285148577
910,-24.490997052993126,-5.145684849517633,-16.851197792174766,-22.987192254369994
911,-25.417087986830712,-5.124790477996187,-18.303097525861467,-24.20613392723093
912,-26.13236447554133,-5.047974615054057,-19.748442701728127,-25.214433715489793
913,-26.622510935132954,-4.941770273994608,-21.15993228327121,-26.03064339188133
914,-26.880448264891417,-4.824262666485226,-22.50769408175277,-26.65873810783503
915,-26.950497087727662,-4.703879941290581,-23.772328360104183,-27.09542287303452
916,-26.90965916643885,-4.581465104180209,-24.939465839239364,-27.352501536667976
917,-26.815819009080638,-4.446414048411307,-25.99051814445807,-27.455737502968944
918,-26.698624576833662,-4.275007643886191,-26.903827433942823,-27.427875367630804
919,-26.595998055557047,-4.043696275655143,-27.66835987511544,-27.288293740086647
920,-26.546585592623714,-3.7382193426864765,-28.29385195253807,-27.06721957203004
921,-26.544943051139047,-3.351671634938842,-28.80345187978136,-26.805024762694774
922,-26.52561059293702,-2.8875512143870803,-29.218067797929276,-26.5402983858109
923,-26.389805429478177,-2.363375842444298,-29.543287996933216,-26.3020057904389
924,-26.055495481431183,-1.8094099118956957,-29.776707910460757,-26.100474431778444
925,-25.477517102947136,-1.2625392379203688,-29.922423005944495,-25.92484918191566
926,-24.638469250373998,-0.756549593061011,-29.98944956653605,-25.761862590296396
927,-23.51448700495876,-0.3164003987170525,-29.982387130495507,-25.620581653073955
928,-22.04987901579884,0.04272922533515652,-29.89689394880828,-25.522576293697334
929,-20.20827909180073,0.31186163661525984,-29.731226330835874,-25.467324931411248
930,-18.039053953736925,0.4841521109220661,-29.49907390510512,-25.435689647256808
931,-15.681645273702445,0.5568461448494664,-29.224231739424926,-25.429344899820634
932,-13.298123669941221,0.5364480151143193,-28.925576250187966,-25.479771319083145
933,-11.009882455971418,0.43895051721201683,-28.61075757344791,-25.615957663588535
934,-8.91423173492222,0.282104289897151,-28.285828999054537,-25.842621333137238
935,-7.119137325256235,0.07647892851095874,-27.96263746274459,-26.147094232717244
936,-5.741735128938192,-0.17561718816164026,-27.65387666927104,-26.50654088055195
937,-4.879595820394826,-0.47310052437204964,-27.361767354209874,-26.88919406905314
938,-4.570900483769045,-0.8121451538900795,-27.07272963991113,-27.260272982306862
939,-4.787928898620067,-1.185305148872028,-26.76916140987527,-27.586269574983014
940,-5.4719130343659454,-1.5804804345854808,-26.4462763215647,-27.83680938531783
941,-6.564096510125723,-1.9857248882175222,-26.112179681595286,-27.98983371525269
942,-7.9988815499245085,-2.394936830529115,-25.766745384760085,-28.03525274624084
943,-9.682421583153726,-2.806843985281194,-25.39047617421973,-27.964980194073117
944,-11.499744586779922,-3.2188643257791787,-24.960008948657403,-27.755716007588568
945,-13.366038630656563,-3.6223276782004508,-24.465854743647782,-27.372312420223096
946,-15.258369986962787,-4.0034179525344715,-23.91315136618215,-26.798887990261097
947,-17.156135272117368,-4.344292556749385,-23.30554782542486,-26.053499126024285
948,-18.985449096300172,-4.623679079557827,-22.6343841753466,-25.161481488121975
949,-20.63704757097363,-4.819679670204069,-21.889599362135662,-24.13521809128783
950,-22.025592129165215,-4.913506087026233,-21.075207032898188,-22.986577731692467
951,-23.13223579072536,-4.891810802649495,-20.209112537607467,-21.74413008615819
952,-23.96749467200606,-4.742350677768771,-19.30771481568713,-20.446385788837283
953,-24.520861127847468,-4.44744636679704,-18.37374504649847,-19.122581985769763
954,-24.76391744688425,-3.9874066033273006,-17.400302043026176,-17.783886880365948
955,-24.690442422616687,-3.3541672297869303,-16.385396592436468,-16.418125650415533
956,-24.345534254357567,-2.5622063778900426,-15.341225352888209,-14.998889963434337
957,-23.796239050672792,-1.6494657191745274,-14.28284406636649,-13.511389583975522
958,-23.085783731298072,-0.6699724904463732,-13.212926339611144,-11.968600361259078
959,-22.22401626716912,0.31929974916188275,-12.1232487947898,-10.401675847148288
960,-21.231531102413825,1.2682566182363326,-11.01075900241901,-8.838175951713042
961,-20.181960620141336,2.1313738592528306,-9.88985958361329,-7.30550034852666
962,-19.174175941383915,2.863511824810995,-8.779385055846685,-5.8448856445257436
963,-18.274833642387538,3.4259472744915116,-7.687032150167832,-4.501760819962757
964,-17.50020310336089,3.7928653573883295,-6.615429580044424,-3.3055003188151226
965,-16.869013203953017,3.9516239287737673,-5.57333537884764,-2.267932718368127
966,-16.439643515936034,3.9029950008154732,-4.575079513080415,-1.399065253016011
967,-16.271986988672506,3.66094367469875,-3.6268386125605114,-0.7091633957792078
968,-16.374915550743136,3.2516197762467827,-2.7183121832568324,-0.20066975863401526
969,-16.694314523878166,2.710316243842689,-1.8320153154874455,0.12922014645721724
970,-17.17317546271578,2.072740728330497,-0.9612574601701412,0.2806474994967472
971,-17.796622226058076,1.365855197245719,-0.12145069812858426,0.25160333700793114
972,-18.5603611942912,0.6073817058853064,0.6609300245230312,0.040270852026681125
973,-19.423340870855007,-0.18679536953015416,1.367444070387904,-0.3517107251513364
974,-20.288535744170876,-0.9997360221740184,1.990115935006918,-0.9015869217328046
975,-21.062720643479665,-1.8167023396725415,2.5155297953105547,-1.557062409931727
976,-21.73273010731019,-2.626559534683822,2.9148087190811425,-2.2566647630673105
977,-22.334835792654136,-3.418932550214336,3.159651884181602,-2.9564603187276153
978,-22.875050195924075,-4.177385411352925,3.2475405833469217,-3.629777047837561
979,-23.32022651818205,-4.873227625356376,3.204650168136823,-4.246447183191123
980,-23.63918426048363,-5.47007979649525,3.0615472296756376,-4.774131344768164
981,-23.810786824225495,-5.935019767924545,2.8357485687825883,-5.195057918704209
982,-23.796040290169923,-6.241136610158987,2.5373388035198206,-5.5109354115295295
983,-23.51198711337196,-6.369591195460837,2.175420617179508,-5.7377415029586665
984,-22.851853938475244,-6.3188210346330145,1.7577621107421133,-5.897673096656914
985,-21.737744477013695,-6.1048473313169165,1.2836504206251307,-6.01089308028805
986,-20.145835201541395,-5.751318273962409,0.7403732891119517,-6.087439264778933
987,-18.09393303150414,-5.281549373978033,0.11653807316811884,-6.127059081096186
988,-15.598469755386601,-4.712827724157298,-0.5805304850878784,-6.125813727153978
989,-12.664359555684173,-4.052522864303759,-1.3196303019892328,-6.077951266401642
990,-9.325435990502523,-3.3017034886063596,-2.0609447918817727,-5.971287038049616
991,-5.681530030115525,-2.4622194891706504,-2.774273816785629,-5.7893810956400324
992,-1.9031256577874862,-1.543829382254202,-3.4419280156139846,-5.52853280083689
993,1.8397300187080639,-0.5731818907306266,-4.049034098374121,-5.206220974071663
994,5.43365922541011,0.4107501395007909,-4.5778542185292705,-4.844336782582358
995,8.801007379668695,1.373817551981664,-5.018794321669596,-4.452279209199271
996,11.881230545182603,2.296604950957034,-5.378443684475243,-4.026359158106854
997,14.611639197973592,3.1750588478488133,-5.665446857748253,-3.5530997971336076
998,16.93166175136482,4.0173881081237255,-5.867551466883482,-3.0111406550610393
999,18.82120989422228,4.838274799760147,-5.94875205293332,-2.3731027236818916
1000,20.311214180885894,5.653016612639765,-5.871726691780648,-1.6104698847063341
1001,21.45609518812939,6.475248632588639,-5.616562035502369,-0.7037997976567693
1002,22.292859297941703,7.3106847779619075,-5.181666307304006,0.34609745640315687
1003,22.82891146786093,8.144531736311423,-4.5761884481311474,1.5110444231230082
1004,23.06538802156455,8.944434159947695,-3.8163875010611092,2.7365990216319114
1005,23.017478605939054,9.677657640236223,-2.9296707017646666,3.9583218984391135
1006,22.694885647613706,10.315870262949737,-1.9606334705380197,5.123729591078192
1007,22.08107632230723,10.830489722428945,-0.9709410011624617,6.192200829283771
1008,21.15840817005086,11.193627379181812,-0.01874666091357724,7.122807616913591
1009,19.947711736603026,11.387402200183859,0.8637808973764111,7.883383645465942
1010,18.51904601480756,11.412620194180255,1.6661801294162981,8.469576386812617
1011,16.935177130316017,11.283139131119373,2.3803691728591914,8.895850503673042
1012,15.198989022104909,11.011291639744531,2.991161150428915,9.168623441445144
1013,13.293045758093136,10.605802496764301,3.487595264343348,9.283295915560412
1014,11.27463044674331,10.113404920466484,3.873305344438622,9.25191152268445
1015,9.131753316356557,9.49515512557349,4.156722979688406,9.048635552502704
1016,6.896558624455281,8.75355963376614,4.3398000323639465,8.680092607211629
1017,4.621366440768905,7.9215057243105536,4.428389416622924,8.174395231509054
1018,2.3955079514760267,7.049818770304981,4.442029630634115,7.575371326237093
1019,0.34263577977554127,6.195983336079565,4.4098640860693425,6.938653178525522
1020,-1.4147568111526985,5.41552999050537,4.359257782120975,6.325169447253192
1021,-2.80472063403079,4.753020706567545,4.308874391134488,5.790924752438564
1022,-3.8233779495667215,4.232820169272569,4.267831002076089,5.373939310266062
1023,-4.506319854080841,3.8585705112667164,4.240714129827905,5.08408332636646
1024,-0.20302882157811247,0.01936072619340677,-0.4153631439409101,-0.5704400378682113
1025,-0.6505533346269626,0.12367393693488525,-1.0586851880844468,-1.175998673295405
1026,-1.353062421856851,0.2743639663716735,-2.0370285922616573,-2.032237993568006
1027,-2.3226434921948194,0.4687454481580761,-3.3733527814730055,-3.1292701096391684
1028,-3.57818201274499,0.704084513643242,-5.067864826435292,-4.43906752659655
1029,-5.126701142741318,0.976047070889941,-7.088023735477247,-5.921479318227094
1030,-6.924050713290502,1.276127102330851,-9.359984897302432,-7.527771385856754
1031,-8.880033388021761,1.5931449272959584,-11.777434706808561,-9.205041336630444
1032,-10.90877177055754,1.9144925954612464,-14.228751605411352,-10.903197126327472
1033,-12.967958829768975,2.2249206761463878,-16.625997214526418,-12.589972076102953
1034,-15.058521237730545,2.50685267855433,-18.92589084703514,-14.273806797243093
1035,-17.15334161699911,2.7425664241841665,-21.06879769139068,-15.936394088933303
1036,-19.208152159922058,2.9145592147480017,-23.004006332455397,-17.550284450373642
1037,-21.195442598227103,3.0030299146232853,-24.703617785863685,-19.08793296933168
1038,-23.127236652170613,2.975916973751264,-26.16267007816112,-20.5346674563566
1039,-25.015633067597573,2.78815004269338,-27.381958153417834,-21.88770636119348
1040,-26.823147823894512,2.4051242705373097,-28.354497466282567,-23.141134042201305
1041,-28.483225513122136,1.8189354208612987,-29.07474622525603,-24.28289487177708
1042,-29.96560300047687,1.0461019363070965,-29.555975023228335,-25.310024320040974
1043,-31.30459840982929,0.1258779224296423,-29.825354039200224,-26.241103914557442
1044,-32.53896029019269,-0.883485357503334,-29.898244876213724,-27.101000861033352
1045,-33.65235207274451,-1.9170879233154003,-29.77091430618125,-27.88968358272876
1046,-34.59680999602273,-2.915676318283606,-29.43968773357142,-28.581388913305744
1047,-35.351681733553235,-3.8354554114586743,-28.919125554692673,-29.14468251425794
1048,-35.94772135184372,-4.65835334531408,-28.247368518009417,-29.552224675914275
1049,-36.41861048464844,-5.392385384950103,-27.47074891043783,-29.78891719914354
1050,-36.75829132491042,-6.061089991432485,-26.627044997703923,-29.860339850172036
1051,-36.93874698174374,-6.692880850771151,-25.748287880729293,-29.788317867523315
1052,-36.95623507597619,-7.316127367468212,-24.872582133498913,-29.602242370962617
1053,-36.861216577283805,-7.958932041828979,-24.049532449388703,-29.34051119932342
1054,-36.72043465898104,-8.645224147449499,-23.324840351763253,-29.053582674631873
1055,-36.555874112286304,-9.382781081793112,-22.719245599378038,-28.78577708214309
1056,-36.331398703955436,-10.151931554575706,-22.22596915480453,-28.547135491092103
1057,-36.007608245991655,-10.909484443956226,-21.82645564015135,-28.310769273325167
1058,-35.58693014658336,-11.60503506154369,-21.503345844408045,-28.029411696018435
1059,-35.076241166763054,-12.194333910888064,-21.236663259413266,-27.65338639397659
1060,-34.44567978863767,-12.650201548747471,-21.004304243756653,-27.145128558055607
1061,-33.64589373247027,-12.96836911726554,-20.79670833700139,-26.489330262794425
1062,-32.670065639680104,-13.163268525236427,-20.627047446973027,-25.702810387155978
1063,-31.576790921419025,-13.260904097787295,-20.52396862577629,-24.826032559156573
1064,-30.436792354405036,-13.289026345924347,-20.513526765155614,-23.90394157502275
1065,-29.283252934153982,-13.265088916393216,-20.603431707565036,-22.983156713124963
1066,-28.106764934227797,-13.188661045051866,-20.777789942224032,-22.104672137592274
1067,-26.893134910139185,-13.042057537670129,-21.01082556207211,-21.281428219636222
1068,-25.644754513430208,-12.795496803339216,-21.279045158673703,-20.490592051851845
1069,-24.365205502875046,-12.412788944944174,-21.554485628053268,-19.68832957334244
1070,-23.033669566258094,-11.854737348769172,-21.795012580552992,-18.824325857346118
1071,-21.597384133460576,-11.081223293915745,-21.947214368942017,-17.84802739553201
1072,-20.03118393440008,-10.062707803147168,-21.970778794283607,-16.720456535454478
1073,-18.384824725337534,-8.79937375177182,-21.857294510831565,-15.438736078347432
1074,-16.748931886292855,-7.3335838672889535,-21.620787585120418,-14.041968713784517
1075,-15.189970617657844,-5.7438287941062995,-21.278948367112754,-12.589401071107767
1076,-13.726437917122967,-4.123093001217994,-20.84419112876623,-11.14481750603087
1077,-12.377356779571706,-2.5577218416011216,-20.329791607119454,-9.768510227228502
1078,-11.198358407843136,-1.115762748008375,-19.753879604038712,-8.510283121954735
1079,-10.256493781521483,0.15435617463102652,-19.132323491471563,-7.407525251386707
1080,-9.582121012109521,1.2223366483905924,-18.471612366777357,-6.48370650026885
1081,-9.148464361327996,2.0747350391467756,-17.7707416801207,-5.744729678107312
1082,-8.90770101454164,2.709695875662336,-17.033157910409326,-5.1760527442918
1083,-8.8376291394993,3.1300926724386136,-16.276488661135442,-4.75445838785087
1084,-8.957840725690312,3.339001844163839,-15.530611460536258,-4.470607663649253
1085,-9.291604258469276,3.3407596807349518,-14.821425999195824,-4.332559952278079
1086,-9.816863094692494,3.14305648428531,-14.158198015512049,-4.347806066240104
1087,-10.478958925380105,2.7551844353707837,-13.54455141859866,-4.510512186303826
1088,-11.242023309439787,2.1850642655351393,-12.992387318183575,-4.8059347975326245
1089,-12.109511444392027,1.440724646436927,-12.5163513067152,-5.2231402399892195
1090,-13.078019871537338,0.5382711990781096,-12.117373109677452,-5.758977330372569
1091,-14.101228659772177,-0.4933395914568953,-11.778965652901721,-6.406821924255564
1092,-15.121264783796915,-1.6184316822143683,-11.482082532063242,-7.148326459420753
1093,-16.113225724438564,-2.806448456009796,-11.219111877653706,-7.955554856455379
1094,-17.0908769224029,-4.032398864659934,-10.993378085918359,-8.791795912237086
1095,-18.060440723348535,-5.27115733962023,-10.80712133689686,-9.621509933633938
1096,-18.992856330692288,-6.498148092625923,-10.654140956551077,-10.429359693675957
1097,-19.8471301038004,-7.687709045869975,-10.524701559803958,-11.216131031649542
1098,-20.603885349275853,-8.810595160286873,-10.416746520721079,-11.976865376628272
1099,-21.281612800466828,-9.837837432709467,-10.339856910980448,-12.698488129379093
1100,-21.89763744394256,-10.745606671226607,-10.300876806023226,-13.3713588615208
1101,-22.420157071217524,-11.511658490883718,-10.287968695347047,-13.98396429122287
1102,-22.77434200664707,-12.109728532698064,-10.271530608987542,-14.513584737835878
1103,-22.90096374349507,-12.510337128769322,-10.220585852077528,-14.934349405939603
1104,-22.79777297221719,-12.685732012406941,-10.11452814807134,-15.226772214356652
1105,-22.476492578075614,-12.616390025434802,-9.934812770290048,-15.372958690665078
1106,-21.911035910653503,-12.297635086017625,-9.660197930510455,-15.347781978106905
1107,-21.049118273044485,-11.737909031873905,-9.274238598312062,-15.120667863036314
1108,-19.867227904809802,-10.946690186461371,-8.773359615507538,-14.66583230556385
1109,-18.398768459868485,-9.935499536107509,-8.173396207122806,-13.97666477478708
1110,-16.698979626696175,-8.730683132909911,-7.500135618756357,-13.074933731108922
1111,-14.804417186699643,-7.375624958847302,-6.773960810048392,-12.008255328792735
1112,-12.727623059440976,-5.922936105124653,-6.008367093546708,-10.835884729058455
1113,-10.496859904736198,-4.42175556656994,-5.2175169081713575,-9.605702481457223
1114,-8.189423336377127,-2.9123680901248834,-4.422180175398185,-8.351749633777455
1115,-5.906874891655028,-1.42875077126363,-3.640238509479341,-7.112378154152599
1116,-3.7223399836065525,0.0038306340284211537,-2.870461498349955,-5.931878500092465
1117,-1.653616391959593,1.3727389476369247,-2.092960278945125,-4.8388151413750125
1118,0.2902647128809963,2.673373933951007,-1.2921858236325074,-3.8307504786018054
1119,2.063070178475465,3.8975496690312683,-0.47669623609809136,-2.892337078002468
1120,3.601102750897761,5.033233628244152,0.3265978512402399,-2.017355475737189
1121,4.870931629261846,6.074856647174229,1.0909129825014816,-1.209618248947743
1122,5.892466484715253,7.026547021918783,1.8003500318895844,-0.47820157511723943
1123,6.683820255819261,7.897975690059865,2.4420351122530732,0.1672356091590718
1124,7.213659820068415,8.69732159200087,2.9977452388639754,0.7173184333626206
1125,7.43422288339917,9.419108534754463,3.4509773392072,1.16014494571818
1126,7.332124484107345,10.040745765512671,3.801712599948283,1.4843534693356433
1127,6.946603454788563,10.545154899070617,4.070983184282832,1.6877711423948025
1128,6.338373077962734,10.940366827509637,4.281194289696129,1.7808815015785093
1129,5.548125023607173,11.250232093597466,4.4398469284290725,1.784877314268203
1130,4.592000737220383,11.494712961290507,4.543755176689361,1.7226612608608525
1131,3.5077000977806394,11.680756606431789,4.591128745161398,1.6084032988927568
1132,2.381788719160555,11.811628718633079,4.589535813163416,1.4557550767180907
1133,1.3080314930676777,11.900774142339108,4.541455729934374,1.2895701920821028
1134,0.3416587519402904,11.973789492065755,4.428939626958998,1.1366902380694424
1135,-0.5053013159415867,12.063343123043907,4.225662689697677,1.0075975096554937
1136,-1.2180173340442344,12.20388527037209,3.921540055812899,0.8995179524920617
1137,-1.7481716715133053,12.42667484107741,3.5322549837805526,0.8170402330153572
1138,-2.0539364996789904,12.755070445536791,3.0823288736442414,0.772237525532544
1139,-2.148722894304113,13.202285733071362,2.5856509217744303,0.7720557548012186
1140,-2.0918239480609677,13.772363774652291,2.047717839468813,0.8145080072254266
1141,-1.9245521628387687,14.45974525881425,1.4795139733795017,0.8959315642508601
1142,-1.686757460863852,15.23923111127727,0.9088528012011932,0.9729367078340189
1143,-1.3024334517562097,16.11007283467928,0.32658405459556494,1.1468693768804352
1144,-0.7741020107937467,17.04283206828499,-0.26981033641282653,1.4675626934005868
1145,-0.14796311951506913,17.979949861499342,-0.8736667155154605,1.9414836933669557
1146,0.5332240421301396,18.85277413165083,-1.4614236227855864,2.5427454444676627
1147,1.2506492173540997,19.61051315452712,-1.9988473425676152,3.225895175358756
1148,1.9868979186890827,20.230917923811308,-2.4581106283445027,3.9418032605907913
1149,2.6942550357210657,20.709291882922425,-2.8284423112729704,4.642153479435684
1150,3.3070653043520952,21.047041165453923,-3.1117228337039253,5.273039496247624
1151,3.7839722926091057,21.253287631362436,-3.3086157760356634,5.782766372068395
1152,0.17789174397118923,0.09463375763004206,-0.4502435734611209,-0.470214214058241
1153,-0.0026101724551967354,0.1638988312444514,-1.0040372747104025,-0.8983863676316239
1154,-0.37276586596705136,0.23007338607791658,-1.8088486943640139,-1.4868214184586794
1155,-1.0020627234392177,0.2717994989073631,-2.8844138137071487,-2.24474607275185
1156,-1.979727377672444,0.2639671731631181,-4.232904168292832,-3.1773628282296444
1157,-3.362027183851848,0.1850256290965726,-5.830432193945653,-4.287901927491458
1158,-5.135429816291387,0.021279745715047566,-7.626985839026356,-5.5764396076659875
1159,-7.235070375249762,-0.23511958461421684,-9.56002690089246,-7.0342936965937515
1160,-9.59479537144768,-0.5904052076488384,-11.576253554117422,-8.648901707491307
1161,-12.16741906682621,-1.0484466754156674,-13.645879258993244,-10.420909504041463
1162,-14.907841169361745,-1.602045553091286,-15.768522583492121,-12.377839374722761
1163,-17.742649502796713,-2.2314955743106304,-17.910566789798406,-14.50700095171024
1164,-20.591641465933552,-2.9051783429751783,-20.028869146108438,-16.762394984185523
1165,-23.4134209710524,-3.5883826619573895,-22.086599616756843,-19.082182157325818
1166,-26.185949837952293,-4.249030527460645,-24.05459294105232,-21.405871500776538
1167,-28.864399627833055,-4.8626645600967215,-25.905111882837346,-23.675890090305636
1168,-31.376915104280663,-5.415404808330273,-27.61209884701658,-25.843621681874748
1169,-33.67618893006159,-5.898663205711867,-29.15765964843931,-27.877909782109654
1170,-35.7698002458111,-6.299950585700446,-30.536122779176377,-29.761298945209678
1171,-37.678652606963716,-6.600796551598553,-31.747360765422876,-31.480201391752285
1172,-39.39165434476364,-6.7800656639575285,-32.78975377320788,-33.027658978381154
1173,-40.862413938094136,-6.8185415067277875,-33.65859656943017,-34.40657687915267
1174,-42.054378551254274,-6.703954251879732,-34.35331959291283,-35.620294531452245
1175,-42.974194256128754,-6.432205892905156,-34.88491838980204,-36.66397581455099
1176,-43.66122390999624,-6.006156232202159,-35.26881617389954,-37.524931039293804
1177,-44.13592537697945,-5.431417244962911,-35.51083006044877,-38.18500741397985
1178,-44.35693455627262,-4.712782355590897,-35.60042537689996,-38.61287174102714
1179,-44.26678967828982,-3.863996415801621,-35.527599753270444,-38.75862732216056
1180,-43.86437282309826,-2.9200799512799542,-35.30340497433053,-38.57854642339168
1181,-43.21396995235975,-1.9340651640861908,-34.95456722893091,-38.06891495822313
1182,-42.380262864122884,-0.9620721871813259,-34.503163319205484,-37.26613022575292
1183,-41.380151814983556,-0.051340272959979116,-33.957495961404724,-36.222119618141576
1184,-40.222321983840494,0.767716083993327,-33.32345143643985,-34.991036796943355
1185,-38.950588494288276,1.4867887825081187,-32.613288628908826,-33.62834367452677
1186,-37.63076440747538,2.1070103343879074,-31.840547763481407,-32.187618407512915
1187,-36.302208421408466,2.6180021243149056,-31.01113605184096,-30.715572675464422
1188,-34.952996890308405,2.995740646461158,-30.120120953122836,-29.24725537841528
1189,-33.555776626668816,3.216781475976915,-29.16417587525485,-27.79905925423286
1190,-32.11490162875007,3.2688620541542095,-28.157652247999575,-26.36276701975795
1191,-30.682002684612524,3.149508609369413,-27.13147606972519,-24.918880051883203
1192,-29.314107852753875,2.8610522972264594,-26.114071239948007,-23.46315549626856
1193,-28.020371814490087,2.4075231449547934,-25.118927012001176,-22.009385080195365
1194,-26.774489758659254,1.7915767415365567,-24.153380243177327,-20.570523488635178
1195,-25.578319411169105,1.010377711348133,-23.22889286975983,-19.15105738327855
1196,-24.489303771662033,0.05942981156717114,-22.35805432425987,-17.76216715264847
1197,-23.553931349383735,-1.053961227554371,-21.5389833347551,-16.433265087240922
1198,-22.75513290784572,-2.307971911421188,-20.75043922798258,-15.192311468880602
1199,-22.045467164646297,-3.6747256088835885,-19.97010384669504,-14.051357753751747
1200,-21.404006038008756,-5.127320335112734,-19.190654138341348,-13.018204483859385
1201,-20.853996130136,-6.641998791057704,-18.418889596445215,-12.104321255229747
1202,-20.41758139976955,-8.197683610456926,-17.665386589070426,-11.32282388432114
1203,-20.082551484436863,-9.774882183281417,-16.9394756251746,-10.684722052746263
1204,-19.812967370542825,-11.34936717891308,-16.2517506332872,-10.19636171320847
1205,-19.583989225004654,-12.891678956884332,-15.61781984315462,-9.855387569093866
1206,-19.41164027779176,-14.376482530449406,-15.058062853601733,-9.654219388399703
1207,-19.319729149753755,-15.787407614177217,-14.584481149830228,-9.592824675091945
1208,-19.292813066817757,-17.11203407660023,-14.190958966187978,-9.678199780651912
1209,-19.277586118111227,-18.3327983662206,-13.861714453830299,-9.906902006824144
1210,-19.239116385566895,-19.425668284179576,-13.587745952558336,-10.257624423454914
1211,-19.201470580092888,-20.367145441381737,-13.377063215161282,-10.712616218612247
1212,-19.206710969685574,-21.13883116324166,-13.243079227236425,-11.275388079206207
1213,-19.25633420720334,-21.72552421056743,-13.188560361851462,-11.95085656658124
1214,-19.30214054771072,-22.113238626829084,-13.205430865324889,-12.717048776530495
1215,-19.304720052878217,-22.291152088218446,-13.285044862813152,-13.526613030865466
1216,-19.2766380337628,-22.253471022260044,-13.424588231635461,-14.327676012415067
1217,-19.24294224550223,-21.99765860002467,-13.617136729734955,-15.071105841521707
1218,-19.189577283194854,-21.519791706573027,-13.842714372654251,-15.707410910591602
1219,-19.059295587942216,-20.814940801351288,-14.070252688286024,-16.193119736195722
1220,-18.801758152174877,-19.883011022660643,-14.26784469418222,-16.49897432010496
1221,-18.413925781490864,-18.732468215307776,-14.416738145556133,-16.609034398669305
1222,-17.921821090958332,-17.382201170916563,-14.508882100161415,-16.522866591063664
1223,-17.329518850708062,-15.856278215154044,-14.532641787392073,-16.263574787555527
1224,-16.595524604500532,-14.17499242290577,-14.469373514993956,-15.865358222602199
1225,-15.682173753165632,-12.356080450274462,-14.307698729840412,-15.353711125176217
1226,-14.603944805211627,-10.419050553491669,-14.054671278939784,-14.751639123426033
1227,-13.417705381453173,-8.384496957081536,-13.724608152607088,-14.094121569655064
1228,-12.169420490502802,-6.271764897786981,-13.321939455918946,-13.420775347306845
1229,-10.859781472920144,-4.101554346051289,-12.83975603910637,-12.75252800231108
1230,-9.487264586189658,-1.9050449156287632,-12.276593227554589,-12.089315064814906
1231,-8.090908587960934,0.2728379941936548,-11.644716916431708,-11.431442262595608
1232,-6.7400055276923805,2.3791102526004004,-10.958713334812044,-10.789482437865948
1233,-5.484434509276362,4.3617394000089265,-10.222160911838401,-10.181365411201812
1234,-4.32396214377297,6.177547452690941,-9.423532705989505,-9.62884890422488
1235,-3.253117985692581,7.793202766093625,-8.550344766133462,-9.151406226646165
1236,-2.3019240149467755,9.186695598096957,-7.6041143660932144,-8.75945367132096
1237,-1.5237928995924621,10.353795849625165,-6.596624936695252,-8.453004275784242
1238,-0.9534030332793961,11.305788664536346,-5.535805569014395,-8.227002015184478
1239,-0.5783956688620441,12.056839609425538,-4.421697289141353,-8.070860484099764
1240,-0.36485450092616045,12.615015807021978,-3.2590879329682685,-7.957821100232067
1241,-0.3102383540603625,12.979448985847466,-2.0682142729434494,-7.853452845845095
1242,-0.4632853189129649,13.144301028409158,-0.8846762249166567,-7.746082228211965
1243,-0.8652582553957074,13.105446204738813,0.2557084240999388,-7.650191843377406
1244,-1.4947283815430903,12.858718839052726,1.3308221822213742,-7.580975010030282
1245,-2.2931153370904394,12.39982833217972,2.3250823522132307,-7.54489668908931
1246,-3.2195680550576204,11.734583380363796,3.2228996988796297,-7.546361186106574
1247,-4.2581103935774705,10.888238433653925,4.012838563768489,-7.585806121062869
1248,-5.364207528979344,9.904088110776879,4.696377944735322,-7.650232618601489
1249,-6.438930232796033,8.83459188394652,5.291310795094837,-7.708807998275405
1250,-7.362149359160135,7.7352343314052865,5.819164599065195,-7.714075263987042
1251,-8.046921535587598,6.661056264243292,6.290064020377986,-7.6049260518251245
1252,-8.467606468904584,5.6623271965001045,6.700319541849362,-7.32400708427302
1253,-8.624068871613936,4.7814717238505,7.046189419195485,-6.844886864175156
1254,-8.502452532729288,4.0514206162276185,7.3335774768184905,-6.172964907836761
1255,-8.072227582707963,3.493455288289286,7.572527862905129,-5.3248868180426605
1256,-7.324718578347598,3.114691762666879,7.7673696620954855,-4.318613828208869
1257,-6.310490925047779,2.9074712661803055,7.91175840076144,-3.1796893894356746
1258,-5.103448198212197,2.854558803581338,7.997727056842299,-1.9501375798815237
1259,-3.7395398432341387,2.9381575684822367,8.029823836240242,-0.6706761239006394
1260,-2.2048743569853966,3.143116694259856,8.028675191129045,0.6451808230906004
1261,-0.49450446536510156,3.4591322339081887,8.014881803801932,2.003343403894318
1262,1.3407711300652179,3.885326498484405,7.995233490110104,3.4102542381491494
1263,3.228291965949728,4.423200757674137,7.96954529426182,4.861937180548442
1264,5.11771752901791,5.0646081542318315,7.9389846400006,6.334207668137127
1265,6.987020751961628,5.790959885369607,7.91035841876546,7.787062909477028
1266,8.809587249822226,6.578986176618089,7.889145783270283,9.179868678838531
1267,10.52741908832594,7.403345147854135,7.868396704887801,10.477735954357636
1268,12.071002183929789,8.23366639391962,7.8369425097599255,11.646527284709656
1269,13.401994849115889,9.033605150935207,7.793927409929085,12.650710497298265
1270,14.564185184683462,9.775249504551164,7.751450405424228,13.467490177243691
1271,15.543858133031037,10.416900161301841,7.718857423952402,14.091364513854908
1272,16.306605592903217,10.931183689116839,7.693735159372359,14.524994111993509
1273,16.835179432566058,11.309162874050209,7.674368398277929,14.777773077802541
1274,17.166596077978493,11.560208811035762,7.6680173656246,14.878420984012878
1275,17.37283403239337,11.70466236700599,7.685681083532446,14.875952518235705
1276,17.500865480763952,11.766043947959384,7.728485883945286,14.824174553728183
1277,17.555760001994635,11.768328480144982,7.783736001546087,14.756576595897515
1278,17.53697348016411,11.735439835724284,7.835350029696386,14.68348641053703
1279,17.47869713139029,11.686446826448714,7.877678201198965,14.611564218963698
1280,-0.13871602225946544,0.017909589340396534,-0.37958266017216774,-0.5518694946311482
1281,-0.8773470830049916,-0.04246154511944121,-0.987998508906853,-1.3436035339238024
1282,-2.048038626502272,-0.16087812812280916,-1.9126053570722352,-2.536688677847856
1283,-3.7061929756408385,-0.3470754133209689,-3.18743001542804,-4.1506921690823
1284,-5.878164833535562,-0.6061573759857566,-4.819832502590613,-6.173526125400686
1285,-8.516635795244285,-0.9396658018783408,-6.775493526995276,-8.559363840612463
1286,-11.496496064858233,-1.342804876528242,-8.984055924376063,-11.22171491919155
1287,-14.65918796073129,-1.801357620118892,-11.363958929288001,-14.043028818939804
1288,-17.86882662166062,-2.291965989327508,-13.838887226325024,-16.899427231912174
1289,-21.025428199576137,-2.7854186626415744,-16.34580721703439,-19.68816838535202
1290,-24.04940179996495,-3.252326210123531,-18.84881070051499,-22.3579554764428
1291,-26.85849859594909,-3.6667934735875187,-21.29749695617211,-24.8482844591339
1292,-29.403593110490213,-4.00637831466639,-23.657566600114052,-27.116257464784688
1293,-31.695658435783606,-4.251303870890505,-25.910836917654517,-29.13571396504985
1294,-33.7549771884038,-4.38677706356729,-28.041617777031345,-30.89334744963066
1295,-35.54817814640803,-4.401899197297967,-30.02998010365619,-32.38426214847344
1296,-37.01570550749929,-4.284666633477125,-31.858181920924824,-33.60477750793492
1297,-38.13375549648135,-4.024624055923448,-33.51977345393704,-34.55172986105084
1298,-38.92754207638785,-3.62141682944439,-35.01859524648267,-35.22903425241862
1299,-39.426864538616194,-3.085920857065965,-36.35226133904765,-35.649910377277024
1300,-39.63525857636814,-2.434647339224133,-37.50369090922022,-35.832848787554475
1301,-39.54326980161172,-1.6869955764547997,-38.45343255193,-35.79388700945017
1302,-39.17261791397918,-0.8672609256786702,-39.192708284747965,-35.547884277153656
1303,-38.60434769699342,-0.006305413727224818,-39.72292318699064,-35.122345588991536
1304,-37.93568788127036,0.862217670200971,-40.04150276860331,-34.56099548290234
1305,-37.22193383027452,1.7059291863409287,-40.13894838187694,-33.90971973043649
1306,-36.46839194762336,2.496707040925215,-40.015647304326286,-33.205227859681116
1307,-35.68358014217785,3.2153044042020023,-39.691984338557475,-32.47388621406851
1308,-34.919455179445144,3.8500259658797065,-39.20319052017145,-31.732557166553157
1309,-34.23007773757626,4.389698210012839,-38.58452227137412,-30.9898360662702
1310,-33.61399699708741,4.81841756945527,-37.857599675273605,-30.2482870005608
1311,-33.014332351535245,5.116060050170098,-37.03062477604584,-29.504647466990686
1312,-32.38887901449272,5.261685715024755,-36.11103594766124,-28.749521293162346
1313,-31.75087438572145,5.2341192469374525,-35.11508083240626,-27.971398315610184
1314,-31.134589425643675,5.014344486321283,-34.064601568770115,-27.168186533371934
1315,-30.562400487598637,4.594155533028816,-32.97899355111171,-26.36089221698207
1316,-30.030174405741498,3.981067912011959,-31.871255995136394,-25.58771241811797
1317,-29.534793145425017,3.1938054781119254,-30.756387387624308,-24.88246714427887
1318,-29.115568915140503,2.2555596608688324,-29.65882049548067,-24.2693707763883
1319,-28.840084897453558,1.1896134586525946,-28.605849046278422,-23.76839816170845
1320,-28.742451453588792,0.016658196096587974,-27.61970713426103,-23.392187674283225
1321,-28.782708205483846,-1.2469970230517327,-26.71206511889521,-23.13832348003967
1322,-28.899499688577134,-2.5886073276775274,-25.88826917802519,-22.98702239411958
1323,-29.073171844033986,-3.995978475300782,-25.15552578022936,-22.909564463442624
1324,-29.30879790808344,-5.457490838474737,-24.51987726626133,-22.877446307160398
1325,-29.58249323606717,-6.957801151117368,-23.979864802410766,-22.866357381806388
1326,-29.82992050092763,-8.467132738548617,-23.52232272348983,-22.857760379239032
1327,-29.999210689838616,-9.939091185892838,-23.13180463975629,-22.838588250587687
1328,-30.091092206531968,-11.321662619447402,-22.804160330053463,-22.804259186272464
1329,-30.145072028041444,-12.572328495140741,-22.539911318228075,-22.76233741193041
1330,-30.1835602087764,-13.66256039298641,-22.327975749766132,-22.725208709022862
1331,-30.1736138747978,-14.5733605947864,-22.1373284914342,-22.69445309895522
1332,-30.05745855107711,-15.293223899499905,-21.931419772347496,-22.649868740579393
1333,-29.802238800669688,-15.818796254716077,-21.692385929267946,-22.555181823763135
1334,-29.417355542904637,-16.153474394904617,-21.421509297246974,-22.377918928528175
1335,-28.906955785634878,-16.304155131229,-21.119337923107334,-22.09715456507916
1336,-28.2287267195928,-16.276226907513873,-20.774090585931983,-21.693801115056953
1337,-27.336745630755605,-16.071178683978935,-20.37066870378017,-21.148654529363405
1338,-26.24458482169278,-15.689213367933558,-19.904772754046807,-20.451670600509992
1339,-25.029544368179508,-15.129090962938179,-19.379737923727703,-19.609283554402456
1340,-23.760509630801607,-14.389803836816947,-18.787418482789924,-18.642066964279817
1341,-22.45231238778341,-13.479307480475137,-18.102124639629693,-17.573262995625647
1342,-21.100350182139813,-12.419438033554613,-17.29545854214242,-16.418345374441
1343,-19.720772276139936,-11.241759885477506,-16.352481119994188,-15.18392195338887
1344,-18.35894791878042,-9.984980210194937,-15.277429743130721,-13.874545854116105
1345,-17.051075500359275,-8.694566933366998,-14.079950703346935,-12.497550486131363
1346,-15.78752390646706,-7.416185653682748,-12.763645490134962,-11.059070896659327
1347,-14.535666173552093,-6.191208264175634,-11.340931549637183,-9.562022119171083
1348,-13.29611362548333,-5.060413098310688,-9.849089226922676,-8.016469400771665
1349,-12.127897925202385,-4.0650065234542465,-8.342273403009425,-6.449546944823741
1350,-11.093857700874759,-3.240585126309705,-6.864740515355136,-4.905159853256483
1351,-10.199827938085232,-2.608337511175875,-5.438029919106281,-3.4341777890035243
1352,-9.404655391154684,-2.1704588870203265,-4.072306349026769,-2.080561184781022
1353,-8.684812064813263,-1.9186875194630497,-2.7777935963306706,-0.8789123925423807
1354,-8.073774925462098,-1.8483594733751543,-1.5675514771369667,0.13862237882045195
1355,-7.612957568911535,-1.9570355506022181,-0.44826742872138936,0.9457020162710169
1356,-7.297013599361814,-2.2343272446891893,0.5845291830934519,1.5327893911561286
1357,-7.080160523039864,-2.6579689211125226,1.5336224301888863,1.9099358710361782
1358,-6.9251795513419445,-3.1935373962165885,2.390173755078503,2.0998450377608755
1359,-6.833575578230083,-3.800820317868581,3.1370747531903223,2.132597865354102
1360,-6.815232842243619,-4.4438949773943826,3.7615170668703843,2.0432714760543975
1361,-6.850859248921074,-5.090371704984038,4.267386864421871,1.8677374618321871
1362,-6.880722044238118,-5.702197205209936,4.676164450165253,1.6450091930399582
1363,-6.8458142635175285,-6.237978419555103,5.0091317224373135,1.4236369552888057
1364,-6.733366384072864,-6.664961608767003,5.271585264717123,1.251075033694914
1365,-6.5566385214448974,-6.964413887858639,5.465982603549676,1.1557105258673865
1366,-6.308789259604248,-7.129717013212431,5.606303557253696,1.1492973604085406
1367,-5.942630064774833,-7.161969826936297,5.712493547557131,1.2376427500765828
1368,-5.42604803455493,-7.0659548304595345,5.7970585636957415,1.4225376196376778
1369,-4.795150878265401,-6.846260204247109,5.854288153432324,1.6986541470899899
1370,-4.113680717672768,-6.501159880328815,5.869794622654223,2.053659447234942
1371,-3.4007074963931903,-6.018357896883049,5.840099188013922,2.4745615699594543
1372,-2.6099259963618486,-5.382178839227982,5.776635627627714,2.954227400557613
1373,-1.6972982633088936,-4.585416151494803,5.691741043272044,3.4935561523942873
1374,-0.6776434301461229,-3.6303397050488293,5.586259589739291,4.096993499739901
1375,0.40063346895608243,-2.5260750993957823,5.455947107014604,4.76307676159459
1376,1.505726666956923,-1.2905515085516837,5.303151821506976,5.476543530712837
1377,2.6398397191125507,0.049446123525453856,5.138107916996372,6.209736428373029
1378,3.8016818206466434,1.4605825057384636,4.966624632905058,6.932068544134329
1379,4.946944078907034,2.903249639574483,4.778766580474662,7.613846671468041
1380,5.994062129481142,4.330000248666798,4.555914335888464,8.22034368375959
1381,6.886322233780179,5.695185350025388,4.291208159956276,8.712420457420166
1382,7.636757872518754,6.972894064898256,4.00654547280229,9.066347649853904
1383,8.281054187150403,8.15855621686661,3.727767415552233,9.286426725018002
1384,8.82061926374642,9.256240337601328,3.4472886795068263,9.390005473355334
1385,9.228518619080361,10.267110319806465,3.140125434584525,9.393554054484811
1386,9.508773734921517,11.187539095522833,2.7984999926660956,9.312189767941685
1387,9.720170590121135,12.013196147892092,2.4391019417599407,9.158693701992428
1388,9.914896689880205,12.73647926954714,2.0923986558755754,8.942489523771624
1389,10.087353333937035,13.342024575010036,1.8001872653719588,8.669868032852678
1390,10.18658954644136,13.808189860776766,1.6229965067709666,8.338446887735724
1391,10.170396325745347,14.104764343855564,1.6391480234421487,7.933323925234916
1392,10.031242557024548,14.188327221707837,1.9289841904238514,7.432961721914367
1393,9.775900718654816,14.011545134834822,2.551964527722859,6.819293309060382
1394,9.397638277497741,13.540473708561173,3.5308414555928103,6.087290470072808
1395,8.85684369689666,12.759406341202077,4.860860184773129,5.242241937013987
1396,8.118284315220723,11.665429539519714,6.538652039246716,4.290577362667936
1397,7.198360327218637,10.27434384000641,8.560114645618711,3.245369823496342
1398,6.1761270370789845,8.671698221128016,10.889538766037946,2.139149923168341
1399,5.040708280254575,6.8362805580407695,13.453255442406295,1.0061005785009334
1400,3.800843508078483,4.817152283524859,16.108553302041816,-0.1100230583116319
1401,2.5181862741711636,2.7146781546708225,18.711976310416738,-1.1658934593072732
1402,1.293391771772025,0.654819994300591,21.145160900106767,-2.114835301814296
1403,0.21311910287128788,-1.2404099706313672,23.300454480304175,-2.9132790381202387
1404,-0.684624807685595,-2.8757492758016663,25.089988186447954,-3.5341032115898896
1405,-1.4008680420659618,-4.193631202627692,26.463964429812883,-3.973244670381646
1406,-1.9359900272447088,-5.173599392445793,27.414306844704114,-4.250622126559581
1407,-2.280811530841273,-5.829576944721557,27.973558626943827,-4.401920113883602
1408,-0.0704058225064692,-0.1156087904064605,-0.5461311918536615,-0.18067384217118726
1409,-0.3978316835534225,-0.31710305499004887,-1.2558994836979274,-0.4158117767692131
1410,-0.9027614241244716,-0.6170136240990625,-2.2747937957950644,-0.759392636977405
1411,-1.6471254698421836,-1.0052432972181098,-3.6175958898280722,-1.2162793884314071
1412,-2.672804440875813,-1.4561865165855319,-5.266892119747843,-1.7844883386515642
1413,-3.9568521501756155,-1.9246447644814195,-7.16490739484942,-2.4460142007478405
1414,-5.429014880179933,-2.354441798978863,-9.226349879026081,-3.1636061575122096
1415,-7.034985605602594,-2.699466944001043,-11.36451784234161,-3.892719695402381
1416,-8.751793787254394,-2.931903807886749,-13.508860051093,-4.599565202054776
1417,-10.557215838029055,-3.038895322063119,-15.61532353505377,-5.27261808363363
1418,-12.411019011852607,-3.0265857796751576,-17.68149648585358,-5.925928488315552
1419,-14.272814745296497,-2.9079976508126757,-19.69090827392157,-6.5668650560206725
1420,-16.132826666167382,-2.7105348230996302,-21.635974457847055,-7.198971848771758
1421,-17.998807620764413,-2.4727584242512552,-23.510758099163663,-7.828429684935897
1422,-19.856849959370393,-2.2349144065757223,-25.29932631420483,-8.468568355206589
1423,-21.648022489799374,-2.028105537556998,-26.974290109475042,-9.13669386480287
1424,-23.313721553732744,-1.865692469885073,-28.511454157734676,-9.84889173160529
1425,-24.85047531879243,-1.7451792896087597,-29.902830184466197,-10.618915806204392
1426,-26.292265869827276,-1.6602994990830688,-31.151023816987205,-11.46596374502352
1427,-27.652760933892743,-1.6068720738517723,-32.254059916825206,-12.424044097412914
1428,-28.902567484406607,-1.5812996053767443,-33.19789231314026,-13.52731924374847
1429,-30.020083015290027,-1.5786329888818011,-33.9699671081811,-14.78557024333457
1430,-31.032855130782767,-1.5977367412478303,-34.571066880261995,-16.189934455156422
1431,-31.995930450078465,-1.6444298031721913,-35.00695992036349,-17.725666619984906
1432,-32.93589688769912,-1.7188697936654787,-35.27499275397169,-19.367541053839208
1433,-33.834878478756366,-1.8181227129262039,-35.363864902986265,-21.07463823723588
1434,-34.685352987544796,-1.953625276618357,-35.268160754093834,-22.79324140732023
1435,-35.51802386911816,-2.1415334923498346,-34.99673158820128,-24.469317691593922
1436,-36.38024592597834,-2.379691660678387,-34.567581475163855,-26.0686256045824
1437,-37.30608011224287,-2.6446933352570667,-33.99883575999403,-27.598414636920953
1438,-38.30085420869373,-2.8994105937181067,-33.30924597958894,-29.110848374758156
1439,-39.36052598136474,-3.092289942709681,-32.525842548619934,-30.675569441052716
1440,-40.512947689786316,-3.1590708009114064,-31.68593799090505,-32.35440114293944
1441,-41.83665302759401,-3.033369255215397,-30.83424061730978,-34.21144486296853
1442,-43.41465677451669,-2.6529638953335533,-30.006226492313257,-36.33076924600197
1443,-45.30090192498698,-1.9617958497599282,-29.2131233930328,-38.80766514293709
1444,-47.546312216277606,-0.9132224849921933,-28.453638285058233,-41.727779035405675
1445,-50.22648028113912,0.5221372359708685,-27.733130164519594,-45.156586706833515
1446,-53.440345557855764,2.3506274092497197,-27.070430457521876,-49.14829525012911
1447,-57.257107627767375,4.560796835542205,-26.48363461279166,-53.74431794081559
1448,-61.667047653027325,7.128238764125949,-25.973957096831846,-58.944349778252366
1449,-66.593495491486,10.01428987506101,-25.531875176881716,-64.69545093445355
1450,-71.94547510404122,13.168416281350659,-25.15034162903248,-70.90471420615901
1451,-77.64481235036627,16.531019839176654,-24.830778104930328,-77.44728300535272
1452,-83.58956399145164,20.023487609616602,-24.57843085227021,-84.1744380001031
1453,-89.62586273626522,23.544342049283866,-24.394224294110558,-90.92330210782491
1454,-95.56093862627681,26.987999545718424,-24.27841623634878,-97.51612807023778
1455,-101.21578871106074,30.263951051873597,-24.241764344464137,-103.76560369631905
1456,-106.47686003270603,33.29733939683868,-24.307874590990256,-109.5103449592449
1457,-111.26074379532096,36.02577684458176,-24.4991508852687,-114.64139438087479
1458,-115.4471194744383,38.41248840842495,-24.817484724699373,-119.07128538077556
1459,-118.86991296597104,40.451721927995564,-25.242152778528226,-122.6881122952424
1460,-121.37545694499747,42.15503138058407,-25.748578967012932,-125.36341452533301
1461,-122.87688846960761,43.537614940296336,-26.319813540016632,-126.99157236654355
1462,-123.32649326714991,44.60458852485991,-26.93129253930492,-127.50240953632809
1463,-122.66741260122541,45.33974635010054,-27.53657208881541,-126.85140899465254
1464,-120.83856089551466,45.70156592626526,-28.077446632408236,-125.01079487895497
1465,-117.82481359765461,45.63307939884796,-28.509105631982067,-121.97590493983279
1466,-113.68372746957408,45.07996091021786,-28.812453818138714,-117.77537171919634
1467,-108.50732721724097,43.993576911681906,-28.9826888097854,-112.4681058806628
1468,-102.37826076667258,42.33225760628018,-29.019399191571978,-106.14215376180282
1469,-95.36458230535567,40.074166569843804,-28.92453432193003,-98.9081479918653
1470,-87.55379554682548,37.22188765702809,-28.707529685744433,-90.87701777915191
1471,-79.07980317546163,33.7957706607543,-28.390587505659354,-82.15248063792357
1472,-70.1061858928978,29.832254082929374,-27.993286261099552,-72.84597023253207
1473,-60.7752274039615,25.387152768914273,-27.516910354865725,-63.0768598115621
1474,-51.17419024955955,20.535053383767,-26.9518009510262,-52.95630854045498
1475,-41.37564609511089,15.360552866333444,-26.29464907455957,-42.58467737947704
1476,-31.482568872075632,9.946837614822051,-25.557527537012646,-32.063941848178246
1477,-21.619404385499664,4.373702271576641,-24.762040046750492,-21.500884599900246
