,TP9,AF7,AF8,TP10
0,0.17671742313522015,-0.39808842638387526,-0.41500809929756804,0.2006054149788925
1,0.13559000290702342,-0.8724434158335614,-0.936837401580109,0.28157194829840265
2,0.005279789897288167,-1.550867921675913,-1.7123043275635343,0.3203153354800571
3,-0.20813244342293535,-2.4372291882923283,-2.751997502601649,0.3087531021568142
4,-0.5516042524244394,-3.5159328551021174,-4.040627649192434,0.21860080946272073
5,-1.1003077053394759,-4.756248847506636,-5.540714070075127,0.007085401284816217
6,-1.8725015046435316,-6.1161866073898885,-7.2003311741697145,-0.3444930289715904
7,-2.811226802987035,-7.549179943088194,-8.962328004460193,-0.8261442603905131
8,-3.836791733815585,-9.016109806387094,-10.773441693609929,-1.4227429970089709
9,-4.907424365825048,-10.496720106758323,-12.596055629406248,-2.121763399113303
10,-6.011489549462271,-12.000047785881996,-14.423749123435222,-2.9052356260288033
11,-7.107218997122279,-13.518084271524684,-16.230375519790137,-3.7481785072925033
12,-8.120208781894604,-15.035052988141832,-17.988411868506272,-4.6324945009330945
13,-9.00855323240936,-16.52552878976893,-19.67289908961472,-5.559809640617966
14,-9.80883554431796,-17.957408389479124,-21.266084296288025,-6.547337490659945
15,-10.57262676209871,-19.299296245985733,-22.757699337763157,-7.600346552297189
16,-11.300051424165805,-20.527963928100238,-24.138557030127096,-8.69244018179617
17,-11.962080159655327,-21.62557508591546,-25.393920519268484,-9.778026847814434
18,-12.56144795783971,-22.5688988916898,-26.503053244536574,-10.821476580599295
19,-13.164946917984935,-23.329999264389144,-27.443704094031634,-11.817799759941039
20,-13.839334526709937,-23.893309325616514,-28.198883028360914,-12.77515080692681
21,-14.5688580196177,-24.270126544884086,-28.76584115989837,-13.676808000833239
22,-15.263413358854384,-24.493129724079516,-29.159575817465406,-14.476338543243509
23,-15.856053018025278,-24.603540741821615,-29.404439111683466,-15.140830476380977
24,-16.357354555701953,-24.640841315684074,-29.521903925967614,-15.673762871759598
25,-16.789916639673464,-24.632140410853342,-29.525267632755753,-16.088969971733803
26,-17.12878155013246,-24.589076900225482,-29.42161882627727,-16.397892137476298
27,-17.319797425809643,-24.51239001423704,-29.21560762351959,-16.612242233517517
28,-17.35737435266638,-24.39427642772337,-28.91165380995906,-16.747961912628668
29,-17.321170432051645,-24.21808748120528,-28.51195340856143,-16.833992420825133
30,-17.313493664704144,-23.96245874851501,-28.013408087484603,-16.899939777669562
31,-17.37868023112775,-23.60800256195132,-27.40829791384801,-16.950685963516854
32,-17.474148989550628,-23.143911153511763,-26.689241315128918,-16.962650272710558
33,-17.547632715725157,-22.576311860688584,-25.858920494123172,-16.912369313031352
34,-17.606168422016278,-21.929629365150973,-24.937165884799597,-16.79767410440026
35,-17.681029154389773,-21.241132430703214,-23.95967127201745,-16.624048248165792
36,-17.764362048152858,-20.553950894523158,-22.972086838262403,-16.378989537694558
37,-17.786540161155784,-19.904725492693153,-22.01836655010609,-16.02881111840673
38,-17.69288355465085,-19.31092828308828,-21.12459531752248,-15.54771879306193
39,-17.514890907224693,-18.77446572481423,-20.29249937824512,-14.942841567710493
40,-17.339828475774276,-18.299113251257143,-19.510816090533158,-14.256179876361827
41,-17.2304775574416,-17.893442169607837,-18.76671254742141,-13.53495028925894
42,-17.178157481053763,-17.56121511798428,-18.045199212668727,-12.80147962125724
43,-17.154431900484735,-17.295748701834892,-17.32980171372852,-12.06691927125262
44,-17.16955498602734,-17.081528971305357,-16.607281057985986,-11.35385100369934
45,-17.265452063440932,-16.90343082494247,-15.871432444226992,-10.697449168826008
46,-17.45857057328839,-16.750057530164867,-15.128294727509743,-10.124257010724786
47,-17.69803045921149,-16.60684554208123,-14.401773557520292,-9.636314362082704
48,-17.919175659135874,-16.45204197081442,-13.73246227530034,-9.22920435676626
49,-18.121029273798364,-16.265417889729047,-13.166008909760247,-8.91474189722161
50,-18.370977298601122,-16.04209516441192,-12.739481542870127,-8.723419900065037
51,-18.717203315907074,-15.796674331838359,-12.474857361301343,-8.679657597762226
52,-19.12874561820521,-15.558710124586772,-12.377830942797623,-8.779335792289611
53,-19.54174572196944,-15.358753617841131,-12.437198800058022,-8.999710398164293
54,-19.92677540522214,-15.213240317604345,-12.62841256597772,-9.321725706805008
55,-20.309159416182325,-15.121806709057555,-12.920529528736196,-9.739800422367264
56,-20.6957040882339,-15.06980231362313,-13.279479154046474,-10.24592077305275
57,-21.01454411156484,-15.029886310645981,-13.666359459450534,-10.808429197440079
58,-21.161669845780096,-14.967121682442944,-14.039408957353995,-11.370931365061674
59,-21.080110196965645,-14.849327462575344,-14.365987256105237,-11.884357890185505
60,-20.796541686793685,-14.651053289054456,-14.623916859763987,-12.333743006058926
61,-20.345200881271555,-14.348505893693611,-14.787740532841495,-12.710460138725525
62,-19.686173648905697,-13.923234031265498,-14.825631460299343,-12.980843017389516
63,-18.74217423636638,-13.378501042108734,-14.706399019786627,-13.100063410720674
64,-17.487244946568165,-12.743819114012567,-14.404829339426387,-13.046276227450905
65,-15.982003668342475,-12.054914661423998,-13.904221148503964,-12.83154675706641
66,-14.31399068390691,-11.335849591951744,-13.202471702968422,-12.48091424610379
67,-12.530688467271412,-10.604306274180427,-12.32075423198115,-12.008786757346575
68,-10.635262240565858,-9.88542988316565,-11.30034211847738,-11.4147477992155
69,-8.65903564534754,-9.213380482266231,-10.190710691309725,-10.711284760203869
70,-6.721351316444212,-8.616268717287452,-9.033083173289372,-9.943043623858264
71,-4.967458660046474,-8.100349397287884,-7.846363403838675,-9.169036235486129
72,-3.4720194736214,-7.647910755624717,-6.630874908750725,-8.43080633671216
73,-2.221692952689759,-7.2231445784987764,-5.380824503336358,-7.735498318946373
74,-1.2016459144956233,-6.782245530913518,-4.093088136890214,-7.0851007421524566
75,-0.45945931933477724,-6.288241451136035,-2.7733720673012696,-6.514338838747339
76,-0.06275767984835101,-5.717672363386579,-1.439024378778443,-6.084859351927705
77,-0.03677242104459816,-5.059385718099405,-0.12131205506308934,-5.842076819503442
78,-0.3402906300654056,-4.314905794675214,1.1295624820279897,-5.793165201494172
79,-0.9396900019915518,-3.4934008490121813,2.247047749736977,-5.948812232271694
80,-1.865916036156802,-2.600446364777378,3.159580459651543,-6.360670389758265
81,-3.157212420654398,-1.6360727792848795,3.799751434654239,-7.102017435749717
82,-4.797873538509039,-0.601567460840455,4.114704960237167,-8.229844354851046
83,-6.698127985320048,0.5068293239325545,4.078236599824679,-9.759963134724268
84,-8.755716359374071,1.7149487952394944,3.697846405805644,-11.670562983337357
85,-10.935203556794864,3.0690307619306565,3.0108855036531277,-13.929982803262403
86,-13.248269183171196,4.613173279850222,2.0673900272834858,-16.509091198344215
87,-15.657532714628449,6.370575541734975,0.9125776297803796,-19.34693213713971
88,-18.03387905774572,8.336534461094002,-0.41816884264281207,-22.323296545716122
89,-20.242576131435847,10.480974733999048,-1.8896086878970069,-25.28433842055343
90,-22.22768297344788,12.755659671902329,-3.4571333042265673,-28.087408607957443
91,-24.001843731572645,15.100400341070722,-5.071257275620119,-30.6222049693771
92,-25.561112298606385,17.453482065206284,-6.683003053629235,-32.79374128584323
93,-26.832272400723465,19.7566047151184,-8.247944555342649,-34.520146860755375
94,-27.729569974072128,21.949703392587896,-9.73438967903987,-35.76437215745239
95,-28.236901721423745,23.97632242827987,-11.124101345068306,-36.54883047375025
96,-28.424345422258487,25.79347555156435,-12.402209687260054,-36.929724461873846
97,-28.353611920572526,27.37259571940919,-13.547844465302857,-36.945252716291805
98,-28.005568152010223,28.70002202587584,-14.535476323840319,-36.591964803179195
99,-27.323888648043738,29.779696288276266,-15.339412026287462,-35.86128173966006
100,-26.27910252748134,30.630911405514627,-15.935936213351905,-34.779830857051
101,-24.895816141098415,31.284556241641187,-16.303512149768665,-33.40510136766507
102,-23.18596518817653,31.78277624309083,-16.4198462329551,-31.78331144310503
103,-21.08870673219602,32.17091815675399,-16.261988254585567,-29.913935667065694
104,-18.52953011177709,32.48090288477669,-15.81329146953549,-27.77568754846931
105,-15.509948502579258,32.72474066527454,-15.075663629501557,-25.386883942934936
106,-12.135542381671172,32.90087752911646,-14.07580992518123,-22.8184260606846
107,-8.53467805255596,32.995553598996295,-12.85898365223739,-20.15358079081764
108,-4.7731929775750785,32.979777784600046,-11.480619537886817,-17.45742827477515
109,-0.8721588604166217,32.81086367088477,-9.995835253242813,-14.777590972150358
110,3.107615454274816,32.44144898461277,-8.444779626228495,-12.164229277966815
111,7.0244031830042974,31.833669628212856,-6.847770360525977,-9.68176364810703
112,10.731915876768408,30.9669397479546,-5.217115492358588,-7.392379893373754
113,14.161554230044718,29.837602391753755,-3.5711974815987935,-5.324100226916246
114,17.31230142672428,28.45858921812375,-1.9358181612365548,-3.44902804021931
115,20.169957152566024,26.861545487253718,-0.3344972616686304,-1.709352367802635
116,22.664483719933237,25.095622741938648,1.221207424723649,-0.057344000719722454
117,24.737542630053156,23.220083306056985,2.7279181739786007,1.5434872264173114
118,26.4203764913894,21.35451052657088,4.160284910444522,3.090901469377044
119,27.760390201751587,19.434248752467457,5.55537886810313,4.6298538599825525
120,28.772343737956636,17.459362206009605,6.911673024057431,6.137730535394493
121,29.447723680766227,15.475258247779312,8.207188294911248,7.55024439236323
122,29.82070930156245,13.552589359012178,9.41447957620795,8.807172316316368
123,29.984114936217065,11.765277954842906,10.507111885215656,9.873018859225837
124,30.04420484229085,10.177657105685094,11.460552363611663,10.729043355299561
125,30.05380867710782,8.839913548566736,12.25464753420846,11.364305042975172
126,30.008763187606217,7.784346155242436,12.875586589960152,11.78108505759724
127,29.910385828204422,7.021227126438666,13.314379590647627,12.006930045249366
128,0.22254754005722885,-0.45845720635470427,-0.32610430835898413,-0.2272411300191475
129,0.14640873933188295,-0.966394654192746,-0.7893493287202898,-0.589469131319503
130,-0.03993257856765639,-1.6733045055943576,-1.4623126762672798,-1.1026824651669662
131,-0.347278230810551,-2.5784540280405026,-2.3318993289297483,-1.7333125777016267
132,-0.8254061069855585,-3.665943714100486,-3.3569762458455923,-2.437149909117418
133,-1.5327967230780388,-4.907384873105988,-4.4784031582511545,-3.166829310799248
134,-2.4751702398175115,-6.2693434116277755,-5.631034141344111,-3.869636226548545
135,-3.6027571839600694,-7.715936656629545,-6.751390291090227,-4.4965589392438226
136,-4.85722271148259,-9.208368500526944,-7.7808102141370705,-5.027348417345932
137,-6.186354522422991,-10.712941250261007,-8.682062607440226,-5.491112671444286
138,-7.536921598236076,-12.22131854135836,-9.468472444976124,-5.963589727203974
139,-8.859440017925237,-13.71078532261096,-10.169826394485716,-6.508338632964899
140,-10.123730437915095,-15.16151556562647,-10.835135541999652,-7.163288826071437
141,-11.323293039039127,-16.54992063478493,-11.514107587914463,-7.944204960183757
142,-12.445972672281558,-17.84564181019503,-12.239058499185184,-8.86108498073056
143,-13.436197363745706,-19.013465670429486,-13.017854288649628,-9.907813868619126
144,-14.214060076151586,-20.024379010328303,-13.839196659488294,-11.044267799838321
145,-14.734874400605333,-20.873646418071893,-14.679734934220816,-12.213032079340314
146,-15.010918401608807,-21.586582957198964,-15.510197499465754,-13.370872909534013
147,-15.084348843451771,-22.206500506506842,-16.306891497213797,-14.503677475925429
148,-14.972178458181443,-22.781936824967122,-17.062763946259903,-15.611174786066563
149,-14.641436467008793,-23.35739176379737,-17.782405116257532,-16.678875674891415
150,-14.040896940875744,-23.963384153564544,-18.46541547375942,-17.669532068507504
151,-13.170135099512347,-24.609939991908906,-19.106234955510967,-18.5464047042292
152,-12.129315031060058,-25.285882579668037,-19.706478712652487,-19.298910070663542
153,-11.057526023459067,-25.962958278694845,-20.27883848581276,-19.92847785753814
154,-10.051676825100449,-26.602934208668227,-20.83758560866116,-20.427126686792732
155,-9.152072281414874,-27.164113758606412,-21.383141025399514,-20.787268991049025
156,-8.370327789624072,-27.60598237224292,-21.902468294395426,-21.025783563624962
157,-7.746104999481653,-27.89910810236709,-22.3790444955922,-21.189957683674134
158,-7.347803653375454,-28.0394337641739,-22.79551447073909,-21.329648420539744
159,-7.214876665636485,-28.05045211943729,-23.133274083584983,-21.462174697023435
160,-7.316633145148098,-27.97053613930753,-23.372551129847984,-21.566534457510013
161,-7.570822452839243,-27.834468386792235,-23.495008121841746,-21.61317672785551
162,-7.906498677910139,-27.654340407119843,-23.487729722551776,-21.586959250766675
163,-8.282203232197176,-27.413374261225755,-23.34242742280378,-21.471521144161144
164,-8.644660340430114,-27.07852743899566,-23.05006349628371,-21.229752464192657
165,-8.89665442987595,-26.618392439740905,-22.602595519218976,-20.812231432366872
166,-8.947901607228609,-26.01027915693865,-22.00040445657153,-20.189691610978553
167,-8.78877662877656,-25.238918638040897,-21.255019538355103,-19.376668374274296
168,-8.473073422903868,-24.300101659908243,-20.384631670374056,-18.41717733924782
169,-8.038341937386205,-23.208412377407566,-19.4051264198761,-17.34701473990611
170,-7.473070440399636,-21.998219353235232,-18.328868039339064,-16.175896969928168
171,-6.794433995053683,-20.7206958235968,-17.168351468619502,-14.908545555929997
172,-6.104246486710297,-19.4412538780394,-15.936303114283106,-13.559859666061842
173,-5.539084971297571,-18.229627487627337,-14.64607461172622,-12.151326610542174
174,-5.187200324003812,-17.144071685422148,-13.316347194763106,-10.70407304995344
175,-5.052339691068816,-16.22061381211177,-11.979650794821763,-9.233973797828416
176,-5.112706428259995,-15.467095286854642,-10.67933719820381,-7.762759455323662
177,-5.374798560300063,-14.858405183218128,-9.454086913270174,-6.325476165933323
178,-5.861241396019397,-14.34870428749297,-8.334948934003599,-4.964096133262066
179,-6.555044741592447,-13.892527034550566,-7.3529564928994295,-3.7096511276932405
180,-7.366888413084765,-13.453676473406105,-6.5383253485331725,-2.573095818570574
181,-8.198974575182575,-13.006028360249873,-5.914303097266098,-1.5667092324229044
182,-9.019885745961977,-12.534450030383551,-5.494807590922192,-0.7235182862733458
183,-9.863564123037948,-12.040587514978126,-5.286125853560415,-0.09375607154187564
184,-10.74636401968023,-11.548122911678265,-5.288451440678174,0.2836003146046062
185,-11.613093746098237,-11.097998804201355,-5.49275562176375,0.40526948657627493
186,-12.385740069888179,-10.734014182537946,-5.8783985642176315,0.29043563451026666
187,-13.025970114943876,-10.487940432273444,-6.415250228363671,-0.04221722465194616
188,-13.553055914848892,-10.369677974943142,-7.065041254470531,-0.5746035805383229
189,-13.981023030414898,-10.359605680159449,-7.783521356687497,-1.2684324401516693
190,-14.266904063133772,-10.419001374714249,-8.528014603434135,-2.0531643876765235
191,-14.349823138044904,-10.51868090727072,-9.268778066564863,-2.844171831034318
192,-14.218866634602021,-10.64520302239701,-9.99049167725919,-3.5802956451947976
193,-13.949396883416846,-10.786358424811617,-10.684235941296174,-4.23976315642657
194,-13.636160584652895,-10.926570166358019,-11.350020279683614,-4.823828880550381
195,-13.31058868462603,-11.050665129116016,-12.00217387159828,-5.3330286775326465
196,-12.949386764710246,-11.145982022380009,-12.659514571289813,-5.746774086591105
197,-12.542033199826959,-11.206338085016329,-13.336908002221945,-6.039788040111522
198,-12.131871640103709,-11.232864848627893,-14.04432433550299,-6.211868398444993
199,-11.757675536837471,-11.226372070734367,-14.77848617343613,-6.270832066397968
200,-11.3809396210816,-11.181505989620879,-15.515408860880575,-6.2037998616011345
201,-10.895908481673382,-11.088194168012281,-16.216987392727575,-5.984942416881045
202,-10.225651775306906,-10.935567709066286,-16.844495722096394,-5.603727717475061
203,-9.387378055017134,-10.712419538706369,-17.36539700598445,-5.074381830368951
204,-8.44948259905307,-10.410536549808928,-17.75593025536393,-4.42885408980433
205,-7.470549352498385,-10.03573599951381,-18.009883468003206,-3.7079114989482074
206,-6.47284449958847,-9.610819321358667,-18.144947123858103,-2.9459473263690907
207,-5.492468452488066,-9.16503514432605,-18.190355032450313,-2.172950886637279
208,-4.624438991375148,-8.7159736091948,-18.16420735712846,-1.4241613688587305
209,-3.9650390010723635,-8.256722922588812,-18.066357912427,-0.7193439346704653
210,-3.5330960671858325,-7.766372632791514,-17.892703650135267,-0.04226068246039871
211,-3.2570094888437855,-7.225588999502541,-17.646702658053957,0.6439352446179203
212,-3.0586076291718722,-6.618856653474241,-17.32947361305449,1.3700707845021232
213,-2.9123541203220054,-5.928397713010183,-16.92909223743288,2.1402653908482687
214,-2.8138420142749503,-5.137255483668079,-16.432555278793323,2.9286380591236814
215,-2.726276566245653,-4.2476577836356615,-15.845868572786708,3.7106626709377384
216,-2.5634757217549753,-3.284652341309032,-15.204671558917653,4.481331324898092
217,-2.2632922026266535,-2.278464055932285,-14.568035103805467,5.23911936581563
218,-1.8545984915713551,-1.253284760619163,-13.998240248689234,5.975458204706428
219,-1.4311122453926297,-0.2315586723127249,-13.545544882548434,6.672805101807087
220,-1.0625180237718843,0.7609860178860431,-13.242955463808034,7.312685022819155
221,-0.7408431735753048,1.6962060988417436,-13.10227231665578,7.889167044947709
222,-0.4354184545334313,2.550102484644793,-13.110189439271275,8.406193468056042
223,-0.15817514760817808,3.310953165644816,-13.232393912158779,8.85654542321179
224,0.04007681270994393,3.974040598743265,-13.430576594030736,9.208058744549652
225,0.1387508846085977,4.530784715176128,-13.681241780405314,9.430647864957567
226,0.1828327959724309,4.963704359273482,-13.978839907706007,9.52368930739053
227,0.2210336514209929,5.249387242799404,-14.322478050516589,9.496329006490685
228,0.23943172752703884,5.375195409243046,-14.70627126957556,9.344245258217034
229,0.15568254877690632,5.35174642260448,-15.12315287325085,9.056024589625235
230,-0.1038025092438499,5.207509148306547,-15.573684134501013,8.634278281552943
231,-0.5380680073365718,4.9773844996196415,-16.06123746952038,8.116111425133727
232,-1.1013357728639197,4.696987650988742,-16.574545063183994,7.566430373912549
233,-1.7623139914165753,4.392954702106806,-17.087006429054128,7.039560165236027
234,-2.52254458178221,4.068945367274976,-17.5700330753899,6.554676969079754
235,-3.353461935483123,3.7100925392656197,-17.99994963049838,6.106471551042015
236,-4.147284534286191,3.2979781739773584,-18.363286786689383,5.690956838696683
237,-4.766371977131667,2.8167982835972585,-18.664693708587624,5.320104287680208
238,-5.134772075510989,2.257528491997593,-18.92788843845143,5.0004334326959965
239,-5.2803039841925585,1.624985750891996,-19.186050630375505,4.708524229766304
240,-5.270001696875612,0.9333243688282991,-19.469197202183654,4.40252752570911
241,-5.139172409489076,0.1930279673784456,-19.793969633750173,4.049812402057212
242,-4.887738586165137,-0.5891666377389926,-20.157924934590607,3.6411802899154857
243,-4.535098288837671,-1.4032928108569103,-20.54128027662899,3.169167913704749
244,-4.1670821743974615,-2.2312376479540244,-20.9128853611906,2.613642365879676
245,-3.8736656148441626,-3.044483445817031,-21.236203984557882,1.9695235376344842
246,-3.7066713704975904,-3.828198256063986,-21.491298039104457,1.2323702202901918
247,-3.5831015219915883,-4.516436333245726,-21.622248752989616,0.4770853867359203
248,-3.469003269788618,-5.061652194843598,-21.604564417314098,-0.23714416754545473
249,-3.368773430916879,-5.435511743506037,-21.44248818842168,-0.8691833773774078
250,-3.272235590814886,-5.630682033727434,-21.16395162047151,-1.386405325966647
251,-3.1441363471112145,-5.661286894571338,-20.81226848046464,-1.759410553456768
252,-2.957368459787655,-5.563003888946661,-20.440126555563086,-1.9715818879807554
253,-2.735136323281284,-5.385614201359584,-20.099502577592823,-2.035201640898985
254,-2.5362782158587596,-5.177963636588187,-19.824368257373038,-1.9950912053955479
255,-2.3930625050697754,-4.981173072898101,-19.626199567183328,-1.907947308234904
256,0.3479848018040549,-0.7288882940093666,-0.9214325773423249,-0.15243412885538457
257,0.4570929094203996,-1.4823145271630682,-2.135747716275099,-0.432156809076379
258,0.5375331599017539,-2.5403329939294284,-3.903678631483431,-0.8430377435412425
259,0.5582638434487472,-3.9126938578551402,-6.233878211358684,-1.392530970247894
260,0.4285701150245813,-5.582562557908046,-9.08437281103697,-2.099304288064051
261,0.047149629256469205,-7.503662402183852,-12.368873875399785,-2.9771738240037617
262,-0.624909326716995,-9.605329780887116,-15.968712180484573,-4.008449019736884
263,-1.5604900997568056,-11.806112641851403,-19.749447928410223,-5.14763614052213
264,-2.7259660140672874,-14.032382198952112,-23.584809707717923,-6.3541178305908375
265,-4.1074180742508215,-16.23922880604847,-27.3911675449965,-7.6119313773688635
266,-5.678852180616408,-18.434030746563316,-31.16701683072591,-8.926446360496206
267,-7.361317957311661,-20.593532419940267,-34.883056014796054,-10.281344504078683
268,-9.061515434965191,-22.692980848422664,-38.50943237429005,-11.647824413423834
269,-10.736471261882668,-24.714613351376553,-42.008931122751136,-13.004862208515453
270,-12.390368497130416,-26.650791997921303,-45.332735550964614,-14.342970727182365
271,-14.013904499602003,-28.50297560959854,-48.4211074293404,-15.646050024653615
272,-15.554993981474881,-30.27653165990271,-51.21415967650244,-16.884454058477534
273,-16.975088831399077,-31.969730146269576,-53.66602315798971,-18.030903267654963
274,-18.30042462721259,-33.56712148529976,-55.74723755056403,-19.07211146521537
275,-19.602669046793892,-35.04332005783984,-57.44144058623704,-20.00486630751413
276,-20.911590304975014,-36.371215732623924,-58.747500300448465,-20.816396217584433
277,-22.168653357469974,-37.531776807843954,-59.67949941529543,-21.47641873121281
278,-23.28785963984506,-38.52248696516356,-60.263092964615964,-21.95982168606366
279,-24.236498461059234,-39.355104213175,-60.53298181784534,-22.273170070002752
280,-25.064061548985567,-40.046641109835186,-60.52720621041566,-22.454236807583502
281,-25.82205773114086,-40.61442390528163,-60.279483638851104,-22.535587453791496
282,-26.490114211041966,-41.072076524714646,-59.81363383398035,-22.520599939805326
283,-27.008553059977032,-41.42367004843146,-59.14287497167814,-22.39645640191057
284,-27.348193737296565,-41.664024563319046,-58.27441902089918,-22.156622211502317
285,-27.543927049319628,-41.78337782357893,-57.21396140334711,-21.808480552186705
286,-27.63632432366913,-41.771297697098376,-55.96811007382896,-21.358762002574256
287,-27.613362135391338,-41.61907964723244,-54.546654321387905,-20.802965889277967
288,-27.424035085309995,-41.31951264584316,-52.9655272259122,-20.130835616604863
289,-27.04049858736539,-40.87405429241266,-51.24663394433771,-19.34188378980478
290,-26.503040295993642,-40.30680869675155,-49.41539363333108,-18.46360610843748
291,-25.88022846261233,-39.65987143677389,-47.500517797813295,-17.556607726705753
292,-25.203391501725523,-38.97343269285195,-45.532273944603496,-16.690331667301987
293,-24.442542503409786,-38.27738281594667,-43.547961684829914,-15.911810145704022
294,-23.571418521085334,-37.59048474649953,-41.598112358007185,-15.247635883062511
295,-22.6312797585621,-36.91720707491006,-39.72723630257896,-14.712297708464082
296,-21.68309284606612,-36.247744861293576,-37.94673426916011,-14.300055388518897
297,-20.739537851225602,-35.56238141659847,-36.225464215560876,-13.977938679717518
298,-19.76301243620523,-34.83707629313587,-34.4949773815483,-13.687721716562615
299,-18.742673551242916,-34.049869427435745,-32.65993988344054,-13.374510291156781
300,-17.743409771485897,-33.18678945006205,-30.61225242421933,-13.018287734359959
301,-16.86348704310966,-32.24687697428963,-28.249161576644777,-12.625661767345049
302,-16.163999544887833,-31.245460396309934,-25.48956866391368,-12.200346388075745
303,-15.627157684112529,-30.211658694962583,-22.28621629892665,-11.726521248826437
304,-15.205438554073337,-29.18262137180143,-18.633141588933363,-11.18850554881023
305,-14.885345709677917,-28.19822780444127,-14.566540853845353,-10.602242415258814
306,-14.68304710837914,-27.29063520097046,-10.159706229949764,-10.009284616617203
307,-14.579194372258149,-26.472439434532067,-5.519461439294848,-9.438453315746864
308,-14.473573347592787,-25.73877739160637,-0.7826689675830898,-8.875266777718158
309,-14.256131274540202,-25.07840253653577,3.8989101934829664,-8.28377901227769
310,-13.891469642701287,-24.47096353522734,8.388195499671498,-7.657903432827861
311,-13.409223195238887,-23.87548548939547,12.591850022789874,-7.02084571912955
312,-12.819681496190844,-23.23674906286896,16.459741378839638,-6.381020495330582
313,-12.07175091576958,-22.504771621343043,19.96301432695656,-5.715419277569356
314,-11.123294196917232,-21.64639706094423,23.08757224393434,-4.994458916043672
315,-10.015256711371956,-20.64646047095639,25.836176907844795,-4.215701719793553
316,-8.868626982551774,-19.503545459478847,28.222703290030996,-3.4070153994787593
317,-7.793905410682839,-18.22755680899718,30.263545445669102,-2.5947834097210802
318,-6.815826818115831,-16.835312749446235,31.97218378502482,-1.786519728656505
319,-5.901274985724056,-15.34053079393596,33.35647258260242,-0.9858103285462301
320,-5.034929122450589,-13.754360203099242,34.41775375092143,-0.2097336664157171
321,-4.265315907820777,-12.094248375609066,35.153126745830875,0.5124429125857334
322,-3.633629935634405,-10.382254742102393,35.555732685090106,1.1606224417598736
323,-3.0921451056170453,-8.644113342342845,35.6152084586319,1.7304107951443863
324,-2.536839208787352,-6.915389083446143,35.32621302071417,2.2229116765984087
325,-1.9046765417392522,-5.2354415822086295,34.70450748968999,2.6321131835637286
326,-1.2385956722940596,-3.636954166421996,33.79650752319733,2.9336916458745876
327,-0.6105151717177255,-2.145762115567959,32.66326351345952,3.108923328492666
328,-0.02061624893893524,-0.7801547048833992,31.352388797988034,3.167073992209089
329,0.5922677350829441,0.4569717770059132,29.89135106937879,3.1302131617174926
330,1.2695707298276875,1.5826568424152812,28.29911374591673,3.012007348181087
331,1.9780013652554236,2.6244962988034697,26.594787160353377,2.8084230968246877
332,2.666249804039525,3.6070764447846337,24.798824024958993,2.513069445478981
333,3.3366098276350855,4.54348657567055,22.935156849895005,2.1397853226762753
334,4.040590936061983,5.427884430694087,21.03687822265002,1.729258399634992
335,4.801696025648183,6.237245399451725,19.140822117318137,1.3234139715713789
336,5.558868784491128,6.940108021926368,17.274126067021562,0.927429118567102
337,6.224493198483342,7.505012784017708,15.452459866936422,0.512983567304645
338,6.7740520155885555,7.913242143559683,13.68537935641219,0.05721820049547385
339,7.264072382339583,8.16943917928637,11.982245806603538,-0.4256867071315223
340,7.73485275483161,8.301445047446343,10.35926023757362,-0.8939369622415456
341,8.142327013630487,8.351283341318384,8.838018557449024,-1.312067870387439
342,8.421778288291517,8.361912913085908,7.436791798609831,-1.6653608575930172
343,8.576975599879253,8.365606472023444,6.167011777363783,-1.9359911332620539
344,8.69651118211317,8.381500910519692,5.040274608343291,-2.085085717527691
345,8.844427322001646,8.418737574300746,4.078901182797819,-2.0764148090868586
346,8.989314404401402,8.48331662150766,3.3122482604264483,-1.890286685268401
347,9.072564317077806,8.589865531829597,2.7626741634941894,-1.5137094116145358
348,9.092017823319457,8.763082107076494,2.4400029843661435,-0.9268296388769257
349,9.11841308753262,9.02703454420778,2.340221657076211,-0.10241810804447476
350,9.211531863863412,9.39909458165742,2.4430117266111857,0.9594049107445344
351,9.344169906920245,9.891146235711098,2.7137063678372604,2.202641653712598
352,9.429567722468331,10.507726017381067,3.115511504313709,3.533688703842631
353,9.415977948829186,11.240069622577698,3.625745602536954,4.871795305012615
354,9.332875807573233,12.062393111894117,4.234914978964873,6.1712975611985135
355,9.225904504028714,12.929362197000938,4.932085053488151,7.393684592999251
356,9.096448332551502,13.780454163589313,5.7018883356416685,8.483693893249002
357,8.910781007622234,14.556511631432059,6.529207507100918,9.386112603944506
358,8.672043358047786,15.218530313604422,7.3971153346300484,10.091426318445995
359,8.455076787304838,15.757023230030054,8.283736426940212,10.65126795939306
360,8.340632852789048,16.187351118196737,9.159486748908895,11.138442226055387
361,8.354076196922302,16.53804183605871,9.984795657299564,11.595748122938364
362,8.456941455547897,16.839254546829956,10.713280478525151,12.022368135018509
363,8.612056262730132,17.11032965097507,11.297836670594217,12.394878789163807
364,8.82952442594099,17.35187632514076,11.696269589383803,12.685667251812138
365,9.118898014441264,17.55135775135456,11.87617217043619,12.871202383516966
366,9.43340378654393,17.694315712820288,11.820621682821,12.921472314764346
367,9.658601305145412,17.761800721646356,11.531290257402997,12.789063636166713
368,9.694085314686646,17.722369387749076,11.024279042990356,12.438794549140209
369,9.534300835126286,17.540423676806704,10.324220655014246,11.881045387026965
370,9.242082736334686,17.192643194646838,9.46184554326802,11.168219284487517
371,8.865483644556205,16.677198196711096,8.475478644070098,10.362383905464558
372,8.38388617607015,16.015766118278638,7.410500515247838,9.50474245858576
373,7.767642122996229,15.247605216634948,6.311490212244307,8.618938718213693
374,7.055960548408655,14.436930516306177,5.236009878811596,7.746604388092658
375,6.316307840108435,13.590675396521315,4.165144668106452,6.8373068889019795
376,5.584360726386273,12.736882282988798,3.1080272200397223,5.864302221919455
377,4.864970268332093,11.911025677217351,2.0910818290284827,4.825387193406774
378,4.179208536814343,11.147321748592505,1.1462439823509958,3.7513786938607114
379,3.577207037126621,10.473888464374648,0.3033766638716985,2.6988631763183464
380,3.106368892183723,9.908303827669826,-0.4149707321773934,1.7292645851153932
381,2.762990139028239,9.455986511428556,-0.9959742262746032,0.890926830717224
382,2.503669567136913,9.11183031952065,-1.4369175715422373,0.21262217376518733
383,2.308937261340803,8.864712428905383,-1.7446511480878393,-0.29082621747074744
384,0.4496761773780333,-0.21394125337197717,-0.5794270635303509,-0.05864033601846713
385,0.6048866362181621,-0.5409354365855361,-1.2655978250208526,-0.2591369933201604
386,0.7039734907683372,-1.0578645261602344,-2.2548089876856734,-0.5794474489190202
387,0.7112742468445125,-1.7821608241949978,-3.5500147538963733,-1.030646992565422
388,0.5530662630225707,-2.714154769759193,-5.122084440984609,-1.627925985078724
389,0.16676484802570907,-3.836799451641244,-6.912026514361178,-2.3774413343602605
390,-0.4447719157997071,-5.114113692773322,-8.84066416139916,-3.261995072914297
391,-1.2169439691310515,-6.491856552879248,-10.820699372551912,-4.2407107564501825
392,-2.0745157202876157,-7.903077753898914,-12.773754594440689,-5.267287233893384
393,-2.9661580352120245,-9.284556525705192,-14.65556386812557,-6.312347828608168
394,-3.8467430583141375,-10.600311000327974,-16.480706109245478,-7.363722795480309
395,-4.647138895209766,-11.817982768670644,-18.245455586341123,-8.390521824778547
396,-5.3203476825996425,-12.920591243660256,-19.93939120282981,-9.350605338310864
397,-5.89585486239006,-13.9061385841597,-21.547302686161625,-10.213192875802818
398,-6.449174881206459,-14.78572577371083,-23.050330347261053,-10.971296389973885
399,-7.017720733382942,-15.577571889025865,-24.41981477799453,-11.619418778982775
400,-7.5681824574552,-16.29408184750487,-25.619905308061128,-12.134183192484313
401,-8.073278465762247,-16.938288622534323,-26.618881021351633,-12.49423832805916
402,-8.581652409050333,-17.514455542014815,-27.397219725520742,-12.7059401261981
403,-9.198799908744888,-18.034486268190808,-27.94980623505046,-12.80775191613311
404,-9.995086253635012,-18.51179161906825,-28.28630183203459,-12.843656092480181
405,-10.947332630984274,-18.952846980683578,-28.43333125471252,-12.842581064041237
406,-11.98924787961794,-19.358965076493238,-28.433722025405505,-12.826346802468334
407,-13.087186759981584,-19.731998838696615,-28.33806789750533,-12.822294521950804
408,-14.26809239262099,-20.07891665261949,-28.193781838202113,-12.870002416903045
409,-15.551811352772928,-20.417284257450007,-28.02775416686563,-13.000556363205744
410,-16.879097110233726,-20.76767158298012,-27.82789306358251,-13.204120083657758
411,-18.136091589977458,-21.134297639524608,-27.55422846910268,-13.428589409493512
412,-19.231479481686183,-21.496417371232525,-27.174699587421138,-13.616794933887839
413,-20.14878900251485,-21.819340977998372,-26.68540448423964,-13.73551246263278
414,-20.894744056810794,-22.070113503535715,-26.10648244602899,-13.763346740859596
415,-21.434616372112554,-22.222821917111048,-25.470775828402967,-13.6757734087606
416,-21.70281024717743,-22.255372466495547,-24.81708594710634,-13.450830894830647
417,-21.662786345282065,-22.154130216364322,-24.183497269186148,-13.09553295311533
418,-21.354517310951046,-21.924527539453386,-23.598064581897674,-12.659120842703597
419,-20.83438753310324,-21.585778667979337,-23.074936420267576,-12.200363264833534
420,-20.10058733158309,-21.163290978884053,-22.614683126886202,-11.753888563042448
421,-19.114796932710444,-20.68207747201124,-22.203832310346133,-11.333616585635117
422,-17.879218848891192,-20.151289598129367,-21.81311575116508,-10.954545293460052
423,-16.47145257129813,-19.559858174851087,-21.400378221794803,-10.634413275663787
424,-14.987229052049734,-18.89227832060551,-20.923643394313796,-10.376684142616334
425,-13.46817182156022,-18.149246328009106,-20.354344902660902,-10.15025278551848
426,-11.889742644805743,-17.351090290203103,-19.68366652181877,-9.88419365384203
427,-10.249813180574181,-16.52988124787756,-18.92622331858082,-9.513746390915072
428,-8.636182444904325,-15.72615837253612,-18.113132201649293,-9.026550003849934
429,-7.173774806818777,-14.986109768738508,-17.274999601622405,-8.452706169173869
430,-5.947230782100904,-14.355316110713071,-16.435740056050534,-7.830523069752312
431,-4.973441661589906,-13.866944299469997,-15.614594325404845,-7.188827233153642
432,-4.269818460422545,-13.533212152397246,-14.820979129773798,-6.565923141347267
433,-3.907158215082828,-13.34926480571322,-14.053505794191492,-6.029512296174465
434,-3.958745912788744,-13.302253788642002,-13.309450705500762,-5.657896601965735
435,-4.42297865785099,-13.376297224232372,-12.585694886232718,-5.499965269155718
436,-5.197918832299559,-13.552969651182739,-11.870318097861503,-5.554396197196622
437,-6.167532328488473,-13.814167481640437,-11.145275729960419,-5.794224461304016
438,-7.280490973450942,-14.147663413736831,-10.396634235696816,-6.192497073132134
439,-8.52538299480224,-14.554796764352375,-9.622524749454806,-6.715024444773128
440,-9.867237011194524,-15.046661838901537,-8.83825384212949,-7.31536129868754
441,-11.221269875856205,-15.619797677170911,-8.073355690994202,-7.943617869008258
442,-12.510456244528973,-16.23615548028089,-7.3646517989032,-8.556929052142188
443,-13.729814776244515,-16.82810942484229,-6.750770373162617,-9.136625603601319
444,-14.929444756892108,-17.32916920476975,-6.263415988024333,-9.689696668598692
445,-16.120756015687437,-17.704883922142827,-5.916217764236905,-10.215026076295786
446,-17.228635655256006,-17.952217920615634,-5.701067548747431,-10.688329537230011
447,-18.15908201716623,-18.08097592784994,-5.595041929066107,-11.086153483081192
448,-18.87568751057735,-18.10558505577655,-5.56840405925069,-11.407037100707925
449,-19.40647830722987,-18.045079100211527,-5.587447430468257,-11.66714983058936
450,-19.774009559786457,-17.915757618010325,-5.615213947073236,-11.867985233974808
451,-19.95298034264221,-17.71692773275273,-5.615406271638967,-11.981433068267469
452,-19.907875511708667,-17.426453315755744,-5.564543426110905,-11.972573894650978
453,-19.642722353203027,-17.01434751040843,-5.4634340886074915,-11.823114653534851
454,-19.21866436798024,-16.45996543988923,-5.33090548246027,-11.537690680581067
455,-18.68279616982356,-15.752819650175466,-5.18637572867856,-11.123652328521123
456,-18.007163245853388,-14.8865826009658,-5.041242665839317,-10.575043631390281
457,-17.134464489694103,-13.863342422216695,-4.898002666325594,-9.88012153371778
458,-16.050571576372043,-12.70180911839245,-4.753500898430035,-9.03539979585114
459,-14.81061874409007,-11.44066764143032,-4.602281689076016,-8.063561217599602
460,-13.477706673680904,-10.131753724570242,-4.433909762535007,-7.006084710587503
461,-12.056248947327978,-8.824584102460403,-4.232165561798699,-5.893477416917015
462,-10.509693222128911,-7.552535190825653,-3.9784340367135487,-4.740367532772481
463,-8.83638085303068,-6.333228790692343,-3.655254446324952,-3.568645108464617
464,-7.1131547368246295,-5.179263026232583,-3.248569583669402,-2.4194282864924985
465,-5.435022979866209,-4.097557720084053,-2.753129664339775,-1.3336233140514033
466,-3.8401588191495315,-3.080335892874885,-2.180035496471613,-0.3300547727602295
467,-2.3045050221244394,-2.1041038725036736,-1.554080497247371,0.5932988786947075
468,-0.8123125951309896,-1.1393510878080075,-0.902176540649392,1.4381100874218775
469,0.5775082710170756,-0.16429960465780616,-0.24121322056284425,2.1930571575340467
470,1.7689951188867143,0.8258491456428529,0.4268602142026616,2.844822606183505
471,2.7106946761314914,1.8158564681600533,1.1067968365251601,3.3978365975202722
472,3.420969512949875,2.7691557186988285,1.8008740762724351,3.8836079036470985
473,3.9176626198272904,3.637302435402549,2.507653171533778,4.331484890785521
474,4.163041823318979,4.38073400631212,3.2233881903094685,4.730824912066629
475,4.109326351449422,4.974257528002089,3.9440348726862062,5.033216426837766
476,3.7640394579620144,5.397814329773616,4.664341721392211,5.187417836945226
477,3.21215518056094,5.636291414095096,5.373968063841136,5.169351796119707
478,2.5409256621176515,5.688811009022101,6.058537163662462,4.970354075530602
479,1.765988026514594,5.5735686014447605,6.706622358680214,4.576107639425083
480,0.8709660224341701,5.323379928428623,7.317514660069988,3.984079813867685
481,-0.11590239694999485,4.972719993707261,7.917800591684043,3.2384222471864303
482,-1.0941812429443016,4.544723848718145,8.542806659826311,2.4347204222597925
483,-1.9700089394822042,4.050548223902896,9.156111606502318,1.677830354660896
484,-2.745558844767877,3.4979261793659346,9.633461866371789,1.0370874948396593
485,-3.497538606772029,2.9023551881132192,9.859660578538225,0.5411357554548653
486,-4.277584351973765,2.2923048593784605,9.827713140279682,0.19642128147172566
487,-5.062311437874503,1.7011838177116367,9.68503350084629,-0.006046953939866586
488,-5.808669676390029,1.159226711575634,9.735035742383044,-0.09759659989121303
489,-6.5015700428611405,0.6932142987377888,10.40139740207735,-0.13179687390738262
490,-7.145272443856112,0.32619474019299827,12.167728800301193,-0.16507016182026737
491,-7.705223450006117,0.07219652688913211,15.504140042912208,-0.22182090908980753
492,-8.076374387250258,-0.061378834478105854,20.788004798303945,-0.2793249319190012
493,-8.156007906369041,-0.06105560308958838,28.23254054346591,-0.28914284872564516
494,-7.918296637641533,0.09311173428680658,37.84669517421219,-0.20896464928787806
495,-7.417855012967171,0.413652916216807,49.42806453031313,-0.01761775546195475
496,-6.711082176392255,0.8939238387660062,62.57192481114925,0.30063517168930676
497,-5.803265619383889,1.5071767016532536,76.70491296448867,0.7616985504699968
498,-4.708166013905215,2.2194040614627126,91.16147532695379,1.3432823022979477
499,-3.5141860638502176,3.0048849533040896,105.29868661398429,1.9610642440973098
500,-2.3871118092584656,3.8450566047429366,118.61956437080696,2.497020988042086
501,-1.4797699349439934,4.718041171753027,130.8125985164786,2.8489076611652187
502,-0.7238636919820717,5.550571926101994,141.80539624533571,3.111116296381123
503,-0.3562671750497598,6.410637135567718,151.27008143886206,2.9914948632689957
504,-0.5182832879749574,7.32714162693752,158.99771150611082,2.3508480501694637
505,-1.2577256365192784,8.303254377956852,164.92265863852347,1.1758112515901749
506,-2.503091949384454,9.319851818200014,169.11501423462005,-0.44806105418840303
507,-4.08369331729667,10.339323274873832,171.75851732608186,-2.367336674346323
508,-5.797383421581599,11.313626841533306,173.118762723322,-4.395576975452146
509,-7.4791976733650385,12.192068134070592,173.51298174569084,-6.350239434187081
510,-9.008824212652483,12.928085448330354,173.27734214876014,-8.080557124493742
511,-10.269119810255901,13.486018803311808,172.72546557773836,-9.474169372364942
512,-1.0804857216878518,-0.22203228539447104,0.8201083889344659,-1.7216083816782148
513,-2.742619994015321,-0.4121292534949283,1.7559924519883925,-4.0026701137036405
514,-5.153282927238229,-0.6862078829631444,3.080718131775254,-7.320724461938334
515,-8.332390875262956,-1.0624864293062806,4.797263908257236,-11.677580875535813
516,-12.311133090584033,-1.5449493769220621,6.878912829270782,-16.99005734790636
517,-17.07809422734915,-2.118399853062495,9.268591324358711,-23.089601662569248
518,-22.498063591994466,-2.7531437681496476,11.883588418006983,-29.72270328968608
519,-28.329936409494177,-3.409630327711537,14.624839461527799,-36.579303872118984
520,-34.340489709875534,-4.035361164470508,17.396965115380084,-43.357746740477104
521,-40.37741131002697,-4.579560399108924,20.13935529054537,-49.83792164865938
522,-46.383168078978144,-5.023219422856387,22.859719884698322,-55.94464383472029
523,-52.20701638312894,-5.36375788415121,25.545896346002603,-61.52783471893251
524,-57.66821672275345,-5.607474204007053,28.196888046177662,-66.44151640896769
525,-62.619592133703584,-5.7687344028104155,30.808256294622606,-70.57558231519731
526,-66.96711038844401,-5.879380508135001,33.349908817933695,-73.86504317080598
527,-70.62572649280689,-5.989342798572508,35.76260789570117,-76.26604789134345
528,-73.46771931279662,-6.148882788539361,37.970936397716294,-77.73378741673805
529,-75.37875837359088,-6.380812026153196,39.8938152930055,-78.24290352206134
530,-76.34808476182934,-6.676766566834173,41.45340028667173,-77.81927979587853
531,-76.43759030873265,-7.018060506398948,42.58709141654175,-76.52993213613786
532,-75.66524751875019,-7.393425067086664,43.253808923719646,-74.44395812131648
533,-73.96021449960881,-7.805100927892004,43.43675768107177,-71.60535040674395
534,-71.25009078535224,-8.26475829163649,43.14363669363425,-68.04600081481159
535,-67.5689349474918,-8.785272207976998,42.39945846516617,-63.822049990927724
536,-63.072119554225694,-9.377802942731641,41.24176076770291,-59.02572483064612
537,-57.9250078146323,-10.056482694530281,39.71606591548249,-53.75178750315278
538,-52.22811091104435,-10.833183326938865,37.86365847199852,-48.06258190243118
539,-46.070673362124545,-11.698388163879137,35.71476433949055,-42.00740207613905
540,-39.585554246717045,-12.621783557440049,33.29208160781616,-35.65942152987625
541,-32.94337562464604,-13.572661710875543,30.615159551805917,-29.114249518182923
542,-26.27110417977424,-14.529752723275422,27.71054170402586,-22.457577756290462
543,-19.593481970267682,-15.47646704759437,24.624900432819416,-15.747099724130024
544,-12.885204336392608,-16.39415071574458,21.42276519758038,-9.026039298332593
545,-6.161753315603786,-17.263138211276583,18.174730817991247,-2.348212751542091
546,0.4932069223010924,-18.06940883021461,14.94989124197005,4.210964815314735
547,7.005593866608143,-18.809731167523314,11.808187731919489,10.576283083693182
548,13.351945760340813,-19.487522594767253,8.790896585741754,16.691117533641687
549,19.513783086654044,-20.102910979870508,5.917740606629232,22.510388840495352
550,25.43268979943565,-20.64868860562088,3.1968815046833767,27.99112379774403
551,30.995250888471674,-21.117954234015183,0.6387901930768783,33.09172696065437
552,36.10756543900228,-21.514879789944715,-1.7361771705786744,37.787403352546974
553,40.78304928842737,-21.85458354765527,-3.903516126016866,42.08330301688726
554,45.119002341942696,-22.153803126115257,-5.847983067134089,46.0048325299947
555,49.192296238287284,-22.424134137182683,-7.565880961263812,49.56519958232083
556,52.99800473495175,-22.670877295019228,-9.06126878076827,52.749566560039064
557,56.48866532962064,-22.89184585397939,-10.346076566269975,55.53861824314117
558,59.6373546815825,-23.075383641433902,-11.43664034983099,57.92720347509257
559,62.46314047007291,-23.19943123639078,-12.344933428106732,59.9267952382547
560,64.97521286215618,-23.235182702030286,-13.078735277237369,61.55539057812571
561,67.11530716378628,-23.161313831612684,-13.652757807061557,62.82161564886662
562,68.79501142422554,-22.972106896604192,-14.089560264079498,63.73115300646135
563,69.97314117693215,-22.668321135956646,-14.406888993717315,64.31394573439161
564,70.6921202978818,-22.25083480775059,-14.609880271878172,64.6299813046262
565,71.00680504430771,-21.723291149225386,-14.69631870827253,64.73294719241346
566,70.91142929346303,-21.096667294728235,-14.666890793643546,64.63845274526689
567,70.36432649875793,-20.39061811567016,-14.530800694017545,64.3269547157198
568,69.35578073021978,-19.62897762810714,-14.308812126806117,63.77301886774897
569,67.94564345739748,-18.833315072623623,-14.03012894984459,62.96836825710305
570,66.19108805954015,-18.022261968654178,-13.720358816116967,61.91195168167787
571,64.07935035432959,-17.217300651012195,-13.395657667506383,60.5944202475098
572,61.56804915525642,-16.443609208546608,-13.069419664342014,59.00001941677149
573,58.664281740430035,-15.72322634754409,-12.759668281838056,57.13269404040059
574,55.461847062300315,-15.069212079806578,-12.487934586326732,55.035830426173646
575,52.07976194586724,-14.487309606816794,-12.273357718376214,52.7668765546305
576,48.587610520924066,-13.981408524743651,-12.127849618658166,50.360507841484655
577,45.0043564641445,-13.55515241254382,-12.052203199073935,47.82449164267646
578,41.366120211376845,-13.20597376259021,-12.033488939781861,45.16857649708056
579,37.76270765151074,-12.91618764975318,-12.051136600034217,42.42524017097693
580,34.27310488347606,-12.654941513844806,-12.091021499110411,39.63199193056559
581,30.898635669430114,-12.388735467713612,-12.146756440137755,36.80897577267574
582,27.573776370637688,-12.085684422456714,-12.207382796606325,33.96787839795737
583,24.25801096937029,-11.715895019380596,-12.258754969072536,31.13699427675646
584,20.991585611524965,-11.25535405005676,-12.296490838854831,28.372528609491884
585,17.85463726516338,-10.691830977127571,-12.329026117653415,25.74862145996906
586,14.898992292013078,-10.02968772433609,-12.37211076935447,23.324828144658852
587,12.108132677606472,-9.288487336680538,-12.446097365130418,21.120317804512897
588,9.46596587190429,-8.495440435975334,-12.572927522041997,19.127821385053466
589,7.022561246302246,-7.678140657844241,-12.767692907829634,17.337081566892273
590,4.8519462135680484,-6.86127002087271,-13.034639092885497,15.738526960834118
591,2.9791193178600963,-6.06401636593631,-13.367608068234496,14.306989013063207
592,1.3445452658368717,-5.294484399268036,-13.749476332386415,12.998520559336573
593,-0.1326099050249088,-4.545608050791731,-14.155626298299662,11.774606002150538
594,-1.4720955045359403,-3.799782565210009,-14.557886788251029,10.614992252589097
595,-2.628614069080974,-3.0390391638024066,-14.928885833208856,9.513659605391345
596,-3.5673835387793673,-2.2493871752671897,-15.249241958124868,8.461047355573562
597,-4.32348856915377,-1.418554538615852,-15.510514459472333,7.430454616343331
598,-4.959563835297298,-0.5404836591763289,-15.713055113330967,6.389287967900139
599,-5.508773396725561,0.3725170917318116,-15.86258273133081,5.31397971078046
600,-5.966907860300339,1.289387955920429,-15.966749159749694,4.200821338179057
601,-6.3543779980813,2.175915929849303,-16.03100436246102,3.050489238902654
602,-6.770101678323265,3.009286860439055,-16.059259389237745,1.8356021943194762
603,-7.331374142391379,3.7789617440668675,-16.057357087038515,0.5138770043733011
604,-8.077762048836746,4.483325246262775,-16.0290189392308,-0.9234639362675533
605,-8.955361640285629,5.131091690449994,-15.9697098113851,-2.4356110168727745
606,-9.905974411618645,5.735401508912153,-15.870051243195615,-3.9718127468476325
607,-10.92185082715123,6.301392415479171,-15.725507568050947,-5.5117393098430565
608,-12.010235473623801,6.819680771676366,-15.541364256665208,-7.055678475888624
609,-13.144024130227262,7.267367079052689,-15.33349406753348,-8.59215786993053
610,-14.240894272260869,7.612434624368367,-15.12551853387286,-10.089787935911625
611,-15.243377095290061,7.8233327867879945,-14.941806468822357,-11.516318198687745
612,-16.19361851835807,7.881936359235788,-14.80115187798115,-12.861836653047071
613,-17.182311551962886,7.785544627814843,-14.711574497499983,-14.140273608843824
614,-18.254043553061496,7.538439987962289,-14.66952417386086,-15.361167478855485
615,-19.37370703354447,7.149588355877603,-14.667328942834247,-16.513582625356797
616,-20.49088229162726,6.640258474742609,-14.701511270794601,-17.586738789668928
617,-21.60818099502418,6.043183747368411,-14.76919580394446,-18.593936459325366
618,-22.768877739805905,5.3889861736104265,-14.857989389308042,-19.56192948593506
619,-23.971710625720835,4.701640804767434,-14.946457359965137,-20.49368135886014
620,-25.12685900456612,4.002612315868703,-15.014493459444088,-21.36075639396841
621,-26.13313815229468,3.311456344437411,-15.04663348051219,-22.140474864080147
622,-26.9529305638567,2.6444371998889507,-15.024925854688899,-22.840252139443752
623,-27.601616174989903,2.0172462264252213,-14.928088694345476,-23.47735394263504
624,-28.083754058044224,1.4509461422722767,-14.74023085305755,-24.042362980065953
625,-28.360041277523976,0.9684203546530255,-14.458493161222833,-24.493889777680987
626,-28.381972131140657,0.5859297339079851,-14.092970438168297,-24.785976096524237
627,-28.148946676704906,0.3090784492772171,-13.663251729463745,-24.889135518372512
628,-27.73529235507726,0.13143314930417827,-13.198633917999496,-24.801132233947836
629,-27.209418248728326,0.036389524015016717,-12.730889234479054,-24.532264855349172
630,-26.616862854544284,-0.028323154430139566,-12.311862498687901,-24.113636663567164
631,-25.812010782818778,-0.025977032165828154,-11.885597099826459,-23.453643982626232
632,-24.776618873034533,0.06197026985046965,-11.424846563231304,-22.543824632366697
633,-23.56742197552333,0.23749884347628147,-10.919284695115845,-21.434119678457638
634,-22.24299977864591,0.48842197955908995,-10.370400573928862,-20.198842382411414
635,-20.843679089452785,0.7946120226516012,-9.793278181090779,-18.92123660166607
636,-19.430310222776257,1.1330873993894113,-9.213325081977743,-17.69314523280967
637,-18.110578794999483,1.4788358909693475,-8.65964789627847,-16.605874225530634
638,-17.004544464308147,1.805022366945502,-8.163099601386593,-15.730885786198316
639,-16.17294800470343,2.0841481961000183,-7.756396175521263,-15.098110900677232
640,0.40034743708499887,-0.2873395147592873,0.014092033419859727,0.11364278907031299
641,0.5110776798282982,-0.5826678955563429,0.051891556436790255,0.17934292016481224
642,0.5639413521466173,-1.0107373460084552,0.12225071189604272,0.21626999218281498
643,0.5008708459421121,-1.5809935784688092,0.23126190555092752,0.1835034999987304
644,0.22106184438683307,-2.2924988928025587,0.38341337364710804,0.021374888565198813
645,-0.3391068463802018,-3.146774408324281,0.5797761493025988,-0.3304178233067105
646,-1.1603274500345944,-4.1467367117553335,0.8134664683657451,-0.9060365237148673
647,-2.1745013099325994,-5.286026135892368,1.0713348772527567,-1.6954351280967639
648,-3.337758115875705,-6.5471554239944645,1.340938016161188,-2.653877815098454
649,-4.643471236712313,-7.9086378656725165,1.6130173637601115,-3.727400923443951
650,-6.07071495557086,-9.355981507992439,1.883261175973961,-4.861329460758472
651,-7.549200642979904,-10.85126932581001,2.149140515384408,-5.993993294679983
652,-9.018781180234104,-12.350485853511735,2.41099441139239,-7.069710203625615
653,-10.492139167521303,-13.80861004871256,2.670939749316597,-8.070985042319231
654,-12.014831023663078,-15.18014802622031,2.9259768968988293,-9.027824908654496
655,-13.585637727288374,-16.42469974624474,3.1578159469108593,-9.9856213059122
656,-15.118804658109442,-17.511873404525364,3.3385237344240783,-10.97215605832562
657,-16.519717532299232,-18.418230199036906,3.4460739928008937,-11.992687242045744
658,-17.765290795931012,-19.125708093029978,3.4712475170585124,-13.038928597960833
659,-18.878985143933992,-19.626500636128576,3.418136784007059,-14.09100951401492
660,-19.86018269226034,-19.928783474430205,3.301071291817589,-15.101828319291606
661,-20.660122106776686,-20.05309484183117,3.136417334645834,-15.992968137287662
662,-21.25502851721995,-20.014567965813384,2.9437920154012565,-16.680228547342615
663,-21.686994170958457,-19.814530288226646,2.758326817449994,-17.104902963049597
664,-22.015570674685424,-19.46136920001885,2.6285200764932313,-17.251582240563792
665,-22.249768462245456,-18.990740857181603,2.596980150417631,-17.141616163938068
666,-22.32636068890875,-18.458353812908836,2.6871758709781477,-16.807509293794315
667,-22.178059171744323,-17.92115614960195,2.9007395939366014,-16.27411316391288
668,-21.80554993613587,-17.425341610181697,3.2157683517056994,-15.57250272077458
669,-21.283869502186768,-17.001182751757817,3.5898826379305997,-14.755196738244262
670,-20.681633117129493,-16.66102145982341,3.9727986830223885,-13.871924353363923
671,-19.998559793698284,-16.402574066945625,4.319434720225037,-12.942740530527896
672,-19.211330596841673,-16.206516107224637,4.595573265630622,-11.966135167696773
673,-18.345532747853127,-16.029177621953384,4.775878225363732,-10.9525002256457
674,-17.498021405726615,-15.812775637222995,4.84037845797605,-9.944375346561364
675,-16.75002666073611,-15.506703494924624,4.77621777714447,-8.997429958739003
676,-16.0902926135193,-15.077952572343847,4.582525394164489,-8.152246665663782
677,-15.447629045185577,-14.509830266814406,4.2734390440692875,-7.424435177727752
678,-14.763980832223352,-13.801476261046066,3.8757348416128865,-6.82043919459548
679,-14.045467580120146,-12.97536803153171,3.417466632786692,-6.35963468094105
680,-13.32358293117682,-12.079689655198461,2.9118835069222224,-6.061733838537132
681,-12.59701654343493,-11.174242206935256,2.355243077865012,-5.918561753519207
682,-11.834432006231731,-10.311338722511715,1.7401369244551246,-5.893241956219432
683,-11.031400923544995,-9.527864016308135,1.0639968182329604,-5.948160628820835
684,-10.255742364918325,-8.847393242535642,0.329399106937327,-6.0755279644272155
685,-9.58949845745122,-8.278890979262526,-0.4545627859001511,-6.288757075604733
686,-9.0523154663728,-7.814561847075474,-1.2718747843573488,-6.582152661942427
687,-8.604744428463077,-7.432704253256649,-2.1065165960441403,-6.921610487419799
688,-8.228399202795252,-7.1032007000328345,-2.949321332230298,-7.276741133481364
689,-7.973945482978185,-6.79311323814882,-3.796302063091409,-7.642093528094557
690,-7.894498152800763,-6.475119194357765,-4.642931129970158,-8.017862251344921
691,-7.96999179626327,-6.1356458023043725,-5.477325636438578,-8.379108047643149
692,-8.108455061841129,-5.7722823720166225,-6.274522124609044,-8.676260711293954
693,-8.236258948299039,-5.388395775094871,-6.999043991752865,-8.870923977133293
694,-8.367795395990814,-4.987867685446665,-7.614005000831558,-8.960247478958944
695,-8.54754546833033,-4.5680481898778815,-8.086043015165664,-8.962621448088852
696,-8.748279767802225,-4.116104489696691,-8.384968586845236,-8.888607657560925
697,-8.851709480057954,-3.6076273077070935,-8.486177018257822,-8.731585542432542
698,-8.752046843723749,-3.013422643490848,-8.375318734562882,-8.484937032950189
699,-8.440495701827459,-2.3111436688218454,-8.049360651301436,-8.149050901012009
700,-7.971434476417005,-1.4919610985592828,-7.51615068803378,-7.725752168721471
701,-7.38499290399764,-0.5648231065147775,-6.797141597626916,-7.210420281693795
702,-6.677419662314402,0.4439244288560603,-5.929054503727599,-6.5849557822923614
703,-5.865599958199806,1.4948888621266514,-4.9607144385321815,-5.841822711048038
704,-5.038017348726097,2.537049855963583,-3.945302951560699,-5.012403951260208
705,-4.318117080161842,3.5122622732917392,-2.931911880581919,-4.1615225222875845
706,-3.7815377633924587,4.369913185967739,-1.9614754013762619,-3.35513203345111
707,-3.411470365727889,5.075849291734854,-1.0649569659189395,-2.634637174949002
708,-3.1585349015836743,5.611598938648463,-0.26525511432098053,-2.026804334397802
709,-3.0041176089844757,5.975258912778941,0.41872409916129677,-1.5566269553529761
710,-2.9582630655378046,6.174429378950009,0.9761265258699341,-1.2413048255582628
711,-3.0018791254732538,6.217739043330297,1.410359327018076,-1.0742737820653665
712,-3.055756621308355,6.117423655251827,1.7320690287103961,-1.0199647145689883
713,-3.0553026330385316,5.890410184776403,1.9475965302776843,-1.0355749933260008
714,-3.017563845161952,5.553648700940622,2.059356614868895,-1.0951616020264479
715,-3.023233900103896,5.123903165186687,2.072637295521243,-1.1973370695733747
716,-3.1313521727884277,4.62406556800423,2.0009671177771597,-1.3499924770932106
717,-3.324248857574801,4.083450377484598,1.8678859965501922,-1.5462876122949287
718,-3.5497056450040976,3.5276454820053265,1.7020439888658374,-1.7724594254523927
719,-3.787278861800039,2.969799840934451,1.532510936691403,-2.039904576243182
720,-4.074841291402614,2.410946830057939,1.3870347571346278,-2.3837708208957236
721,-4.445732306890419,1.8440052614580185,1.2858507643476893,-2.821117879893223
722,-4.8694916171425575,1.2577061457212195,1.2312421512972531,-3.3277596436149177
723,-5.277470989877101,0.6400678767841348,1.202434272587552,-3.8530971276224886
724,-5.62766728587069,-0.01662904402747585,1.159678620695695,-4.353902408781165
725,-5.949562331702344,-0.7028131652124215,1.055176162212049,-4.8178168716940535
726,-6.278603343825426,-1.3861752593974417,0.8485361528476009,-5.246130042624852
727,-6.57211146754767,-2.0256674125004075,0.5176395092669606,-5.630385491390968
728,-6.725992252930009,-2.5847619949248677,0.06120429759368523,-5.949782515007429
729,-6.661355141776404,-3.0373859746166563,-0.5015039999510683,-6.185917349143077
730,-6.380944179196633,-3.369044323499723,-1.136054328528422,-6.340618398990748
731,-5.917726378286211,-3.5732405062615626,-1.8062822010351223,-6.426018121430898
732,-5.267282432586283,-3.652723708204029,-2.4875559632753355,-6.441010836527639
733,-4.390077144964302,-3.6240837907555457,-3.1716831227020306,-6.364457814701985
734,-3.2861362541353563,-3.5167273462888016,-3.866523518809195,-6.175402347065871
735,-2.044765994737399,-3.3655814811678924,-4.590602896025759,-5.869846289845539
736,-0.7822715988121661,-3.195114680395228,-5.3634438175867265,-5.451090753065714
737,0.4399686424371536,-3.0039457217089263,-6.200853672033558,-4.92244713257112
738,1.6264869950251728,-2.777941160813333,-7.110774818916514,-4.289592407566069
739,2.7763117351363586,-2.5165077525982342,-8.083933880798275,-3.5761934769984753
740,3.8376945072417574,-2.238526011312038,-9.089543921003166,-2.8433853456401104
741,4.748454150803345,-1.9770125581793403,-10.085343848169998,-2.1782581902920595
742,5.496464904124212,-1.7748201497858702,-11.03386179359001,-1.6529357450479927
743,6.139749704959824,-1.6786330401136829,-11.91056078760539,-1.299003740705323
744,6.716536011824676,-1.7252159015852042,-12.70425235206965,-1.1254263825446453
745,7.172834395943154,-1.9241825383152096,-13.410358741606814,-1.135049643450016
746,7.420544419062621,-2.2537161880863947,-14.019253072787903,-1.3141606383197
747,7.430474482822602,-2.6702723266339863,-14.512929567465752,-1.6151797198904103
748,7.2643545335371265,-3.122445966537547,-14.872653144384385,-1.9581709496800142
749,6.997714709245574,-3.566457331612454,-15.089313670779964,-2.273241874667328
750,6.640414358585178,-3.9753564021223915,-15.171087168573257,-2.539889159694366
751,6.148703839486468,-4.335610391299075,-15.1446583927895,-2.7765542950807602
752,5.5051366819516225,-4.643684027680805,-15.0479111444306,-3.000545931873541
753,4.76912801538433,-4.912951601207188,-14.922667768858435,-3.204079733882854
754,4.015351487508553,-5.179650659323634,-14.814169580466178,-3.3734152452692174
755,3.2580880000704293,-5.492046457352529,-14.767899782600873,-3.526082532539134
756,2.4467077801541532,-5.8892229658658595,-14.819925422412988,-3.7146119889704554
757,1.5369342113319515,-6.392865147810735,-14.988203165664869,-3.9822224713063985
758,0.568773560821336,-7.01453710152742,-15.293601501333837,-4.3237397840041965
759,-0.4407796431472297,-7.739214562707758,-15.660537698366134,-4.735998745112657
760,-1.487934060860829,-8.524042968076351,-16.013982566467305,-5.209081165654992
761,-2.5610946293339194,-9.318151410910183,-16.292625670684913,-5.7278227524697
762,-3.591526131088194,-10.07551387487678,-16.45696848781359,-6.260381250669836
763,-4.475347332257255,-10.76077187577852,-16.49397591351694,-6.766266804014145
764,-5.156375042469042,-11.348240184379039,-16.41838845091572,-7.216722962580977
765,-5.654455084355689,-11.817371574697296,-16.26360641147531,-7.601032714971178
766,-6.0212103882689,-12.152721448167126,-16.069481790634605,-7.914072201701668
767,-6.272782180833694,-12.350421487332644,-15.873852327194598,-8.138231037264246
768,0.32090480710707947,-0.6389642011106137,-0.3892521623305491,-0.5204994307809131
769,0.3208976234202776,-1.4053613363592998,-0.7980652420627797,-1.1439124341047584
770,0.2458972529594184,-2.4592387431594447,-1.3186573293205166,-1.9843383851695025
771,0.05978581061810079,-3.775237206984971,-1.9072540911767264,-3.0139475835363094
772,-0.311071925642395,-5.301707362288157,-2.5114059592936084,-4.198325835642629
773,-0.9130254611500704,-6.957395733315009,-3.0835730418310097,-5.4811726243551675
774,-1.727734827743867,-8.643254908669567,-3.58945015088061,-6.786984832577911
775,-2.6999866604426646,-10.26660819223466,-4.010880029507632,-8.045747076956903
776,-3.7976952985804604,-11.76147981439836,-4.347302152873323,-9.222898258260228
777,-5.0230388322832615,-13.105449262711524,-4.622666593156379,-10.334755277858628
778,-6.369043757115345,-14.337409587758135,-4.89810071287369,-11.44851249963678
779,-7.788644155827815,-15.486915257868935,-5.225151291237476,-12.600223299200824
780,-9.246886266035766,-16.58480105112057,-5.641441481142137,-13.808416771289966
781,-10.772135023977519,-17.653198773987768,-6.163845347716424,-15.0901092385674
782,-12.405753760387201,-18.70440982654681,-6.786035762204178,-16.456828062321854
783,-14.129742474008506,-19.746626544478943,-7.480144549466627,-17.88646410000419
784,-15.852287554291003,-20.785259529346472,-8.211166778670806,-19.308226354965257
785,-17.491303142933674,-21.820476193097605,-8.952724170130796,-20.637206851150957
786,-19.04315059561158,-22.840139289279236,-9.692041121835931,-21.81965765724694
787,-20.536761111473147,-23.81064936403033,-10.426905701117057,-22.8311928536144
788,-21.965839953206793,-24.683517639103435,-11.162940027816926,-23.649702895768897
789,-23.27776096865358,-25.420228338516,-11.911176468537958,-24.255469517781304
790,-24.44557721292372,-26.012330556802585,-12.678417642105929,-24.656543824135987
791,-25.520945391714882,-26.47158580798635,-13.457872353851858,-24.88591370752433
792,-26.578436633710613,-26.802631679879948,-14.229271369624795,-24.971049199046945
793,-27.624411513468864,-26.999830719372447,-14.966083463775133,-24.916100622588583
794,-28.57482699817209,-27.061870204944828,-15.643598022738347,-24.703498759371545
795,-29.325966938226777,-26.996024202284126,-16.238532994967052,-24.306356106764536
796,-29.829698618994364,-26.81443562170838,-16.727813257833226,-23.705405933889686
797,-30.107321652910603,-26.530295475677722,-17.09404170176118,-22.90199731875674
798,-30.180004092139885,-26.154844680204842,-17.326528786659008,-21.904135532828278
799,-30.01654098759159,-25.6938305236331,-17.419481120488705,-20.715617912668442
800,-29.586601235342695,-25.145454617279206,-17.376478973591652,-19.358335075300555
801,-28.921050497100495,-24.500466077452703,-17.21376499594349,-17.88857654357658
802,-28.111869201716143,-23.750667993345232,-16.955494428342863,-16.385801209048946
803,-27.2373924548565,-22.905454400752934,-16.62686234705933,-14.91713598049138
804,-26.30957039241195,-21.996456480748968,-16.248734138858893,-13.517361053106356
805,-25.31028126698153,-21.064173438374475,-15.832549775332357,-12.205434938440803
806,-24.23913524062188,-20.132283236825756,-15.381080152280488,-11.00205253089582
807,-23.1402788234683,-19.189457113948624,-14.897667401981035,-9.93405693598924
808,-22.050851016855493,-18.209409110622946,-14.394146546623713,-9.023269816055688
809,-20.945411462665795,-17.18592057345639,-13.887221529062534,-8.268580230250922
810,-19.778358513714007,-16.133879796039977,-13.387037561008363,-7.64163155887096
811,-18.54357716299884,-15.066238303846765,-12.89011829140502,-7.106003165491698
812,-17.296633346010495,-13.991869739740821,-12.384359314141582,-6.644454130486798
813,-16.098043507657657,-12.930768146790452,-11.861907621080185,-6.255531521729993
814,-14.93605212114108,-11.912118259990594,-11.324810943772606,-5.926973968289698
815,-13.738868939832724,-10.960877668406473,-10.7812310788402,-5.631219233684633
816,-12.466482698736696,-10.096013774352357,-10.24066952619576,-5.352509304174964
817,-11.168026524648578,-9.335063125252864,-9.711127783248934,-5.10235359852719
818,-9.91889010603419,-8.694728617519372,-9.198452838543707,-4.908016571957718
819,-8.740306936622748,-8.185762922608617,-8.708767754055419,-4.793673636892078
820,-7.600636267345348,-7.802766954868831,-8.251594698008756,-4.760505875549831
821,-6.489632902360844,-7.523070709753221,-7.8378258480617555,-4.795918763619483
822,-5.465614270443569,-7.321301251620806,-7.474946088314094,-4.89600722549616
823,-4.599733645545272,-7.186708533501569,-7.165053759020001,-5.0621596490880485
824,-3.903277446590058,-7.131154242157581,-6.904099493819955,-5.286907448551027
825,-3.3232974440338454,-7.176170544646535,-6.683857520133146,-5.545978779383048
826,-2.8267815542331687,-7.327594928299697,-6.495287033619502,-5.820500196914699
827,-2.4562144567137567,-7.570414037981342,-6.32838513984011,-6.12496311775063
828,-2.2640207205756813,-7.877751743333325,-6.173554337919631,-6.487151403071498
829,-2.227677947197255,-8.206570034676533,-6.027535181372443,-6.906576216595179
830,-2.242343362551495,-8.500423827382729,-5.896632861736358,-7.342429194851168
831,-2.217328241656853,-8.717309664650054,-5.792467352622282,-7.745203074382231
832,-2.148628692903256,-8.848356800428377,-5.7256254418655415,-8.087833052453256
833,-2.074194039870042,-8.908248649866655,-5.700288472948223,-8.359009187802048
834,-1.9878739166743284,-8.916842660605743,-5.7106347418527825,-8.538891552895606
835,-1.8063738553974702,-8.890595688268517,-5.740493336327357,-8.5896227109173
836,-1.4549665363618765,-8.841489081380645,-5.764816350198848,-8.474855753561322
837,-0.9503360518767248,-8.775467599721704,-5.7549692145602185,-8.187582885969727
838,-0.3755048837139289,-8.691057970508842,-5.687608387385011,-7.754817101718991
839,0.1974605035243347,-8.577493420152067,-5.55238822206858,-7.2033106674057885
840,0.7466059294541487,-8.41496963000209,-5.3534768025992445,-6.535637243076064
841,1.259330675498693,-8.177199251980882,-5.1033013204813,-5.750132976127911
842,1.701023218172565,-7.8358469773621975,-4.816669747949971,-4.86523916724381
843,2.0273297338163294,-7.368363790183869,-4.514507341336463,-3.916228360859232
844,2.2360554545172637,-6.7690207718398545,-4.229985132867506,-2.9286042444159253
845,2.3970586540364214,-6.059778936424026,-4.00273073318104,-1.9170939307769925
846,2.5821872138891613,-5.289484923446602,-3.865648226963084,-0.9086053671756674
847,2.797820467498059,-4.520220175068678,-3.834900974386798,0.05300803624798646
848,2.9932974312301126,-3.8073777686810586,-3.908403372192087,0.9171388607014168
849,3.1316128095880797,-3.189366223326294,-4.072256062017015,1.6536469924199098
850,3.2303111887972906,-2.6929829911064473,-4.309520856817659,2.2681787276389693
851,3.312544077093403,-2.332098388523132,-4.608157538217162,2.7838377072699894
852,3.349582513514541,-2.100178699602268,-4.961666462581519,3.2215488033997093
853,3.259654564767672,-1.973210373038802,-5.365065676552185,3.591520544661553
854,2.994739409114585,-1.922477201553571,-5.811189776600367,3.892711281824344
855,2.6063825791875295,-1.9172571513693566,-6.286450996724804,4.129794979190513
856,2.2090847031656873,-1.9141978948885103,-6.770574188998403,4.335369445815579
857,1.897776936662004,-1.8654370577453987,-7.240869699873882,4.548992501565087
858,1.6843395025969607,-1.7423443583530505,-7.677766630594979,4.787185619628381
859,1.5317595926620085,-1.5482382541584867,-8.067764821546335,5.047881930133507
860,1.4306226527228745,-1.317342383876357,-8.40100341227932,5.320543834987921
861,1.418453542900689,-1.1032528253953016,-8.667573277876933,5.5945213167713295
862,1.5139927362682415,-0.9606145969728223,-8.859145253879367,5.855036878445382
863,1.6635921022041962,-0.9293681666623208,-8.974761210037006,6.068446113647766
864,1.7939662166118184,-1.0271588272438255,-9.023017902458761,6.184599966414909
865,1.8762047414412197,-1.246275974338599,-9.020435846714404,6.161686409278552
866,1.9349985289123086,-1.55769202640327,-8.985473396805824,5.98462301756064
867,1.9886984693039795,-1.9197278439652654,-8.9283327766517,5.651546186269647
868,1.9963355589649445,-2.282397448388163,-8.84518515928553,5.162013724291636
869,1.9018798055411343,-2.596507462224067,-8.723871585854901,4.532552257359673
870,1.7014036527446923,-2.8255023357529954,-8.55484530894646,3.8172398285509552
871,1.4554683969131081,-2.9453841273706196,-8.333132726371007,3.112918019249192
872,1.2152851076896054,-2.9458268277187263,-8.055635814937505,2.5214828404421032
873,0.9672993993432557,-2.836780563942536,-7.724256632708619,2.0906094997498874
874,0.6795262029024551,-2.6435223549708016,-7.349465657289281,1.8131588614897907
875,0.3699640063805972,-2.395810928739253,-6.947559777129335,1.676114855581303
876,0.11599346613528369,-2.1180834223818072,-6.5334941926389885,1.679809148832971
877,-0.027598593881813786,-1.8149829602604657,-6.112786275927497,1.81927824654092
878,-0.08326774679484704,-1.469480606905089,-5.676866036155607,2.0675502980240865
879,-0.10700086449182372,-1.0616775173712945,-5.206721973739693,2.385793914537366
880,-0.110601306136381,-0.5832914991100823,-4.681293680875742,2.755087175835532
881,-0.028905474443673945,-0.03670319621813889,-4.082861912367047,3.1895849558041367
882,0.2044846881141386,0.5748065982994885,-3.400157717465452,3.7163340171472012
883,0.57771233177677,1.2533291970960805,-2.631889444071719,4.350182261242439
884,1.0227554324446952,2.000195738888079,-1.7903750575718187,5.082962968354719
885,1.505668786224373,2.807978597907215,-0.9020871146181344,5.9003129545140425
886,2.062384902421631,3.673092617600564,-0.030460989131433358,6.785109661705427
887,2.756187629376766,4.554677010561358,0.8414277343023993,7.762494716651037
888,3.558422755843203,5.409871465280751,1.705014086372489,8.800771271666246
889,4.403430663105783,6.195392615593122,2.536633372855232,9.842840601341983
890,5.250199673339183,6.873173499755372,3.3094898370033388,10.84089064984052
891,6.084325750568143,7.418232397581915,4.003575278701362,11.762579985027656
892,6.8753458960153715,7.824134616511055,4.607049262858668,12.574879034804173
893,7.565857677052885,8.098752008646757,5.112648716693499,13.243286353382484
894,8.100705400894842,8.250163141729166,5.515490031124406,13.745669252479342
895,8.47213014979576,8.289145688805187,5.813157450029028,14.08660681961253
896,0.33002225343766445,-0.8838196229962012,-0.2658247436593145,-0.11219904883314111
897,0.42102816851504715,-1.6539001911527342,-0.6989668539433052,-0.431247429683976
898,0.4681156420921223,-2.6709066196144704,-1.3494707419784628,-0.8891377854464401
899,0.4131897465220029,-3.910216268790013,-2.2150672226636776,-1.4713017725144766
900,0.1716503147416881,-5.334583724211356,-3.2729486629535622,-2.159798995342391
901,-0.29909282554413574,-6.896976682525434,-4.483596995016326,-2.926183126635276
902,-0.9654779561198602,-8.53725251485027,-5.794050160037557,-3.724421372842528
903,-1.7477917517095192,-10.188973527147022,-7.143707768880232,-4.499850921895933
904,-2.5830981084669205,-11.795042302610117,-8.473832935225358,-5.2156178087499825
905,-3.4351091818774244,-13.327183343305816,-9.74133795579207,-5.870332625276315
906,-4.249027691575105,-14.80836106415144,-10.935467890109214,-6.487870291193492
907,-4.933873474657205,-16.21536908627069,-12.042580507408369,-7.069154472543372
908,-5.426924533111643,-17.50713272560639,-13.05021837529506,-7.595849320111026
909,-5.752991909456357,-18.641815902386917,-13.94731363441562,-8.055255550521862
910,-5.975266132642747,-19.596737486253282,-14.727933424336245,-8.4358389438321
911,-6.110178081407547,-20.371071043280914,-15.392493456810373,-8.703268921987044
912,-6.108296619844705,-20.974217161947834,-15.949008241007071,-8.797518529173958
913,-5.936004502524467,-21.41765692805793,-16.419421126262705,-8.676980837815233
914,-5.632356246678879,-21.71441933453479,-16.844784329726217,-8.356802271181884
915,-5.260948495891643,-21.88048671630013,-17.277877754212223,-7.889617349125335
916,-4.851934941084664,-21.930454699370213,-17.767013593104455,-7.324731665054357
917,-4.387977551014555,-21.8678486320175,-18.34161617040071,-6.6878490376409
918,-3.8714209912283306,-21.686572098204696,-19.00783281075429,-5.996334295594695
919,-3.3825569400069546,-21.383845781091946,-19.750447492909643,-5.281207053070796
920,-3.0319755776781347,-20.96067777091986,-20.534676242551704,-4.585385910868006
921,-2.877904172077769,-20.412460281868135,-21.310233671610035,-3.938618324049994
922,-2.8962492677346745,-19.734611196304392,-22.019394064801475,-3.341659774237879
923,-3.04098209115708,-18.93631119169901,-22.607307214051797,-2.787002512023482
924,-3.303910709364282,-18.043810150004425,-23.03280598578041,-2.2894262509391945
925,-3.6980961157931036,-17.094724455541446,-23.28040997793657,-1.8911213527868698
926,-4.200747782503036,-16.13356090183564,-23.361230349692065,-1.6211837884676412
927,-4.74743079804866,-15.209641976384242,-23.299325790197383,-1.46185074534133
928,-5.298172054444826,-14.369399533369391,-23.123272984765972,-1.379893932022284
929,-5.858969328153522,-13.64661842723848,-22.86454150898626,-1.3692174229974743
930,-6.431127038642739,-13.05633436511085,-22.55569323412567,-1.4461519595525743
931,-6.963536876308371,-12.592770194204451,-22.23163603672266,-1.6116791426006276
932,-7.3746432349573015,-12.232961181540643,-21.93043440469076,-1.840826412418925
933,-7.616569563665447,-11.943015462110292,-21.690726001370926,-2.116318083304319
934,-7.696636017927939,-11.684319937465785,-21.54472498985115,-2.4510175547512327
935,-7.641544940590562,-11.421308331902987,-21.509437995449225,-2.876905025572735
936,-7.440494519838848,-11.131157906890818,-21.584778313052425,-3.4120370792005095
937,-7.05691798083501,-10.807028354906503,-21.758375418588347,-4.036394503690074
938,-6.493739837560699,-10.454099874649483,-22.011480443519183,-4.700979511939188
939,-5.813677367187263,-10.083313822486453,-22.32262739943401,-5.358493083364935
940,-5.114937241491856,-9.70465155029367,-22.669760913696436,-5.987604895935555
941,-4.462859271427281,-9.328341406394799,-23.033708012988566,-6.580552209843981
942,-3.8374508009387225,-8.968444853704641,-23.400903481874817,-7.122301874689132
943,-3.1658231928720437,-8.641495238142415,-23.76200658953281,-7.598272118421987
944,-2.4017219497539486,-8.361169769843196,-24.113787270531002,-8.022092921404568
945,-1.5884753431989413,-8.133152237703197,-24.461935052527952,-8.436823437877457
946,-0.8282495154551329,-7.952619847578064,-24.814958148623358,-8.868994623572457
947,-0.1988625944199587,-7.8017705232673915,-25.175881181013942,-9.30711879374115
948,0.28664153868778,-7.651944981761657,-25.5371592186835,-9.724584951113894
949,0.6517764076504078,-7.468370384440585,-25.877948800672993,-10.100851106045946
950,0.8903307355272075,-7.21594359543733,-26.165097746955528,-10.426018217713176
951,0.9620620189741748,-6.8662171153716285,-26.361020177216638,-10.69095768781814
952,0.8543994076699046,-6.403348827753913,-26.438102749454874,-10.876800515941992
953,0.6278777732945027,-5.825358923669001,-26.385449419143406,-10.953708827361599
954,0.38575011133591725,-5.139092338937654,-26.203277677937532,-10.903492138003127
955,0.19719988192809806,-4.35930148358452,-25.89501938271103,-10.738814736715344
956,0.07815585932003521,-3.5085007548335594,-25.461696149944206,-10.487012831448144
957,0.03310345798468038,-2.617124527982051,-24.903349655151043,-10.163531591766377
958,0.08558646848845136,-1.7279057106131126,-24.22254892045272,-9.762971829028592
959,0.23517046972610578,-0.8926148534925075,-23.420791132945055,-9.281849707465687
960,0.41643566286838174,-0.16088359546378225,-22.493611264348623,-8.735824233758333
961,0.547016680058208,0.4281880720562059,-21.436913084649262,-8.150805354712814
962,0.6004628805123104,0.8476035997190696,-20.25721128136089,-7.5422243423152295
963,0.6280495392964044,1.0850926501022713,-18.973056480084878,-6.894866061853127
964,0.6750913667866201,1.1396962812602058,-17.613544309047764,-6.18358981343974
965,0.7132879817271007,1.0136697091090883,-16.216778627754675,-5.4064031611850005
966,0.6857518783229531,0.7163656205994523,-14.827136036491172,-4.578550965458108
967,0.584677144950226,0.26881530549072297,-13.48942871001846,-3.704143986215107
968,0.47994669850777794,-0.29874348220104,-12.238173203074444,-2.763282326637176
969,0.43363054152404135,-0.9468162398375131,-11.089142894662142,-1.7354155178805697
970,0.41951909929232745,-1.6282797985646527,-10.042703823513465,-0.6426598711000571
971,0.35345726882564243,-2.303887083176249,-9.09698880331997,0.4314807552103808
972,0.1777820030618041,-2.9575973517228116,-8.256254552032756,1.3849895317120073
973,-0.09524583661267066,-3.5952394925729316,-7.529710208518307,2.1475454442005435
974,-0.44039920526195553,-4.231584995852222,-6.925445971468166,2.679848564413177
975,-0.890654740421501,-4.873837161043198,-6.445845362008924,2.9562628514781304
976,-1.5402371270953448,-5.5180020620775405,-6.093450214073832,2.967327911241024
977,-2.4606034382321957,-6.171996043768106,-5.876870744814707,2.7383509165874846
978,-3.633429733684508,-6.879627388309506,-5.798492118265723,2.3305215485593087
979,-4.989441101146957,-7.704717368490573,-5.837051050149276,1.8171608662959968
980,-6.472739640893709,-8.692443713821252,-5.946845213936947,1.2603424463145336
981,-8.063425711769929,-9.844198760056196,-6.0668060127009955,0.7097934154622468
982,-9.715350845090198,-11.108067532907718,-6.1317214601283965,0.22164231511664317
983,-11.31370795997178,-12.391196516271076,-6.08942119675861,-0.14964559267196553
984,-12.738390713754116,-13.587377508892077,-5.916479258666486,-0.38859721805871106
985,-13.93717166071977,-14.597524678192215,-5.6188684872906425,-0.5341319347025093
986,-14.935573686646311,-15.349758058333418,-5.218528481437256,-0.6542131665221325
987,-15.758061625241321,-15.8191853536891,-4.740395559773216,-0.7981853195997723
988,-16.37466903885965,-16.024851074758097,-4.2061187042629795,-0.9674853777042826
989,-16.74643187133912,-16.009168939868058,-3.6355402222694955,-1.1336867712227983
990,-16.892253654817612,-15.823688722363944,-3.0535443414640953,-1.284293625907201
991,-16.904606829990865,-15.525662857831437,-2.4866795105695947,-1.4392622050969863
992,-16.862335550538887,-15.175336790924035,-1.950611403005387,-1.6160980816821477
993,-16.743255762614012,-14.821805342827151,-1.4418418217435662,-1.798569380861853
994,-16.44990175241915,-14.478959389324787,-0.9387195449876943,-1.9478910362684705
995,-15.915255206374653,-14.113789958648688,-0.41364317800397987,-2.0278152880274596
996,-15.16456683833135,-13.67303391997637,0.1533518128445234,-2.0157051606431904
997,-14.264554262563895,-13.127060429716742,0.7706619164858997,-1.9037430234538542
998,-13.243938476504908,-12.478742800894903,1.4370303378567413,-1.6882301673087659
999,-12.06776717339002,-11.750960570886228,2.14592301280411,-1.3516829950839435
1000,-10.715900461567841,-10.984744397490003,2.8958824621970756,-0.8760041732211352
1001,-9.255207094767538,-10.234457793447447,3.6978720756065178,-0.2738644850374295
1002,-7.793928251540002,-9.5505829502895,4.566301545824903,0.4157914009110049
1003,-6.411332852223816,-8.961950595706762,5.500612884003862,1.1505252761817215
1004,-5.1334549746222065,-8.470971048138566,6.473740834067189,1.8870760923956378
1005,-3.985269221138503,-8.06511423055282,7.430828910613513,2.5692113915376638
1006,-3.0356358437314257,-7.731388977656277,8.297315752026918,3.1265988722020817
1007,-2.35858589459416,-7.463382442996049,8.991385051971376,3.4940850923724325
1008,-1.976713102176071,-7.263096175558083,9.429395315615928,3.6379484253107863
1009,-1.839596745787812,-7.134623386321582,9.531218896148003,3.5645124712941425
1010,-1.8880820600011723,-7.077238802464657,9.23688453443509,3.2987633022747267
1011,-2.1194039288656987,-7.08439556831434,8.521000570950667,2.8716168483840327
1012,-2.561873434050891,-7.1446838721003045,7.39409655000998,2.31971824175789
1013,-3.2003674232288533,-7.243617400611784,5.899656698569245,1.682866683979397
1014,-3.922622680260347,-7.366003686773331,4.15252157492622,1.0544012590944256
1015,-4.6535940751717995,-7.499599690711304,2.1463317607337555,0.3991186606135362
1016,-5.379837723749816,-7.630423637852826,-0.04208634396094629,-0.30523544513368317
1017,-6.098529921679576,-7.741176886019477,-2.2948989296557913,-1.0660516301601337
1018,-6.755800616896597,-7.815671699823824,-4.488704648321402,-1.856621544645555
1019,-7.269134735539152,-7.84919821788494,-6.5170013945458205,-2.6280549160404485
1020,-7.6071163483673265,-7.852103447528281,-8.296507494705796,-3.3432991057882804
1021,-7.809014423241907,-7.842044103721749,-9.76822884304606,-3.982289741877616
1022,-7.935197036116728,-7.833363947175544,-10.899264913953987,-4.526739305206222
1023,-8.004130603960897,-7.833321198047987,-11.685812624511914,-4.9526888283927875
1024,0.3023645644192231,-0.5837466891005039,-0.5785184830235653,0.17368574480473575
1025,0.1898879956352595,-1.2526213118330256,-1.3972062479202512,0.13947977345313659
1026,-0.09015410088363895,-2.227491421438897,-2.603312029579752,0.017657869560980477
1027,-0.6007072100034054,-3.5196666568378205,-4.203002500016354,-0.21606677611914632
1028,-1.4155704959847062,-5.11721311848563,-6.163598424057931,-0.588917308413357
1029,-2.545873369310275,-6.985403937344364,-8.416846842325958,-1.1085132260442139
1030,-3.9213971367496296,-9.06820444467261,-10.86691680282021,-1.743578748114594
1031,-5.434186841329032,-11.29401731031975,-13.40254187873391,-2.4345323906151988
1032,-6.9989261589972145,-13.584669979055265,-15.912976935152106,-3.124408034277492
1033,-8.558959623485096,-15.874828048731423,-18.30821564398394,-3.771328609957129
1034,-10.041681555313284,-18.140465876171543,-20.548189803117026,-4.338731060061392
1035,-11.347694125009918,-20.33232118011917,-22.583047642495536,-4.792099196844974
1036,-12.41792970006944,-22.405473393236168,-24.38241962381467,-5.127131508172347
1037,-13.294247507488057,-24.33264265849221,-25.93829708163415,-5.386130874282327
1038,-14.05630168895476,-26.107098073571052,-27.25575155867695,-5.627783675214546
1039,-14.728328172941566,-27.73143687153877,-28.34223838869937,-5.8978064666156085
1040,-15.278639046149669,-29.205953741228708,-29.20668625518833,-6.223651042362185
1041,-15.697452575294916,-30.522758887374685,-29.86229850561648,-6.62241356770886
1042,-16.038197384741334,-31.66857342657881,-30.328607536594458,-7.110066272994028
1043,-16.368738806620783,-32.638586192176,-30.63033953932483,-7.7082616210152946
1044,-16.711088156461035,-33.44948147083277,-30.792989289677525,-8.42540841180935
1045,-17.023710245036256,-34.12589132308456,-30.834562799741356,-9.229392406824818
1046,-17.271626944221772,-34.67797707053063,-30.758216944027954,-10.068472472593436
1047,-17.484302451055324,-35.10205586460365,-30.554321762490233,-10.906093805578857
1048,-17.70510553899063,-35.38979528014672,-30.20923634197986,-11.725237315292013
1049,-17.925178405871506,-35.53398315878384,-29.71428742796325,-12.503226663193256
1050,-18.071148591681435,-35.528875270782464,-29.071470420393293,-13.190625085099672
1051,-18.080440741740176,-35.366620188582836,-28.293550092637506,-13.740743200402202
1052,-17.968730056066487,-35.03836159466734,-27.39928582865865,-14.1494929961497
1053,-17.794682267970558,-34.5340905500894,-26.410591520975643,-14.445097728123438
1054,-17.583035613221796,-33.847798860726044,-25.353606498262657,-14.654706479499419
1055,-17.29830387007364,-32.99033138018115,-24.260294340842616,-14.791451955808931
1056,-16.917032497524687,-31.994811141137227,-23.167068887382598,-14.856229493320246
1057,-16.473023739461205,-30.913962134241117,-22.106141706894643,-14.849428853136098
1058,-16.017480567629065,-29.810045346934615,-21.095916095581114,-14.78793073174553
1059,-15.562481044675636,-28.73539845344891,-20.136973461233595,-14.68613702110904
1060,-15.052669056871249,-27.711191541347098,-19.213496632473444,-14.517199253774214
1061,-14.425429483908063,-26.720293219280887,-18.30075770985357,-14.229491640401797
1062,-13.691497317744966,-25.72352913952423,-17.3753587972622,-13.809551727157709
1063,-12.927958966924352,-24.683693894576287,-16.423521147490565,-13.298752568550462
1064,-12.189659831920826,-23.57726160716507,-15.441905453031948,-12.7459855442896
1065,-11.461402934210241,-22.399183805276035,-14.432628439431864,-12.174999662364112
1066,-10.7170277671586,-21.163662794981548,-13.403084961686403,-11.595946769803374
1067,-9.985183274530327,-19.899121039714164,-12.368553875660611,-11.029978467748432
1068,-9.346379351231814,-18.641973328181614,-11.348802278321193,-10.507770778705993
1069,-8.845807708347397,-17.428982880336303,-10.360403465428684,-10.028513936493487
1070,-8.430616121634914,-16.290590309614927,-9.410685275664417,-9.543361910969514
1071,-7.998977168463036,-15.241914826995847,-8.495706058347173,-8.989233859299327
1072,-7.475932563747453,-14.26912189371726,-7.603457641247959,-8.317440130166638
1073,-6.843073026614966,-13.332029300428944,-6.718131865486047,-7.505998720797204
1074,-6.092907546485002,-12.3832759691591,-5.821916777811527,-6.555662007188209
1075,-5.182161579518319,-11.382158133169785,-4.897419184227266,-5.466906084556135
1076,-4.047487758551752,-10.300575167548951,-3.9309520759788237,-4.240765199867971
1077,-2.6656127793681494,-9.125330708345771,-2.9164340562826596,-2.9145952288873462
1078,-1.0980736700717006,-7.862154319242854,-1.857500443013733,-1.568443376920101
1079,0.5688506436514476,-6.542561204706172,-0.7673102043196256,-0.2829450639328404
1080,2.288837687017967,-5.223929738789391,0.3314573664996418,0.8883811173726492
1081,4.038171077267673,-3.97368824073105,1.4067321185473345,1.913822108967753
1082,5.762491659303394,-2.8438349853684604,2.4173455473101546,2.7614913248631052
1083,7.343410702879159,-1.8553180920390602,3.316705640953122,3.3855968336882025
1084,8.666252829736276,-1.000619775346691,4.063211678166436,3.7491165246723095
1085,9.710630079940348,-0.2521881825412714,4.6280291878350726,3.8546494975065992
1086,10.542553101308021,0.42627771859607533,4.995215519130263,3.7475161809419895
1087,11.219270971500162,1.0658513960547618,5.161945993255833,3.4841567978005936
1088,11.729636753281873,1.6861843796991525,5.144634616216958,3.101899072348829
1089,12.034073571012561,2.296127820047955,4.986113347209687,2.6243836109668424
1090,12.120045176455157,2.8929287161046537,4.7460739251633335,2.0776518155665538
1091,12.028472737190919,3.456560164644309,4.479913162214351,1.499792799874165
1092,11.79716428791177,3.9537153066855333,4.230042313359819,0.9271811045526968
1093,11.390407102989053,4.356232041801202,4.027446215184339,0.3659552095415831
1094,10.743222272979025,4.645793008220271,3.8893677629531984,-0.20588486834824662
1095,9.851939204688303,4.802926921917124,3.8156921621643933,-0.8059657382990508
1096,8.795996957793362,4.806324090921315,3.7923822296663094,-1.4241679149052295
1097,7.6542233764314105,4.649004142420088,3.8029603076437994,-2.036449150111258
1098,6.43886614653689,4.350047644283258,3.8396024749612367,-2.6285535536561615
1099,5.135530771544268,3.9454856707312205,3.9050900235914776,-3.188102695970533
1100,3.780547007617247,3.472740077983275,4.008172683112571,-3.676298837393654
1101,2.4823812795174875,2.9622904696751937,4.155182627771674,-4.032198527091261
1102,1.3265979383707076,2.441402717390485,4.344150837668457,-4.217226602533496
1103,0.29943133138727784,1.940222225568227,4.56983868652211,-4.239442505040269
1104,-0.6662468099321397,1.4876298904254313,4.830253546492254,-4.1342065286289005
1105,-1.603928643458542,1.1041114148615452,5.126073224669594,-3.934371149058692
1106,-2.482052723673289,0.8013195720990818,5.455272846534195,-3.664966314588443
1107,-3.2598100927901332,0.588282808974317,5.811229033921679,-3.362393363112052
1108,-3.950580314354423,0.47303741968545815,6.195787678543916,-3.0819454002628217
1109,-4.6213773879992965,0.4497236820307111,6.62940920490848,-2.879506696408908
1110,-5.313546741524392,0.4816323967270171,7.139567844932463,-2.778080284791025
1111,-6.002678104130576,0.5144822753025665,7.746385301584427,-2.75586657066176
1112,-6.65838717486873,0.5112499670697853,8.458763984361966,-2.7704978051370373
1113,-7.28829472798982,0.46078811349374715,9.271708132811396,-2.7870893725427703
1114,-7.928934204535272,0.3604309480164112,10.160903950998394,-2.788970926145229
1115,-8.584206230299174,0.20503338041103855,11.081489787192158,-2.762188525222925
1116,-9.190354882757651,-0.002170837600957567,11.975818734401043,-2.685127969110824
1117,-9.67483084511593,-0.23678568268195493,12.786582870756376,-2.5433738672520234
1118,-10.022133791644698,-0.4637884918955596,13.469400206209208,-2.338734764520288
1119,-10.28031314643998,-0.6562040734927479,14.00124677938483,-2.0838906156432633
1120,-10.488438198582713,-0.7986219468772556,14.378464437865949,-1.7890333554165458
1121,-10.629211654397862,-0.8830980176201233,14.607913456059984,-1.4532430543555213
1122,-10.664907691545213,-0.909016085777892,14.701048976265799,-1.0741969210185487
1123,-10.59429267446521,-0.8864572426386368,14.671458307035458,-0.6674840737102679
1124,-10.486324187521516,-0.8389769793077336,14.53351041656447,-0.2791454832817003
1125,-10.429882440460187,-0.793152035779605,14.29848453781929,0.03310255546651847
1126,-10.45371389751181,-0.7584079356032182,13.967880382679697,0.23111873572040592
1127,-10.502866709135766,-0.7227519849208279,13.53651672240987,0.30597076377877325
1128,-10.500668361923587,-0.6673214825286601,13.004222364843093,0.26327401304034037
1129,-10.417079400747493,-0.5803258104459499,12.378491243887527,0.10577460218420656
1130,-10.243717060438549,-0.4573450511334071,11.672958227239246,-0.15723689984487432
1131,-9.948308294981961,-0.2981211286220028,10.90707126493685,-0.4873553425640786
1132,-9.479233776221523,-0.11106657628363223,10.101972188380772,-0.8150753463373671
1133,-8.827630221962092,0.08729399453955008,9.281509690376541,-1.0686819271395687
1134,-8.067594476627981,0.28479003173887596,8.476919538155887,-1.1985384717949112
1135,-7.303205979783535,0.48405468774827454,7.7204983966798695,-1.177679650541364
1136,-6.593695981075992,0.7044395980348604,7.033373551298427,-0.9912254200566443
1137,-5.927122538792308,0.9745616027381903,6.4217277030451845,-0.6261702698205858
1138,-5.281642074195311,1.320771298011415,5.884345084971621,-0.08830094729345807
1139,-4.680695050122068,1.7585423128077378,5.421165627614493,0.5760653218088138
1140,-4.163527606963379,2.2834647065699176,5.0333995629444255,1.289121298524583
1141,-3.7274386691688086,2.8712444261157755,4.720965404576204,1.9744152947991733
1142,-3.260761917258293,3.4594551136956033,4.478255656601661,2.609628027382628
1143,-2.789311671977172,4.045875787485842,4.2864065045046695,3.1137875380919433
1144,-2.38826164427649,4.6071922096916,4.1299361913298664,3.424920790639252
1145,-2.1284202800618583,5.120222884848718,3.9980963126054214,3.5198184059316113
1146,-2.017509684302299,5.5730795407632705,3.884107077599255,3.4243341205937106
1147,-2.0157323876787703,5.963960568310717,3.7824870901308163,3.1989244338040703
1148,-2.1003075704017666,6.297206671736288,3.689949508105533,2.9061560997660036
1149,-2.273251828100594,6.579451496458737,3.609163438271368,2.595110493881699
1150,-2.5198909431260206,6.816143545725919,3.5458590550861913,2.3069249822995115
1151,-2.7772474789398633,7.007381125312338,3.500162948557875,2.080133602770046
1152,0.2009235560138675,-0.17755370620305477,-0.26188409837223936,-0.09026104191826001
1153,0.1442375308354717,-0.5466029357776896,-0.6010004362012288,-0.3379199281048211
1154,-0.0022277324204544313,-1.1404734924972901,-1.0946348077542036,-0.7406585557451659
1155,-0.31274659027529494,-1.984751767891114,-1.7571400973107798,-1.3176769003692774
1156,-0.8861702522281082,-3.081851225412012,-2.5994661928791762,-2.0777927721163914
1157,-1.7737645806946383,-4.411348509048758,-3.628932998156906,-3.005938789080329
1158,-2.956777664588237,-5.933484001575264,-4.8452381042055235,-4.061911356504766
1159,-4.3843675868248955,-7.596198751842797,-6.236688168170683,-5.195068335488405
1160,-6.025074903550852,-9.343323813988125,-7.781190618947184,-6.36353783721711
1161,-7.852208384956759,-11.125723458897163,-9.454246838533182,-7.5438661642552765
1162,-9.78184347365037,-12.914139659859014,-11.244184804489029,-8.729240869254964
1163,-11.675364118307694,-14.674853177152887,-13.127363769308678,-9.89779206394494
1164,-13.420709569391166,-16.376613556106246,-15.071579601362481,-11.029118763074084
1165,-14.990907181689355,-17.99044470264503,-17.034125926542522,-12.124837431224048
1166,-16.390751344892966,-19.48778426319667,-18.96825412038839,-13.19986399011527
1167,-17.593115437620312,-20.839475464097944,-20.82965746072246,-14.256783878705615
1168,-18.546493997269703,-22.017305703115653,-22.576681221359518,-15.266423818299106
1169,-19.22972924061971,-22.994900024303842,-24.16946546437272,-16.181650697627525
1170,-19.69329013041827,-23.749173834567927,-25.57030553949917,-16.972617402805163
1171,-20.002981449372292,-24.265039959760628,-26.74383848411784,-17.63766420488567
1172,-20.16884030414125,-24.542158254957734,-27.66005239660211,-18.183644129103392
1173,-20.152314626481015,-24.59520485567128,-28.295801799595218,-18.60681629176292
1174,-19.938243136449355,-24.44426565260936,-28.633456352935163,-18.899923626401655
1175,-19.57889796761548,-24.105244257766977,-28.66688577003246,-19.057653137190265
1176,-19.144511676598178,-23.592990852686867,-28.411209558590553,-19.070201467023256
1177,-18.660396355343625,-22.933393681558616,-27.900513639212132,-18.918829769564475
1178,-18.09938564178223,-22.163997777321278,-27.17524270823835,-18.57614642896026
1179,-17.45755336272006,-21.32560184784388,-26.27202812704252,-18.023410342958044
1180,-16.80503497610529,-20.457076170616723,-25.223377167931652,-17.2726995530435
1181,-16.22778338448565,-19.59044206565557,-24.06494130865206,-16.371444680320813
1182,-15.751215623763661,-18.74781501046097,-22.83649499810671,-15.37638236891607
1183,-15.31727483886092,-17.942798641748787,-21.57313312076406,-14.334464617747548
1184,-14.867538308370033,-17.177083600433487,-20.297359223660784,-13.30002545640072
1185,-14.42106052999406,-16.43250143645146,-19.02183099560184,-12.34537883550532
1186,-14.038490307493776,-15.683674044301187,-17.757995922521932,-11.538303643444195
1187,-13.748075359642343,-14.92477499341828,-16.52032003347661,-10.90541766127115
1188,-13.522744903783376,-14.178475662065743,-15.327347987364526,-10.428792554837806
1189,-13.34313824106364,-13.483985580353247,-14.201084084823217,-10.079787993603722
1190,-13.2410861201954,-12.879650295536095,-13.163910614997889,-9.845370756533088
1191,-13.268274023715962,-12.395978428129402,-12.234809501822756,-9.726492837368472
1192,-13.433077315157558,-12.05567638635646,-11.427487089887794,-9.71885556763773
1193,-13.667735653254212,-11.867389265264771,-10.748881493200475,-9.801397380551677
1194,-13.89580855381871,-11.815098592892294,-10.201128806967224,-9.948376029080912
1195,-14.114429881123206,-11.860425039731329,-9.78791313774312,-10.15816636197032
1196,-14.386105840975778,-11.95854445446995,-9.51148057950711,-10.458312719439563
1197,-14.752341225380876,-12.068661620327196,-9.36206528981265,-10.874411038557543
1198,-15.188584699049532,-12.159515178146398,-9.312655784130003,-11.404233928803098
1199,-15.656739177767683,-12.212127810465711,-9.324032197502879,-12.017133765281049
1200,-16.166997627729586,-12.218830840449748,-9.357381117988027,-12.674316652643094
1201,-16.784838517275904,-12.186047822883438,-9.383195053110185,-13.344069953964464
1202,-17.5427100453361,-12.137065753418437,-9.380784998291924,-13.98988300822779
1203,-18.372762401733368,-12.099643183424831,-9.3301400499337,-14.558977212307218
1204,-19.152869253210653,-12.081054620687642,-9.20559286369545,-14.992045894381457
1205,-19.782753993115602,-12.063122758276707,-8.97994508764124,-15.242600896734396
1206,-20.233349921543763,-12.023281558549376,-8.63705055929646,-15.292646694583649
1207,-20.50379734412016,-11.951100013724778,-8.181844599211495,-15.151331431905573
1208,-20.56024612858231,-11.84762492903853,-7.6374493255560125,-14.844421701340133
1209,-20.355007461681954,-11.718369308011374,-7.034449676220532,-14.408619817416863
1210,-19.88900493726249,-11.56742167103259,-6.4006043888585005,-13.890255048231579
1211,-19.24139038711232,-11.394109489527416,-5.756835106023843,-13.335680846834252
1212,-18.495727141731166,-11.189587767470872,-5.1182023443850735,-12.768447066763477
1213,-17.659475281139514,-10.932328250244318,-4.493305283294105,-12.179939829468463
1214,-16.66597339914016,-10.589570443277337,-3.883686115629409,-11.541569636006521
1215,-15.45031333181273,-10.128938115592394,-3.2830728755102427,-10.826018970049473
1216,-14.023124207873689,-9.534388599231427,-2.6780376450810857,-10.027171228914884
1217,-12.431322410288947,-8.814542533040383,-2.051664728429566,-9.155284393175862
1218,-10.679167509222337,-7.995064091780644,-1.388634659673445,-8.211511133475382
1219,-8.729677764708223,-7.102118848818676,-0.6831931298318503,-7.18342016524229
1220,-6.594744009667145,-6.159934760024571,0.054713418735407554,-6.071336081137027
1221,-4.389046969644776,-5.199348427111994,0.8009208657423118,-4.903396399237345
1222,-2.2596621379691366,-4.257379800005265,1.5252879240584152,-3.725862649465166
1223,-0.291739657457852,-3.3692234911138415,2.2004696527415737,-2.5816686594429097
1224,1.5081305306823258,-2.5582340099519474,2.80523640692189,-1.4912244259028888
1225,3.1290212818628125,-1.8311562180053842,3.3233179690559256,-0.4662425645568528
1226,4.502612692612652,-1.1823228435560131,3.7411441591522423,0.4653725876539507
1227,5.554824823624033,-0.6009800033046443,4.048526752873831,1.2556509150864184
1228,6.271320563160305,-0.07664243463265236,4.2416060364611265,1.8581749803199141
1229,6.713887983611041,0.3932418193486726,4.322059376029664,2.259044225700176
1230,6.93684228808345,0.7915697094263272,4.292470116733326,2.4698063531273258
1231,6.90853236595964,1.0894760505299312,4.152683572299172,2.49581889937939
1232,6.5551862216797545,1.2706682371388178,3.899534234255502,2.3297025434994376
1233,5.86332886935833,1.339426269133841,3.5287748137120625,1.9740097423983118
1234,4.918873807514358,1.3111170302202408,3.0396619872010464,1.4569452517748633
1235,3.8206269445226564,1.2008795675891806,2.4410050867631305,0.8131627299988082
1236,2.601592640143892,1.020019242560492,1.7520267626443118,0.058513134804790035
1237,1.2516024383120425,0.7795072025129904,0.9959270056045539,-0.8084303882576339
1238,-0.20838507037995013,0.4944358592920532,0.19343353531472476,-1.7794986169133158
1239,-1.6938644936806881,0.17946536570525778,-0.637342186151485,-2.8133593782931334
1240,-3.120802911012948,-0.15955248432120855,-1.4746636259278996,-3.850651874671957
1241,-4.4615550564654995,-0.5221797581833076,-2.286370875664083,-4.848450489615194
1242,-5.729866589377084,-0.902865437039594,-3.033627897376678,-5.780352389280569
1243,-6.912718823632574,-1.2829115733494763,-3.681403747235848,-6.603549810800825
1244,-7.929270875370374,-1.6318014533754537,-4.204091383325018,-7.249517449809747
1245,-8.68642753560242,-1.9158563395288346,-4.587244145534697,-7.650695666590589
1246,-9.156284097284404,-2.1004128529707757,-4.825901033591628,-7.777131889202252
1247,-9.39120741692578,-2.146214709598848,-4.921082731438825,-7.649365055209548
1248,-9.44210455577515,-2.0180995920266205,-4.879190450528978,-7.302027010089483
1249,-9.29536494820779,-1.701649741542116,-4.710269147180707,-6.753708216806269
1250,-8.907482654882896,-1.2032416202037945,-4.42415749955307,-6.018821956384469
1251,-8.267276910307514,-0.537011375342366,-4.025344839846175,-5.125016063718375
1252,-7.423125851151846,0.2802382306193003,-3.507700074769744,-4.1102803425150425
1253,-6.423350486940116,1.2240476779924352,-2.860035678677131,-3.000820807345372
1254,-5.255117682592058,2.260144297238651,-2.076637762063375,-1.8006060769586518
1255,-3.8596867794206657,3.3495988551047264,-1.1629342626542007,-0.5091592647140546
1256,-2.2094827474354903,4.454915860729797,-0.1398615508587854,0.8498459449798161
1257,-0.3687413162426273,5.547297034506835,0.95697945557176,2.221414463418533
1258,1.547996108825049,6.610681530262111,2.0763677099011666,3.5377445162283387
1259,3.441342775294344,7.629633958757621,3.150263489815191,4.732903585667824
1260,5.243858431621364,8.572647745803502,4.110428899819007,5.7509627279252165
1261,6.872563621187269,9.393439935886327,4.908142294573089,6.546144372380843
1262,8.19683706474916,10.045768248499877,5.519017963465565,7.0817576132035285
1263,9.105517121945262,10.493895373784618,5.939944267202109,7.344785717960019
1264,9.57867594047397,10.716297807785581,6.187117504774605,7.363910230599223
1265,9.689201526253374,10.713315141353913,6.29532189905258,7.20879177913741
1266,9.51850964360677,10.51323353147539,6.30747866846177,6.946178090454177
1267,9.082494182669558,10.160864444522687,6.2560169707947075,6.595471636654343
1268,8.370694385817314,9.699503564763916,6.153294691214232,6.140036828833246
1269,7.427401523971856,9.163325955220621,5.99349947589495,5.561899899593357
1270,6.445982991979708,8.609053955997865,5.775622185731232,4.905987496386656
1271,5.419547863697587,8.010509821105847,5.477897685360725,4.108701066736858
1272,4.320067795596631,7.3748693440145905,5.105620160861181,3.1527137192893155
1273,3.140561685216713,6.723693019356431,4.6766046433217685,2.063062026221551
1274,1.9436047273751498,6.076168659421135,4.213821501520257,0.9042971333843863
1275,0.8315150736817016,5.441926041523512,3.7450002665996616,-0.23568735049086742
1276,-0.13265204812624276,4.830220441905669,3.3059152576834614,-1.2737230565359199
1277,-0.9436858642697586,4.263494604417642,2.933627190237011,-2.152620707592619
1278,-1.6107315747654063,3.7750444028646535,2.650551995527858,-2.8415039031031064
1279,-2.110387090770252,3.3940489444492337,2.4607241512247744,-3.3231592103336216
1280,0.06347236837170725,-0.1902081348195938,-0.31798280678759905,-0.02386839640266053
1281,-0.21037228271346697,-0.4981200718569697,-0.6726037548530688,-0.2870987770652247
1282,-0.6115050604027265,-0.9839156776942747,-1.1639885981572988,-0.6912479288593509
1283,-1.176183645467618,-1.6486309076437222,-1.7853149619418,-1.2374559164687746
1284,-1.9492192897721212,-2.467703706629361,-2.5201941375088244,-1.9200791146201712
1285,-2.9164330351189345,-3.396630145190445,-3.3448711293608655,-2.7026075170092088
1286,-3.99683856561948,-4.379941289875533,-4.231997786072107,-3.521834744810293
1287,-5.106827472128151,-5.361500315282888,-5.1581060478193255,-4.317850009205868
1288,-6.224478246516552,-6.2965036360069275,-6.108505880889247,-5.052442258388344
1289,-7.371436634081077,-7.162554891766626,-7.078210868646696,-5.708292292314415
1290,-8.544814875781364,-7.968323821314958,-8.073757191991831,-6.279007004616036
1291,-9.70295985959809,-8.720884088704471,-9.075234501505653,-6.752826036745861
1292,-10.812044906279853,-9.429627735626616,-10.052846451697315,-7.133880153912546
1293,-11.884435674477487,-10.10475105961181,-10.972077766251182,-7.45547363334104
1294,-12.919548480028922,-10.75816264392181,-11.798866435288797,-7.75025771760265
1295,-13.847778226471297,-11.399796756949064,-12.505687023112133,-8.022982941621727
1296,-14.584584095661475,-12.029404824073582,-13.077121332885154,-8.26801616760624
1297,-15.11088513405044,-12.635467507290336,-13.516261742975768,-8.495874752965513
1298,-15.488630891434337,-13.208476259837491,-13.843402068052995,-8.729537602672314
1299,-15.777655655492076,-13.754304668807452,-14.087071796877334,-8.981851663268571
1300,-15.973644958007043,-14.292458272344092,-14.27843365629163,-9.24373470188971
1301,-16.03830313732151,-14.845605270634232,-14.445040069240452,-9.490142892412937
1302,-15.972688860721492,-15.429249383648592,-14.601074616338673,-9.707468702716506
1303,-15.858057861236707,-16.042046159671575,-14.74293250741726,-9.908337675594872
1304,-15.786810196298509,-16.668575819345108,-14.850948826358774,-10.114011145823108
1305,-15.7811297729311,-17.29398077268975,-14.8969352703582,-10.340042289576159
1306,-15.796821413211482,-17.911610669273088,-14.85858321459924,-10.59133458109335
1307,-15.809842976909705,-18.521658516097084,-14.733967711590362,-10.87485185170018
1308,-15.876151729653111,-19.128774197184796,-14.54752262199536,-11.218446908144335
1309,-16.070190272839813,-19.740235994915,-14.339446822106193,-11.653682937401964
1310,-16.399981957086727,-20.362104176820782,-14.149885229917897,-12.181257776906326
1311,-16.794689734085605,-20.993576153843406,-14.01102677040567,-12.76256694859238
1312,-17.18720975926378,-21.622574696041603,-13.941967740746247,-13.351783202064741
1313,-17.57347362752605,-22.22318656639756,-13.947898534913957,-13.92734476583872
1314,-17.96897162600651,-22.755018703582046,-14.022837884385764,-14.490122835843623
1315,-18.355683622544966,-23.169919302932012,-14.149584707878855,-15.046288416503783
1316,-18.669718078944705,-23.425650701286973,-14.300908690878096,-15.588018723257317
1317,-18.86426350610594,-23.496073685816796,-14.445654031213067,-16.09766744437895
1318,-18.966037339682124,-23.375510444989587,-14.556615696141648,-16.56709072703434
1319,-19.030857701686756,-23.082081224732775,-14.616241379745695,-16.994338778045908
1320,-19.062529575528302,-22.655315147113026,-14.617053431757876,-17.36045149069459
1321,-18.992539480687128,-22.14356895845843,-14.560012283564093,-17.61958554358266
1322,-18.7580119303936,-21.583087879639116,-14.454631952092207,-17.719103365381933
1323,-18.373338236365615,-20.985313593037844,-14.316786061559998,-17.63294449790034
1324,-17.92239312839815,-20.347478206035184,-14.163239381052062,-17.379071029899
1325,-17.475205826879883,-19.666933732582528,-14.004113824536706,-16.990829584953655
1326,-17.027243147602984,-18.94387233671262,-13.8399896771594,-16.489096094590547
1327,-16.563526043492068,-18.179301906758155,-13.668858485147922,-15.899177193572411
1328,-16.122239711450266,-17.373272401894283,-13.489171434799806,-15.262931288964207
1329,-15.771574682579047,-16.531763400861998,-13.294769598208216,-14.62356090418741
1330,-15.536798088695205,-15.682533603085908,-13.073366460408753,-13.995851925201915
1331,-15.36148445820376,-14.877930136756383,-12.81157621611269,-13.353537562758962
1332,-15.163299189888733,-14.17701693112884,-12.500774975544164,-12.66114255562837
1333,-14.90766163164224,-13.622472240378759,-12.137094766994764,-11.912407085639934
1334,-14.625662591637994,-13.22902586187827,-11.718617030343797,-11.135020490271478
1335,-14.348016305558422,-12.98486004876875,-11.244959755361958,-10.362767822678729
1336,-14.05745564891593,-12.857484276147437,-10.719502808327796,-9.619529193531053
1337,-13.72803401304082,-12.803066286565208,-10.151539588208026,-8.93172801128047
1338,-13.370284413276067,-12.775783025998228,-9.553388038181177,-8.33761012377277
1339,-13.038465626635169,-12.732771852959763,-8.932208604886277,-7.878000846251767
1340,-12.764670248353314,-12.639141319743686,-8.283783983353226,-7.571377530632611
1341,-12.496603040748347,-12.46957533175744,-7.595763077072134,-7.394728148276474
1342,-12.132912831993453,-12.204358482541364,-6.8579136116918935,-7.297764876821011
1343,-11.617645609737117,-11.83220827224649,-6.068491452906198,-7.248548497856872
1344,-10.985717213349837,-11.356646697085708,-5.230780217770917,-7.252036811728088
1345,-10.292443365749303,-10.801214757981228,-4.352736524116125,-7.3198643119396865
1346,-9.54976887814812,-10.208130333764386,-3.4558448818808127,-7.447508851850599
1347,-8.743134124117404,-9.617697007482487,-2.5791679172381703,-7.618157892604793
1348,-7.888277181786077,-9.048433585912429,-1.7722742488112757,-7.817839886371321
1349,-7.0605282656241855,-8.499739682012047,-1.0832356943230723,-8.040229257114367
1350,-6.338627231929599,-7.962056576007938,-0.552675842120244,-8.265181813405754
1351,-5.734339764374454,-7.423348492266707,-0.21563249814087895,-8.44728793575231
1352,-5.180623771604844,-6.868547420414944,-0.10225052823189057,-8.53236272549199
1353,-4.609778108758447,-6.274135560289597,-0.2361553809650871,-8.480023535116537
1354,-4.026794458334962,-5.610602083126066,-0.6290226459960506,-8.2748106887813
1355,-3.481190532304047,-4.856578886213088,-1.2744684178390562,-7.921636720975315
1356,-3.0027665351150596,-4.016759073743669,-2.150420297431291,-7.431184309242622
1357,-2.567474208604684,-3.12426603307147,-3.2253075624953524,-6.803211731036552
1358,-2.1607599593219193,-2.2269332599502554,-4.4635875576989,-6.0397328942965105
1359,-1.8440125277200643,-1.3760063353891059,-5.832799781870801,-5.172216297896435
1360,-1.7096168539529701,-0.6199002655081927,-7.3087370198651245,-4.2510925768374035
1361,-1.7964906432100058,0.005411271589111144,-8.873580276639908,-3.3133435833654645
1362,-2.052913163982141,0.48791133572970485,-10.505343703888151,-2.3704657450959346
1363,-2.407938517850396,0.8423925908219296,-12.16810979006095,-1.4354372862405658
1364,-2.84436662529142,1.0970993330315748,-13.81599081746832,-0.551624452463745
1365,-3.3777396557584867,1.271444730465674,-15.403395151984396,0.21412013136811356
1366,-3.9946764933451235,1.367164067910536,-16.890531408601394,0.8022988431852399
1367,-4.621017455734822,1.376718895997174,-18.24417104240923,1.1868791546462598
1368,-5.189529714574344,1.2929281373547066,-19.434826014233327,1.373593400704555
1369,-5.713995608755142,1.1167994072112861,-20.4342748790173,1.3887972948167886
1370,-6.258368165477672,0.8609732504438947,-21.217533089885766,1.2696700915704977
1371,-6.842798639459708,0.5469402108348167,-21.769473928390404,1.0617806008539765
1372,-7.407929736472468,0.19904987119800166,-22.091862908952447,0.8217622757003032
1373,-7.888406733915775,-0.16288741679582516,-22.20242036680911,0.5967773375256872
1374,-8.28936049469222,-0.5294314091089731,-22.127643659208545,0.39727802852009786
1375,-8.682312308732172,-0.9050390718680255,-21.89515878122359,0.1995282559955835
1376,-9.113536917153802,-1.3022296688351294,-21.524329632874593,-0.017211505832841964
1377,-9.549834774128776,-1.732874145285427,-21.025430302757027,-0.25198432411756744
1378,-9.938181798150508,-2.2073601729442744,-20.41071815740257,-0.5090820509441346
1379,-10.276650014419422,-2.733055548444642,-19.700936580180745,-0.8198756770268043
1380,-10.625230102550493,-3.3056821610935367,-18.92002259707976,-1.2293433045928235
1381,-11.024804862428942,-3.9054979224550395,-18.08655089244136,-1.758051028004968
1382,-11.431227526665083,-4.50320800245541,-17.21248313694479,-2.3882262770748834
1383,-11.771171290893038,-5.063089618549433,-16.309386390538908,-3.088023381548399
1384,-12.01988442111638,-5.550705944102907,-15.397501106909242,-3.836106875619569
1385,-12.187141246391876,-5.947927101105909,-14.508900260583536,-4.6253781024493605
1386,-12.24771711566278,-6.254099019960198,-13.678868564256382,-5.441823542415618
1387,-12.140974912133364,-6.473276039325601,-12.932962708904517,-6.247493308466665
1388,-11.826096183039756,-6.600716346485337,-12.276720105667117,-6.9872191493336775
1389,-11.30733975784209,-6.614878399688174,-11.691197750958283,-7.613624790374152
1390,-10.608308085968464,-6.481713462258579,-11.135662000139906,-8.101867569716974
1391,-9.71608258999062,-6.169723910381282,-10.55791145115227,-8.435204778863545
1392,-8.575210943949024,-5.661537319878517,-9.90862455919303,-8.589050998381929
1393,-7.1438219367514515,-4.953146447112149,-9.151688223044749,-8.529461540546036
1394,-5.443602583218429,-4.048914727627866,-8.26462331588822,-8.239864428629113
1395,-3.5408120874748628,-2.96344834032009,-7.2369602720121415,-7.74332250973739
1396,-1.4896629887873831,-1.7300617487227752,-6.077852816999429,-7.083574804920097
1397,0.6952364384000383,-0.40388629915693297,-4.8168018753021675,-6.30022579334952
1398,3.0118078371535404,0.9198358242822299,-3.555132631262899,-5.45657861188631
1399,5.497994656513511,2.2275108881040606,-2.219983129996171,-4.507296111056202
1400,8.073653941963052,3.4902379317251118,-0.8049645785741654,-3.461976307580857
1401,10.637554648465041,4.67487882975758,0.6619086995659539,-2.3567007834219753
1402,13.098031516798201,5.753041358416449,2.1385058279494094,-1.2351766177138528
1403,15.357565658938604,6.702641995945438,3.5751027999788634,-0.1452136379336721
1404,17.324644293341727,7.502771096206631,4.915995802409352,0.8568219119667302
1405,18.933275581161894,8.136854323070306,6.105072088980024,1.715414578223773
1406,20.14981182518013,8.601623547987039,7.09266070877435,2.395351536642061
1407,20.975606605437925,8.909240723585366,7.84291189024193,2.8918322534614345
1408,0.4286698111489352,-0.2540109547515015,-0.3229642252722669,0.059291432680975975
1409,0.4343318105713294,-0.6665256509361215,-0.7616862224754885,-0.1537198488918758
1410,0.3165904471461433,-1.2902664337132959,-1.404059849874227,-0.5098206780405777
1411,-0.015147277337503984,-2.1235468307021983,-2.246829834354306,-1.0427187962204307
1412,-0.6618385604427505,-3.147066725641894,-3.2660542355695728,-1.7791695821658675
1413,-1.6700058880454307,-4.331204156434309,-4.422918064421073,-2.7199485852107212
1414,-3.015605843441203,-5.643798581225086,-5.671872685137718,-3.8424165890181032
1415,-4.64781865955088,-7.0593241124982935,-6.974310595984389,-5.125835139525703
1416,-6.537505280365169,-8.566653620483187,-8.311930184220214,-6.566177050206013
1417,-8.657131020650965,-10.169062736298745,-9.690249600824057,-8.160205208010991
1418,-10.91413495473482,-11.88243127376132,-11.13932913716735,-9.878674749894046
1419,-13.188868492260648,-13.696844330152583,-12.669424754212852,-11.674460738962608
1420,-15.398059932931716,-15.593229727430407,-14.277772406164262,-13.50261400441388
1421,-17.524847705634052,-17.545017356600614,-15.943451649676026,-15.323247944063851
1422,-19.5545775293496,-19.51420363281773,-17.629355114855624,-17.08982433992627
1423,-21.419768307543723,-21.449334806136495,-19.29085916680333,-18.745407336522984
1424,-23.036497882514926,-23.285751735601423,-20.88093108318614,-20.245348636596436
1425,-24.371926854083327,-24.953045080131904,-22.35460773323794,-21.572464055029894
1426,-25.47047492362224,-26.389218562610157,-23.678185560194557,-22.72355749951767
1427,-26.378590554712964,-27.542950027037985,-24.833833339546914,-23.6842532544741
1428,-27.06891493269786,-28.36769446770463,-25.815777877039977,-24.42274883056714
1429,-27.469243115294777,-28.826583804870552,-26.625601968618874,-24.90586928850839
1430,-27.537839414333362,-28.903339272275982,-27.267978516057745,-25.119788621675532
1431,-27.30442412090846,-28.60684721418436,-27.747297863464045,-25.0865125552444
1432,-26.816516155274773,-27.970889992256495,-28.06585486176693,-24.84053341515296
1433,-26.070032752813514,-27.053338384684274,-28.221210129050398,-24.39508697580464
1434,-25.022058440365456,-25.932753688131815,-28.208963230264015,-23.748477518085217
1435,-23.676644177927102,-24.69887995896826,-28.03207321294959,-22.916562610212257
1436,-22.134379417300607,-23.436849812792854,-27.705671270575262,-21.946492664565003
1437,-20.52040746464257,-22.212633394784874,-27.253832050766512,-20.88797921448723
1438,-18.896597587944047,-21.06788954371961,-26.704604705407704,-19.763402777330327
1439,-17.253625030022768,-20.02026347275387,-26.080393896789737,-18.568332875802025
1440,-15.591193113460072,-19.067744688460703,-25.385916629828312,-17.29567862302582
1441,-13.978075218689977,-18.19963311849039,-24.61121483663365,-15.95016439297596
1442,-12.501455036027183,-17.406855611643312,-23.745356616642795,-14.549164110127222
1443,-11.193251011471009,-16.689881054449305,-22.78620204320148,-13.11949858961668
1444,-10.011772101911298,-16.064298778571015,-21.74615963082693,-11.683921603278714
1445,-8.924520800303526,-15.556723865163939,-20.654405760883744,-10.268652299385531
1446,-7.979429007022443,-15.189757065974911,-19.552851586829917,-8.9176399359082
1447,-7.257742453487895,-14.971018086201417,-18.487481547442368,-7.677765565094364
1448,-6.796497989652513,-14.89347939167905,-17.50084446430867,-6.570675615056057
1449,-6.5541315353338705,-14.938387526960174,-16.6254452018189,-5.584463438948847
1450,-6.478731100145328,-15.080649362694242,-15.882090452689438,-4.713266211195787
1451,-6.582463472952158,-15.296120696673169,-15.284615534397615,-3.98968292951799
1452,-6.912712157913407,-15.56508538670067,-14.83718298567495,-3.4572282694789433
1453,-7.474168998196816,-15.867545728925778,-14.526085872401111,-3.125182016597937
1454,-8.1978859341336,-16.17632866265717,-14.321977409930925,-2.9613119766148217
1455,-9.00887291578069,-16.458075825496117,-14.191228970254041,-2.9217332956920825
1456,-9.887153371931014,-16.680345966022866,-14.105655656375554,-2.9776123529241723
1457,-10.852327506141126,-16.81901232894507,-14.047732639155464,-3.1207422278811023
1458,-11.889580300037128,-16.861602762561745,-14.010351331848113,-3.3451192614837124
1459,-12.912525878066578,-16.805923649336634,-13.993282985615174,-3.627386932948844
1460,-13.831640000590825,-16.655546822873838,-14.000062156787173,-3.935938892085483
1461,-14.625843315539688,-16.417942466132647,-14.033635851895657,-4.2597353630328385
1462,-15.338927996706536,-16.109108098674422,-14.093190714752087,-4.616675399735707
1463,-15.989643735050965,-15.755736614067422,-14.174015435145717,-5.018249059186189
1464,-16.521996276803876,-15.380970208751988,-14.266820380026717,-5.441148203468666
1465,-16.86801873415331,-14.981856424593966,-14.360395113607732,-5.837422682368746
1466,-17.014461764080806,-14.531104774895027,-14.445730964243847,-6.163914246213572
1467,-17.013933330916593,-13.996723518893399,-14.51196500815491,-6.403405549975169
1468,-16.903143140481493,-13.35193996591576,-14.539979387142045,-6.550423220945908
1469,-16.640309007513714,-12.582007810773032,-14.502703678785567,-6.601664209469644
1470,-16.15328841952149,-11.687495019296781,-14.370854383460456,-6.565623604408803
1471,-15.412888457229604,-10.678968238611828,-14.118377337749987,-6.465815037670982
1472,-14.467493686553851,-9.571568502340417,-13.725920277410376,-6.339543840622055
1473,-13.382997103246815,-8.382999770201085,-13.183486957812548,-6.218885721906447
1474,-12.166772694098462,-7.134195954591009,-12.490732246985047,-6.106452387577385
1475,-10.78323272736876,-5.851430897635479,-11.65400809665176,-5.97819520026992
