,TP9,AF7,AF8,TP10
0,-0.06321500259204071,-0.4391974931016884,-0.3758946872798036,0.5142859642379298
1,-0.47644060916888914,-0.9892066110647917,-0.7509314534255551,0.3658773432721004
2,-1.1003071626168146,-1.7806873577608766,-1.2478020740035765,0.06218708932138356
3,-1.9605393739192558,-2.8138628036580036,-1.8447521356480878,-0.488198006164513
4,-3.080105160678877,-4.071366505102841,-2.5139102585620114,-1.3946441367401388
5,-4.452342854272893,-5.522072259730711,-3.2270193301800427,-2.6670152486750456
6,-6.034930340847107,-7.122130683146838,-3.957965881040274,-4.20446565361375
7,-7.776157771425648,-8.818213919202966,-4.6870299526531625,-5.901627789159634
8,-9.648526238977418,-10.55937681709184,-5.406852224337533,-7.740267953643368
9,-11.641549436979245,-12.312799925384866,-6.127787491062581,-9.744603273264714
10,-13.728664014649167,-14.077774632831446,-6.883780457508889,-11.845570191807825
11,-15.862644119141471,-15.83155163012633,-7.6927264347806625,-13.930382994109765
12,-17.989298162174187,-17.543754790205842,-8.56999742392602,-15.952770312738245
13,-20.066353450926286,-19.174673828387224,-9.526449145288499,-17.985760396129297
14,-22.050146056728444,-20.678442187180615,-10.56485811034485,-20.090434721687835
15,-23.863706330117836,-22.010464846411736,-11.678120447449281,-22.17593585794817
16,-25.413114573901833,-23.132617218979973,-12.84981535535734,-24.072098273952587
17,-26.640264016215482,-24.018989348274758,-14.059074975094596,-25.691361182907173
18,-27.570357015238613,-24.658759661237646,-15.286019642654946,-27.10992031371126
19,-28.269235403564647,-25.048051227629315,-16.514156985426283,-28.42985288306734
20,-28.753894149055366,-25.18276882617197,-17.725637152783555,-29.60528070217553
21,-28.992196261644903,-25.06339733635923,-18.894890191043583,-30.490114636385083
22,-28.96943389135526,-24.704399836337547,-19.992250620552454,-31.00094773056407
23,-28.737097545178546,-24.13792586222787,-20.990989029734436,-31.213881593078483
24,-28.36964982482526,-23.408820251641025,-21.86894364682091,-31.233724727880766
25,-27.88414897792662,-22.568467772805644,-22.610224401987033,-31.03626555604588
26,-27.252695031508537,-21.666280180830825,-23.210591096460607,-30.525525648543002
27,-26.483361653167616,-20.74043788543836,-23.676671116170148,-29.70295899973132
28,-25.657226345102487,-19.823655036266864,-24.0168115623447,-28.739535066960876
29,-24.871925134962467,-18.95669419781213,-24.235380780908212,-27.81456766783027
30,-24.174068697919907,-18.193770186624377,-24.336534389970875,-26.9471196358399
31,-23.568148861676114,-17.59938149807614,-24.331376765186263,-26.036384095941315
32,-23.07799568431455,-17.24554019387201,-24.238159040838188,-25.048549436926386
33,-22.76793274325296,-17.212599088727938,-24.07613900789808,-24.09705819409683
34,-22.679113300321422,-17.579330003177752,-23.859713995030454,-23.287579389026273
35,-22.764973031425953,-18.408759668302846,-23.59865120820468,-22.578799474342247
36,-22.92894628773618,-19.745961510598974,-23.30273273715823,-21.828064463197613
37,-23.13074142543834,-21.610304463360237,-22.98293932837846,-20.987221500618727
38,-23.39452594744054,-23.975391540701803,-22.650215004354028,-20.18079208296397
39,-23.727326384201525,-26.75990463708444,-22.31421620357047,-19.562387960124727
40,-24.087948069779905,-29.83681887807822,-21.98228439737431,-19.179437429288335
41,-24.414624135758768,-33.05138783364804,-21.660116051850792,-18.953911821932707
42,-24.68707688726558,-36.24231674185982,-21.352941583153452,-18.82982782321679
43,-24.937830801605266,-39.267138394526114,-21.06700406327125,-18.862177530146894
44,-25.194534509779874,-42.02646769159969,-20.811072251568657,-19.12206514353052
45,-25.444307135453602,-44.464889629447796,-20.599695604517528,-19.592988670026713
46,-25.637760226923454,-46.55102908081916,-20.454270906874132,-20.14813778414649
47,-25.734901619609882,-48.266977106294426,-20.3940708995715,-20.68230340449598
48,-25.732320698478965,-49.60810798854493,-20.42581691768038,-21.21445828793551
49,-25.644768601280596,-50.57972184469848,-20.539874628462677,-21.835380157275036
50,-25.47675068572552,-51.18849898320444,-20.711400221767732,-22.577719340204517
51,-25.207382568343586,-51.43915337033374,-20.90595300076819,-23.333909258083786
52,-24.81721041804422,-51.34059722943998,-21.087171770167927,-23.962776212778245
53,-24.30892168797103,-50.90588058573263,-21.222568300709465,-24.422586277650005
54,-23.710399134667572,-50.151722662205216,-21.286868870198656,-24.784814643445728
55,-23.057379290095387,-49.104683334848716,-21.262352786608467,-25.104046478283347
56,-22.35394560088935,-47.80104444083063,-21.13711982415514,-25.290876378996103
57,-21.569839149466755,-46.28293229562338,-20.90492828474368,-25.196428704239295
58,-20.6899147492356,-44.5959079990169,-20.564285192491177,-24.78081613232235
59,-19.771168411652994,-42.782966604559036,-20.114187590896574,-24.18018338462972
60,-18.898956590502927,-40.87803210433894,-19.551717123145576,-23.553035131972972
61,-18.096181517144654,-38.907084942587026,-18.873085416123004,-22.908188723637416
62,-17.323788138388355,-36.89410502231293,-18.074299905911154,-22.152393321851687
63,-16.544942239788714,-34.8630935174326,-17.149556466236298,-21.234072164990586
64,-15.77890757065035,-32.833524969740346,-16.09515194521116,-20.233678232038468
65,-15.063694156481917,-30.81619255696479,-14.92040884196806,-19.253296510701468
66,-14.38375313913595,-28.813284359005475,-13.651042069516746,-18.27183587188393
67,-13.689741481950378,-26.824067326775957,-12.32625128285976,-17.189549374755387
68,-12.977652120372353,-24.857047896749027,-10.99730244976208,-15.979971292523151
69,-12.320058846428456,-22.927357851535294,-9.722136147939475,-14.77157473533287
70,-11.804441504289375,-21.03657814619253,-8.555881036490506,-13.699285656995242
71,-11.455180408124999,-19.175486576701907,-7.544538573912737,-12.7431400181324
72,-11.234342240849424,-17.34664651467662,-6.722302125488546,-11.783385455193601
73,-11.115759196058388,-15.569457972482821,-6.109836468749468,-10.776825834327585
74,-11.114109384616242,-13.871937768960288,-5.71174297936022,-9.816292662987061
75,-11.221810826245054,-12.282410084187939,-5.514485127183192,-8.975368705213558
76,-11.360365032432712,-10.822798231724171,-5.488942349762111,-8.18269155939258
77,-11.421275687465778,-9.501865676985338,-5.593913864383988,-7.275328618706382
78,-11.363287569499226,-8.307191307602961,-5.778989242786152,-6.185875486408725
79,-11.226347138109976,-7.207487754413155,-5.993944102512199,-5.018462112039609
80,-11.054654426972618,-6.1648210748642835,-6.202318638893868,-3.908661123436647
81,-10.855551457056592,-5.146843292970517,-6.39026469620376,-2.890487614899744
82,-10.618017232914545,-4.1338771282874545,-6.56552924400281,-1.8879651944448637
83,-10.362738319539684,-3.1178390846580086,-6.747211256438964,-0.8619084033811724
84,-10.140123744495913,-2.100314474032499,-6.95413962497543,0.10344127705586462
85,-9.977592279933877,-1.0890473581676494,-7.196421281484027,0.8829722731396636
86,-9.853346474862523,-0.09464085747537487,-7.470860232340016,1.4275790502729389
87,-9.710391219494626,0.8663241050708101,-7.761952230508059,1.8174723170732232
88,-9.502459011998717,1.780545547382796,-8.044838238761493,2.1300772606530676
89,-9.212384734279361,2.661973844130863,-8.28685439312356,2.3323195387884024
90,-8.837725977577454,3.552528085415752,-8.450036847796998,2.3335279152288364
91,-8.36758672017337,4.500117891255114,-8.495782323152515,2.0976090640782954
92,-7.769091121234023,5.545883405863265,-8.391357274744124,1.722302043058154
93,-7.0139624390908795,6.716993179370288,-8.115775602904131,1.3486913648120382
94,-6.111175994391073,8.016445977784405,-7.663404899787905,1.0216155925281885
95,-5.124954458965943,9.41433591017697,-7.045494911213818,0.6582185596339389
96,-4.142904184890227,10.854746545988434,-6.285782090552323,0.18038721595894538
97,-3.219072898563025,12.277983803027055,-5.41055531690464,-0.3525457316372839
98,-2.3678712684001706,13.63568553934456,-4.443363533228,-0.8090822089533496
99,-1.589619161939541,14.891104213110905,-3.4072472221177414,-1.1240519606362214
100,-0.888518513437694,16.011996428583476,-2.3276630864280694,-1.3724993916007673
101,-0.2582581991334868,16.97404727773007,-1.2295474735604475,-1.640024724710358
102,0.33939333112822306,17.772732994608297,-0.1285451030403411,-1.8575688704728215
103,0.9608570045831515,18.424038113120922,0.9713998215227404,-1.8589830924554946
104,1.646903284485744,18.959443716937802,2.0717172326459377,-1.5496352956481585
105,2.4219044806979215,19.42137374858112,3.174405385033899,-1.001797537878476
106,3.320218237421127,19.852618559975618,4.279329389453003,-0.317061840542247
107,4.389103704324209,20.2851234639713,5.381691366360494,0.5331182295535919
108,5.665793893065139,20.736397362245363,6.471690011818486,1.647087929101607
109,7.147440730505339,21.20950212528257,7.534439340453875,3.0338275479868386
110,8.789685812678973,21.697373045936114,8.54922228000005,4.5429832061623
111,10.558383521034191,22.193586058259978,9.49279919064611,6.01402603562626
112,12.482618819650924,22.69879196947266,10.345408916192643,7.435464543503493
113,14.623599771219036,23.21503701381308,11.09328977024065,8.89393369774405
114,16.979226324080024,23.736835770306964,11.729276896040142,10.39185009094742
115,19.447308515691613,24.250975032690988,12.254523478825416,11.780645869168486
116,21.88149594400621,24.74195464573035,12.679208275363639,12.911377845145367
117,24.151896365276222,25.200486928820514,13.01827122970284,13.778799118541311
118,26.24011978717437,25.63165235441,13.296689181840486,14.572261479176792
119,27.915295313867755,26.02575900600167,13.501304448643662,15.200413169572023
120,29.037908296845703,26.368010333166588,13.625545266799246,15.516970385284544
121,29.55953171951914,26.643957770890438,13.671028490175306,15.481416290485278
122,29.511894613257862,26.84212331328746,13.647385038446131,15.204190821220593
123,28.99221712990892,26.957445203122113,13.569338771572212,14.8469704365313
124,28.145113531708677,26.996873362260857,13.454284923986535,14.469904975805125
125,27.141377105651816,26.98040719428183,13.320444587607643,14.038185640439814
126,26.15396833568771,26.93609745200044,13.18573972133694,13.560018662727796
127,25.33153019038593,26.891348287183945,13.06747396290693,13.134810049711898
128,0.0004358135285537079,-0.28499094113262985,-0.4342787502889345,0.5092272611266332
129,-0.46410077663632243,-0.7620169527215535,-1.0022919924681475,0.3901818646694427
130,-1.2141115856330833,-1.463039562777073,-1.8220319653675108,0.1294884943685668
131,-2.276729394533856,-2.3823179277449666,-2.8913778851837266,-0.40096073774168706
132,-3.6580620925781764,-3.4911057808905848,-4.181929558624112,-1.3714822073720498
133,-5.331488407679208,-4.7398687573138885,-5.642941584847741,-2.8305174464071534
134,-7.235245937838552,-6.064900263779229,-7.208705370032895,-4.681173787803585
135,-9.287314841034814,-7.399574467503842,-8.807603442118877,-6.8010500592501
136,-11.41626053321156,-8.685702192417256,-10.373727507520892,-9.1391339152999
137,-13.56953620428496,-9.885411176852342,-11.861625876525412,-11.67479221230262
138,-15.70122478353984,-10.998740620947903,-13.26537547327791,-14.294844370426329
139,-17.77122399386206,-12.036442653414655,-14.573846811885124,-16.833581528763197
140,-19.754769725087794,-13.020814475710425,-15.782874376404857,-19.19152576948545
141,-21.6640842728767,-13.963573584342258,-16.88637301943303,-21.410007772804022
142,-23.520743040029316,-14.855104001907431,-17.8734743956479,-23.539250679433582
143,-25.2958732820723,-15.6686661677971,-18.733970586740043,-25.500747402653047
144,-26.916130166657595,-16.37411219888259,-19.46466002667374,-27.154449729130288
145,-28.325913849316304,-16.949313948438657,-20.073941664759815,-28.45255795368177
146,-29.543065429824047,-17.38438048995819,-20.583229901637907,-29.519477133969705
147,-30.62509489650714,-17.687120547780527,-21.023929047290785,-30.495386077532448
148,-31.59767524036038,-17.880004822339735,-21.432160759316456,-31.361874170085958
149,-32.44484504271009,-17.987805451654012,-21.84403233347622,-32.0016676348531
150,-33.14857958590283,-18.026930746633386,-22.291261671440843,-32.373891935970754
151,-33.74037617883021,-17.999313170422,-22.797655042372874,-32.59771974867149
152,-34.2793588580645,-17.89606776394081,-23.375988829454702,-32.79235796330432
153,-34.78072681515136,-17.708842382429655,-24.027335718029605,-32.9207319283164
154,-35.20944976265015,-17.437869757289818,-24.744520963208668,-32.85334031417615
155,-35.53334218788202,-17.091010768926605,-25.511700583694786,-32.53383951504385
156,-35.751887573351816,-16.68020509167532,-26.30077092485315,-32.047194958763896
157,-35.866636995388625,-16.225349097409524,-27.0758788530634,-31.490992970470543
158,-35.84818820348431,-15.761527532005177,-27.806732020913085,-30.848776736512253
159,-35.65410029469148,-15.333618047960364,-28.474446088942138,-30.02091302094918
160,-35.29003507279672,-14.981091257621763,-29.063166669171565,-28.989050072204712
161,-34.81802435222768,-14.729928985886124,-29.55357922384697,-27.887753091746387
162,-34.28768360138759,-14.590258666949309,-29.9246336166502,-26.85824569547237
163,-33.69029238699032,-14.553234345458563,-30.158248777700056,-25.90098452217109
164,-32.98905368914462,-14.587278950656744,-30.239623849710608,-24.885156979332198
165,-32.189160730478356,-14.642967190958894,-30.152683491320516,-23.73110220014724
166,-31.334033862280766,-14.67074117510521,-29.88174438845741,-22.50230530454708
167,-30.442986057459795,-14.633513565328258,-29.41831085306589,-21.30196614519747
168,-29.48344146372677,-14.508060365700594,-28.767133946170343,-20.157076894220776
169,-28.393734017133934,-14.279426814020146,-27.94899184947469,-18.98395096583063
170,-27.150890623489346,-13.93473951551753,-26.99613744981505,-17.72640360023041
171,-25.79227701070334,-13.466783511737798,-25.942850727231992,-16.461972949921755
172,-24.384449286083633,-12.879139037824771,-24.82147461534211,-15.348518224347782
173,-22.986723017774494,-12.185903352543626,-23.66073452296392,-14.502998911791428
174,-21.613437927672834,-11.408466529037888,-22.478948938473437,-13.902914080059478
175,-20.25392059528189,-10.569715314891141,-21.28388146328566,-13.470355065367617
176,-18.918979813232966,-9.690881799410962,-20.07919422217723,-13.203618998626482
177,-17.656636002951394,-8.791652335380645,-18.869320869531585,-13.195160776395644
178,-16.521793847418973,-7.893307039560397,-17.664131773299705,-13.506346901322203
179,-15.530166249182518,-7.026821475025566,-16.483392724796246,-14.04607792556589
180,-14.664196110379354,-6.2377009642195524,-15.359774723439587,-14.655328170021923
181,-13.910923399320817,-5.581033372400095,-14.338507682558424,-15.257014295481783
182,-13.294756539686931,-5.110917786034642,-13.473501620006653,-15.915156888464788
183,-12.858086694552188,-4.869962734793154,-12.818811180212121,-16.707056713906052
184,-12.60008384966826,-4.880775488909181,-12.416682803725605,-17.57134380309799
185,-12.469123977363628,-5.140591489508874,-12.287206603332887,-18.360467894805996
186,-12.411537639307042,-5.620575278454379,-12.422126634595038,-18.995456313303425
187,-12.408082250122611,-6.274787346829658,-12.788473243907339,-19.554659497855152
188,-12.442743761883696,-7.059269470440497,-13.339939952898296,-20.130082354381155
189,-12.453512337959893,-7.945127085642159,-14.023438105602619,-20.655563361827745
190,-12.353320080739412,-8.916433937980234,-14.782340261285771,-20.96332442194229
191,-12.100321575125436,-9.961810555746574,-15.56218793311547,-20.96011943214462
192,-11.726290976835383,-11.070497579794067,-16.31119357978914,-20.716494214962296
193,-11.277144522349928,-12.231753196647633,-16.977148154612905,-20.319537902753428
194,-10.76304260357965,-13.431783143564905,-17.51357489355862,-19.72208077149238
195,-10.183645617679655,-14.644940940771765,-17.886595525385054,-18.80849654596905
196,-9.575635737402022,-15.8201340651109,-18.072045622444858,-17.57398763505903
197,-9.01403937768173,-16.886352303818278,-18.052611240422898,-16.186193901347192
198,-8.549376553540139,-17.77925073992145,-17.819017165033447,-14.821893957328024
199,-8.160962471538673,-18.458099945320736,-17.37090668174948,-13.515185945706438
200,-7.791272049077649,-18.90769157938666,-16.716545833112313,-12.192489070179256
201,-7.421469775254512,-19.136690998587962,-15.871230410511666,-10.854487168563924
202,-7.080771888318529,-19.173842507923297,-14.85561915420204,-9.643144021471393
203,-6.783851599353764,-19.058032415064865,-13.693152790067542,-8.686843282310445
204,-6.499927639803371,-18.82322546108242,-12.408257630691388,-7.969434074665633
205,-6.178260900773187,-18.485718137362063,-11.027431133075636,-7.354258035958242
206,-5.803988654134737,-18.04784891074521,-9.578274988065235,-6.763255126506155
207,-5.413723214857096,-17.51126760619322,-8.087515333349346,-6.259601938039046
208,-5.050761795656982,-16.879010813983108,-6.578373813586394,-5.93257183662653
209,-4.726677785810358,-16.15235499008288,-5.068450932960311,-5.784219606132835
210,-4.414226525580292,-15.334083324758272,-3.571075866185454,-5.707720726721321
211,-4.0849160540280725,-14.436101096479614,-2.0942926684528627,-5.619880594908411
212,-3.738223406257182,-13.482404615878092,-0.635921277085595,-5.558495075709974
213,-3.3936185842921827,-12.50624477458431,0.813883301553881,-5.62702797721569
214,-3.069495625900173,-11.543175811788206,2.26251979505314,-5.877863083406606
215,-2.7639514483106833,-10.619868021613273,3.709904974232972,-6.231829543685459
216,-2.4639005865430708,-9.753444423708338,5.150761390046793,-6.576008364901692
217,-2.1661026287833622,-8.959612489495273,6.580908283772567,-6.88944915790457
218,-1.899021571406012,-8.252228130041313,7.999805396518033,-7.243981561355684
219,-1.7041979487095407,-7.638878250977629,9.40407704128057,-7.678792535499769
220,-1.5893839073038853,-7.1203140210245675,10.778711870791971,-8.091542419059627
221,-1.5287262527350116,-6.689580954078542,12.099701279103504,-8.322073911267129
222,-1.4943357050265138,-6.328758336938134,13.347095447585149,-8.297307365316039
223,-1.4807698340573492,-6.007641905519907,14.507358837676684,-8.091327647953886
224,-1.4829713432104341,-5.690268829794716,15.56470609297322,-7.805279476830386
225,-1.4639385601795418,-5.348983198221465,16.49581324231226,-7.423560872022549
226,-1.3721570661359288,-4.966643679807409,17.269249963401283,-6.861532631723779
227,-1.1831716286288096,-4.523786015377526,17.855863969781442,-6.103442923895872
228,-0.9283366158833856,-3.994037418584885,18.245419723763924,-5.283746108684929
229,-0.6512107709791207,-3.3536795780677835,18.449982662047375,-4.547920230125761
230,-0.34236930508041585,-2.595901530472496,18.498312018190216,-3.876537450709858
231,0.04355886797217169,-1.73099811394694,18.432414653957096,-3.137700774941541
232,0.5202607801069319,-0.7714175916079401,18.299418835256777,-2.2623760917367077
233,1.0377620277977546,0.2699752425890114,18.13649355591471,-1.3354317020033937
234,1.5330198356707547,1.3675785203328004,17.959907183065656,-0.45671573037622615
235,1.9992292674580294,2.4789826327741746,17.76659296578277,0.40771506031340876
236,2.4772060927896145,3.552736332083202,17.546108817022727,1.3729011321066449
237,2.977507287333166,4.540136387852152,17.29088034305084,2.4739178575143246
238,3.447800645788627,5.404362104982104,16.997411717056174,3.6021907505989836
239,3.832316984390296,6.122123330747517,16.661173767101346,4.649482671964257
240,4.129286453981463,6.685992336233976,16.274546314577428,5.645483152959172
241,4.378566255382275,7.111395475189048,15.837075666289019,6.721938249366624
242,4.605287535229702,7.4366967991984705,15.36709642849847,7.936154338699519
243,4.799754558768618,7.705280810122884,14.900647865074298,9.192335830660163
244,4.961254234024801,7.938415446013348,14.476638552304966,10.383709341920863
245,5.1370146318992145,8.134765590905788,14.118056786516268,11.52524526617182
246,5.3943103472085525,8.269054943435577,13.83829858092579,12.75897745892051
247,5.761145134447415,8.385580685193965,13.613524118648872,14.049706143181016
248,6.19802297461171,8.510635267981653,13.424705999889714,15.245492194409618
249,6.669050166245731,8.648676409479991,13.25745896842017,16.247984453806865
250,7.167776050511194,8.789674879517454,13.1044103873375,17.080857975307634
251,7.690735076286836,8.926681324879066,12.966269474940932,17.820036216176504
252,8.201030180969582,9.061392419448895,12.84694228691763,18.462150519893946
253,8.638720026806638,9.19636934221195,12.74765980142144,18.926659983808158
254,8.965398165713967,9.330192491628397,12.665497345342233,19.17675020797929
255,9.183986225527278,9.458549352045553,12.596022486079926,19.27673197403316
256,-0.022409776086285138,-0.3861603127558214,-0.4613185105805009,0.3294755757949685
257,-0.6004047807596453,-1.0774166981363804,-1.0382427338137088,-0.19454860072264235
258,-1.5453084883770327,-2.121018723588817,-1.8748774989916215,-1.0796492855871738
259,-2.9031564378587986,-3.522266847895035,-2.9775465239241434,-2.42954007396219
260,-4.695223293361178,-5.240387843268061,-4.327512858651619,-4.361407203267846
261,-6.886078545464465,-7.189891255438984,-5.882205122668603,-6.8534885527005125
262,-9.373498466934373,-9.255911658745783,-7.576382238533568,-9.718450994353747
263,-12.016883157355222,-11.317604456961703,-9.33212849355589,-12.728498168977897
264,-14.699612145079325,-13.26988712848276,-11.078555347557192,-15.763418358054
265,-17.340192429427663,-15.041557139122974,-12.773335510603488,-18.791122491238404
266,-19.854537481994466,-16.615267555465806,-14.420560430197364,-21.73022726347469
267,-22.152618134587144,-17.984648170097785,-16.016133204885435,-24.438268635130562
268,-24.168752002002456,-19.167035606538033,-17.562681501419707,-26.83580460011716
269,-25.900498059452794,-20.188863902446368,-19.062563429990927,-28.998285467987525
270,-27.379411162031147,-21.063325202046265,-20.50827596425261,-31.016436311407034
271,-28.603820516063088,-21.78728487762577,-21.882586077426296,-32.818433121042546
272,-29.537824464829647,-22.35741521480602,-23.161933345392512,-34.229889983387714
273,-30.16067002745998,-22.777925345950656,-24.317110460949007,-35.15904645139717
274,-30.519547681752687,-23.05719257719573,-25.315894695604765,-35.68741940133465
275,-30.703854011776833,-23.204213668780422,-26.129220973649634,-35.93033549265645
276,-30.76745046342757,-23.23272223561258,-26.73723187708908,-35.8815693868433
277,-30.719499750419697,-23.171102851486488,-27.132222317483855,-35.460216195476164
278,-30.577831624758954,-23.06233506864504,-27.319633007402807,-34.67790683989178
279,-30.40278855919746,-22.947914499805364,-27.31891480152014,-33.70785179946313
280,-30.261919087918248,-22.850961517262082,-27.160739595536448,-32.729284068792886
281,-30.173762809505696,-22.77497242349982,-26.879233074264594,-31.77119148129576
282,-30.117743708976754,-22.712341584503406,-26.507864103810395,-30.748851461484346
283,-30.105626528104374,-22.647960712195854,-26.079747137459787,-29.647745784690294
284,-30.19680073838147,-22.562302874781587,-25.625045052142124,-28.598402744480893
285,-30.42709631260642,-22.438397488154756,-25.163532834599938,-27.733029817384
286,-30.764595999685564,-22.268922358685508,-24.704575740741866,-27.05209269437064
287,-31.142557592751402,-22.063656577083293,-24.25869958116594,-26.444597236356717
288,-31.529294493907695,-21.842011226224095,-23.84111002679975,-25.867379352192312
289,-31.937807885648827,-21.611051398535555,-23.461796589085182,-25.416247005302957
290,-32.365346458302504,-21.363222581060867,-23.11823352771904,-25.187265138781676
291,-32.75978952087735,-21.093692398899577,-22.79749437596315,-25.161320780585967
292,-33.05236841322705,-20.810902976556054,-22.481579469698865,-25.201540903182973
293,-33.229325649251685,-20.533994334033697,-22.152423527084117,-25.19936943569251
294,-33.33311177041363,-20.28170562258878,-21.796022899256368,-25.17874034270345
295,-33.39731681073335,-20.06219852901338,-21.404328446679667,-25.236450691911188
296,-33.41430710824636,-19.87223437515885,-20.975977540148868,-25.420619666394987
297,-33.34334692280053,-19.70293227154449,-20.516665367544217,-25.655975304029013
298,-33.14562455916972,-19.54334777644182,-20.037225087862474,-25.84860320249861
299,-32.801793383022265,-19.38235327603428,-19.54881311585887,-26.00390161976545
300,-32.30852217234017,-19.21236270710629,-19.059121458758874,-26.21224925757518
301,-31.66392338286203,-19.028709318729906,-18.572052862012132,-26.521997725839302
302,-30.8509250866428,-18.82252640475718,-18.08827794581921,-26.82978456057308
303,-29.851823444991567,-18.578483278868468,-17.603195389569056,-26.969647120238967
304,-28.67620081436919,-18.282489873028112,-17.103099921002354,-26.863493060622417
305,-27.385321064163275,-17.929358846045595,-16.56585247139244,-26.572054793794464
306,-26.069649933789215,-17.526178437049758,-15.970921398339623,-26.180212873527584
307,-24.78920543513528,-17.08961756729455,-15.312260533252475,-25.67248646440321
308,-23.55712716141119,-16.63715665264167,-14.599234057402752,-24.98349882916141
309,-22.36355201835409,-16.179398998887347,-13.84544988815409,-24.112780247215962
310,-21.199481419410887,-15.717479443220281,-13.059753491152154,-23.18501258770907
311,-20.051838044326818,-15.247032357260906,-12.246607114821863,-22.324813270077748
312,-18.8824447817258,-14.762402750194749,-11.410104318584018,-21.509933314899964
313,-17.640364304677206,-14.257607516500396,-10.55803167319631,-20.627404160755955
314,-16.30571536574217,-13.726084384246779,-9.705960874004639,-19.62904193801905
315,-14.92071599977428,-13.163222435054482,-8.875057071776954,-18.61221203040603
316,-13.552816403063845,-12.571031789977125,-8.087912278799863,-17.67732484519486
317,-12.225619723681332,-11.956711992305081,-7.367335128058395,-16.7746672212456
318,-10.922521038614008,-11.329289506355197,-6.730249571511626,-15.764939418391755
319,-9.65333063963894,-10.70031382289263,-6.187954304495402,-14.59665407242845
320,-8.485720383761878,-10.08629655172303,-5.75580270502996,-13.391015101153373
321,-7.489599747658231,-9.505835807759562,-5.4509131945447615,-12.280467638124332
322,-6.661608710718876,-8.967868219950661,-5.279473245078594,-11.23721914483862
323,-5.936723926820812,-8.46185954182614,-5.22630230925537,-10.117412363935465
324,-5.273473563729925,-7.956889445906369,-5.2477264806180495,-8.850328800749237
325,-4.695544142039521,-7.409545921350188,-5.287175488274896,-7.535023309762458
326,-4.248775561825726,-6.77676433505389,-5.314041956076685,-6.316806915776873
327,-3.945747851537125,-6.023968564705563,-5.327898577624142,-5.221578034119577
328,-3.762179844553772,-5.130285635266488,-5.318750548693571,-4.135598729670841
329,-3.6869499174514426,-4.091890303549299,-5.241845049949205,-2.985494352057175
330,-3.752516655965145,-2.9197849982307083,-5.030515056213498,-1.8482598082181543
331,-4.00576404197381,-1.634028757863823,-4.623746468321841,-0.860806573541296
332,-4.468868776784623,-0.25652472923980674,-3.989340106860804,-0.10243694795659342
333,-5.140284595940842,1.195718579783625,-3.134592985007963,0.44480106333950997
334,-6.0420426935639835,2.711367068487168,-2.101625272532845,0.7494856758221784
335,-7.237560063394225,4.2797986302296565,-0.9547051594657847,0.6354247370419189
336,-8.806182854320419,5.885464592708608,0.23547243320151187,-0.1164955406200272
337,-10.811839186038881,7.517125018748795,1.4082055177237325,-1.6378139468141426
338,-13.282695497298594,9.189876642738648,2.5168909843510536,-3.911161186233161
339,-16.23270133104823,10.929488057143793,3.520850256169619,-6.900075076521932
340,-19.67926510648802,12.732417048993165,4.381840340225206,-10.67357859968221
341,-23.638779549680955,14.562399289675568,5.068015996030163,-15.348868956243898
342,-28.10219973999157,16.37079625842745,5.564974588984402,-20.94821095250835
343,-33.009972497795076,18.11141834228933,5.887670372968929,-27.31606649043392
344,-38.269088146439515,19.748687860951346,6.064170808694,-34.23359014807413
345,-43.790817428881894,21.26148277811141,6.095973941721003,-41.567304811354795
346,-49.51430515710772,22.6410662059461,5.951711237089843,-49.2715300137872
347,-55.36412705616663,23.89180161696858,5.601018203272275,-57.244623883953665
348,-61.200592464439225,25.041533442390534,5.037809353793943,-65.22781275291865
349,-66.84564822037181,26.130980030744528,4.278616151982032,-72.89567932106635
350,-72.1432590755131,27.184007127274366,3.355691799678731,-80.02187977217541
351,-76.99013556011234,28.19987306799301,2.312339915744639,-86.54812589848153
352,-81.2958460191314,29.161687284517836,1.1979118059244402,-92.4352935313471
353,-84.93182186879399,30.043242059906643,0.060089564189833744,-97.53080380484056
354,-87.7525038130117,30.812375036288792,-1.0585810894187626,-101.63099273279583
355,-89.67627681595971,31.426839086365128,-2.119514907111204,-104.61835903927019
356,-90.71706425306995,31.84379519799733,-3.0885323437083367,-106.53816245180491
357,-90.91809532250375,32.049924786681224,-3.9332844673487117,-107.44721341245801
358,-90.2822958657582,32.06209046747455,-4.619617413902998,-107.26656544475371
359,-88.77728320540537,31.898476788753108,-5.116485775214512,-105.86230932220515
360,-86.40422665770916,31.566085528561374,-5.40393201608062,-103.20449300907822
361,-83.22450490946756,31.058344617895802,-5.473364185589029,-99.42303740920183
362,-79.30325900023331,30.355110392716547,-5.324647484037026,-94.66611360896276
363,-74.6482173408869,29.432484889834257,-4.965739050174093,-88.96132245261691
364,-69.21684258789463,28.265889750102154,-4.4069462413002976,-82.24747062843447
365,-62.99995825977826,26.819651274182533,-3.6500639886610053,-74.52917486164986
366,-56.057857799082726,25.057704211308778,-2.6877147805739607,-65.95383504292414
367,-48.467187763406315,22.977610883429378,-1.5158659442796025,-56.686900740198354
368,-40.27913817744132,20.616834736897584,-0.14682975407981885,-46.7880626762103
369,-31.53423195427692,18.03037496679995,1.3920213477805938,-36.24434942961032
370,-22.31514030252551,15.276310397889466,3.0687953008611313,-25.131631773341226
371,-12.75464058997439,12.409736439321373,4.849595956835943,-13.674888471077546
372,-2.9838787015099304,9.478620868313671,6.694545415319528,-2.126950002501988
373,6.895905694829846,6.525619301105566,8.558916954646413,9.356211995411265
374,16.520550564285912,3.652934359472955,10.365111826767412,20.503034468191494
375,26.280784056436957,0.789483766143932,12.123919737872574,31.658009458896267
376,36.18785363773571,-2.0545004347099587,13.812967243117589,42.73790218146172
377,46.04226435364876,-4.816128436729316,15.397177232487577,53.49282559397034
378,55.55558771325564,-7.407867436093771,16.840345377871696,63.663178885230295
379,64.40805541537706,-9.744219179361625,18.111396558115917,72.99966576363919
380,72.27428986993606,-11.759041050731575,19.18833905918242,81.21030665861184
381,78.86974712103886,-13.409444627976633,20.057733439804522,87.99445733611203
382,84.01189336704783,-14.671336455598796,20.711825883070563,93.16880648766644
383,87.66444810502931,-15.543793867218865,21.152654888289955,96.75906279742254
384,0.43775393501980037,-0.7123866269486043,-0.23729385157163996,1.0822745547243628
385,0.8714326465138269,-1.5151133125994327,-0.5146220213440192,1.9254792147534325
386,1.5212386551169066,-2.628167360016313,-0.9043645983727947,3.118284690193693
387,2.3543618009527965,-4.03943783670492,-1.4084320541208117,4.570371075270651
388,3.2831226992431053,-5.717283094331404,-2.02448012599721,6.091757680518647
389,4.241884489775334,-7.614236700636717,-2.7407491013798593,7.566063078004941
390,5.215370430011999,-9.667782048726625,-3.536633473074076,9.004409932754328
391,6.209112751977244,-11.804467251584603,-4.389792903704948,10.460281487463114
392,7.196863722436193,-13.95301982457452,-5.2827339337188315,11.904974697083848
393,8.139447820231117,-16.062597321633785,-6.206417724873383,13.265689728700195
394,9.06941158407914,-18.125118597732445,-7.163724055943899,14.601176849231706
395,10.053509799737586,-20.101478736451043,-8.142424265958129,16.034298775053202
396,11.146247802769167,-21.956818018450967,-9.127933801866714,17.616673412260283
397,12.340591706077856,-23.66699738876456,-10.104072996976559,19.22666092815522
398,13.595294126233199,-25.214933120803007,-11.050649289040681,20.713689495309122
399,14.886854627027866,-26.588460013811464,-11.944302575680787,22.06425449224377
400,16.191732921159744,-27.78696100338001,-12.762195938705934,23.35640555178324
401,17.430748807218894,-28.822192237199193,-13.483945473731954,24.598002465846115
402,18.46005598132842,-29.70433646733791,-14.092530009348284,25.653193257357657
403,19.14509857857012,-30.436841919271654,-14.576268535484024,26.39936778712491
404,19.433274758925386,-31.027767546160796,-14.929989774403307,26.882997503433856
405,19.335215123718427,-31.492523146499654,-15.159164283974695,27.25077875407416
406,18.844468497782508,-31.847067075857485,-15.28281857310883,27.550857677957907
407,17.910901058512213,-32.10268584648053,-15.324867633570053,27.654597250212017
408,16.505283718399518,-32.26313192523094,-15.30455073946302,27.404690145707665
409,14.68261700391707,-32.325253856340495,-15.23782210488324,26.769397080214393
410,12.566750876904932,-32.28593381240279,-15.143441277674103,25.82418330179324
411,10.257539995054636,-32.15166313564229,-15.045044242672827,24.57704266572621
412,7.7930176594082985,-31.93653901110867,-14.965787076573946,22.909664439377302
413,5.204707261566646,-31.651664617806528,-14.920710476040249,20.714719003076087
414,2.5469771137724533,-31.302748215646943,-14.917354297695377,18.00444899906438
415,-0.12536970614254517,-30.89608417484162,-14.963274520990991,14.909451216241475
416,-2.8048274988338715,-30.4428851029468,-15.071170113779411,11.526785038356296
417,-5.536194619119529,-29.96010466353371,-15.259260933640507,7.825473085144337
418,-8.367053883658132,-29.470126000000043,-15.547872503063253,3.7338434466273
419,-11.312905105268433,-28.999573590115908,-15.950704648054055,-0.7370185185330662
420,-14.350215873168432,-28.569391082181802,-16.4622839666091,-5.433572357552195
421,-17.444285872072616,-28.178749057235468,-17.05754388986909,-10.186524390568511
422,-20.57427139472888,-27.808536386618805,-17.706816904229147,-14.939947689022043
423,-23.72556188237218,-27.439625398796696,-18.38532092802999,-19.716910542589716
424,-26.86175378441003,-27.060580673677883,-19.07346463848689,-24.500194280204454
425,-29.90728699889127,-26.66898475533837,-19.753033951236148,-29.15099707701412
426,-32.77844025479473,-26.270612313624717,-20.404639351807667,-33.503288312880116
427,-35.42134363303138,-25.871825838398784,-21.011991257355117,-37.48619464095479
428,-37.819079249188846,-25.470488669152264,-21.562859636718027,-41.13706927314221
429,-39.95560544645177,-25.054795563476155,-22.04605173235803,-44.490125376441135
430,-41.77903439560443,-24.61025211033813,-22.449223137185424,-47.46139174012318
431,-43.21624261847913,-24.123007624424456,-22.754696532582994,-49.900525549487305
432,-44.213703260493055,-23.580075630394354,-22.934815456145927,-51.72618098553799
433,-44.782745017838835,-22.969797981654136,-22.95100518180656,-53.010154563643496
434,-44.97323410562716,-22.280729988668135,-22.760791389833038,-53.85341860226724
435,-44.80045042251539,-21.504248469572403,-22.332568853622345,-54.22597830098443
436,-44.25007887203582,-20.639097197850518,-21.65918279736989,-54.03383925365758
437,-43.34261605418915,-19.69336571807498,-20.759383608737934,-53.29140215948726
438,-42.17530718058019,-18.6842079291413,-19.667188443989737,-52.1952012105153
439,-40.86903972098612,-17.63649999372079,-18.420189086444953,-50.95482565780856
440,-39.48564013857439,-16.58296027642738,-17.059037434931014,-49.61873412634881
441,-38.03555903720469,-15.56225755086243,-15.634761895539375,-48.12939674123285
442,-36.5464945643232,-14.609555585898498,-14.206739494828602,-46.48642922504143
443,-35.10224909598815,-13.744867053498627,-12.832174707898305,-44.829330872250324
444,-33.80025167547596,-12.97071615218512,-11.557358452870023,-43.30110074492578
445,-32.68499087919804,-12.278385410571907,-10.416160019381406,-41.89240181593468
446,-31.744207059492588,-11.650470368573227,-9.43335335770053,-40.47780012572896
447,-30.968513509895796,-11.058563925821877,-8.622689545508067,-38.991852596457555
448,-30.38123411120271,-10.465587565602762,-7.9842084034200465,-37.51827188165184
449,-29.991140604364684,-9.834699435189982,-7.5066060339616625,-36.16024706673403
450,-29.750429034651745,-9.135880623936457,-7.170881308669678,-34.90118524649691
451,-29.582292359108887,-8.350862500913614,-6.9515551862631,-33.62441262304077
452,-29.45763143394557,-7.476670127645291,-6.817650940867098,-32.292955289339616
453,-29.40292734621532,-6.522974726655514,-6.738210458262522,-31.026363050335597
454,-29.424374015834008,-5.506273136814003,-6.689209314378403,-29.952364286433898
455,-29.472670115869658,-4.442134420475101,-6.657336212024136,-29.077839231425298
456,-29.475268336457216,-3.3394327924244753,-6.637975219060359,-28.29394248038584
457,-29.400029514430283,-2.199825876188651,-6.629948005672105,-27.53119032121653
458,-29.264093824263636,-1.0208696368474826,-6.631595371855068,-26.84686855959027
459,-29.075935146609464,0.19941863937970877,-6.636571066022849,-26.335930042592
460,-28.7942983296759,1.458571246832287,-6.629979862901245,-26.01080151105113
461,-28.338308678384596,2.7490369585839827,-6.588325683346628,-25.750922483870106
462,-27.644497154281105,4.060115226357068,-6.485217002681455,-25.43707069137958
463,-26.714068137270974,5.377414168895576,-6.301045801441818,-25.077142941095936
464,-25.62012686617577,6.681023408131557,-6.030219304916824,-24.774950697236026
465,-24.456198847051812,7.948434722626551,-5.6836587576638085,-24.599633512170225
466,-23.274022854632282,9.157848155180021,-5.2866663897705255,-24.484825011324606
467,-22.084429264554988,10.286112094303114,-4.8753346407501645,-24.324870335658687
468,-20.889536764091137,11.311076708394054,-4.494077504409197,-24.108588694962286
469,-19.72334600358609,12.220203064913088,-4.188607995717619,-23.938345733991238
470,-18.638114670044278,13.013939926809302,-3.9951285830170864,-23.903188023266008
471,-17.64630141923197,13.701077695928657,-3.934348367358705,-23.95713316389636
472,-16.713911775827782,14.293219877433097,-4.010234673660229,-23.989663363829347
473,-15.799433101277014,14.805036508952409,-4.208161727835549,-23.96339928845946
474,-14.90073022077882,15.25321060252286,-4.49538904048348,-23.976582895951406
475,-14.043354142652655,15.64887450684253,-4.831329414303112,-24.12909526214464
476,-13.232142536229786,15.99452467736557,-5.1831954327314635,-24.369970207652994
477,-12.455006267064823,16.289004405814744,-5.533321002331191,-24.556207897490783
478,-11.720513107303338,16.529086278453395,-5.875851410367079,-24.606557225320238
479,-11.078437720133078,16.70453098929162,-6.212585676815662,-24.57908609625468
480,-10.573638248619263,16.797594358207252,-6.552561250119438,-24.536704177655764
481,-10.182861484593868,16.79083671087468,-6.908245387671668,-24.403419313720345
482,-9.835596839125353,16.676052274648242,-7.288489440385651,-24.02125589256216
483,-9.501011696653878,16.45777720971717,-7.693220388729528,-23.323455302694924
484,-9.22910114345973,16.15276215990381,-8.112346579288271,-22.424203637240904
485,-9.083317939724463,15.784055701541414,-8.529104332219475,-21.465550793068466
486,-9.05804176597743,15.37597033166934,-8.922201879026291,-20.45536847983664
487,-9.089964288984714,14.959208705231854,-9.26646623177048,-19.309408557464483
488,-9.140128645634892,14.566156274085571,-9.532551428193456,-18.019245634243802
489,-9.22066663981493,14.215590912388675,-9.688017264355066,-16.721656966691214
490,-9.335572411632084,13.908184856064997,-9.707945110647985,-15.55072106450064
491,-9.436066802928353,13.630097717152555,-9.587485516406435,-14.4883553133095
492,-9.45262872206282,13.359498678527393,-9.338675614494829,-13.392935218260437
493,-9.366309432884941,13.071086987254517,-8.979403314200287,-12.192657979906551
494,-9.214807592016834,12.736666153865333,-8.530068209432205,-10.977043568762548
495,-9.034230342980441,12.333763054353685,-8.013445484200473,-9.87571384470192
496,-8.82459208661866,11.859613979900296,-7.451161897081875,-8.933356027575167
497,-8.569272561761272,11.33062938177475,-6.85926693882779,-8.086015266458249
498,-8.287624755361845,10.769405307088576,-6.2503352755949875,-7.296275784792475
499,-8.037506565152551,10.196107605615113,-5.639096885122087,-6.641777618805881
500,-7.867517240986242,9.629588316794536,-5.041809701055426,-6.225821306178846
501,-7.783341401155938,9.091488088827031,-4.472960468432143,-6.0602031118488755
502,-7.73454588347535,8.628423313222445,-3.955343049175802,-5.975718487271798
503,-7.725571747703776,8.203942344617158,-3.4803620551451746,-5.987134685941845
504,-7.778764931885178,7.789465824846971,-3.048066570711813,-6.1651778317344235
505,-7.898764940008082,7.364550152129488,-2.6673478968771827,-6.530465596345689
506,-8.06187564402924,6.926321406474258,-2.35051944940688,-7.000513471583459
507,-8.233335596145501,6.487392961442205,-2.105477215748521,-7.449090252099331
508,-8.394625518847217,6.066063799207499,-1.9279472299744067,-7.828365395003397
509,-8.544137487215014,5.683308611321201,-1.8035923283794886,-8.186355459149993
510,-8.676191174568778,5.360018596515561,-1.7175550235642687,-8.56643815295455
511,-8.777349341091835,5.111961889249397,-1.6582723139609858,-8.922721436148233
512,0.08440244379199502,-0.3524575941091112,-0.6887671953563987,0.5197282116524765
513,-0.4152553433927054,-0.8467586866858481,-1.4502944503499426,0.3764546713196692
514,-1.2487799557112158,-1.588812514649237,-2.5210102458899666,0.05402021756817321
515,-2.472063479135277,-2.585724347739652,-3.904264903968042,-0.5786043870187692
516,-4.133510526523239,-3.81031587298155,-5.577691116604756,-1.7219567271390388
517,-6.212670776378669,-5.208591956577989,-7.493082831521948,-3.4529259746965097
518,-8.609884507739254,-6.712815698838979,-9.582678672523576,-5.674536452361895
519,-11.18896764002781,-8.253033441340214,-11.766575124783852,-8.225239943524363
520,-13.829884374844271,-9.764981440998236,-13.962802097346929,-11.011331856087375
521,-16.43495668730054,-11.206748222918447,-16.10685927585908,-13.985354109852025
522,-18.90171894235262,-12.586915325181954,-18.179589399040623,-17.017755796393125
523,-21.126386917306576,-13.918699866453377,-20.13395592229781,-19.897012096230952
524,-23.043859058671845,-15.21816840629079,-21.922751469531747,-22.479378125518874
525,-24.665843885992313,-16.49753643702669,-23.505065712555066,-24.782478440610777
526,-26.049378957317188,-17.762448719474474,-24.852130521702,-26.859475410953493
527,-27.230208370543426,-19.006617553272537,-25.949450442452083,-28.65489930823169
528,-28.21247992605226,-20.211752118217728,-26.796701483492093,-30.040554583152527
529,-29.022915372690502,-21.351637236637075,-27.406238368747417,-30.98791679054401
530,-29.736151611048268,-22.393547371832856,-27.79868234472918,-31.640800800015437
531,-30.429604360391483,-23.303394173189226,-27.997057241330094,-32.14908264518885
532,-31.140002086937958,-24.056854822234886,-28.025584652683698,-32.51635765174848
533,-31.869135596717733,-24.646540866642848,-27.910095161065815,-32.64303110475233
534,-32.61928638109168,-25.081411353070983,-27.672979616486952,-32.51738737304727
535,-33.38127229924652,-25.380282244240476,-27.326422540105064,-32.28678497747529
536,-34.08776044525948,-25.564782507230028,-26.873037212252484,-32.10327542874377
537,-34.61652981681567,-25.657656749977647,-26.314590377651264,-31.99469912709927
538,-34.84245822173867,-25.680931590324843,-25.651981514887876,-31.87737651070055
539,-34.69501329212802,-25.64723269194345,-24.876538377531904,-31.703380409447806
540,-34.15661408607545,-25.559187407272685,-23.97331883726339,-31.537057361556162
541,-33.212368092781034,-25.423691170669915,-22.93251314773184,-31.47036695387406
542,-31.838186857679773,-25.255010225240188,-21.75611964579696,-31.52014526198537
543,-30.0254574847475,-25.06544404702407,-20.460956869845926,-31.586663992371466
544,-27.80517582702847,-24.8615020239039,-19.0785967531418,-31.57135772771998
545,-25.25605872819795,-24.644387936433244,-17.65010488011985,-31.487226694354252
546,-22.49180427450649,-24.416104232185244,-16.21818874137115,-31.419697894827912
547,-19.620296490904977,-24.18503565244692,-14.82132430321121,-31.40600753954278
548,-16.70687295279657,-23.96249993051034,-13.489353889666903,-31.361010501655603
549,-13.79748264622092,-23.752372237427572,-12.23838648449298,-31.18135664295491
550,-10.961427681881654,-23.53885613248156,-11.067874286322766,-30.863073325524926
551,-8.305195721318748,-23.282891988886252,-9.96129400163996,-30.49902917697181
552,-5.940397781645791,-22.9343032745564,-8.889327561856106,-30.149506543426863
553,-3.926615507254592,-22.450454780543517,-7.816175938736512,-29.73106025983081
554,-2.257120545131281,-21.80418702650375,-6.704950401864351,-29.097173820577492
555,-0.8980248733483489,-20.984284643515117,-5.5242035743191105,-28.18216582329133
556,0.1537407652802602,-20.001619289850712,-4.261565136387065,-27.07510594083702
557,0.8776607020269804,-18.89613851431271,-2.9298549604670305,-25.89629734805352
558,1.2926997611162399,-17.73102411439983,-1.5575753922891213,-24.6331079644644
559,1.467753443462404,-16.57684028576518,-0.1802282556761226,-23.185908192574235
560,1.4681649664748613,-15.501225082378005,1.1614597451109523,-21.526727090076317
561,1.2883224049248363,-14.563391563946048,2.422820382208252,-19.794706123318186
562,0.8685741844042154,-13.805007065425292,3.55780767212762,-18.156991974099256
563,0.18186091401002563,-13.241141864782207,4.522399613555947,-16.632470009088852
564,-0.7425445011082986,-12.858217348376197,5.279532977314131,-15.131726937012337
565,-1.8633000717611867,-12.62235735744268,5.804886497557897,-13.610571419487236
566,-3.156385522790207,-12.49135328958618,6.09049436763573,-12.150666450850315
567,-4.58325109322613,-12.426888368057888,6.146244296303778,-10.833992173486017
568,-6.061082720334052,-12.402392078360354,5.994295293582849,-9.612093194659042
569,-7.493018590436202,-12.398477239091068,5.657873590104811,-8.364979833999856
570,-8.826496550646198,-12.397458362132303,5.160903086740106,-7.067513990220203
571,-10.073141954468298,-12.384958979818258,4.533248570734324,-5.854984678844614
572,-11.250441347027964,-12.350051245454935,3.8091202716911265,-4.871937938388412
573,-12.324520176363725,-12.277263466385609,3.0277231334047983,-4.108503916464786
574,-13.233891946009088,-12.139844982957454,2.236354256371716,-3.4169912435444285
575,-13.969048676181515,-11.907530129574363,1.4849529074989996,-2.7094460564116374
576,-14.592937434192061,-11.56629459280728,0.8109379792962883,-2.048845771752752
577,-15.160483157886047,-11.128931734889475,0.22665131482407913,-1.5134780325925055
578,-15.652241398888638,-10.625829119145836,-0.2792750742588133,-1.0803521809802397
579,-16.001743115608832,-10.090197645393388,-0.7342033130610668,-0.6436230423870911
580,-16.17295509914901,-9.546721138838196,-1.173717764953588,-0.17876314693581932
581,-16.18194307458384,-9.005624319836722,-1.630885102887463,0.19186370624707166
582,-16.05736520155313,-8.46361681497854,-2.127247329453445,0.3233240308025902
583,-15.805329371655281,-7.912041388965363,-2.6723956644748332,0.16722616945479604
584,-15.407516214444076,-7.346523101751022,-3.266736509934871,-0.1885061422650582
585,-14.855470012578897,-6.767219671191611,-3.899497879130842,-0.638902103311221
586,-14.171223457700716,-6.17599000348613,-4.544244766292892,-1.170381200488907
587,-13.407123894769361,-5.576427207713262,-5.164286022965886,-1.8287986112339496
588,-12.61906222847176,-4.972016516892657,-5.7279636871918935,-2.615486830066218
589,-11.831397252212923,-4.3670501967002116,-6.215460317399569,-3.4177907402384777
590,-11.055457917582244,-3.7724077641387126,-6.615962164190276,-4.11539468034026
591,-10.315505535933127,-3.207023010819693,-6.927858477986938,-4.706171471900982
592,-9.651162648307384,-2.687652930246582,-7.159821060731568,-5.306231473659366
593,-9.096241721285859,-2.2160239444504946,-7.327807884924574,-6.013366124624417
594,-8.649597298218843,-1.7785148037584615,-7.450801629650878,-6.782394349406457
595,-8.288505805812484,-1.3580428719955058,-7.5492988050659875,-7.489875349174674
596,-7.9940790717448555,-0.9455107816855124,-7.645825471060563,-8.070022804924864
597,-7.763142342562689,-0.5443683325342905,-7.764876225871224,-8.585198174052957
598,-7.590053943948465,-0.1692663550859491,-7.934954588522045,-9.113799204726522
599,-7.429859333476727,0.16184777759476157,-8.185160982125675,-9.611180668429137
600,-7.2099591082524475,0.4375469467920054,-8.53124600405652,-9.955986208727788
601,-6.883953854857867,0.658729801635577,-8.964465926502054,-10.082329687410825
602,-6.472527688521757,0.8348885936455582,-9.454912366855286,-10.059107668780134
603,-6.030028238632716,0.975663152258554,-9.96366541813826,-9.959750177024988
604,-5.578984318258654,1.0893411911519606,-10.452834816000044,-9.709140746170144
605,-5.1087401034244415,1.1829139069085763,-10.891376256701019,-9.151564314340494
606,-4.636300358827539,1.2598857824998229,-11.258485042337739,-8.225583339766759
607,-4.239864074116594,1.3216240495015077,-11.546884472052756,-7.048981157050804
608,-3.9910760385697506,1.3718637981684916,-11.763065568546562,-5.766344656360778
609,-3.8736876247497762,1.4185827916375555,-11.919642326812466,-4.375754731987257
610,-3.7978398199645613,1.4693998720324428,-12.02676978822353,-2.7787454668474796
611,-3.681115388194625,1.5242684732835767,-12.087007488534423,-0.9617525170547544
612,-3.4952289176783045,1.5743054896110862,-12.092883722673445,0.9332544579193593
613,-3.2249363300671234,1.606770387240975,-12.032111210566152,2.7629373986885257
614,-2.817079277485497,1.6079382125573636,-11.895745790755129,4.531926363679533
615,-2.205156324754567,1.5619299047636908,-11.679388847076472,6.35407353311043
616,-1.3780583225346548,1.4507989301054578,-11.383392356974952,8.272565202057955
617,-0.39196024852010986,1.2593267388437297,-11.018442980541725,10.187247588299508
618,0.6929266811548119,0.9813018413186121,-10.605539862179418,11.975218222388031
619,1.8596990204958634,0.6235629399257108,-10.164284547447956,13.611684986731435
620,3.11708631171111,0.20913855124198108,-9.700311484108958,15.189760831758033
621,4.4457557909109475,-0.22302028566191598,-9.204276858755877,16.7672854547206
622,5.795048603420727,-0.6264516309776873,-8.66018904597363,18.27077971614236
623,7.128193727462841,-0.9623279388480656,-8.054893038576108,19.604638212107282
624,8.449746792438837,-1.213711127821514,-7.383338992313299,20.764567538379584
625,9.792877825313452,-1.3853813703223548,-6.64853034636288,21.85129402042339
626,11.164021701769666,-1.4900018218663456,-5.862219419562074,22.92558782575085
627,12.526015798695882,-1.5374676158766512,-5.050442754276832,23.91192291378507
628,13.828649477050664,-1.535813640483248,-4.2591726329467905,24.667795753272753
629,15.042736298619458,-1.4987871160000172,-3.546063028350179,25.102652542774013
630,16.16726734709933,-1.4705261399348446,-2.9512265587100837,25.35188328972852
631,17.25667653184062,-1.4363478679937267,-2.5132013458814964,25.339692022851263
632,18.30563123411033,-1.3845008208896614,-2.240345453624401,24.97925710956349
633,19.295020027624208,-1.3019573938237718,-2.118961545359008,24.25521899270533
634,20.215695433792096,-1.1798800028515266,-2.1207700380262127,23.277483909753986
635,21.06404175173676,-1.0176464798807991,-2.207716758318263,22.228989288490755
636,21.824149402682774,-0.8235124359354364,-2.3389583949197714,21.247961244486653
637,22.46919984562764,-0.6156587625168242,-2.47956619322457,20.375609149186275
638,22.98019504065406,-0.42113847568091267,-2.6048421692589128,19.610857355950394
639,23.35614580039357,-0.2658501192481241,-2.6990328067693867,19.00766534880877
640,0.2219885741048908,-0.5862478813166655,-0.43640796815538935,0.6272150040715709
641,0.26303935085041785,-1.263075200903305,-0.979285729615397,0.8310682663792262
642,0.26973152753650875,-2.2194273288258994,-1.7623902760043877,1.0947403645887126
643,0.2096739109786917,-3.4596147168161497,-2.7921755173885736,1.37328781163592
644,0.04114592415083174,-4.972008280439788,-4.0507474726587605,1.5429925989012696
645,-0.23648240876661256,-6.725935563910292,-5.497133476820025,1.5584621300395702
646,-0.5722128201058343,-8.66885640205932,-7.076159670690603,1.5002660053766994
647,-0.9042318732963015,-10.72956393402103,-8.725743279961376,1.4916010048542876
648,-1.2103887798724484,-12.83100857666906,-10.381743002238663,1.5738282440616997
649,-1.5003545030790086,-14.90632229675728,-11.991672174718857,1.7116980272459987
650,-1.7631252638371577,-16.915975907202746,-13.537585843799848,1.9199350059263662
651,-1.9573760391321784,-18.79023468058526,-14.993556302121863,2.2926878267166986
652,-2.0588386237470493,-20.465021309717876,-16.341589526499742,2.8616032195617738
653,-2.09471809523671,-21.891713612494303,-17.57221495692851,3.508260239358436
654,-2.1023107020830096,-23.043302468497448,-18.68575050119484,4.109118955091933
655,-2.066197194386499,-23.91521407928969,-19.693866115580594,4.681892315600445
656,-1.9343849847701131,-24.523299273895148,-20.617294856318175,5.3406044289835055
657,-1.6950154152524175,-24.90316093889544,-21.47685849040592,6.117095746551939
658,-1.3928985300138281,-25.10592249966428,-22.284713951062713,6.892677657044013
659,-1.0756725047193236,-25.186362000405794,-23.045546437346722,7.546516087176894
660,-0.7636208655233563,-25.187919747581955,-23.76356412459029,8.088946782355476
661,-0.46356643179642754,-25.136230977981985,-24.444355271892007,8.629153808184226
662,-0.2077797820748215,-25.044821070341207,-25.09187199853052,9.200935899958948
663,-0.059743526762636195,-24.923985739886678,-25.706497741751015,9.694691380934554
664,-0.06479551708263832,-24.782897642186025,-26.2896044827722,9.973152302341262
665,-0.21329830675817796,-24.626167526623668,-26.850667149181707,9.9843144838174
666,-0.45148631517448334,-24.45569448807525,-27.404446320120506,9.79233673231098
667,-0.7342794393844646,-24.28108526418416,-27.95853061365421,9.456009158087925
668,-1.0509689910845066,-24.125002358110297,-28.503688136355528,8.926040203570999
669,-1.4041490312875597,-24.013820460211946,-29.01580291604298,8.093145954446943
670,-1.778206833891332,-23.966016731911157,-29.466841640918254,6.919059012709703
671,-2.124144881938718,-23.98397698947336,-29.82788335616368,5.522379373822851
672,-2.390207666593779,-24.049984785365307,-30.063379922186744,4.063536605466647
673,-2.5508879267715536,-24.130714231759676,-30.136581716458224,2.6091048998038926
674,-2.618941915429712,-24.183913482455726,-30.02510422760467,1.1269136054147855
675,-2.6254661763644163,-24.164828865052943,-29.732150780266753,-0.40474975536089214
676,-2.5758473688530414,-24.03282665462029,-29.282862615722,-1.8982791271494581
677,-2.450833961555821,-23.75669000894315,-28.712857468638774,-3.2362122140976624
678,-2.244099903467509,-23.319110132604678,-28.064846387089673,-4.398945011538191
679,-1.993345778488312,-22.718674355306042,-27.38378778814822,-5.4978875282118365
680,-1.750708531555209,-21.970390056711164,-26.703528271234752,-6.645649307103343
681,-1.5275180245609257,-21.10533277279834,-26.03890304163487,-7.802635276222406
682,-1.2931256474471218,-20.16693280294083,-25.38977289639517,-8.825675107501173
683,-1.0180688451731559,-19.20346184071526,-24.749434763729717,-9.63165647460492
684,-0.7144134749245097,-18.25816200309465,-24.108501453256288,-10.28796654160739
685,-0.4027143075550218,-17.36017459846055,-23.45480058287601,-10.86902198602302
686,-0.052501855265744135,-16.521035009694117,-22.772196618940004,-11.284872323781897
687,0.40172048911279246,-15.742169401052864,-22.040021325173687,-11.347137337835363
688,0.9884382069495818,-15.027930144646737,-21.240303110256054,-10.953458103197743
689,1.654881474230859,-14.382377745518879,-20.369480933424594,-10.174057541830212
690,2.3275768968519843,-13.790820124301982,-19.435456161052244,-9.111671061253018
691,3.0049365880120855,-13.220052866040175,-18.44383556127406,-7.7514407651474535
692,3.7449874049253675,-12.638681863853032,-17.394580750821543,-6.0028118125750005
693,4.570420275112083,-12.02652118684508,-16.286099300078668,-3.861704205882236
694,5.429254159078757,-11.36937434282782,-15.117606993008843,-1.4890341710980004
695,6.2601555733266245,-10.652806301058405,-13.89027623245761,0.9311875242291552
696,7.057351297707308,-9.864913458653419,-12.611702852481075,3.3400648439272373
697,7.851882358547655,-9.008663504352235,-11.30116116664934,5.770772130990105
698,8.63701283230974,-8.108700477982753,-9.987370262779542,8.17467240907313
699,9.342031832815797,-7.203534711839373,-8.702883846631485,10.357161414391074
700,9.886642037307933,-6.329737547460571,-7.4828207593526965,12.135211625547587
701,10.23837349205384,-5.512281285430648,-6.366627696300967,13.472935227385491
702,10.415953621368391,-4.766227786783138,-5.3967382066105465,14.460172778118404
703,10.429922273828417,-4.100568437146194,-4.612258185586414,15.140382740152088
704,10.258047649064657,-3.517652326411092,-4.042121230683147,15.435180269380883
705,9.899678170258346,-3.0119613570782304,-3.7007211922149,15.268855130944413
706,9.41228336378533,-2.574215261753343,-3.5867064803275612,14.672857748970994
707,8.882146142568388,-2.1998327238196653,-3.6848921485193658,13.790415382084936
708,8.35427533112702,-1.8863264305765997,-3.9694845478890777,12.74366505407005
709,7.816809028580715,-1.621664713645507,-4.407331771840874,11.536187589178494
710,7.246396473701052,-1.3907165955508987,-4.961908563275275,10.11271741149299
711,6.640497217456312,-1.1936772157943536,-5.597115106173609,8.48125792677686
712,6.0200686496895255,-1.0471076586283836,-6.2821385321249394,6.776678994714973
713,5.395490311527677,-0.9669097599124199,-6.996921383073338,5.145543581051491
714,4.761413853641788,-0.9549378782130507,-7.7300366155364175,3.627267298376218
715,4.132100776164698,-0.9968967208108315,-8.470797232558173,2.1670807261676477
716,3.5520594267509553,-1.0652092573619711,-9.203078144135603,0.7408473915831059
717,3.072766640570259,-1.1265796241798067,-9.903451612973603,-0.5436219927083131
718,2.7152576603999203,-1.1481197512489374,-10.54503834011423,-1.5385543629431095
719,2.4578778742470613,-1.0984922996844895,-11.10385634807794,-2.210863600619267
720,2.2616935242877654,-0.9530832109286627,-11.561594356892561,-2.6931517230976074
721,2.1060138799481147,-0.7022315549932406,-11.904828952870487,-3.1355698117810538
722,1.9856853237336798,-0.3555932115223955,-12.12354350535542,-3.544983302263452
723,1.8804931676777175,0.06119756252361733,-12.212860505845121,-3.833174967601024
724,1.7529938766397672,0.5145050930052798,-12.178078591357146,-3.9512368379949123
725,1.572337698802658,0.9698560169161194,-12.031258004038092,-3.96979659188675
726,1.332109615079074,1.3979704658386036,-11.78149686003731,-3.9571946885009215
727,1.042746245744742,1.7780344577097353,-11.431731205430237,-3.8196950139108172
728,0.7179209753740207,2.096892201587078,-10.979816487721715,-3.3629959923137336
729,0.3737028530311437,2.3516742556280095,-10.420026450732685,-2.472955214321265
730,0.03996152884308779,2.5555268997488962,-9.745735167313267,-1.2178758247519736
731,-0.24276665862161867,2.7315986714102367,-8.956376773172437,0.28222357098990547
732,-0.45942490459795254,2.8986742820264446,-8.066202724607104,2.015781990579806
733,-0.6211222382711921,3.0620371421641863,-7.1041366054162385,4.031584234791436
734,-0.7278551379984869,3.2167738475107845,-6.10506547298675,6.276091152624824
735,-0.7647052630061963,3.355398455589911,-5.101711576720249,8.531763280818534
736,-0.7118302216235345,3.4673841431232315,-4.121668236049938,10.58426514629188
737,-0.5410732962169646,3.5398084026231698,-3.1887455024613973,12.387555792401931
738,-0.21903225878636906,3.5606857613583562,-2.322993806400579,14.017049382025506
739,0.27110923182369645,3.518879430839879,-1.5387033541357724,15.480895226542563
740,0.8976488914682762,3.4071959902072244,-0.845317229085293,16.64461376086018
741,1.5894152941666777,3.2278334482388145,-0.24813419201321263,17.37960884703859
742,2.2801661579635146,2.99252113192533,0.24985621681040798,17.69956312145245
743,2.929686821481647,2.7197438728990107,0.6430627983798453,17.732256023733765
744,3.5148932520529264,2.4334775961508925,0.9318173331756777,17.54533012201614
745,4.001495466548101,2.1613907779706856,1.139725857937905,17.077328770605117
746,4.322443759999797,1.9306478636594648,1.314075602116842,16.265278626968954
747,4.4061907013424735,1.7607266946673827,1.514451175575532,15.151064653180686
748,4.236911915733956,1.6613422312846993,1.8017236070933447,13.883283002813998
749,3.8742215242461153,1.6380208657681463,2.2275910999071438,12.56676281004582
750,3.4066628611857475,1.689262726299043,2.826567579779184,11.171367811148027
751,2.8860333479859976,1.7981564601167193,3.6151618562342795,9.624766830522542
752,2.330843531411532,1.9370272934879336,4.596362786654095,7.924763051108113
753,1.7772329788311028,2.0789690646325876,5.7603401258093285,6.181825188242759
754,1.2754046827269763,2.1989680274554484,7.083071168418691,4.506875241296661
755,0.8571135241032645,2.2721500191635178,8.52588112167339,2.903363226592731
756,0.5255434567330556,2.282103100407153,10.037427765817874,1.291620607961754
757,0.27982068968175955,2.2293987144026577,11.563326111567704,-0.3673643910768265
758,0.12248792255467579,2.0895198950562457,13.017662878552445,-1.9521494765354042
759,0.10356175994075646,1.9294141513066327,14.437988350292233,-3.3580303898847914
760,0.21388115687408732,1.8030750724796853,15.828534775108105,-4.5786029428636414
761,0.42837268248968124,1.7517179036910846,17.168183571834575,-5.627243723401213
762,0.7282540174828044,1.7976921214420878,18.416941875116443,-6.464119019563569
763,1.098463507047569,1.9422167883034358,19.529324674988402,-7.0213927167782195
764,1.5118821884883538,2.167043934594626,20.471878578627773,-7.291672983936676
765,1.9212676204564387,2.44062300277559,21.229983421174595,-7.357872831468962
766,2.2761507149441718,2.726019643318951,21.805850643351267,-7.334563374632204
767,2.5522693026469283,2.9868084689300343,22.21468056585657,-7.2678655692471565
768,0.3119987178942413,-0.03218236007451131,-0.15327441559471616,0.9425257863024052
769,0.7120814528445418,-0.1250531240554964,-0.46542323600113106,1.714721102181476
770,1.296434507627084,-0.31414292420800394,-0.9737501174910517,2.755888016353217
771,2.0462860508866325,-0.6362372925913511,-1.7079634480069834,4.023097064364428
772,2.8899644888394733,-1.1184205189143248,-2.6860601268269066,5.374855298629433
773,3.754593353691699,-1.772054554249814,-3.910104425085246,6.704561607820526
774,4.6004623367410025,-2.590331898250602,-5.36079208534397,7.999940051571026
775,5.408074122281074,-3.5499081219400943,-6.998217048203124,9.287202354619712
776,6.135727507619502,-4.615312550051374,-8.765150376498884,10.524422365884943
777,6.732769735465596,-5.746005777028113,-10.59582863177646,11.620519798230358
778,7.202928131601155,-6.906109500145442,-12.436911589036644,12.576302750894264
779,7.5991775470206635,-8.059898312655207,-14.238754324205868,13.497649932215214
780,7.94791542175346,-9.180493924034026,-15.973114087972817,14.411853899705516
781,8.222605004834353,-10.251062544754483,-17.629688162875322,15.18608944669223
782,8.393646321729893,-11.261545156417542,-19.2078543249101,15.685292303510321
783,8.463030098989952,-12.207646076679183,-20.717008313190732,15.914275987754568
784,8.444344503114312,-13.092481595591394,-22.17683540440836,15.991786566326882
785,8.31082251508579,-13.92280571441577,-23.612335705617788,15.970974312493729
786,7.980017995606521,-14.702835923596957,-25.044803374977793,15.757287098189549
787,7.379066528002496,-15.433847887290014,-26.481411957688287,15.23962022305467
788,6.5107852661567955,-16.116910554826916,-27.912142028425833,14.422646712623353
789,5.4397844676371925,-16.752483409832127,-29.31164029558362,13.440777908317253
790,4.229870056605991,-17.335406151645827,-30.645443147269333,12.410932111286726
791,2.9160248030247247,-17.851630379972534,-31.882554565012487,11.324981978591753
792,1.5168510379866498,-18.279916533863542,-33.0044781651513,10.104588688139092
793,0.07588405136157891,-18.59232910553303,-34.00684795482054,8.718298729466596
794,-1.31417548514583,-18.754686854866492,-34.89633472133114,7.252317423650122
795,-2.5607798168412934,-18.731622974008676,-35.68042224655844,5.799013384477891
796,-3.609921314911629,-18.496936688668043,-36.35767486244108,4.34693887723243
797,-4.446458440196826,-18.04531690063069,-36.92000609231832,2.813696506572318
798,-5.074790681339385,-17.39403378081903,-37.3607735997196,1.1619733607348925
799,-5.487222274781362,-16.57241015593779,-37.67461636540886,-0.5142963746700854
800,-5.671355205851735,-15.610337248063995,-37.850807122628126,-2.076721319989944
801,-5.6342806874070765,-14.536042575434779,-37.87386339204209,-3.4725553339447353
802,-5.417965964849879,-13.380463428730822,-37.73116850800939,-4.770359260843561
803,-5.079006250331017,-12.178024801501746,-37.42090662273144,-6.041981002699081
804,-4.65821883122635,-10.961902832071944,-36.95938410251185,-7.242060227217232
805,-4.195712935374486,-9.75922578206399,-36.375574970508495,-8.277819405016398
806,-3.7414075823943014,-8.591080350279674,-35.693271760250376,-9.131398321249751
807,-3.3489082908299483,-7.474138491376872,-34.92171293194133,-9.903601081859883
808,-3.051294858956502,-6.4208888377379605,-34.05865956490251,-10.6796141341357
809,-2.821047799503147,-5.438336603187053,-33.09763160443359,-11.379733126768125
810,-2.583486874666951,-4.526585444753032,-32.033347120948754,-11.832027302592147
811,-2.2906904814102846,-3.6810785018466072,-30.863343256212907,-11.951809468252694
812,-1.9636687344026837,-2.897017429233186,-29.58922698048728,-11.824098272158015
813,-1.6408395450093598,-2.17482354314118,-28.221698740000484,-11.562247958271586
814,-1.3107604949609453,-1.5208818831710387,-26.784851724075367,-11.16123914664922
815,-0.9155862558669841,-0.9435486141774541,-25.312990772644937,-10.549278865081789
816,-0.424055665154342,-0.45421014733181486,-23.84676106758253,-9.73545889172662
817,0.11994731149740497,-0.06785327686201775,-22.431508167215217,-8.871910931042725
818,0.6472647572286346,0.20113965316143784,-21.11155255338868,-8.107258292033716
819,1.132602852962138,0.3408744414603905,-19.922854748726188,-7.435051922501201
820,1.5982319703746026,0.34208970231531444,-18.884063872342825,-6.735695359890524
821,2.051646455779531,0.19895246148925777,-17.98804877386873,-5.9548324127374475
822,2.442916654638473,-0.08778675041597592,-17.208935569636402,-5.1822155487112305
823,2.7058139492673376,-0.5075207499362038,-16.520308916967654,-4.520763130354427
824,2.8203195067738096,-1.0389761426316513,-15.901350174820372,-3.957711387553273
825,2.819300073700831,-1.6505066567664306,-15.329846234470022,-3.3835874032644377
826,2.7308848121226785,-2.303057502588099,-14.780357488055198,-2.7602522589515583
827,2.5471987854557208,-2.95629745930191,-14.233625051526678,-2.1965707194180624
828,2.2631482044921394,-3.5744933455487717,-13.686909963726645,-1.8177210573590334
829,1.9090146023071624,-4.1268954258863095,-13.152975861166574,-1.6406428367751236
830,1.5283238771037544,-4.583998405153513,-12.648783902335515,-1.5631262711638834
831,1.1237813992185626,-4.923912469675143,-12.18574285155439,-1.5043180413649273
832,0.6480972737966382,-5.147989560898061,-11.76627460901426,-1.4988246015898645
833,0.049531267747352725,-5.278530813620357,-11.383399000416269,-1.632902709385949
834,-0.6799734385964976,-5.338970884648449,-11.020472248813155,-1.9376627436748588
835,-1.4984832198536784,-5.340195399464242,-10.653986773584673,-2.3259284997873833
836,-2.3587060237569157,-5.277395905398779,-10.259750152375943,-2.70551618068051
837,-3.2285320317893493,-5.134694848607897,-9.819613058770564,-3.097760597839519
838,-4.077174895790287,-4.894497175557765,-9.329344280543868,-3.6023073285038776
839,-4.850012089300302,-4.540740675712404,-8.799480664400987,-4.272992434514438
840,-5.464529232289928,-4.056357794647045,-8.245889511893019,-5.031986320681632
841,-5.861106363613454,-3.4291206609121736,-7.6845394927715205,-5.758402953049047
842,-6.038648791752834,-2.6606340512042794,-7.133554072128082,-6.414024634109687
843,-6.05295472663904,-1.7635038495165052,-6.610750709340789,-7.073857986112428
844,-5.972258772264985,-0.7549814684562305,-6.127018697201724,-7.806707390729721
845,-5.821659955401773,0.3393885055511274,-5.685233877010191,-8.549526496784933
846,-5.59024036811854,1.476586764101769,-5.2851460978118,-9.178480158513368
847,-5.274925979743405,2.5929507970608876,-4.927918931751566,-9.653030490933997
848,-4.925727962350564,3.613583403927958,-4.616483657883386,-10.080153377143203
849,-4.622804989206884,4.469047950604288,-4.3520236658323155,-10.578023512639477
850,-4.405186668275107,5.1060706955093496,-4.132508966747692,-11.116511876977016
851,-4.264363202625007,5.490909684516297,-3.9562353707380353,-11.572470345061197
852,-4.195868036034701,5.614936249226722,-3.8278854710427743,-11.892283310134376
853,-4.241466431765041,5.4997896185195705,-3.7626216955490484,-12.177387981684364
854,-4.45403176189774,5.192315353744029,-3.782733985268214,-12.534175469574128
855,-4.826814065940633,4.75216643176149,-3.9099999284927374,-12.912644579871342
856,-5.299421204472936,4.240311502746503,-4.160049346028875,-13.173279928493297
857,-5.8271445784459495,3.709081874210097,-4.541316200289676,-13.252196051688237
858,-6.41276540505486,3.197246826783783,-5.05558415033116,-13.235768262829488
859,-7.061527286737312,2.7312697973386943,-5.694370858242273,-13.22174991862243
860,-7.730595783534154,2.3201102390480224,-6.437013170936743,-13.16562188943276
861,-8.348199883302147,1.9494300918518208,-7.255128279019334,-12.927350369173647
862,-8.890029800943005,1.59354145455659,-8.116174512061162,-12.455117031230992
863,-9.403741426710996,1.2334197971528718,-8.984833691508408,-11.85563620875813
864,-9.934280604248475,0.8616581640420595,-9.827542381430401,-11.251513517301266
865,-10.457364144622064,0.48000805960883886,-10.619812067275577,-10.655031609460996
866,-10.90307584461093,0.09862713244780064,-11.349377167545056,-9.990314434028189
867,-11.234322220611554,-0.2667118258916484,-12.0115898919285,-9.252052104821965
868,-11.46393856867347,-0.598059376839675,-12.598167231089523,-8.568378118997066
869,-11.597265967730324,-0.8748647293936276,-13.086826852018827,-8.064399723796907
870,-11.60034424640365,-1.075027535619099,-13.44046849724221,-7.740109827499028
871,-11.431734126401585,-1.1794650373676603,-13.61514311021804,-7.476752187798293
872,-11.102752907239198,-1.176088501667114,-13.570688299393984,-7.196145516803887
873,-10.675687135557595,-1.0665315261129948,-13.276636880349033,-6.942604249358768
874,-10.209235604128853,-0.8740861852401368,-12.718525759235225,-6.797137139156287
875,-9.736589842480953,-0.6427238428557147,-11.90657589287972,-6.781878984974229
876,-9.278407320814305,-0.42852096136703166,-10.876726255536413,-6.826210246639484
877,-8.871869625183136,-0.28873668609246783,-9.683689812677226,-6.881094647507978
878,-8.574821558154795,-0.2751483683983078,-8.389796124393056,-7.008150559525834
879,-8.440665759066194,-0.4226797173561433,-7.054599166394573,-7.327542253633651
880,-8.48716758115633,-0.7295871935278049,-5.725651947785409,-7.899926979254516
881,-8.679168429428739,-1.162494450935097,-4.430326395812763,-8.64085398347453
882,-8.964215850048772,-1.6848960811342395,-3.174906274235437,-9.406603907396486
883,-9.317716253747935,-2.273879769178593,-1.9514103529710063,-10.133835804461656
884,-9.759092729537501,-2.9190133487078174,-0.7469202016608618,-10.885130359003954
885,-10.322061804613366,-3.617977250157083,0.44966153273699466,-11.73048637852431
886,-11.000804203284915,-4.3436393670215505,1.6221735680703242,-12.561444443690373
887,-11.766325283551277,-5.1657433239470025,2.8011350425467976,-13.360558501020549
888,-12.58399173420052,-6.105391172828502,3.9782679725078562,-14.172350479244644
889,-13.406624133312166,-7.146209994989278,5.119935621292389,-15.046039304470888
890,-14.178190317518604,-8.245107493077011,6.180794083266781,-15.949292363589644
891,-14.845922270642923,-9.34151749411052,7.116794120203266,-16.775388792587265
892,-15.373953670458096,-10.368088935137033,7.896738688825546,-17.43915084954928
893,-15.755322785142194,-11.262107472966525,8.506731225791517,-17.944504814470648
894,-16.004976706256898,-11.974076783583383,8.948174259466885,-18.346478050300455
895,-16.136682147923,-12.474553748529116,9.236595780554326,-18.647303810744127
896,0.4099779213321633,-0.5612977049331259,-0.4685242408183371,0.8217194666313733
897,0.43326307648336604,-1.2178702579100293,-1.1654538411339166,1.1337011914817492
898,0.33286443439541064,-2.1281741162126706,-2.2129694460924476,1.4598107293812128
899,0.06347538737024674,-3.2693532526974707,-3.6251242073033945,1.749687182759487
900,-0.43145421818518304,-4.589314889648764,-5.3799213413084805,1.8737972324383452
901,-1.1616098366126588,-6.02046416099747,-7.4195979994384835,1.7532021038661765
902,-2.077347639368051,-7.488972500413545,-9.657227103916009,1.420009990581652
903,-3.106588736302049,-8.920875482909553,-11.988458130643549,0.9626958371476931
904,-4.193957570691494,-10.252270787343907,-14.307125849116897,0.41628469823571007
905,-5.300415370893609,-11.44553780761416,-16.52578206223571,-0.24145348940158115
906,-6.3685345263219855,-12.512186094973776,-18.604052841246514,-0.9755882560411776
907,-7.320266248755321,-13.4535141490333,-20.50045599093597,-1.6582697306483898
908,-8.122879540811406,-14.263309003889493,-22.196515575515768,-2.2200867053518665
909,-8.820814473555219,-14.926802884910293,-23.68642231865792,-2.736049129343638
910,-9.46753176215492,-15.433501303801302,-24.968397907483556,-3.2946834075542215
911,-10.064169183538022,-15.782588951386243,-26.044641238735526,-3.877419917880524
912,-10.580309927074776,-15.98307434477488,-26.92222445470474,-4.377676161405989
913,-11.015451525741788,-16.058401435939828,-27.61761100043394,-4.762424353204548
914,-11.41430749474585,-16.049681691139458,-28.16142218125453,-5.150318272797294
915,-11.839143800887816,-16.011306548253508,-28.593101809941267,-5.705420408398062
916,-12.331191188190775,-15.998547156013668,-28.951609852162633,-6.5115144289042055
917,-12.889071483360235,-16.049898774236585,-29.27025348644064,-7.522782280701552
918,-13.509523912206319,-16.17525092023993,-29.573109668174546,-8.682552567249338
919,-14.211988576415795,-16.36064046565587,-29.871680403445094,-10.019381788541466
920,-15.011510037339669,-16.57880487953639,-30.16272937738902,-11.59367124111466
921,-15.887745762790809,-16.789427816415774,-30.43188295210243,-13.390236842757737
922,-16.774442504110155,-16.94485362375019,-30.661540783378168,-15.2623691385116
923,-17.593553349100624,-17.00751550445648,-30.83233678004612,-17.04385156591653
924,-18.294217303830383,-16.957320930911088,-30.92072898613088,-18.677678460201246
925,-18.86313209705301,-16.787874319044537,-30.903351287532406,-20.228754492316607
926,-19.288238877925437,-16.49840079856709,-30.766066604757484,-21.75284503022885
927,-19.519568969649207,-16.08798608125628,-30.507297853019487,-23.168448941203472
928,-19.50298094137184,-15.56054634644111,-30.133566180383657,-24.336071343288655
929,-19.230001788594294,-14.921552117961008,-29.65422075639555,-25.206441427457563
930,-18.75532731177667,-14.161836987992068,-29.07537978781769,-25.869533350258525
931,-18.15923737689374,-13.26251534538757,-28.395124419636474,-26.421181629243314
932,-17.478067144584404,-12.220917025178096,-27.606680706374704,-26.819403941285593
933,-16.699738916372496,-11.062031562704028,-26.704096442399837,-26.943422183102694
934,-15.82762728976754,-9.831215166491424,-25.689324661835958,-26.74964211261903
935,-14.928317875993498,-8.586791092378402,-24.5800035542526,-26.355342838581183
936,-14.07528717566373,-7.395736460198284,-23.407036557976376,-25.89757863947457
937,-13.267141134878353,-6.328290185592464,-22.205613327684937,-25.366549723241437
938,-12.449218892230734,-5.4486713261709205,-21.006029344669567,-24.653908268491765
939,-11.591492333331292,-4.799901051371499,-19.823005560754236,-23.710449918748584
940,-10.727858608793062,-4.3903884324785185,-18.653923140285396,-22.63618681574696
941,-9.911492666512068,-4.19715922248066,-17.489205831042195,-21.553677532510232
942,-9.15197101406992,-4.180575993260412,-16.320124913784657,-20.448405664688618
943,-8.43241274529547,-4.296126537273581,-15.141680094827404,-19.212919943654402
944,-7.787733124642864,-4.50450655253332,-13.955576192375908,-17.83146293944995
945,-7.32676253237327,-4.772763016541157,-12.769563275284716,-16.453606446706065
946,-7.145606083471043,-5.0712043367873765,-11.595645987447904,-15.22964038913613
947,-7.2478398454004545,-5.377702218810603,-10.452342518682935,-14.170625798162233
948,-7.575953944723723,-5.679291840543682,-9.36906267125963,-13.202477381473079
949,-8.100981710117868,-5.969776943121082,-8.386739648372423,-12.32461290837366
950,-8.83979958969859,-6.24960707231673,-7.544224631523567,-11.65580849375419
951,-9.785765066674855,-6.522185182252263,-6.8579617690987105,-11.29150897224248
952,-10.861243272004984,-6.782252677791198,-6.313500443478689,-11.1823479496909
953,-11.953637212261944,-7.01206960974851,-5.875069737512259,-11.161320324676288
954,-13.003813266544002,-7.194891855486861,-5.504079344159504,-11.12214145766545
955,-14.023021029519072,-7.3246493856861035,-5.168914996874047,-11.102597789315267
956,-15.025028248669134,-7.401754054809446,-4.8487325746244885,-11.174115447134552
957,-15.981566977276813,-7.427217399787222,-4.534825381201588,-11.332765673664703
958,-16.832374115304006,-7.4023884549565375,-4.224775957429509,-11.478571516418624
959,-17.5330286477293,-7.334312022827242,-3.9187312168367816,-11.550514784124283
960,-18.073750787187727,-7.236850041934738,-3.622057152873484,-11.61863644730802
961,-18.462009673064177,-7.123016752397781,-3.347750485950264,-11.8125903564895
962,-18.702798510689163,-6.999543420661947,-3.1163355691028185,-12.201648891421492
963,-18.794282408909417,-6.868939383716565,-2.953491925518545,-12.7212612021848
964,-18.757356642728116,-6.7282841529577215,-2.8817276102727383,-13.268932623154331
965,-18.644453608303685,-6.566941578682961,-2.907472832836917,-13.825737012637378
966,-18.52252618605042,-6.374136969203087,-3.016474229887973,-14.477201921715293
967,-18.449217687208392,-6.152870663737914,-3.1865534727315032,-15.307304467840018
968,-18.448003942876134,-5.930139311057474,-3.404773427743784,-16.268884857383803
969,-18.513566221145034,-5.748140727271607,-3.6668663992744284,-17.240154649999116
970,-18.632845663831024,-5.64227712548992,-3.9625525460006874,-18.164313241606617
971,-18.809513832312327,-5.628031926398023,-4.267271944645505,-19.10758938764521
972,-19.04365705592095,-5.699966559914678,-4.546771395944979,-20.13632130895474
973,-19.281898743625533,-5.834582069348254,-4.767007049325966,-21.177661478276036
974,-19.43072969542863,-5.993084495121028,-4.900740028274093,-22.068434068294668
975,-19.414041201308635,-6.126165349385399,-4.931222587265902,-22.690821458562617
976,-19.21624678964384,-6.1838057551553955,-4.854480402497364,-23.06617665677719
977,-18.859459248126228,-6.127498674715759,-4.676811133735853,-23.24549551882484
978,-18.347621642710507,-5.940309639308077,-4.410057954821894,-23.1639510303439
979,-17.66913974488927,-5.635042563161884,-4.067576663913198,-22.694041527675154
980,-16.855580932408408,-5.251124947090447,-3.6625070314454313,-21.800890198069332
981,-16.009435639207837,-4.8328117489999,-3.2096343347131397,-20.625141218176335
982,-15.243720234025448,-4.413236502602945,-2.7268011060772146,-19.336019877699417
983,-14.600787731213362,-4.0133226832365025,-2.2300861943081123,-17.966417563463626
984,-14.046035161744621,-3.641654760910395,-1.7247462305601382,-16.46474673710619
985,-13.541270073462309,-3.2969054493270864,-1.2046897548128204,-14.868375607680967
986,-13.092875922084207,-2.9739035602134227,-0.6645747951908481,-13.36072813502471
987,-12.709177109976501,-2.6727464178549205,-0.11107882969744894,-12.103311238549876
988,-12.346589402810539,-2.3970075552893846,0.4355950986271774,-11.078070195778963
989,-11.930364251266635,-2.140124232579164,0.9497278055421837,-10.124793474286436
990,-11.440392423573932,-1.887170311054575,1.4113609568881902,-9.134736108558235
991,-10.941446937706992,-1.6282180216578326,1.8101396305785027,-8.141699614462796
992,-10.509949583879802,-1.3637702868224615,2.1435389898961916,-7.203731768592831
993,-10.169739873422717,-1.1023196471853522,2.4156825621631954,-6.292073733147064
994,-9.906832894320404,-0.8558542809180251,2.6363184979014647,-5.308117699446501
995,-9.725010096734753,-0.6390232095846571,2.818073624470886,-4.245321799919534
996,-9.651806676497344,-0.4721257299044638,2.973568213743635,-3.2552014180908153
997,-9.701403567165636,-0.3834296560437205,3.1142106298352226,-2.514630847482484
998,-9.851560359680695,-0.40869439201442775,3.250001160159544,-2.0993258641558548
999,-10.048745736334492,-0.5828171440839838,3.388496561000735,-1.9598880370902367
1000,-10.257323181833613,-0.9253592265182637,3.5328439931170745,-2.04163399800083
1001,-10.487973980581337,-1.4337924103937056,3.6826820523834454,-2.3660384220874504
1002,-10.77142564343848,-2.0862207362258753,3.8336681668397525,-2.9888082108477487
1003,-11.111997824472759,-2.8466060993210305,3.9750681352751958,-3.9018763963439707
1004,-11.468244518704475,-3.667832548505614,4.096584386744875,-4.965870082893402
1005,-11.79230977488678,-4.496938268413728,4.197573451266171,-6.015318091860252
1006,-12.057262905716385,-5.292613735773398,4.285766850673978,-6.982120709529128
1007,-12.250010416089527,-6.030226535258686,4.375000994247371,-7.9059538525868085
1008,-12.35210186676533,-6.681656692929847,4.489100038800108,-8.817253537191359
1009,-12.331420178910959,-7.210637060670411,4.660538918009717,-9.622144353166153
1010,-12.166960713440984,-7.5927532176029935,4.9213168171425865,-10.174136844396724
1011,-11.86562899669972,-7.827272485294951,5.294741762469471,-10.411940876016345
1012,-11.468087934807304,-7.931607225706275,5.789168506946266,-10.423752412614304
1013,-11.029865917917709,-7.932277702589399,6.393564087196932,-10.330877685516544
1014,-10.588298721376788,-7.8752829444572825,7.091884028282442,-10.159216302447666
1015,-10.122544141392574,-7.777070079163933,7.804729570535301,-9.797654673098128
1016,-9.649308670715605,-7.658653011243049,8.458904956418014,-9.263590584188888
1017,-9.202230116508899,-7.538001838855574,8.994595123018284,-8.63813950234556
1018,-8.793160537021846,-7.4263095295413555,9.372337489788578,-7.959972913793086
1019,-8.40297590178493,-7.3292820638207195,9.580202822784768,-7.199858370204982
1020,-8.012438171974495,-7.245366664415518,9.637856323606366,-6.344964320996713
1021,-7.635835166163656,-7.1672187848536355,9.587060547397956,-5.482624726494281
1022,-7.31243731446667,-7.090212961221986,9.473103982317223,-4.754481999766275
1023,-7.068459056258196,-7.0158067598726666,9.336834036889318,-4.221612390315789
1024,0.31477421898208274,-0.5125503703381726,-0.528324552035172,0.7062709744215722
1025,0.1442514177778806,-1.0751754076642217,-1.220200542662253,0.6658736978529247
1026,-0.2520915687187879,-1.8730579822658382,-2.2355015124083955,0.38735354720839876
1027,-0.9592359227051268,-2.9178516651400543,-3.597242481382983,-0.21499285260370848
1028,-2.079697885489158,-4.191623479420466,-5.305138102797106,-1.277260771673037
1029,-3.660696716320879,-5.646084015076643,-7.332326353931212,-2.8803330390714583
1030,-5.662827630345422,-7.219051273409512,-9.628442035825222,-4.979032644183051
1031,-7.988576051511237,-8.850597376177864,-12.129979393210647,-7.440532022234169
1032,-10.53151671220725,-10.489126575301041,-14.772656770118788,-10.150167551312043
1033,-13.194934845877961,-12.098604948976842,-17.505335585054336,-13.037256694192202
1034,-15.885648143313903,-13.674466020517665,-20.309988791511028,-16.007032156204364
1035,-18.53054186958135,-15.185073356466235,-23.1469067910471,-18.902279365789244
1036,-21.118194908697763,-16.584232504650103,-25.97659594371057,-21.613799303836828
1037,-23.676852060495822,-17.814620853745787,-28.762888074039378,-24.163260432337513
1038,-26.19146159169308,-18.820431051624055,-31.47403838775207,-26.610296526345692
1039,-28.58395220283403,-19.561670945419955,-34.083597772531135,-28.94272832804827
1040,-30.759317830424983,-20.019551609458244,-36.569926652108855,-31.054880481420533
1041,-32.65149467640618,-20.192121598154298,-38.91159094429814,-32.86905901433778
1042,-34.21634814019476,-20.093575446787924,-41.08416013318463,-34.426452874913515
1043,-35.38687297715561,-19.753421158080066,-43.06170771236182,-35.83759080355451
1044,-36.06119441809592,-19.2107259654362,-44.818891955812916,-37.164604161591356
1045,-36.146316354026375,-18.518389819619905,-46.3322295094602,-38.33184706767694
1046,-35.62794401809858,-17.745475786086985,-47.585106357543616,-39.22540785754101
1047,-34.57753354882271,-16.96153664258861,-48.573216486974694,-39.83159263041622
1048,-33.096239447323974,-16.223159195319994,-49.30214499320126,-40.25432284993116
1049,-31.25961116591787,-15.575809533934176,-49.78300538373942,-40.59480286567729
1050,-29.101011053194167,-15.055120895192909,-50.03125818387698,-40.831255172971396
1051,-26.650092774571085,-14.679171099320163,-50.063765494781,-40.893150103266684
1052,-23.968923442854848,-14.449693855147848,-49.89234673339384,-40.79414272080557
1053,-21.159748088134183,-14.363049840848062,-49.51842504531173,-40.66798922168775
1054,-18.351509982809578,-14.413746329355876,-48.93331401950056,-40.633964030084876
1055,-15.672471985710262,-14.593336769564747,-48.12596338175167,-40.66139050772868
1056,-13.229572522392315,-14.894193600108315,-47.09229459834013,-40.6296582514825
1057,-11.118221486889155,-15.314901653364556,-45.83733161001386,-40.470967448196994
1058,-9.456464110245522,-15.863072830638762,-44.37379858270401,-40.25955486218492
1059,-8.361633644269677,-16.552636383249425,-42.719739860810556,-40.08912968284027
1060,-7.8808131919772695,-17.399984979193107,-40.894486198013176,-39.911298297821446
1061,-7.9715275593817925,-18.424899392815316,-38.916969468867535,-39.59151384248733
1062,-8.539828438975578,-19.64237377291866,-36.80850586805344,-39.08062131812031
1063,-9.495999565753799,-21.044667077268908,-34.594811908134346,-38.487926316746055
1064,-10.755801212119202,-22.596617070426248,-32.29887341936453,-37.9205751143187
1065,-12.198720406331006,-24.242219730938533,-29.933791144929582,-37.32598829201234
1066,-13.686925776588042,-25.909760648885655,-27.50527752080218,-36.547980606558255
1067,-15.129481710397679,-27.519615548993865,-25.01807287024379,-35.509254536836316
1068,-16.50775890277464,-28.996040063613624,-22.483339066710702,-34.29982156349562
1069,-17.829799706300697,-30.27561058972428,-19.91873649366963,-33.03123718057212
1070,-19.078266407010634,-31.31070774947952,-17.340723092202595,-31.690264668785282
1071,-20.22531430356068,-32.076252779333416,-14.762866896809165,-30.182455719168985
1072,-21.27887931836825,-32.56957037192849,-12.199383255925287,-28.50411239724364
1073,-22.285545155347798,-32.7987147561622,-9.666521249337205,-26.806954784182185
1074,-23.289389798723178,-32.77600797297738,-7.184941560662645,-25.25510070461558
1075,-24.29967164519499,-32.51673957556306,-4.783652715676372,-23.88666632328899
1076,-25.298712374393393,-32.04116272585293,-2.4955767250906904,-22.61938434521899
1077,-26.292293613225404,-31.380492128615444,-0.3477679972642482,-21.413207459726337
1078,-27.32127098733641,-30.576843523833706,1.6436717767932305,-20.344451296979706
1079,-28.40217388421794,-29.673978817768635,3.474935570044089,-19.498630843195365
1080,-29.486787483107996,-28.705817768201268,5.152391319477148,-18.864631419881825
1081,-30.488957460209363,-27.695625674354954,6.685722731006888,-18.303222425467943
1082,-31.348669762558853,-26.665608252249722,8.081972227468713,-17.68726219329203
1083,-32.047707362677116,-25.64008402907252,9.347520504287038,-17.02574431109404
1084,-32.578362016630244,-24.640831668312273,10.493285609657342,-16.410344260404106
1085,-32.919150443180676,-23.682260556364536,11.535096716056728,-15.8911281294945
1086,-33.03095443975809,-22.768674616711827,12.485946165155207,-15.408671507908332
1087,-32.89578569070053,-21.89290031133838,13.344816581126896,-14.904469408762468
1088,-32.53498531336552,-21.03683978003279,14.097423915558165,-14.423923098749082
1089,-31.98686115950666,-20.17857140265605,14.727458251546782,-14.085297787045446
1090,-31.293159773449258,-19.300471203933228,15.222236812124246,-13.96658782843779
1091,-30.489777483934837,-18.394381390990826,15.572286145103982,-14.01611016282595
1092,-29.606164025350445,-17.466293001586813,15.76939287859944,-14.134205746026211
1093,-28.681824977632036,-16.53406219054683,15.805255568070951,-14.309032561643694
1094,-27.78545263078555,-15.616167287811525,15.672561512506276,-14.652890259389762
1095,-26.98273686504769,-14.718029148359026,15.369483648772153,-15.259924914751574
1096,-26.28669886661081,-13.829322269497851,14.905267960592507,-16.0566250809942
1097,-25.677114531389655,-12.934888772205026,14.300858970273282,-16.866693570864193
1098,-25.146717035718012,-12.021085625687066,13.584412799772046,-17.58107571783222
1099,-24.719809957459283,-11.073856579456969,12.786161284495508,-18.243022374143287
1100,-24.414962003460275,-10.081765688944472,11.937321785970402,-18.90133846973318
1101,-24.18561456594732,-9.043980992081005,11.067745911465543,-19.460370526167544
1102,-23.930904111447152,-7.970197033351292,10.199747015726436,-19.75436717610031
1103,-23.57443161594151,-6.874428980824241,9.347739049508032,-19.70959051490919
1104,-23.12060462070712,-5.773673472363929,8.523113728387022,-19.41857929645443
1105,-22.61033585225817,-4.687257057361515,7.736877934493341,-19.001431210758916
1106,-22.04736224627924,-3.630598623504838,6.9993456440402575,-18.456794143052274
1107,-21.399918926482304,-2.6106415118149426,6.319804039015285,-17.701132033694492
1108,-20.651908232923105,-1.6267505258354775,5.708141465560926,-16.711402238215303
1109,-19.829982782985727,-0.6692695216365464,5.177104286400652,-15.591534082733949
1110,-18.973958966364222,0.2750202706363919,4.741231270674709,-14.438947989999123
1111,-18.092719647581404,1.206765276847499,4.412780834887179,-13.212186143667832
1112,-17.167414277346936,2.104785167256456,4.200680927036068,-11.784732323221368
1113,-16.207204125286598,2.9272494807836837,4.112037355101417,-10.128426062562705
1114,-15.270525215319982,3.624766279196819,4.15258222444609,-8.388637274808012
1115,-14.405388960673744,4.157297838713512,4.3250289528022945,-6.7335442638445135
1116,-13.603716554214852,4.500914679248219,4.625780246332325,-5.204212582870034
1117,-12.838047275719155,4.648696814929389,5.043233038547116,-3.725070252863526
1118,-12.124209476751263,4.612728481792174,5.559404016765437,-2.2715907190508364
1119,-11.512368690145074,4.418059259831853,6.153624104384482,-0.9485475723329602
1120,-11.03209214004355,4.086613531236445,6.801442296061531,0.12486697872994995
1121,-10.663409028170074,3.6334275342371583,7.472194911127998,0.9249291855742339
1122,-10.350927638101913,3.0742214249994166,8.134998899823938,1.544807097555676
1123,-10.062359188030705,2.426283388158745,8.765580535411955,2.0613453819719965
1124,-9.801353358226748,1.7069246736982868,9.347428663187785,2.4327342295850283
1125,-9.564624285456254,0.940786698062821,9.870315039284376,2.565440632557789
1126,-9.327211879084356,0.16666002978246816,10.327742567716498,2.4281383578566302
1127,-9.0589063934317,-0.565683855265073,10.715412929798582,2.109015445056586
1128,-8.74875527688791,-1.2017501271452884,11.031309783500502,1.713062890611288
1129,-8.410456521179489,-1.6881510996168156,11.275765493190187,1.2497117326499714
1130,-8.07068114152105,-1.9791999650377938,11.449248731632492,0.6401854384990917
1131,-7.739011579653255,-2.0467294473537208,11.54828502129267,-0.16217387403846556
1132,-7.385822060469511,-1.8902081697013027,11.564617415658887,-1.0688321933387133
1133,-6.965994747120711,-1.5314454981230063,11.490194270192434,-1.94442123908686
1134,-6.450058665629662,-0.9975347137291909,11.323763590617153,-2.7419260005300417
1135,-5.850519068931372,-0.31579755422849975,11.072413452786048,-3.53828013367622
1136,-5.208659978405943,0.4859793694683035,10.74891179526002,-4.40659497263912
1137,-4.54077520109669,1.3845174931636977,10.371956197667572,-5.287462612267437
1138,-3.825058793824892,2.357975338610506,9.967248637213917,-6.042926659149769
1139,-3.048041071870503,3.378570016476021,9.560803741208929,-6.581448956535273
1140,-2.2519202030368053,4.415912205587483,9.170976386211382,-6.93599952644231
1141,-1.4997736039462217,5.444992989403741,8.810422205083892,-7.149597508149024
1142,-0.8501315188016743,6.417249371187937,8.48262751744045,-7.210514750406389
1143,-0.18807850478510058,7.366800304888448,8.194077306079446,-6.879553552711149
1144,0.5416799707742426,8.294918289777247,7.948712779221545,-6.126648301409082
1145,1.3491714437996496,9.184896192318046,7.747159441329035,-5.054446310385853
1146,2.2220364803235264,10.0134043757922,7.586918967245819,-3.753797339246297
1147,3.139403595500811,10.759396451510343,7.46386133074003,-2.258409101591737
1148,4.066751423392958,11.409853190866434,7.374403964601017,-0.6282162692745228
1149,4.937025776963127,11.960365764791815,7.315561686972934,0.9631016806818968
1150,5.667960028168865,12.409489844971256,7.28230566625164,2.289283061950474
1151,6.212216401800648,12.751700920210682,7.267165586649313,3.237913942846879
1152,0.03699380711605349,-0.6056773109738174,-0.070213417673469,0.6919782274505557
1153,-0.32263855906402517,-1.1398752235565017,-0.19601679521567653,0.9698622415986551
1154,-0.9291428161276954,-1.82830551837172,-0.4021576171930026,1.2412211240823894
1155,-1.8298006907181126,-2.652457736171885,-0.7055671444683858,1.4533312692800653
1156,-3.083509952363199,-3.5945837879396256,-1.1314174207652985,1.4673837405979837
1157,-4.716750107476921,-4.636754477408515,-1.709627627387634,1.1467241563931398
1158,-6.705800707016919,-5.758272348289494,-2.462465058617589,0.44530070062033134
1159,-8.992194075204964,-6.938038073400798,-3.3954762131992884,-0.6069167519532676
1160,-11.509579269939682,-8.159448911608635,-4.497114639621661,-1.9885806153454955
1161,-14.200245029133464,-9.41714707194465,-5.746163481726402,-3.7180143293541317
1162,-17.019493725660585,-10.727211611903698,-7.117717516831038,-5.795278026851115
1163,-19.918302760861316,-12.061830850341307,-8.570213091901254,-8.139133920766689
1164,-22.861265414518172,-13.37391170817309,-10.05442892863847,-10.672802793522479
1165,-25.826022252798428,-14.612688544093425,-11.523493446096483,-13.408979028245875
1166,-28.78804123773179,-15.734916097329927,-12.938171805339339,-16.394013953457463
1167,-31.7002370911063,-16.70846409938505,-14.268026877797338,-19.607953247443366
1168,-34.48343378343803,-17.51365502549011,-15.49326256634755,-22.91248868293285
1169,-37.065057661427744,-18.145332805123857,-16.609158772517148,-26.164308893600733
1170,-39.41488634392201,-18.61584569862286,-17.631786771353422,-29.329668519974497
1171,-41.54430542677587,-18.953756119630654,-18.58855988909543,-32.45023356387394
1172,-43.465033085777065,-19.196883715569587,-19.49650446984254,-35.52387381335612
1173,-45.146238093054414,-19.380270833392807,-20.351462658212395,-38.424745705700595
1174,-46.54319952091695,-19.526492162198483,-21.137306228004313,-40.99458390586066
1175,-47.63755360414166,-19.64624353777449,-21.843531393042387,-43.17848675100202
1176,-48.44834787853947,-19.74161170649829,-22.465703083764755,-45.05812942185711
1177,-49.006760530826476,-19.806746758447204,-22.99238000894294,-46.71864503614963
1178,-49.31205496202982,-19.83069664691056,-23.403019506596884,-48.106740277931735
1179,-49.334047039535584,-19.80194023500496,-23.679149963001827,-49.08576356106678
1180,-49.055729465239864,-19.708510204322316,-23.814478559524805,-49.59637918197813
1181,-48.51552689820303,-19.541019263557054,-23.81538361197379,-49.751759940631445
1182,-47.7787667448193,-19.301996180062616,-23.692514068414287,-49.690710209369406
1183,-46.864133182270145,-19.009974457819766,-23.451479365500898,-49.39708889732896
1184,-45.74121467347307,-18.69809213912691,-23.09226803293018,-48.75620795666994
1185,-44.39884010148418,-18.411594588808047,-22.615275152165474,-47.71674228039534
1186,-42.88801303319806,-18.201017648379104,-22.02636916996982,-46.371192908055136
1187,-41.266736851993016,-18.107541296818262,-21.33832937737888,-44.837447004018955
1188,-39.524905990837816,-18.146253456531714,-20.574600902271026,-43.122900423470355
1189,-37.6107577897429,-18.30173810671759,-19.77559093737143,-41.15759443038896
1190,-35.5254648364015,-18.53907800632995,-18.992699092475387,-38.935943533877534
1191,-33.3543333442424,-18.82115563562394,-18.27343645451835,-36.59502643527506
1192,-31.200487901320155,-19.11840323826304,-17.65396875153732,-34.28811645581076
1193,-29.120528897841105,-19.405398211578664,-17.1603099482339,-32.05437755659424
1194,-27.127790296827033,-19.663641016454925,-16.81192196771025,-29.864211865528645
1195,-25.250004384151264,-19.894545040147918,-16.618730210453883,-27.77345725512826
1196,-23.555083741402733,-20.11485600058986,-16.573423346308022,-25.969564378840065
1197,-22.09708607986674,-20.33861018939255,-16.65302501812037,-24.609374882010332
1198,-20.868319623651068,-20.56880089397626,-16.828629807994908,-23.677133704499155
1199,-19.82449178706919,-20.794847986173643,-17.072360910739263,-23.02409475748412
1200,-18.956450558310596,-20.997083647348585,-17.362131978671353,-22.56254564422099
1201,-18.304804958714264,-21.15478495802828,-17.68326084464942,-22.340378658574377
1202,-17.90194507767286,-21.24592792798531,-18.024379475516323,-22.41436184370775
1203,-17.73000304047247,-21.245536831017777,-18.37335260465189,-22.745802928671186
1204,-17.725841515314936,-21.132217232273604,-18.716231976585554,-23.187200265994633
1205,-17.84044171026049,-20.90032504736169,-19.038258257431483,-23.614422740752424
1206,-18.065193873867994,-20.56463706167194,-19.325110965121816,-24.03590813346036
1207,-18.388655036522373,-20.151450213985626,-19.563741085315087,-24.53460783136279
1208,-18.76621141706891,-19.68574863906512,-19.743709371021883,-25.13947851177725
1209,-19.126002880252063,-19.180558417180208,-19.857905097815756,-25.75360505048477
1210,-19.407822133389597,-18.63269970950895,-19.902595817845327,-26.26120386022153
1211,-19.5929790842963,-18.027096565081976,-19.87755095365405,-26.644949194097727
1212,-19.703029756245073,-17.340706819517443,-19.785510796659405,-26.9784021138846
1213,-19.761276301450806,-16.55342987818682,-19.63104240716126,-27.311832037280933
1214,-19.755630801570835,-15.663284835958015,-19.418137267760564,-27.571896939353852
1215,-19.657956534854502,-14.680861993207689,-19.14434897682136,-27.637253887786397
1216,-19.45369628214427,-13.61504547243705,-18.796111965089544,-27.45801797660828
1217,-19.160685130581214,-12.477503455902287,-18.354844130052967,-27.095350938169318
1218,-18.806406120924866,-11.296990246480917,-17.808066410740672,-26.61440806055135
1219,-18.385095124799637,-10.12102714181771,-17.15251683596803,-25.956992003018094
1220,-17.868151202587928,-9.006133586906541,-16.391314983090307,-25.00119602057387
1221,-17.243277689736964,-8.003134313181803,-15.533439879650386,-23.70986286473652
1222,-16.544046472091537,-7.141392454471068,-14.595489951719188,-22.211632606129378
1223,-15.810718598484993,-6.425964791510767,-13.602444196345571,-20.662594347918866
1224,-15.03144600929153,-5.845347052628448,-12.58596895092479,-19.07818768826155
1225,-14.159415288318995,-5.3777025953661,-11.58237619087936,-17.38233276565601
1226,-13.171539761354406,-4.99861015040555,-10.632105136284355,-15.559799078311976
1227,-12.11046427578116,-4.689303630481147,-9.774375703493021,-13.73923091988936
1228,-11.045071538549436,-4.439626855282591,-9.0352272139346,-12.051083101398731
1229,-9.99766331498759,-4.247521640341282,-8.423011496500774,-10.467188942137629
1230,-8.952850440646065,-4.116407449891529,-7.9373716617660355,-8.864404758882444
1231,-7.9291903396363255,-4.052350419511329,-7.577716967562238,-7.199611003520728
1232,-7.00262180441445,-4.0637556376066035,-7.34390457473345,-5.585168290231054
1233,-6.243729297649869,-4.156675472286098,-7.2324717060557715,-4.149364012778365
1234,-5.657480637786359,-4.321636946426581,-7.229630173359421,-2.8876198072010015
1235,-5.19945401068456,-4.523842780062456,-7.3077003131796605,-1.6978087161292232
1236,-4.846177312659495,-4.70871486915565,-7.42884044414568,-0.5537276223630525
1237,-4.619349866510703,-4.820505791732194,-7.550940876893171,0.4269895303337328
1238,-4.529547937488029,-4.818444239084222,-7.633866650994863,1.132874467429812
1239,-4.526769322085088,-4.680898367146621,-7.644194848442691,1.5916998385331593
1240,-4.525308480651009,-4.399945187527883,-7.558476665335779,1.9379008181466877
1241,-4.477575392301104,-3.977080679970597,-7.365520756503582,2.2371760867194648
1242,-4.389999595196445,-3.42308728468637,-7.064807104109515,2.417924686777051
1243,-4.275109823981598,-2.7504076002026823,-6.664540383093282,2.3920794352273544
1244,-4.117089510863868,-1.9675719178328483,-6.183919639688606,2.1629469665413827
1245,-3.876072427067836,-1.0848635417383412,-5.6553683981710545,1.8383917793701932
1246,-3.5382345405334723,-0.11914344982050099,-5.116885670980163,1.4895920244106085
1247,-3.129099809654366,0.902441703758339,-4.596227201676767,1.069129886103462
1248,-2.6728835555968717,1.9443764977075235,-4.104522516896242,0.5019501376007712
1249,-2.167728910301099,2.9749363116888246,-3.6420113054927747,-0.20939133819816136
1250,-1.5878497479161202,3.9733634418980817,-3.2023111606994203,-0.9399403094372052
1251,-0.9162878260281744,4.927660797397462,-2.77219997770234,-1.565034335256092
1252,-0.15986068146062327,5.828617705995304,-2.332954663203386,-2.0801793101331674
1253,0.6673559170757744,6.666888988962484,-1.8675623135135933,-2.5628308762410366
1254,1.5602177345246355,7.437903544637429,-1.3706920508583702,-3.053776207056422
1255,2.524423045983563,8.146265264458643,-0.8511441043357617,-3.4808168053689075
1256,3.551431093723792,8.799048808125935,-0.32550991627725007,-3.742779763512222
1257,4.605584632907405,9.390799059652608,0.1859663698303412,-3.8280751239151374
1258,5.627882237171014,9.896913807592295,0.6592046996981987,-3.8473816745406144
1259,6.562343596826186,10.279046297447126,1.0674571294831379,-3.914501454230233
1260,7.400628863255005,10.492767750295695,1.3861609570121036,-4.00554803173955
1261,8.174572183738432,10.498056221327044,1.5983876170640927,-4.012891505185004
1262,8.899997894615954,10.272591165776364,1.6949503810312456,-3.8920196964370595
1263,9.539055393144555,9.818662127383924,1.673924102791813,-3.730377929542597
1264,10.042016076719056,9.164032909233045,1.5423543827341126,-3.617980120658327
1265,10.41256138785225,8.356006839837747,1.3148950427248207,-3.5035620253366515
1266,10.703654616731425,7.444817714116969,1.010496614218152,-3.2542641243485217
1267,10.961817208132091,6.474629659708671,0.6489478216986586,-2.809450766742847
1268,11.18317990681535,5.487807681656887,0.2483307831686144,-2.2585299681092597
1269,11.344319328791089,4.527939161391181,-0.17446901425756417,-1.698806807074531
1270,11.453774390936847,3.633226926935563,-0.605386533140971,-1.136496158227121
1271,11.563311096393754,2.8449726644328686,-1.0360883294762901,-0.3717872683331154
1272,11.691138254982052,2.185838603381989,-1.4511028213481687,0.6101777445423946
1273,11.832120736412394,1.66284086456126,-1.8341131819631764,1.7088757295189936
1274,11.985371665181376,1.2733979903524661,-2.1727159646430847,2.8544049842691024
1275,12.165897418692175,1.0081254156159938,-2.4598929524019315,4.059183694693756
1276,12.384614694212685,0.8507052881346568,-2.692619348124203,5.333910329931796
1277,12.61263239315797,0.7781167385243875,-2.8712686762200144,6.574649370768982
1278,12.795751196412441,0.7646202477533692,-2.999149854082782,7.607975072073106
1279,12.911730861331081,0.7872417450698934,-3.080621329282866,8.354704116902457
1280,-0.09800396321614449,-0.6317108629987254,-0.31172274497117763,0.7557212523478691
1281,-0.18043440508995037,-1.2822773774425107,-0.7039795715110402,1.024335936293249
1282,-0.28158281868077534,-2.1804179798618892,-1.2859365899765547,1.1885771720580065
1283,-0.3944164297807256,-3.3241909560456913,-2.076503455956936,1.15817957975889
1284,-0.5099676013231954,-4.69646629081591,-3.0775731676609785,0.773635302878645
1285,-0.6184362742673174,-6.2670584204558955,-4.271009431248067,-0.1066624200610844
1286,-0.7105110211309918,-8.001061927424765,-5.620074723594575,-1.5092237417764887
1287,-0.782731918558036,-9.86114271595486,-7.074980428051476,-3.3523211941207585
1288,-0.8359797449365987,-11.807564801396826,-8.580117670436632,-5.540499077811227
1289,-0.8695556576684556,-13.809016085071498,-10.089023165467928,-8.024095809808859
1290,-0.882227899114534,-15.864405717929293,-11.588301262122986,-10.755924234955286
1291,-0.8586681446959357,-17.93355101095217,-13.067124296343362,-13.625358198136142
1292,-0.7778385516305857,-19.95602539773542,-14.523312801957182,-16.532843809974715
1293,-0.6413910692648338,-21.86142664575632,-15.955635209947514,-19.478137760740985
1294,-0.5037666475168003,-23.588659733887678,-17.358745433897596,-22.52670675351426
1295,-0.4574784105169149,-25.098341486579187,-18.72237609243019,-25.70003709637346
1296,-0.5860232354911119,-26.374383304614895,-20.033296568725124,-28.89258891574622
1297,-0.9406043118440004,-27.41817249342675,-21.276571608380475,-31.94886982860148
1298,-1.554213534769783,-28.242019384331144,-22.43391586619615,-34.79006737914065
1299,-2.4772292956917856,-28.863581738237237,-23.484746108269867,-37.44865181306118
1300,-3.7602306098586067,-29.299279196766506,-24.41090258853098,-39.947844649923574
1301,-5.393096678393107,-29.561632587729505,-25.19823560107904,-42.178940132840815
1302,-7.288961287177431,-29.65789988012682,-25.83722860490029,-43.9772803003624
1303,-9.32623637731331,-29.588607071879434,-26.322489730385772,-45.267894094677715
1304,-11.421857626216225,-29.354883055434968,-26.650469414334975,-46.13416034527481
1305,-13.535829520299842,-28.968752563836066,-26.820323429459823,-46.689854042041354
1306,-15.612509446694123,-28.4523765549837,-26.833751039087996,-46.916671742134604
1307,-17.57229678850437,-27.833643482355868,-26.689760888938533,-46.7091377779701
1308,-19.36191002709118,-27.14455364615227,-26.383430266398324,-46.03258657079672
1309,-21.006488112215116,-26.417196346975267,-25.91645471786082,-45.01323179341789
1310,-22.57021319980196,-25.679081601238916,-25.308961616039714,-43.8078057995828
1311,-24.07191044900037,-24.951319689599558,-24.599441059802864,-42.44241104547373
1312,-25.484532881817607,-24.25028545640867,-23.834368397420093,-40.851988251937726
1313,-26.799046965135346,-23.5863596545242,-23.05439150849977,-39.033309487886314
1314,-28.057234117859245,-22.960487271264885,-22.28340446171462,-37.115885334448784
1315,-29.300707381403985,-22.368976677088046,-21.525499064634985,-35.22770870762993
1316,-30.502831696491864,-21.810762208488608,-20.770743986855543,-33.3604680931469
1317,-31.585215009563314,-21.282306179615116,-20.004765320052385,-31.421885316300955
1318,-32.50303394903761,-20.76806815178185,-19.21639192645122,-29.40699638880102
1319,-33.27903162541648,-20.245839757602084,-18.40269986088465,-27.462341397104964
1320,-33.94503383991289,-19.699747099197978,-17.570045937528196,-25.729311888657524
1321,-34.483257177231,-19.12460700226321,-16.730197601838814,-24.199274145598825
1322,-34.84508591756607,-18.521616501386,-15.89621028597442,-22.755532760950402
1323,-35.036252177048674,-17.890970076933634,-15.081683773573847,-21.356527961072565
1324,-35.13479004172525,-17.23215068630856,-14.302434810493823,-20.098339743753968
1325,-35.20889433416484,-16.552252719833845,-13.575891513034009,-19.079822009843955
1326,-35.26704628228991,-15.868197536092591,-12.91537465701928,-18.288048039112237
1327,-35.28121922802928,-15.196765362910606,-12.325044955830819,-17.5980380095968
1328,-35.253419230306086,-14.541039278266316,-11.805958414036416,-16.92758031618379
1329,-35.23269923557681,-13.890903208979108,-11.366597767336446,-16.330748337518575
1330,-35.25404199902324,-13.238688628322555,-11.022187641620846,-15.907482544547241
1331,-35.29561850563596,-12.589684110773641,-10.787919390413466,-15.690030752143805
1332,-35.293278467150735,-11.958133569738902,-10.673717708069796,-15.599638410464744
1333,-35.192239398511326,-11.354949254305613,-10.67760575066293,-15.54876006894695
1334,-34.96925529053513,-10.782435280478403,-10.779578575896961,-15.538191797862869
1335,-34.61873792369104,-10.242712379947871,-10.942726104804564,-15.642939262847257
1336,-34.13338895514186,-9.739269426407605,-11.121665251953326,-15.90593828512001
1337,-33.493176974490005,-9.266510045770055,-11.272506997695428,-16.240653443440564
1338,-32.68926607983899,-8.808002545495851,-11.3608369807329,-16.520134313771457
1339,-31.745859921040896,-8.351515218365972,-11.36423979577516,-16.701493293139354
1340,-30.72489730057832,-7.906228960243622,-11.269906032234895,-16.84345205520068
1341,-29.6910487151591,-7.497845353299196,-11.07225779292495,-17.001954550473464
1342,-28.659572812067587,-7.148869988810108,-10.77162776282504,-17.118634521268838
1343,-27.61086553749611,-6.874034235958445,-10.374782228566033,-17.075936024750273
1344,-26.536206299754312,-6.687164752747624,-9.893850747168567,-16.82902366340159
1345,-25.464108793214315,-6.600465862886481,-9.338138659694179,-16.472631154530465
1346,-24.426595382558997,-6.6178796609562225,-8.708435511846494,-16.11414246088109
1347,-23.40818301263209,-6.730070928410376,-8.004065228667082,-15.728021036123327
1348,-22.369603228883864,-6.914882777294037,-7.23214208549419,-15.209248007429863
1349,-21.303144816071626,-7.143018591080801,-6.408773192258934,-14.50980956995094
1350,-20.25997016384151,-7.387367249544379,-5.5606058901797235,-13.716262235571953
1351,-19.3092038942073,-7.635166452814199,-4.728807040540705,-12.931104085712992
1352,-18.470841407228846,-7.886788967377331,-3.9633800985524035,-12.121400107991349
1353,-17.716227770599232,-8.142572525781777,-3.310233661116397,-11.161770149677018
1354,-17.028412258726615,-8.400004568288713,-2.8031802957541188,-10.006152784121076
1355,-16.441378906051547,-8.656799640177347,-2.4616599264977443,-8.772394803192004
1356,-15.994296022663255,-8.90859993698303,-2.2901282866984944,-7.594582471144637
1357,-15.662329723367645,-9.142319674482163,-2.2785988004745157,-6.474749889509763
1358,-15.371683658276476,-9.339889400637523,-2.4057847215063624,-5.323060202312023
1359,-15.08514837955225,-9.493723317134185,-2.6448606348804207,-4.1182588115078556
1360,-14.831941200555931,-9.60689723390696,-2.9641941204206224,-2.980513709652204
1361,-14.633969432512515,-9.680415281764223,-3.323369780437239,-2.0286417753232624
1362,-14.445085685309724,-9.709349488153077,-3.6805343892202527,-1.238049540807518
1363,-14.18607777502362,-9.686608474977794,-4.007206893588818,-0.4768066247932742
1364,-13.82270343212776,-9.608644047890133,-4.291568106393682,0.3197554178023671
1365,-13.378517398520916,-9.479704226040871,-4.5311880961063355,1.0797164875326832
1366,-12.882604817967186,-9.31189574782733,-4.726834824294736,1.719307831682431
1367,-12.332754715406677,-9.116970844412627,-4.878125427043157,2.264348718673456
1368,-11.698854242305229,-8.893572508778117,-4.975449056293454,2.853627596740489
1369,-10.967028203154076,-8.629350425690472,-4.99725068579675,3.5824124020846186
1370,-10.164673173949422,-8.315396728685343,-4.921837426138318,4.402222280903637
1371,-9.340892708161569,-7.952051216554205,-4.739877760732391,5.197493503222601
1372,-8.536243555474543,-7.545648555702269,-4.45644020686473,5.904543520892925
1373,-7.77642219397806,-7.107349019538524,-4.0874456729477195,6.56475021712263
1374,-7.098780285583494,-6.65292881430122,-3.6555259831403024,7.210643276935743
1375,-6.535224163940031,-6.197544977006504,-3.1866349005128094,7.768035136500973
1376,-6.058833650368313,-5.747901201268087,-2.7074984718816,8.097680576896273
1377,-5.577079954672909,-5.3016904804923035,-2.24617568101752,8.116296009321324
1378,-4.976499358635576,-4.855228477425342,-1.8345068159766589,7.883689772844267
1379,-4.178275360397027,-4.403641204876621,-1.5026465785188252,7.502838850065667
1380,-3.141799369352743,-3.9343419193982503,-1.2665976117486233,7.004679217344536
1381,-1.828819996697189,-3.4233924094743484,-1.1217459634890123,6.347564251616544
1382,-0.2093398673927046,-2.83429851613013,-1.0505297629696966,5.517185493047915
1383,1.7264212777890404,-2.1251482239544117,-1.036705050028734,4.625932838265822
1384,3.9845088441315175,-1.2700502694738134,-1.0695224413250575,3.8235418180424037
1385,6.539892902941506,-0.28228617272938006,-1.1453611492717286,3.1380046126110486
1386,9.293982178664976,0.7976428326459614,-1.2510045408692196,2.437423445683158
1387,12.112539651918757,1.938854008232914,-1.326735642698249,1.5775242487157697
1388,14.898197151619803,3.131538152466794,-1.2746343135276355,0.5509210132489811
1389,17.590015195011944,4.378884689623974,-1.0078475846832688,-0.5570250234008141
1390,20.107063260304713,5.691175644864121,-0.48075394630698365,-1.7080172704221255
1391,22.311615487383456,7.078985794587658,0.30564274046539447,-2.9991657506551124
1392,24.029982601528573,8.544384488263612,1.3033130697719313,-4.538084395416199
1393,25.110098345398654,10.076458294451099,2.4283229258101318,-6.2840747312341
1394,25.443329565573855,11.65307386261177,3.578384217729127,-8.111633682095999
1395,24.94032046192765,13.248345506964046,4.638531914714006,-9.98447290153447
1396,23.50266814519766,14.840752217361164,5.483898469002643,-12.033466154373086
1397,21.04509154689523,16.41097778616046,5.991669787213908,-14.416196796906245
1398,17.894557187358274,17.942958794337503,6.500328205629107,-16.921537586000397
1399,13.53851366880635,19.39780043369479,6.193321553434639,-19.965888295840575
1400,7.893702781349901,20.72625101794568,4.670462453854113,-23.76981175322496
1401,1.1608069164195862,21.892532928503016,1.8696700749366677,-28.38402929688847
1402,-6.275251055246892,22.887217109663045,-2.0282058855253324,-33.60456822288518
1403,-13.896212966414629,23.71583948602238,-6.693578307381736,-39.010761713473485
1404,-21.147199258112686,24.3766425812737,-11.734448735950805,-44.14493784450612
1405,-27.56506013078637,24.86228768940076,-16.745372559782442,-48.68853056907827
1406,-32.83315062210806,25.17792226632981,-21.324418683174,-52.476751318998936
1407,-36.76665227155511,25.343966087251083,-25.120396553182875,-55.38861381491063
1408,-1.796720697394263,-0.6240754564747357,-4.096366329435898,-0.6757045044522096
1409,-4.129392238155202,-1.2502658280249122,-9.649586045565671,-2.2577162356641534
1410,-7.4163620533814285,-2.112590525781744,-17.889640326328873,-4.667409465416206
1411,-11.588224020373433,-3.204408933582022,-28.941332914584798,-7.895459949631184
1412,-16.50456058381722,-4.517886167539335,-42.67732201180359,-11.921924531311676
1413,-21.950020758998534,-6.04591170333081,-58.72285815860325,-16.666036798602594
1414,-27.619450299827612,-7.777502728849958,-76.48517489600644,-21.893880057624767
1415,-33.14740838836906,-9.702545645855611,-95.22788583205592,-27.235683465844676
1416,-38.19109248899642,-11.812410826710167,-114.18972796578812,-32.32522010555843
1417,-42.53540641977039,-14.095468780025522,-132.7400423229288,-36.93853494743278
1418,-46.16548961724218,-16.552822262311867,-150.58132158401648,-41.012387044842065
1419,-49.03347357217306,-19.14193115006008,-167.2954238708771,-44.418626806636716
1420,-51.11948919825087,-21.80977226637044,-182.5293426727515,-47.01606231893287
1421,-52.426924967312985,-24.500666641889698,-196.00438399353718,-48.7567577975277
1422,-52.95745630717015,-27.15789378611184,-207.50625748298754,-49.721663147200715
1423,-52.69940374601813,-29.727506429709013,-216.87334561660953,-49.99759383895782
1424,-51.657370076014146,-32.163751154224656,-224.001658920842,-49.55541925348801
1425,-49.88599143257336,-34.42853403896936,-228.84972068916755,-48.32249485056276
1426,-47.483644737077235,-36.49472711053974,-231.4268571578913,-46.319737923499034
1427,-44.565148364619034,-38.35498043476065,-231.78357164130168,-43.7178802249257
1428,-41.23441387432841,-40.01331129057802,-230.00826564827364,-40.701232886883865
1429,-37.571823996540374,-41.46497076607028,-226.21554776625555,-37.29910794195744
1430,-33.64836453402487,-42.69812024360449,-220.53485135427582,-33.437659351248065
1431,-29.561860072134202,-43.707908441909304,-213.10892096474743,-29.10627559240969
1432,-25.45672538801849,-44.49460753206832,-204.09544820342487,-24.44646750369289
1433,-21.46495151226468,-45.05922365703306,-193.66613645167294,-19.617213530847298
1434,-17.628331042016885,-45.41016259343414,-182.00232991828867,-14.630235521303547
1435,-13.90667872283652,-45.5602093351186,-169.28678054577597,-9.407196795599846
1436,-10.250108190986515,-45.511648306132834,-155.6955739857628,-3.955930760154306
1437,-6.651698055561133,-45.255291663764496,-141.3978295868311,1.5502838884951995
1438,-3.1270534028161814,-44.7850220307024,-126.5549283820856,6.925824167807933
1439,0.33248383135733284,-44.10905321641974,-111.31648234974192,12.136393829485835
1440,3.75879730418333,-43.250049323680145,-95.82098899360169,17.246824370154755
1441,7.16866200711784,-42.23987443874799,-80.19623312048189,22.24457245672462
1442,10.528463301095346,-41.114603208897144,-64.56475348205146,26.964541772648627
1443,13.763914353428675,-39.910088192760114,-49.05895110935247,31.2389021232706
1444,16.804952415208973,-38.65751350086208,-33.82488940879601,35.05271222073968
1445,19.60666857497756,-37.38185252027989,-19.005739365897828,38.503376550271064
1446,22.137651587930996,-36.101467962197134,-4.727181622128867,41.61476905791835
1447,24.361914709758576,-34.82664456346062,8.901891606317653,44.266339529108535
1448,26.248399424693048,-33.56278655794635,21.783912629413948,46.32811640964684
1449,27.805362788533877,-32.31621394231624,33.83809134070434,47.781013087226846
1450,29.069563410355855,-31.095612406891185,45.0158428892187,48.71191274011186
1451,30.04100519128937,-29.90732559458814,55.303711926867464,49.1601643257425
1452,30.67064081077682,-28.752720599420787,64.71339285246016,49.042720904366874
1453,30.91280789243065,-27.63166096136893,73.27683286968224,48.268720744407744
1454,30.76213500079827,-26.542379479988444,81.04309886419371,46.84881282541696
1455,30.249466982589354,-25.476992909607553,88.07123582958464,44.9163762748178
1456,29.39729752032205,-24.420844725707834,94.41938679999843,42.596605144217335
1457,28.20859224155541,-23.35752157893745,100.13759924759172,39.916175328100756
1458,26.70249528788425,-22.274833793956354,105.26883422466175,36.86514332525148
1459,24.93113835783459,-21.167252892739995,109.84874857150479,33.49469432807216
1460,22.96901422653268,-20.03618504303959,113.90236283123816,29.96853013466664
1461,20.884100082878767,-18.891844111200772,117.43783489349397,26.445951385823008
1462,18.714002591303156,-17.75396756532299,120.44161231641317,22.952184782092264
1463,16.44902184850606,-16.646171172657706,122.88729777186694,19.382986632675035
1464,14.06222945057651,-15.58817281136438,124.75575144508224,15.641851027672866
1465,11.569853650665106,-14.589542555954992,126.05062893706459,11.778935438959119
1466,9.031216770944454,-13.648156820470737,126.79789501782312,7.926923420731591
1467,6.508289176678094,-12.756299514696314,127.03566217514839,4.152447193931176
1468,4.025473878166317,-11.902906501128415,126.80990923120498,0.4044996200901364
1469,1.5882868229565346,-11.067570708950127,126.17480822618174,-3.3548803681989194
1470,-0.758674860322474,-10.216981095769782,125.1896906676519,-7.021365518723387
1471,-2.9373435347036367,-9.315156454228896,123.91308805864487,-10.414386889213679
1472,-4.8900501725643055,-8.341337078207518,122.3943977735819,-13.421020548652802
1473,-6.623264988941267,-7.293446575806665,120.66716031927035,-16.08181540716869
1474,-8.173046721801926,-6.180677231734821,118.74812355490859,-18.477867048731202
