timestamps,TP9,AF7,AF8,TP10,Right AUX
1727539730.020,51.270,8.789,-22.461,42.969,0.000
1727539730.024,-127.930,3.906,-32.715,-96.191,0.000
1727539730.028,-120.605,6.348,-25.391,-103.516,0.000
1727539730.032,99.609,4.883,-15.625,64.941,0.000
1727539730.036,155.273,3.418,-18.555,103.516,0.000
1727539730.040,86.426,-0.977,-17.090,60.059,0.000
1727539730.044,-95.215,0.488,-22.949,-68.848,0.000
1727539730.048,-148.926,7.812,-32.715,-125.977,0.000
1727539730.052,62.500,9.277,-28.809,33.203,0.000
1727539730.056,162.109,8.301,-30.273,101.074,0.000
1727539730.059,109.863,9.277,-34.668,52.246,0.000
1727539730.063,-83.984,5.859,-35.645,-70.312,0.000
1727539730.067,-161.621,1.953,-34.668,-127.930,0.000
1727539730.071,48.828,0.488,-29.785,22.949,0.000
1727539730.075,162.598,3.418,-27.832,113.281,0.000
1727539730.079,120.605,8.789,-27.344,85.449,0.000
1727539730.083,-58.105,9.766,-29.297,-47.363,0.000
1727539730.087,-158.203,8.301,-30.273,-128.418,0.000
1727539730.091,40.527,8.301,-43.457,16.113,0.000
1727539730.095,162.109,6.836,-53.711,121.094,0.000
1727539730.099,119.141,4.883,-40.527,96.191,0.000
1727539730.102,-31.738,8.789,-35.156,-29.297,0.000
1727539730.106,-156.738,6.348,-31.738,-140.625,0.000
1727539730.110,20.020,-3.418,-23.438,-15.137,0.000
1727539730.114,172.852,-1.953,-20.020,106.445,0.000
1727539730.118,132.324,-3.906,-19.043,76.660,0.000
1727539730.122,-26.367,-9.766,-28.809,-33.691,0.000
1727539730.126,-177.734,-12.695,-36.621,-148.926,0.000
1727539730.130,-15.137,-9.766,-22.461,-34.180,0.000
1727539730.134,165.527,-1.953,-16.113,104.004,0.000
1727539730.138,138.184,-3.906,-20.996,87.402,0.000
1727539730.141,-1.953,-8.789,-25.391,2.441,0.000
1727539730.145,-169.434,-6.348,-30.762,-120.117,0.000
1727539730.149,-54.688,-11.230,-29.785,-51.758,0.000
1727539730.153,143.066,-16.113,-26.855,89.844,0.000
1727539730.157,125.488,-16.602,-37.109,95.703,0.000
1727539730.161,-4.883,-18.555,-42.480,12.207,0.000
1727539730.165,-174.316,-17.090,-34.180,-135.254,0.000
1727539730.169,-85.938,-18.066,-24.902,-84.473,0.000
1727539730.173,125.000,-18.066,-21.484,73.730,0.000
1727539730.177,126.465,-17.578,-28.809,82.520,0.000
1727539730.181,12.207,-18.555,-33.203,12.207,0.000
1727539730.184,-168.457,-16.113,-33.203,-120.605,0.000
1727539730.188,-110.840,-10.742,-30.762,-93.750,0.000
1727539730.192,108.398,-9.277,-18.066,70.312,0.000
1727539730.196,136.719,-3.906,-9.766,100.586,0.000
1727539730.200,40.039,-4.883,-16.602,43.457,0.000
1727539730.204,-148.926,-4.883,-28.809,-97.656,0.000
1727539730.208,-112.793,-2.441,-30.762,-85.938,0.000
1727539730.212,111.816,-18.555,-11.230,99.121,0.000
1727539730.216,142.090,-23.438,-8.301,126.953,0.000
1727539730.220,52.246,-18.066,-16.602,56.152,0.000
1727539730.223,-140.137,-19.531,-1.953,-81.055,0.000
1727539730.227,-173.828,-22.949,0.977,-119.141,0.000
1727539730.231,34.180,-28.320,4.883,34.180,0.000
1727539730.235,92.773,-29.297,-11.230,86.426,0.000
1727539730.239,13.672,-31.738,-38.086,31.738,0.000
1727539730.243,-170.410,-40.039,-38.574,-101.562,0.000
1727539730.247,-239.258,-47.363,-15.625,-165.039,0.000
1727539730.251,-33.691,-50.781,23.438,-19.531,0.000
1727539730.255,57.129,-63.965,44.434,48.828,0.000
1727539730.259,-8.789,-76.172,49.316,1.465,0.000
1727539730.263,-186.035,-76.172,49.316,-120.605,0.000
1727539730.266,-272.949,-75.684,40.039,-201.660,0.000
1727539730.270,-55.176,-70.801,23.926,-37.598,0.000
1727539730.274,75.684,-59.570,15.137,83.496,0.000
1727539730.278,17.578,-58.594,11.230,50.293,0.000
1727539730.282,-138.672,-56.641,-13.672,-70.801,0.000
1727539730.286,-243.164,-45.410,-22.949,-167.480,0.000
1727539730.290,-56.152,-44.434,11.719,-39.551,0.000
1727539730.294,103.516,-44.922,36.621,77.637,0.000
1727539730.298,72.266,-44.434,34.668,61.523,0.000
1727539730.302,-83.984,-46.387,32.715,-44.434,0.000
1727539730.306,-231.934,-48.340,30.273,-163.086,0.000
1727539730.309,-78.125,-52.734,18.555,-49.316,0.000
1727539730.313,94.238,-48.340,-11.230,89.355,0.000
1727539730.317,76.172,-44.434,-19.043,79.590,0.000
1727539730.321,-60.059,-45.410,-6.348,-19.043,0.000
1727539730.325,-224.121,-38.574,-6.348,-151.855,0.000
1727539730.329,-93.750,-37.598,-4.395,-64.453,0.000
1727539730.333,97.168,-43.945,-9.766,85.449,0.000
1727539730.337,87.891,-39.551,-29.785,93.750,0.000
1727539730.341,-31.738,-36.133,-47.852,6.348,0.000
1727539730.345,-200.684,-39.551,-28.809,-137.207,0.000
1727539730.348,-90.820,-31.738,-15.137,-62.500,0.000
1727539730.352,119.141,-22.461,-6.348,96.191,0.000
1727539730.356,116.699,-31.250,6.348,95.703,0.000
1727539730.360,3.906,-34.180,-2.441,19.043,0.000
1727539730.364,-183.594,-30.762,-14.160,-116.211,0.000
1727539730.368,-123.047,-25.879,-19.531,-82.031,0.000
1727539730.372,95.703,-25.391,-21.484,84.473,0.000
1727539730.376,121.094,-28.809,-18.066,101.562,0.000
1727539730.380,21.484,-31.250,-10.742,23.926,0.000
1727539730.384,-161.621,-32.227,-9.277,-114.258,0.000
1727539730.388,-142.090,-25.391,-13.184,-122.559,0.000
1727539730.391,70.312,-23.926,-24.902,33.203,0.000
1727539730.395,134.277,-21.484,-27.344,84.473,0.000
1727539730.399,58.105,-20.020,-15.625,44.434,0.000
1727539730.403,-127.441,-15.625,-20.020,-91.797,0.000
1727539730.407,-142.578,-11.230,-33.203,-116.699,0.000
1727539730.411,79.102,-7.812,-40.039,53.711,0.000
1727539730.415,150.391,-4.883,-35.645,112.793,0.000
1727539730.419,74.219,-8.789,-20.020,59.082,0.000
1727539730.423,-96.680,-4.395,-4.395,-76.172,0.000
1727539730.427,-139.160,-1.953,-4.395,-111.328,0.000
1727539730.430,68.848,-13.672,-15.137,43.457,0.000
1727539730.434,152.344,-19.043,-23.438,100.586,0.000
1727539730.438,82.031,-16.113,-29.297,51.270,0.000
1727539730.442,-89.355,-23.926,-25.879,-73.242,0.000
1727539730.446,-178.711,-32.227,-6.348,-146.484,0.000
1727539730.450,16.113,-25.879,13.184,8.789,0.000
1727539730.454,132.812,-27.344,9.277,109.863,0.000
1727539730.458,69.824,-35.645,0.977,77.637,0.000
1727539730.462,-96.680,-39.062,1.953,-39.062,0.000
1727539730.466,-205.078,-39.062,-10.254,-136.719,0.000
1727539730.470,-18.066,-36.133,-5.371,6.836,0.000
1727539730.473,126.465,-31.250,0.488,124.512,0.000
1727539730.477,84.961,-22.949,-2.930,90.332,0.000
1727539730.481,-66.895,-23.438,-9.277,-19.043,0.000
1727539730.485,-198.242,-24.414,-18.066,-122.559,0.000
1727539730.489,-31.738,-22.461,-16.113,-14.160,0.000
1727539730.493,140.137,-19.043,-11.230,113.770,0.000
1727539730.497,114.258,-19.531,-8.301,107.910,0.000
1727539730.501,-31.738,-26.855,-6.348,-2.930,0.000
1727539730.505,-193.848,-24.902,-4.883,-129.395,0.000
1727539730.509,-55.664,-20.508,-7.812,-34.180,0.000
1727539730.513,137.207,-20.508,-6.836,96.191,0.000
1727539730.516,123.047,-17.578,-10.254,92.773,0.000
1727539730.520,0.000,-15.137,-16.602,12.695,0.000
1727539730.524,-176.270,-18.555,-16.602,-128.418,0.000
1727539730.528,-82.031,-20.996,-19.043,-63.965,0.000
1727539730.532,120.117,-17.090,-13.672,97.656,0.000
1727539730.536,124.023,-9.277,-13.184,97.656,0.000
1727539730.540,11.230,-10.742,-20.020,15.625,0.000
1727539730.544,-170.898,-11.230,-25.879,-131.348,0.000
1727539730.548,-104.492,-10.254,-20.508,-99.121,0.000
1727539730.552,109.863,-7.324,-8.301,73.730,0.000
1727539730.555,139.648,-6.348,0.000,96.191,0.000
1727539730.559,47.363,-10.742,3.418,29.297,0.000
1727539730.563,-147.461,-16.113,-6.348,-109.375,0.000
1727539730.567,-134.766,-19.531,-15.625,-111.328,0.000
1727539730.571,80.566,-19.531,-8.789,55.176,0.000
1727539730.575,132.812,-10.742,-0.488,99.609,0.000
1727539730.579,61.523,-2.930,-7.812,37.109,0.000
1727539730.583,-120.117,-4.883,-20.020,-98.633,0.000
1727539730.587,-145.508,-10.742,-23.438,-125.000,0.000
1727539730.591,69.336,-11.719,-23.926,38.086,0.000
1727539730.595,140.625,-10.254,-15.137,94.238,0.000
1727539730.598,68.848,-12.207,-16.113,51.758,0.000
1727539730.602,-107.422,-18.066,-26.855,-68.848,0.000
1727539730.606,-159.180,-18.555,-29.785,-120.605,0.000
1727539730.610,59.082,-12.207,-32.227,30.762,0.000
1727539730.614,152.344,-12.695,-21.973,93.750,0.000
1727539730.618,87.891,-11.230,-9.766,52.734,0.000
1727539730.622,-83.984,-9.766,-16.602,-59.082,0.000
1727539730.626,-166.992,-12.695,-19.043,-122.070,0.000
1727539730.630,33.203,-16.113,-16.602,18.066,0.000
1727539730.634,146.484,-15.137,-11.719,104.980,0.000
1727539730.637,98.633,-15.625,-1.953,67.383,0.000
1727539730.641,-63.965,-15.137,-5.859,-61.523,0.000
1727539730.645,-191.406,-15.625,-11.719,-160.645,0.000
1727539730.649,-14.648,-13.184,-13.184,-16.113,0.000
1727539730.653,133.301,-10.254,-14.648,101.562,0.000
1727539730.657,96.680,-7.812,-14.160,65.430,0.000
1727539730.661,-60.547,-9.766,-15.137,-49.805,0.000
1727539730.665,-201.172,-15.625,-19.531,-167.969,0.000
1727539730.669,-32.715,-16.113,-21.484,-44.922,0.000
1727539730.673,134.277,-19.531,-13.672,88.379,0.000
1727539730.677,102.051,-26.855,-6.836,67.871,0.000
1727539730.680,-43.945,-24.902,-12.207,-24.414,0.000
1727539730.684,-208.496,-20.508,-20.508,-145.508,0.000
1727539730.688,-64.941,-16.602,-16.113,-54.688,0.000
1727539730.692,131.348,-7.812,-16.602,95.215,0.000
1727539730.696,117.676,-4.395,-21.973,90.332,0.000
1727539730.700,-23.926,-11.719,-19.043,-9.277,0.000
1727539730.704,-206.055,-12.695,-20.020,-143.555,0.000
1727539730.708,-97.168,-9.766,-24.414,-71.777,0.000
1727539730.712,103.516,-12.695,-18.555,91.797,0.000
1727539730.716,88.379,-20.996,-2.441,77.637,0.000
1727539730.719,-37.598,-23.926,-5.859,-22.949,0.000
1727539730.723,-196.289,-13.184,-23.438,-135.742,0.000
1727539730.727,-118.652,-16.602,-31.738,-89.844,0.000
1727539730.731,77.148,-27.344,-14.648,47.852,0.000
1727539730.735,135.254,-9.277,-4.883,92.773,0.000
1727539730.739,50.781,-0.488,-21.484,32.715,0.000
1727539730.743,-173.828,-15.137,-3.906,-150.391,0.000
1727539730.747,-156.250,-14.160,1.465,-158.691,0.000
1727539730.751,64.941,-15.137,-20.508,14.160,0.000
1727539730.755,94.238,-31.250,-9.277,47.363,0.000
1727539730.759,23.438,-41.016,22.461,0.000,0.000
1727539730.762,-119.629,-29.297,11.719,-93.750,0.000
1727539730.766,-114.746,-5.859,-5.371,-107.910,0.000
1727539730.770,86.426,-0.488,-7.324,21.484,0.000
1727539730.774,104.004,-29.297,-4.395,30.762,0.000
1727539730.778,16.602,-54.688,0.488,-30.273,0.000
1727539730.782,-131.836,-34.180,4.883,-132.324,0.000
1727539730.786,-185.059,-26.855,0.488,-187.500,0.000
1727539730.790,-22.461,-56.152,-3.418,-73.242,0.000
1727539730.794,61.035,-32.715,-0.977,21.484,0.000
1727539730.798,24.902,-24.414,-19.043,14.648,0.000
1727539730.802,-178.711,-51.758,-29.785,-172.363,0.000
1727539730.805,-271.484,-53.223,8.789,-273.438,0.000
1727539730.809,-20.996,-50.781,8.789,-80.078,0.000
1727539730.813,105.957,-66.895,-38.574,30.273,0.000
1727539730.817,59.570,-82.520,-38.574,3.906,0.000
1727539730.821,-83.496,-86.914,-3.906,-109.863,0.000
1727539730.825,-199.707,-84.961,20.508,-216.309,0.000
1727539730.829,-37.109,-80.078,10.254,-94.238,0.000
1727539730.833,53.223,-100.098,-8.301,-18.555,0.000
1727539730.837,32.227,-93.750,-46.875,-14.160,0.000
1727539730.841,-68.359,-90.820,-83.496,-82.520,0.000
1727539730.844,-218.262,-119.141,-78.125,-213.379,0.000
1727539730.848,-117.188,-148.926,-59.082,-144.531,0.000
1727539730.852,59.082,-125.488,-100.098,-7.324,0.000
1727539730.856,77.148,-72.754,-159.668,19.043,0.000
1727539730.860,-98.633,-72.754,-160.156,-121.094,0.000
1727539730.864,-291.992,-91.309,-176.758,-316.406,0.000
1727539730.868,-97.656,-80.566,-250.977,-144.043,0.000
1727539730.872,120.605,-80.566,-270.508,72.266,0.000
1727539730.876,79.102,-85.938,-255.859,39.062,0.000
1727539730.880,-36.621,-62.988,-320.801,-64.941,0.000
1727539730.884,-208.496,-57.617,-348.633,-230.957,0.000
1727539730.887,-124.512,-72.754,-349.609,-151.367,0.000
1727539730.891,76.660,-80.078,-419.922,37.109,0.000
1727539730.895,109.863,-83.984,-501.953,83.984,0.000
1727539730.899,20.996,-77.148,-526.367,24.902,0.000
1727539730.903,-159.668,-53.711,-526.855,-133.789,0.000
1727539730.907,-110.352,-58.105,-579.590,-109.863,0.000
1727539730.911,66.895,-77.148,-750.000,47.852,0.000
1727539730.915,112.793,-63.477,-962.891,97.656,0.000
1727539730.919,8.789,-50.781,-1000.000,11.719,0.000
1727539730.923,-186.035,-46.875,-994.141,-152.832,0.000
1727539730.927,-135.742,-46.875,-1000.000,-119.629,0.000
1727539730.930,74.219,-58.594,-1000.000,62.500,0.000
1727539730.934,94.727,-69.824,-1000.000,93.750,0.000
1727539730.938,12.207,-66.895,-1000.000,37.598,0.000
1727539730.942,-128.906,-45.410,-1000.000,-89.355,0.000
1727539730.946,-130.859,-59.570,-1000.000,-127.441,0.000
1727539730.950,60.059,-81.543,-1000.000,45.410,0.000
1727539730.954,115.234,-53.223,-1000.000,119.629,0.000
1727539730.958,23.438,-43.945,-1000.000,53.711,0.000
1727539730.962,-184.082,-46.875,-1000.000,-129.883,0.000
1727539730.966,-162.598,-22.461,-1000.000,-133.789,0.000
1727539730.969,84.473,-28.809,-1000.000,94.238,0.000
1727539730.973,148.926,-34.668,-1000.000,181.641,0.000
1727539730.977,97.168,-28.809,-1000.000,150.391,0.000
1727539730.981,-90.332,-37.598,-1000.000,-6.348,0.000
1727539730.985,-181.152,-34.180,-1000.000,-116.211,0.000
1727539730.989,22.949,-24.902,-1000.000,56.641,0.000
1727539730.993,93.262,-61.523,-1000.000,119.629,0.000
1727539730.997,61.035,-76.172,-1000.000,78.125,0.000
1727539731.001,-83.984,-20.996,-1000.000,-34.180,0.000
1727539731.005,-199.219,5.859,-1000.000,-138.184,0.000
1727539731.009,47.363,0.488,-1000.000,89.844,0.000
1727539731.012,172.363,-15.625,-1000.000,197.754,0.000
1727539731.016,101.562,-14.160,-1000.000,136.230,0.000
1727539731.020,-40.039,-5.859,-1000.000,8.789,0.000
1727539731.024,-172.852,-21.973,-1000.000,-127.441,0.000
1727539731.028,-12.207,-18.555,-1000.000,37.109,0.000
1727539731.032,145.020,-2.441,-1000.000,199.219,0.000
1727539731.036,118.164,-2.930,-1000.000,167.969,0.000
1727539731.040,-14.648,-22.949,-997.559,44.434,0.000
1727539731.044,-163.086,-35.645,-1000.000,-99.609,0.000
1727539731.048,-34.180,-20.996,-980.957,8.789,0.000
1727539731.052,122.070,-17.090,-873.047,158.203,0.000
1727539731.055,104.004,-15.625,-780.762,146.484,0.000
1727539731.059,-6.348,-12.695,-734.375,58.594,0.000
1727539731.063,-162.598,-11.230,-664.062,-80.078,0.000
1727539731.067,-40.039,-6.836,-590.332,30.762,0.000
1727539731.071,153.809,-6.348,-524.902,216.309,0.000
1727539731.075,141.602,-7.324,-479.492,195.801,0.000
1727539731.079,17.090,-8.301,-444.824,88.867,0.000
1727539731.083,-151.367,-0.977,-397.949,-55.176,0.000
1727539731.087,-50.293,0.000,-351.562,19.043,0.000
1727539731.091,153.320,-1.465,-305.664,197.266,0.000
1727539731.094,157.715,-0.977,-254.395,204.102,0.000
1727539731.098,63.965,-0.488,-216.797,122.070,0.000
1727539731.102,-108.887,11.719,-173.340,-42.969,0.000
1727539731.106,-76.660,8.789,-100.098,-38.086,0.000
1727539731.110,120.117,-0.488,-3.418,140.137,0.000
1727539731.114,146.973,0.488,51.270,175.781,0.000
1727539731.118,60.547,-3.418,136.719,112.305,0.000
1727539731.122,-112.305,4.883,341.309,-41.992,0.000
1727539731.126,-96.191,11.719,475.586,-54.199,0.000
1727539731.130,114.746,0.977,544.434,134.277,0.000
1727539731.133,164.062,-3.906,629.883,185.547,0.000
1727539731.137,91.309,1.465,726.562,116.211,0.000
1727539731.141,-89.844,3.418,815.918,-32.227,0.000
1727539731.145,-128.418,-1.465,916.504,-66.406,0.000
1727539731.149,84.961,-1.953,972.168,109.863,0.000
1727539731.153,157.715,-3.906,965.332,177.246,0.000
1727539731.157,97.168,2.441,967.773,136.230,0.000
1727539731.161,-66.895,10.254,968.262,2.441,0.000
1727539731.165,-145.508,1.953,968.262,-71.289,0.000
1727539731.169,58.105,3.906,968.262,97.168,0.000
1727539731.173,159.180,8.301,968.262,184.570,0.000
1727539731.176,98.145,-3.418,968.262,138.672,0.000
1727539731.180,-65.430,-3.418,968.262,-7.324,0.000
1727539731.184,-166.504,1.465,968.262,-117.188,0.000
1727539731.188,37.109,-0.977,968.262,35.156,0.000
1727539731.192,172.852,7.812,968.262,147.461,0.000
1727539731.196,118.164,8.301,967.773,110.840,0.000
1727539731.200,-40.527,3.906,968.262,-13.184,0.000
1727539731.204,-179.199,0.977,967.773,-120.605,0.000
1727539731.208,-8.789,-1.953,968.262,8.301,0.000
1727539731.212,155.762,-2.930,968.262,131.348,0.000
1727539731.216,134.277,0.488,968.262,106.445,0.000
1727539731.219,-10.742,-2.930,968.262,-5.371,0.000
1727539731.223,-164.551,-6.836,968.262,-130.859,0.000
1727539731.227,-11.719,0.488,968.262,-31.250,0.000
1727539731.231,175.781,6.836,968.262,117.676,0.000
1727539731.235,151.855,7.812,968.262,109.375,0.000
1727539731.239,2.441,3.906,968.262,-6.348,0.000
1727539731.243,-163.086,4.883,968.262,-146.484,0.000
1727539731.247,-41.016,10.254,968.262,-56.152,0.000
1727539731.251,152.832,12.695,968.262,98.633,0.000
1727539731.255,150.879,15.137,968.262,103.027,0.000
1727539731.259,17.578,15.625,968.262,12.207,0.000
1727539731.262,-173.828,9.766,968.262,-146.484,0.000
1727539731.266,-75.684,5.371,968.262,-82.520,0.000
1727539731.270,134.766,9.766,968.262,88.379,0.000
1727539731.274,144.043,11.230,968.262,97.168,0.000
1727539731.278,38.086,12.207,968.262,26.367,0.000
1727539731.282,-155.273,11.719,968.262,-126.953,0.000
1727539731.286,-104.492,10.254,968.262,-104.004,0.000
1727539731.290,114.258,4.395,968.262,58.594,0.000
1727539731.294,127.930,-4.883,968.262,75.195,0.000
1727539731.298,35.156,-7.324,968.262,11.719,0.000
1727539731.301,-140.625,-1.465,968.262,-129.883,0.000
1727539731.305,-137.207,2.930,966.309,-135.742,0.000
1727539731.309,77.148,3.418,969.727,41.016,0.000
1727539731.313,121.094,-3.418,956.543,80.078,0.000
1727539731.317,39.551,-13.672,897.461,16.602,0.000
1727539731.321,-132.812,-11.719,840.332,-118.164,0.000
1727539731.325,-142.090,1.953,791.504,-138.672,0.000
1727539731.329,82.031,1.953,750.488,42.969,0.000
1727539731.333,151.855,-3.418,741.699,98.633,0.000
1727539731.337,83.984,-2.930,738.281,47.363,0.000
1727539731.341,-102.539,-8.301,709.473,-87.891,0.000
1727539731.344,-162.598,-9.277,673.828,-150.879,0.000
1727539731.348,58.105,-8.301,636.719,19.531,0.000
1727539731.352,151.855,-8.301,595.703,110.840,0.000
1727539731.356,89.355,0.977,554.688,77.637,0.000
1727539731.360,-75.684,2.441,531.738,-50.781,0.000
1727539731.364,-160.645,-6.348,516.602,-136.719,0.000
1727539731.368,47.363,-8.789,483.887,12.207,0.000
1727539731.372,177.246,-8.301,461.426,112.793,0.000
1727539731.376,131.836,-1.953,460.938,74.219,0.000
1727539731.380,-34.668,-2.441,443.359,-44.922,0.000
1727539731.383,-163.574,-7.324,410.645,-148.438,0.000
1727539731.387,25.391,1.465,390.137,-13.184,0.000
1727539731.391,179.688,5.371,368.652,116.699,0.000
1727539731.395,137.207,-4.395,351.562,85.449,0.000
1727539731.399,-11.230,-5.859,339.355,-27.832,0.000
1727539731.403,-152.344,-2.930,316.406,-138.672,0.000
1727539731.407,3.906,2.930,299.805,-25.879,0.000
1727539731.411,165.527,4.395,310.547,105.469,0.000
1727539731.415,132.812,0.977,312.012,90.332,0.000
1727539731.419,-1.953,2.441,309.082,-10.742,0.000
1727539731.422,-166.504,-3.906,311.523,-142.090,0.000
1727539731.426,-39.062,-5.371,303.223,-50.293,0.000
1727539731.430,152.344,-4.883,287.109,100.098,0.000
1727539731.434,146.973,-12.207,285.645,100.586,0.000
1727539731.438,20.020,-13.672,267.090,11.719,0.000
1727539731.442,-156.738,-7.324,239.258,-128.906,0.000
1727539731.446,-53.711,1.465,239.746,-59.570,0.000
1727539731.450,135.742,-10.254,216.797,89.355,0.000
1727539731.454,124.512,-24.902,191.406,79.102,0.000
1727539731.458,13.184,-14.648,186.523,-1.953,0.000
1727539731.462,-162.109,-1.953,186.523,-137.207,0.000
1727539731.465,-95.215,-3.418,178.711,-102.051,0.000
1727539731.469,118.164,-11.230,176.758,65.430,0.000
1727539731.473,137.695,-17.090,185.547,98.633,0.000
1727539731.477,45.410,-13.672,170.410,27.344,0.000
1727539731.481,-139.160,-12.695,157.715,-121.582,0.000
1727539731.485,-118.652,-13.184,159.668,-118.164,0.000
1727539731.489,111.816,-10.742,150.879,59.082,0.000
1727539731.493,164.062,-3.906,138.184,107.910,0.000
1727539731.497,78.613,1.953,135.254,54.688,0.000
1727539731.501,-126.465,-5.371,121.094,-90.332,0.000
1727539731.505,-151.367,-4.395,95.215,-125.977,0.000
1727539731.508,73.730,-4.883,102.051,46.875,0.000
1727539731.512,140.137,-13.672,120.605,102.051,0.000
1727539731.516,68.359,-10.254,111.328,50.781,0.000
1727539731.520,-105.469,-4.395,105.957,-76.172,0.000
1727539731.524,-148.438,-10.254,102.051,-119.629,0.000
1727539731.528,68.848,-7.324,92.285,44.922,0.000
1727539731.532,162.109,-5.371,92.773,112.793,0.000
1727539731.536,102.539,-11.719,92.285,65.918,0.000
1727539731.540,-67.383,-4.883,89.844,-58.594,0.000
1727539731.544,-156.738,-2.930,84.473,-133.789,0.000
1727539731.548,46.387,-5.859,78.125,8.301,0.000
1727539731.551,167.480,-5.371,77.637,109.863,0.000
1727539731.555,102.539,-5.371,80.078,86.914,0.000
1727539731.559,-62.012,-1.465,81.543,-42.480,0.000
1727539731.563,-170.410,-1.953,86.426,-134.277,0.000
1727539731.567,18.066,1.953,80.566,6.348,0.000
1727539731.571,170.410,4.883,67.871,118.164,0.000
1727539731.575,127.930,-1.465,71.289,88.867,0.000
1727539731.579,-27.344,-1.953,61.035,-17.090,0.000
1727539731.583,-157.227,-1.465,44.434,-110.352,0.000
1727539731.587,0.488,-6.348,51.270,0.000,0.000
1727539731.590,154.297,-3.418,45.410,116.699,0.000
1727539731.594,128.906,5.859,45.410,108.398,0.000
1727539731.598,-9.766,6.348,61.035,15.625,0.000
1727539731.602,-164.062,-0.488,60.547,-121.582,0.000
1727539731.606,-31.738,4.395,58.594,-35.156,0.000
1727539731.610,142.578,4.883,30.762,108.398,0.000
1727539731.614,125.977,0.488,15.625,104.492,0.000
1727539731.618,2.441,-0.488,31.738,8.301,0.000
1727539731.622,-167.480,-1.953,31.738,-131.836,0.000
1727539731.626,-63.965,-1.465,24.902,-55.664,0.000
1727539731.630,132.324,2.930,16.113,103.516,0.000
1727539731.633,132.812,-0.488,-6.836,107.910,0.000
1727539731.637,16.602,-7.812,-10.254,28.809,0.000
1727539731.641,-172.852,-10.742,0.977,-120.605,0.000
1727539731.645,-99.121,-6.836,0.977,-90.332,0.000
1727539731.649,122.070,-6.348,8.789,75.195,0.000
1727539731.653,144.531,-3.418,5.371,81.543,0.000
1727539731.657,38.574,-2.441,-15.625,12.695,0.000
1727539731.661,-143.066,-8.789,-18.555,-125.488,0.000
1727539731.665,-108.398,-11.230,-1.953,-121.582,0.000
1727539731.669,103.027,-11.719,-2.930,51.270,0.000
1727539731.673,141.602,-11.230,-8.789,97.656,0.000
1727539731.676,56.152,-9.277,4.883,35.645,0.000
1727539731.680,-130.371,-9.277,13.672,-101.562,0.000
1727539731.684,-137.695,-9.766,5.371,-108.398,0.000
1727539731.688,97.168,-5.371,-1.953,68.848,0.000
1727539731.692,166.016,-2.441,-4.883,118.164,0.000
1727539731.696,79.102,-4.883,-0.488,51.758,0.000
1727539731.700,-106.445,-9.277,11.719,-85.938,0.000
1727539731.704,-161.621,-15.625,19.531,-138.184,0.000
1727539731.708,49.316,-19.531,16.113,21.973,0.000
1727539731.712,148.438,-19.531,13.184,103.027,0.000
1727539731.715,89.844,-13.672,1.953,59.082,0.000
1727539731.719,-89.355,-8.789,-15.625,-72.266,0.000
1727539731.723,-174.316,-8.301,-22.461,-135.742,0.000
1727539731.727,29.785,-4.883,-1.465,25.391,0.000
1727539731.731,149.902,-7.324,22.461,122.070,0.000
1727539731.735,107.910,-12.695,12.695,92.285,0.000
1727539731.739,-53.223,-9.766,6.836,-29.297,0.000
1727539731.743,-177.246,-9.766,8.301,-126.465,0.000
1727539731.747,-2.441,-5.859,-2.930,0.488,0.000
1727539731.751,144.043,-6.836,-6.348,100.586,0.000
1727539731.755,97.168,-14.160,0.977,59.570,0.000
1727539731.758,-70.312,-10.254,0.000,-53.711,0.000
1727539731.762,-208.008,-12.695,-5.859,-150.391,0.000
1727539731.766,-43.945,-19.043,-12.207,-41.992,0.000
1727539731.770,135.254,-15.625,-29.297,80.566,0.000
1727539731.774,109.863,-13.184,-44.922,84.961,0.000
1727539731.778,-40.039,-10.254,-30.273,-10.254,0.000
1727539731.782,-192.871,-7.812,-22.949,-148.438,0.000
1727539731.786,-49.316,-1.465,-39.062,-50.781,0.000
1727539731.790,124.023,-7.324,-35.645,93.750,0.000
1727539731.794,106.934,-13.672,-24.414,82.031,0.000
1727539731.797,-7.324,-7.812,-25.879,-10.254,0.000
1727539731.801,-163.574,-11.230,-22.949,-144.531,0.000
1727539731.805,-48.828,-11.719,-14.160,-64.453,0.000
1727539731.809,140.137,-7.812,-28.320,100.098,0.000
1727539731.813,136.230,-15.137,-38.086,105.957,0.000
1727539731.817,20.508,-25.391,-19.531,20.020,0.000
1727539731.821,-164.551,-18.555,-13.672,-132.324,0.000
1727539731.825,-92.773,-6.836,-15.625,-94.238,0.000
1727539731.829,117.188,-1.465,-17.578,68.359,0.000
1727539731.833,132.324,-0.488,-23.438,90.332,0.000
1727539731.837,29.297,-2.930,-29.297,34.180,0.000
1727539731.840,-153.809,-8.301,-36.133,-111.328,0.000
1727539731.844,-112.793,-7.812,-37.598,-108.887,0.000
1727539731.848,106.445,-6.836,-35.645,63.965,0.000
1727539731.852,148.438,-6.348,-32.227,100.586,0.000
1727539731.856,60.059,-6.836,-44.434,42.480,0.000
1727539731.860,-129.883,-6.836,-52.246,-93.750,0.000
1727539731.864,-129.883,-3.906,-40.527,-103.516,0.000
1727539731.868,81.055,-2.930,-27.832,58.594,0.000
1727539731.872,142.090,-5.859,-16.602,96.191,0.000
1727539731.876,67.383,-8.301,-16.602,43.457,0.000
1727539731.880,-119.629,-11.719,-10.742,-75.684,0.000
1727539731.883,-164.551,-13.672,-17.578,-116.699,0.000
1727539731.887,51.270,-15.625,-24.414,29.785,0.000
1727539731.891,135.254,-12.207,-21.484,98.145,0.000
1727539731.895,65.918,-11.719,-35.645,50.781,0.000
1727539731.899,-101.074,-17.090,-50.781,-77.637,0.000
1727539731.903,-168.945,-13.672,-41.992,-145.508,0.000
1727539731.907,42.480,-12.695,-32.227,16.602,0.000
1727539731.911,148.926,-23.926,-28.809,119.141,0.000
1727539731.915,89.844,-24.902,-45.898,78.613,0.000
1727539731.919,-75.195,-19.531,-54.688,-45.410,0.000
1727539731.922,-184.082,-17.578,-33.691,-143.555,0.000
1727539731.926,9.766,-18.066,-24.414,-0.977,0.000
1727539731.930,146.484,-22.461,-27.344,109.375,0.000
1727539731.934,109.863,-15.625,-25.391,75.684,0.000
1727539731.938,-49.316,-14.160,-18.555,-37.598,0.000
1727539731.942,-185.547,-20.508,-28.809,-153.809,0.000
1727539731.946,-12.695,-19.531,-42.480,-24.414,0.000
1727539731.950,137.695,-14.160,-43.945,107.422,0.000
1727539731.954,108.398,-9.766,-41.504,84.473,0.000
1727539731.958,-36.133,-13.672,-33.691,-19.531,0.000
1727539731.962,-196.777,-20.020,-27.832,-143.066,0.000
1727539731.965,-55.176,-21.973,-40.039,-42.480,0.000
1727539731.969,125.000,-21.484,-56.152,108.398,0.000
1727539731.973,108.398,-15.137,-34.668,107.910,0.000
1727539731.977,-20.508,-11.230,-23.438,8.789,0.000
1727539731.981,-181.152,-15.137,-19.531,-124.023,0.000
1727539731.985,-56.152,-11.230,-5.371,-49.316,0.000
1727539731.989,146.484,-3.906,-8.789,93.750,0.000
1727539731.993,137.207,-7.812,-13.184,98.145,0.000
1727539731.997,20.508,-12.207,-19.531,18.555,0.000
1727539732.001,-156.250,-10.254,-21.484,-122.559,0.000
1727539732.005,-82.031,-13.672,-24.902,-74.219,0.000
1727539732.008,131.836,-11.230,-28.809,87.891,0.000
1727539732.012,143.066,-9.277,-30.762,99.609,0.000
1727539732.016,46.387,-8.789,-25.391,40.527,0.000
1727539732.020,-132.812,-4.395,-25.391,-90.820,0.000
1727539732.024,-90.820,-1.465,-45.410,-80.566,0.000
1727539732.028,123.535,-1.465,-42.480,86.426,0.000
1727539732.032,154.785,-4.883,-29.785,125.977,0.000
1727539732.036,71.777,-2.930,-18.555,59.082,0.000
1727539732.040,-121.094,-3.906,-11.230,-90.332,0.000
1727539732.044,-126.953,-7.812,-24.902,-95.215,0.000
1727539732.047,83.496,-9.277,-31.250,67.871,0.000
1727539732.051,132.812,-8.301,-31.250,104.004,0.000
1727539732.055,52.246,-6.348,-38.086,46.387,0.000
1727539732.059,-137.207,-13.184,-45.410,-81.543,0.000
1727539732.063,-173.340,-15.137,-52.734,-108.887,0.000
1727539732.067,51.758,-12.207,-54.688,34.668,0.000
1727539732.071,145.508,-14.648,-53.223,98.145,0.000
1727539732.075,82.031,-13.672,-51.270,60.059,0.000
1727539732.079,-97.168,-11.719,-49.805,-82.520,0.000
1727539732.083,-160.645,-11.230,-56.152,-150.879,0.000
1727539732.087,52.734,-12.695,-60.547,17.090,0.000
1727539732.090,153.809,-16.602,-52.734,109.863,0.000
1727539732.094,104.492,-18.555,-51.758,66.895,0.000
1727539732.098,-58.594,-15.625,-59.570,-58.594,0.000
1727539732.102,-169.434,-9.766,-60.547,-141.113,0.000
1727539732.106,16.602,-7.812,-63.965,8.789,0.000
1727539732.110,146.484,-9.766,-66.406,124.023,0.000
1727539732.114,105.469,-9.766,-49.805,88.379,0.000
1727539732.118,-49.805,-16.113,-41.992,-38.086,0.000
1727539732.122,-175.781,-19.043,-40.527,-143.555,0.000
1727539732.126,8.301,-9.766,-36.133,-13.184,0.000
1727539732.129,166.504,-7.324,-42.480,110.352,0.000
1727539732.133,123.535,-9.277,-45.898,93.750,0.000
1727539732.137,-25.879,-10.742,-40.039,-5.371,0.000
1727539732.141,-174.316,-14.160,-50.781,-130.371,0.000
1727539732.145,-19.043,-12.207,-58.105,-30.273,0.000
1727539732.149,160.645,-14.160,-51.270,108.398,0.000
1727539732.153,140.137,-13.184,-49.805,104.980,0.000
1727539732.157,-5.371,-12.695,-50.781,2.930,0.000
1727539732.161,-189.941,-13.184,-43.945,-140.625,0.000
1727539732.165,-62.500,-9.277,-38.086,-56.641,0.000
1727539732.168,135.254,-10.742,-39.062,94.727,0.000
1727539732.172,126.465,-8.301,-40.527,96.191,0.000
1727539732.176,10.254,-5.371,-40.527,17.578,0.000
1727539732.180,-160.156,-12.207,-42.480,-122.559,0.000
1727539732.184,-71.777,-12.695,-52.246,-75.684,0.000
1727539732.188,139.160,-4.883,-65.430,88.867,0.000
1727539732.192,146.973,-7.812,-55.664,98.633,0.000
1727539732.196,29.297,-20.020,-33.203,12.695,0.000
1727539732.200,-159.668,-21.484,-29.785,-132.812,0.000
1727539732.204,-111.328,-18.066,-36.133,-101.074,0.000
1727539732.208,107.910,-21.973,-37.598,75.195,0.000
1727539732.211,140.625,-23.926,-39.551,100.098,0.000
1727539732.215,48.340,-14.160,-42.480,35.156,0.000
1727539732.219,-146.973,-7.812,-44.434,-107.910,0.000
1727539732.223,-139.648,-8.789,-40.039,-116.211,0.000
1727539732.227,81.543,-10.742,-45.410,53.223,0.000
1727539732.231,133.301,-19.043,-44.922,93.750,0.000
1727539732.235,62.500,-23.438,-36.133,44.434,0.000
1727539732.239,-112.793,-23.438,-35.156,-75.684,0.000
1727539732.243,-144.043,-21.973,-39.062,-113.770,0.000
1727539732.247,62.012,-15.625,-47.363,24.902,0.000
1727539732.251,138.672,-14.160,-45.898,77.637,0.000
1727539732.254,73.242,-20.020,-40.039,42.969,0.000
1727539732.258,-102.051,-21.973,-41.016,-76.660,0.000
1727539732.262,-162.598,-20.996,-47.852,-137.207,0.000
1727539732.266,45.898,-21.973,-53.223,22.949,0.000
1727539732.270,141.113,-20.996,-44.434,101.074,0.000
1727539732.274,90.332,-22.949,-44.922,63.477,0.000
1727539732.278,-63.477,-19.531,-54.688,-42.969,0.000
1727539732.282,-166.016,-10.742,-66.406,-118.652,0.000
1727539732.286,19.531,-13.672,-61.523,25.391,0.000
1727539732.290,146.484,-14.160,-28.320,121.582,0.000
1727539732.294,105.957,-16.602,-11.719,81.055,0.000
1727539732.297,-54.199,-25.391,-22.949,-25.391,0.000
1727539732.301,-182.617,-22.949,-34.180,-128.418,0.000
1727539732.305,-1.465,-24.414,-30.762,-14.160,0.000
1727539732.309,150.391,-30.273,-29.785,108.887,0.000
1727539732.313,114.258,-24.902,-35.156,92.773,0.000
1727539732.317,-26.367,-16.113,-41.016,-11.719,0.000
1727539732.321,-161.133,-12.207,-48.828,-127.441,0.000
1727539732.325,-10.254,-9.766,-54.199,-13.184,0.000
1727539732.329,157.715,-9.277,-55.664,119.629,0.000
1727539732.333,136.719,-9.277,-45.898,102.539,0.000
1727539732.336,2.930,-8.789,-24.902,3.906,0.000
1727539732.340,-153.809,-16.113,-30.762,-127.930,0.000
1727539732.344,-32.227,-19.531,-48.340,-39.551,0.000
1727539732.348,143.066,-17.090,-47.363,112.305,0.000
1727539732.352,136.719,-12.207,-46.875,110.840,0.000
1727539732.356,23.926,-8.789,-53.223,26.855,0.000
1727539732.360,-141.602,-8.301,-47.363,-111.328,0.000
1727539732.364,-48.828,-17.578,-39.062,-65.430,0.000
1727539732.368,135.254,-22.461,-47.852,92.285,0.000
1727539732.372,138.184,-9.277,-48.340,111.328,0.000
1727539732.376,37.109,-8.789,-49.316,38.574,0.000
1727539732.379,-158.691,-16.602,-58.594,-101.562,0.000
1727539732.383,-106.445,-18.066,-61.035,-67.383,0.000
1727539732.387,107.422,-22.949,-46.875,85.449,0.000
1727539732.391,142.090,-19.531,-44.922,121.582,0.000
1727539732.395,47.363,-14.648,-54.199,68.359,0.000
1727539732.399,-140.137,-22.461,-60.059,-89.355,0.000
1727539732.403,-128.906,-21.484,-78.613,-92.285,0.000
1727539732.407,87.891,-12.207,-77.637,78.613,0.000
1727539732.411,145.508,-16.602,-56.641,116.699,0.000
1727539732.415,72.266,-22.461,-44.434,61.523,0.000
1727539732.419,-112.305,-25.879,-37.109,-73.242,0.000
1727539732.422,-144.531,-27.832,-38.574,-100.098,0.000
1727539732.426,76.660,-25.391,-48.828,63.965,0.000
1727539732.430,149.414,-28.809,-43.457,126.953,0.000
1727539732.434,84.473,-28.809,-45.410,75.195,0.000
1727539732.438,-97.656,-28.320,-50.781,-52.246,0.000
1727539732.442,-153.809,-28.320,-52.246,-114.746,0.000
1727539732.446,73.242,-18.555,-55.176,41.504,0.000
1727539732.450,162.598,-21.484,-62.012,124.023,0.000
1727539732.454,107.910,-23.438,-60.547,84.961,0.000
1727539732.458,-44.434,-20.996,-41.016,-36.133,0.000
1727539732.461,-133.789,-23.926,-34.180,-121.582,0.000
1727539732.465,66.895,-20.020,-42.969,19.531,0.000
1727539732.469,182.129,-21.973,-53.711,119.141,0.000
1727539732.473,129.883,-23.438,-58.594,99.121,0.000
1727539732.477,-37.109,-20.508,-62.988,-14.648,0.000
1727539732.481,-168.945,-22.461,-72.266,-111.816,0.000
1727539732.485,17.090,-18.555,-66.895,28.320,0.000
1727539732.489,164.062,-18.555,-56.152,140.137,0.000
1727539732.493,126.465,-22.461,-56.641,115.234,0.000
1727539732.497,-15.137,-22.949,-55.176,3.418,0.000
1727539732.500,-154.297,-18.555,-57.617,-119.629,0.000
1727539732.504,-9.277,-17.578,-54.199,-7.812,0.000
1727539732.508,157.715,-20.996,-50.293,114.258,0.000
1727539732.512,147.949,-17.090,-52.246,101.562,0.000
1727539732.516,14.160,-19.043,-53.711,10.742,0.000
1727539732.520,-147.949,-21.973,-56.641,-122.070,0.000
1727539732.524,-23.438,-22.461,-54.688,-29.785,0.000
1727539732.528,161.621,-24.902,-47.852,128.418,0.000
1727539732.532,155.273,-24.414,-62.988,115.723,0.000
1727539732.536,29.297,-19.043,-87.402,21.973,0.000
1727539732.540,-145.996,-20.508,-75.684,-108.398,0.000
1727539732.543,-43.945,-26.855,-52.246,-54.199,0.000
1727539732.547,166.992,-20.020,-40.039,104.980,0.000
1727539732.551,164.551,-19.043,-41.992,120.605,0.000
1727539732.555,44.434,-21.484,-56.152,35.645,0.000
1727539732.559,-139.160,-23.926,-63.965,-111.328,0.000
1727539732.563,-82.520,-29.297,-59.082,-75.195,0.000
1727539732.567,125.000,-28.320,-42.969,88.379,0.000
1727539732.571,150.879,-25.391,-39.062,111.816,0.000
1727539732.575,65.430,-20.996,-45.898,51.270,0.000
1727539732.579,-122.070,-19.531,-46.875,-88.867,0.000
1727539732.583,-102.539,-24.902,-41.504,-85.449,0.000
1727539732.586,130.371,-25.391,-43.457,92.285,0.000
1727539732.590,190.918,-20.020,-45.410,153.809,0.000
1727539732.594,110.352,-20.020,-42.480,95.703,0.000
1727539732.598,-83.984,-17.090,-43.457,-54.688,0.000
1727539732.602,-111.816,-16.602,-47.363,-88.867,0.000
1727539732.606,107.910,-20.996,-49.316,80.078,0.000
1727539732.610,178.223,-18.555,-45.898,139.160,0.000
1727539732.614,118.652,-20.996,-43.945,88.867,0.000
1727539732.618,-52.734,-26.855,-37.109,-33.691,0.000
1727539732.622,-116.211,-22.461,-43.945,-80.078,0.000
1727539732.626,99.609,-17.578,-50.781,89.844,0.000
1727539732.629,194.824,-14.160,-40.527,168.945,0.000
1727539732.633,133.789,-15.137,-42.480,127.441,0.000
1727539732.637,-32.227,-22.949,-54.688,-10.742,0.000
1727539732.641,-111.816,-18.066,-53.711,-75.195,0.000
1727539732.645,83.984,-17.090,-55.664,76.172,0.000
1727539732.649,185.547,-28.809,-48.828,166.504,0.000
1727539732.653,144.043,-20.508,-42.480,143.555,0.000
1727539732.657,-8.789,-11.719,-52.734,11.230,0.000
1727539732.661,-123.535,-14.648,-51.270,-95.703,0.000
1727539732.665,56.641,-14.648,-52.734,39.551,0.000
1727539732.668,195.801,-18.555,-41.992,146.484,0.000
1727539732.672,158.691,-22.949,-27.344,121.094,0.000
1727539732.676,5.371,-21.484,-27.832,26.367,0.000
1727539732.680,-129.395,-17.578,-39.062,-89.355,0.000
1727539732.684,32.715,-18.555,-48.828,16.113,0.000
1727539732.688,190.430,-22.461,-50.293,151.367,0.000
1727539732.692,158.691,-24.414,-48.340,128.906,0.000
1727539732.696,22.949,-24.414,-44.922,13.672,0.000
1727539732.700,-134.277,-20.020,-42.480,-107.910,0.000
1727539732.704,-2.930,-23.438,-48.340,-11.230,0.000
1727539732.708,191.406,-21.973,-48.340,126.465,0.000
1727539732.711,178.223,-16.113,-49.316,128.418,0.000
1727539732.715,38.086,-20.020,-62.988,39.551,0.000
1727539732.719,-132.324,-24.902,-69.824,-94.727,0.000
1727539732.723,-33.691,-25.391,-58.105,-18.066,0.000
1727539732.727,159.668,-24.902,-47.852,131.348,0.000
1727539732.731,158.203,-24.902,-50.293,140.625,0.000
1727539732.735,47.363,-22.461,-51.270,57.617,0.000
1727539732.739,-124.023,-21.973,-59.082,-90.820,0.000
1727539732.743,-53.711,-23.438,-62.988,-41.992,0.000
1727539732.747,156.738,-20.508,-48.828,121.094,0.000
1727539732.751,171.875,-17.578,-47.363,134.766,0.000
1727539732.754,71.289,-19.531,-54.199,66.406,0.000
1727539732.758,-116.211,-29.297,-58.105,-78.125,0.000
1727539732.762,-74.707,-31.250,-67.383,-67.383,0.000
1727539732.766,146.484,-24.414,-66.406,102.539,0.000
1727539732.770,181.152,-21.484,-62.988,136.719,0.000
1727539732.774,100.098,-18.066,-63.965,72.754,0.000
1727539732.778,-83.984,-17.090,-54.199,-65.430,0.000
1727539732.782,-93.262,-12.695,-40.039,-75.195,0.000
1727539732.786,125.488,-14.160,-34.668,96.680,0.000
1727539732.790,184.570,-19.531,-34.180,148.926,0.000
1727539732.793,117.676,-13.672,-31.738,100.098,0.000
1727539732.797,-59.570,-10.254,-38.574,-35.156,0.000
1727539732.801,-105.957,-8.789,-46.387,-79.590,0.000
1727539732.805,104.980,-6.348,-43.945,78.125,0.000
1727539732.809,187.988,-10.254,-38.574,141.113,0.000
1727539732.813,130.859,-18.066,-38.574,99.121,0.000
1727539732.817,-33.691,-14.648,-51.758,-29.297,0.000
1727539732.821,-114.258,-12.695,-55.176,-100.586,0.000
1727539732.825,78.613,-18.555,-47.852,47.852,0.000
1727539732.829,186.035,-16.113,-45.410,141.602,0.000
1727539732.833,139.160,-11.230,-46.387,104.492,0.000
1727539732.836,-31.738,-17.578,-50.781,-30.762,0.000
1727539732.840,-150.391,-22.461,-52.734,-126.465,0.000
1727539732.844,44.922,-15.625,-51.758,30.273,0.000
1727539732.848,192.871,-17.090,-49.316,145.508,0.000
1727539732.852,147.461,-20.996,-49.805,118.164,0.000
1727539732.856,-8.301,-16.113,-67.383,20.508,0.000
1727539732.860,-135.742,-21.484,-61.035,-97.168,0.000
1727539732.864,29.297,-29.297,-46.387,7.812,0.000
1727539732.868,185.059,-24.902,-45.898,137.695,0.000
1727539732.872,151.855,-20.996,-49.316,113.281,0.000
1727539732.875,2.441,-23.438,-47.852,6.348,0.000
1727539732.879,-154.785,-22.949,-42.969,-125.000,0.000
1727539732.883,-5.859,-16.602,-48.828,-16.113,0.000
1727539732.887,182.617,-9.766,-49.316,132.812,0.000
1727539732.891,152.832,-19.043,-38.086,104.980,0.000
1727539732.895,11.719,-23.438,-30.273,8.789,0.000
1727539732.899,-146.973,-10.742,-40.039,-100.586,0.000
1727539732.903,-26.855,-6.836,-51.758,-15.625,0.000
1727539732.907,173.828,-2.441,-47.363,145.020,0.000
1727539732.911,170.898,-3.418,-41.504,151.367,0.000
1727539732.915,36.133,-22.949,-31.250,34.668,0.000
1727539732.918,-145.996,-24.902,-23.926,-101.562,0.000
1727539732.922,-48.828,-1.953,-30.762,-40.527,0.000
1727539732.926,167.969,0.488,-45.898,117.188,0.000
1727539732.930,180.176,-7.812,-42.969,128.906,0.000
1727539732.934,83.008,-2.441,-43.945,77.148,0.000
1727539732.938,-148.926,-17.578,-28.320,-106.934,0.000
1727539732.942,-136.230,-20.996,-2.930,-128.906,0.000
1727539732.946,147.949,11.230,-54.688,106.445,0.000
1727539732.950,151.855,-6.348,-43.457,120.117,0.000
1727539732.954,41.016,-23.438,9.277,34.668,0.000
1727539732.957,-100.098,-10.742,-50.293,-49.805,0.000
1727539732.961,-92.285,-14.648,-78.613,-52.246,0.000
1727539732.965,131.348,-13.672,-53.223,91.797,0.000
1727539732.969,174.805,-21.973,-49.805,114.746,0.000
1727539732.973,28.809,-29.785,-2.441,1.465,0.000
1727539732.977,-193.848,-38.086,28.320,-168.457,0.000
1727539732.981,-193.848,-46.387,-24.414,-178.711,0.000
1727539732.985,76.660,-16.113,-94.727,46.387,0.000
1727539732.989,157.715,-16.113,-80.078,95.215,0.000
1727539732.993,29.785,-41.992,-20.996,-22.461,0.000
1727539732.997,-96.680,-39.062,-36.133,-98.633,0.000
1727539733.000,-190.430,-71.777,-40.527,-183.105,0.000
1727539733.004,-49.805,-95.703,-26.367,-82.520,0.000
1727539733.008,88.379,-70.801,-66.895,35.645,0.000
1727539733.012,36.621,-100.098,-83.008,0.488,0.000
1727539733.016,-113.281,-130.371,-93.750,-119.141,0.000
1727539733.020,-223.145,-98.633,-97.656,-226.562,0.000
1727539733.024,-69.336,-82.031,-87.891,-130.859,0.000
1727539733.028,58.594,-73.730,-165.527,-40.039,0.000
1727539733.032,17.578,-72.754,-249.512,-51.758,0.000
1727539733.036,-96.191,-72.754,-241.211,-123.047,0.000
1727539733.040,-211.914,-73.730,-250.000,-215.820,0.000
1727539733.043,-63.965,-100.586,-273.438,-91.797,0.000
1727539733.047,125.977,-115.723,-318.359,82.520,0.000
1727539733.051,93.750,-118.652,-357.422,77.637,0.000
1727539733.055,-77.148,-91.797,-423.828,-60.059,0.000
1727539733.059,-224.609,-64.453,-527.344,-204.102,0.000
1727539733.063,-89.355,-62.012,-575.684,-111.816,0.000
1727539733.067,87.402,-60.547,-635.254,51.270,0.000
1727539733.071,52.246,-65.918,-723.145,34.180,0.000
1727539733.075,-72.266,-78.613,-875.488,-60.547,0.000
1727539733.079,-198.730,-56.641,-1000.000,-155.273,0.000
1727539733.083,-101.074,-53.223,-998.535,-73.242,0.000
1727539733.086,94.238,-64.453,-998.047,93.262,0.000
1727539733.090,115.723,-52.734,-1000.000,108.887,0.000
1727539733.094,-16.113,-61.523,-1000.000,2.441,0.000
1727539733.098,-187.988,-61.035,-1000.000,-145.508,0.000
1727539733.102,-78.613,-39.062,-1000.000,-60.547,0.000
1727539733.106,126.465,-40.039,-1000.000,105.957,0.000
1727539733.110,146.484,-38.086,-1000.000,125.488,0.000
1727539733.114,45.410,-36.133,-1000.000,66.406,0.000
1727539733.118,-141.602,-19.043,-1000.000,-97.168,0.000
1727539733.122,-106.934,-23.438,-1000.000,-107.910,0.000
1727539733.125,103.516,-45.410,-1000.000,88.379,0.000
1727539733.129,116.699,-58.594,-1000.000,127.930,0.000
1727539733.133,50.781,-39.551,-1000.000,70.312,0.000
1727539733.137,-82.520,-25.391,-1000.000,-44.922,0.000
1727539733.141,-84.961,-70.801,-1000.000,-52.246,0.000
1727539733.145,141.602,-53.223,-1000.000,147.461,0.000
1727539733.149,179.688,-8.301,-1000.000,188.477,0.000
1727539733.153,79.102,1.953,-1000.000,104.004,0.000
1727539733.157,-102.539,4.395,-1000.000,-61.523,0.000
1727539733.161,-149.414,-7.324,-1000.000,-106.934,0.000
1727539733.165,68.848,-8.301,-1000.000,99.609,0.000
1727539733.168,167.480,-1.953,-1000.000,196.289,0.000
1727539733.172,74.707,-23.438,-1000.000,104.004,0.000
1727539733.176,-115.723,-28.320,-1000.000,-77.637,0.000
1727539733.180,-124.023,-9.277,-1000.000,-95.215,0.000
1727539733.184,119.629,2.930,-1000.000,126.953,0.000
1727539733.188,212.402,-1.953,-1000.000,205.078,0.000
1727539733.192,128.906,-18.555,-1000.000,133.789,0.000
1727539733.196,-36.133,-16.113,-1000.000,16.113,0.000
1727539733.200,-139.160,-17.090,-1000.000,-73.730,0.000
1727539733.204,48.340,-19.043,-1000.000,66.406,0.000
1727539733.207,172.363,-11.230,-1000.000,163.086,0.000
1727539733.211,116.699,-13.672,-1000.000,142.090,0.000
1727539733.215,-34.668,-14.648,-1000.000,13.672,0.000
1727539733.219,-146.973,6.836,-1000.000,-104.492,0.000
1727539733.223,28.809,15.625,-999.023,46.387,0.000
1727539733.227,166.992,7.812,-999.512,174.316,0.000
1727539733.231,131.836,6.348,-956.055,158.691,0.000
1727539733.235,-15.137,1.465,-882.812,32.715,0.000
1727539733.239,-175.781,0.488,-833.496,-122.559,0.000
1727539733.243,-21.973,7.812,-805.176,4.883,0.000
1727539733.247,167.480,7.812,-763.184,175.781,0.000
1727539733.250,137.695,1.465,-695.801,165.527,0.000
1727539733.254,-13.672,-6.348,-625.488,36.621,0.000
1727539733.258,-157.715,0.000,-600.098,-87.891,0.000
1727539733.262,-11.230,18.066,-583.496,36.133,0.000
1727539733.266,184.082,20.020,-509.766,198.730,0.000
1727539733.270,183.105,18.066,-419.922,192.871,0.000
1727539733.274,67.871,25.879,-335.449,104.492,0.000
1727539733.278,-123.535,20.020,-264.648,-50.293,0.000
1727539733.282,-42.969,13.184,-204.590,-1.953,0.000
1727539733.286,164.062,13.672,-137.207,179.688,0.000
1727539733.289,174.316,14.160,-84.961,194.336,0.000
1727539733.293,78.613,21.484,99.121,118.164,0.000
1727539733.297,-97.168,26.855,340.820,-32.227,0.000
1727539733.301,-45.410,28.320,478.027,-0.488,0.000
1727539733.305,183.105,31.738,537.109,184.082,0.000
1727539733.309,214.355,27.344,713.867,210.938,0.000
1727539733.313,99.609,20.996,950.195,130.859,0.000
1727539733.317,-109.863,15.625,970.703,-36.133,0.000
1727539733.321,-99.121,12.207,961.426,-41.992,0.000
1727539733.325,129.395,17.090,969.727,139.648,0.000
1727539733.329,184.570,23.926,968.262,178.711,0.000
1727539733.332,109.863,29.297,968.262,134.766,0.000
1727539733.336,-68.359,34.180,968.262,7.324,0.000
1727539733.340,-101.074,30.273,968.262,-39.062,0.000
1727539733.344,109.375,20.996,968.262,110.840,0.000
1727539733.348,191.895,19.043,968.262,162.598,0.000
1727539733.352,131.348,22.949,968.262,118.652,0.000
1727539733.356,-49.316,24.902,968.262,-9.277,0.000
1727539733.360,-114.746,22.461,967.773,-76.660,0.000
1727539733.364,91.309,27.832,967.773,76.660,0.000
1727539733.368,185.059,31.738,968.262,160.645,0.000
1727539733.372,130.859,35.156,968.262,116.211,0.000
1727539733.375,-47.363,28.320,968.262,-13.184,0.000
1727539733.379,-157.227,17.578,968.262,-100.098,0.000
1727539733.383,46.875,19.043,968.262,42.969,0.000
1727539733.387,182.129,24.414,968.262,147.461,0.000
1727539733.391,137.695,24.414,968.262,114.746,0.000
1727539733.395,-16.602,29.297,968.262,-5.371,0.000
1727539733.399,-131.836,37.109,967.773,-105.957,0.000
1727539733.403,39.062,35.645,968.262,16.113,0.000
1727539733.407,171.875,26.367,968.262,118.652,0.000
1727539733.411,121.582,16.602,967.773,83.496,0.000
1727539733.414,-26.367,14.648,968.262,-26.367,0.000
1727539733.418,-156.250,21.484,968.262,-142.578,0.000
1727539733.422,2.930,24.414,968.262,-38.574,0.000
1727539733.426,160.156,25.391,968.262,102.539,0.000
1727539733.430,128.418,26.367,968.262,95.703,0.000
1727539733.434,-0.977,24.414,968.262,0.977,0.000
1727539733.438,-166.504,22.461,968.262,-130.859,0.000
1727539733.442,-36.621,22.949,968.262,-50.293,0.000
1727539733.446,157.227,22.461,968.262,107.422,0.000
1727539733.450,141.113,19.043,968.262,114.746,0.000
1727539733.454,16.602,18.555,968.262,25.391,0.000
1727539733.457,-153.320,13.672,968.262,-119.141,0.000
1727539733.461,-58.105,12.695,968.262,-66.406,0.000
1727539733.465,143.066,13.672,968.262,88.867,0.000
1727539733.469,151.855,9.766,968.262,105.957,0.000
1727539733.473,47.852,11.230,968.262,32.715,0.000
1727539733.477,-139.648,13.672,966.797,-111.328,0.000
1727539733.481,-77.637,17.090,968.750,-81.543,0.000
1727539733.485,135.254,11.719,962.891,76.660,0.000
1727539733.489,161.133,6.836,913.086,101.074,0.000
1727539733.493,77.637,10.254,875.000,30.762,0.000
1727539733.497,-119.141,3.418,852.051,-109.375,0.000
1727539733.500,-106.934,-0.977,805.176,-103.027,0.000
1727539733.504,116.699,-3.906,770.020,61.035,0.000
1727539733.508,154.785,-1.953,740.723,99.609,0.000
1727539733.512,73.730,3.906,693.359,44.434,0.000
1727539733.516,-112.305,-0.977,650.391,-83.008,0.000
1727539733.520,-143.555,-2.441,625.977,-112.793,0.000
1727539733.524,73.730,6.836,611.816,39.062,0.000
1727539733.528,153.809,16.602,584.961,100.586,0.000
1727539733.532,82.520,18.066,538.574,61.523,0.000
1727539733.536,-106.934,12.207,528.809,-83.008,0.000
1727539733.539,-163.574,9.766,522.949,-145.020,0.000
1727539733.543,49.316,9.766,500.977,22.461,0.000
1727539733.547,148.438,4.883,471.191,98.145,0.000
1727539733.551,98.633,4.883,438.965,54.199,0.000
1727539733.555,-76.172,5.371,422.852,-69.336,0.000
1727539733.559,-168.457,6.348,405.273,-137.207,0.000
1727539733.563,28.320,11.230,388.184,18.066,0.000
1727539733.567,150.879,11.230,374.023,104.004,0.000
1727539733.571,108.398,15.137,344.238,73.242,0.000
1727539733.575,-51.758,18.555,339.355,-42.969,0.000
1727539733.579,-169.434,9.766,336.426,-150.391,0.000
1727539733.582,4.883,6.836,308.594,-23.926,0.000
1727539733.586,146.973,7.812,297.852,90.820,0.000
1727539733.590,102.539,6.836,277.832,70.801,0.000
1727539733.594,-42.480,9.766,258.301,-31.738,0.000
1727539733.598,-177.734,7.324,238.281,-149.902,0.000
1727539733.602,-20.996,3.906,213.379,-42.480,0.000
1727539733.606,152.344,7.324,204.590,101.074,0.000
1727539733.610,135.254,8.301,199.707,89.844,0.000
1727539733.614,-7.324,3.906,187.988,-27.832,0.000
1727539733.618,-181.641,1.465,180.176,-157.227,0.000
1727539733.621,-52.246,6.348,180.664,-63.965,0.000
1727539733.625,143.555,8.301,170.410,81.543,0.000
1727539733.629,128.418,1.953,166.016,81.055,0.000
1727539733.633,6.836,2.930,160.645,0.977,0.000
1727539733.637,-159.668,5.371,158.691,-132.812,0.000
1727539733.641,-73.730,9.766,165.039,-73.242,0.000
1727539733.645,125.000,10.254,153.320,75.195,0.000
1727539733.649,134.766,11.230,133.789,93.262,0.000
1727539733.653,26.367,6.836,135.742,22.461,0.000
1727539733.657,-154.297,-0.977,138.672,-121.582,0.000
1727539733.661,-85.938,8.301,132.812,-78.613,0.000
1727539733.664,130.371,11.230,125.977,77.148,0.000
1727539733.668,156.738,2.441,120.605,93.262,0.000
1727539733.672,72.266,3.906,140.625,33.691,0.000
1727539733.676,-118.652,8.789,142.578,-104.980,0.000
1727539733.680,-110.352,3.906,118.652,-102.051,0.000
1727539733.684,102.051,2.930,112.793,67.383,0.000
1727539733.688,132.324,1.953,112.305,102.539,0.000
1727539733.692,43.945,0.488,117.676,41.992,0.000
1727539733.696,-134.277,6.836,128.418,-94.727,0.000
1727539733.700,-142.578,15.625,118.652,-118.652,0.000
1727539733.703,70.801,15.137,97.656,46.387,0.000
1727539733.707,136.230,10.742,78.125,103.027,0.000
1727539733.711,70.312,14.160,60.059,57.617,0.000
1727539733.715,-103.027,16.602,54.199,-82.031,0.000
1727539733.719,-145.508,10.254,74.707,-138.672,0.000
1727539733.723,58.105,3.906,83.008,9.766,0.000
1727539733.727,142.090,3.906,76.172,80.566,0.000
1727539733.731,76.172,6.836,86.914,49.316,0.000
1727539733.735,-101.074,8.789,96.191,-77.148,0.000
1727539733.739,-180.176,10.254,91.309,-146.973,0.000
1727539733.743,38.086,10.254,82.031,19.531,0.000
1727539733.746,168.457,15.625,74.707,119.629,0.000
1727539733.750,118.652,15.137,66.895,73.730,0.000
1727539733.754,-61.035,11.719,61.035,-53.711,0.000
1727539733.758,-186.035,18.066,54.688,-145.020,0.000
1727539733.762,-8.789,15.137,44.922,-23.926,0.000
1727539733.766,125.000,14.648,29.785,74.707,0.000
1727539733.770,79.590,16.602,24.414,45.898,0.000
1727539733.774,-72.754,9.766,34.668,-66.406,0.000
1727539733.778,-211.914,5.859,41.016,-180.664,0.000
1727539733.782,-54.688,2.441,35.645,-65.430,0.000
1727539733.786,120.605,-1.465,23.926,77.148,0.000
1727539733.789,107.422,-0.488,11.719,73.242,0.000
1727539733.793,-26.367,4.395,12.207,-31.250,0.000
1727539733.797,-177.246,8.301,10.742,-157.715,0.000
1727539733.801,-41.016,6.348,-16.113,-59.082,0.000
1727539733.805,133.789,4.883,-21.484,83.496,0.000
1727539733.809,120.117,6.836,20.508,68.848,0.000
1727539733.813,-7.812,-0.488,50.293,-12.207,0.000
1727539733.817,-186.035,-2.930,44.922,-123.535,0.000
1727539733.821,-82.520,-3.418,41.504,-56.152,0.000
1727539733.825,118.652,-7.324,35.156,81.543,0.000
1727539733.829,123.535,-0.977,21.484,84.961,0.000
1727539733.832,21.484,3.906,18.555,11.230,0.000
1727539733.836,-163.086,-0.488,9.766,-125.977,0.000
1727539733.840,-114.258,-2.930,6.348,-82.520,0.000
1727539733.844,94.727,-0.488,12.207,78.125,0.000
1727539733.848,115.723,-1.465,9.277,98.145,0.000
1727539733.852,23.926,-2.930,2.441,25.879,0.000
1727539733.856,-150.391,-0.977,-2.441,-117.676,0.000
1727539733.860,-122.559,4.883,-11.719,-107.910,0.000
1727539733.864,91.309,3.418,-18.066,61.035,0.000
1727539733.868,133.789,1.953,-7.324,104.004,0.000
1727539733.871,56.152,1.953,2.441,39.062,0.000
1727539733.875,-116.211,4.395,6.836,-100.098,0.000
1727539733.879,-134.277,1.953,6.836,-122.070,0.000
1727539733.883,66.895,-1.465,3.906,38.086,0.000
1727539733.887,120.605,0.977,1.465,83.984,0.000
1727539733.891,55.176,2.441,1.953,36.133,0.000
1727539733.895,-116.699,4.883,-10.742,-87.891,0.000
1727539733.899,-162.598,2.441,-22.949,-141.602,0.000
1727539733.903,55.176,0.488,-14.160,7.812,0.000
1727539733.907,145.508,1.465,-3.906,84.473,0.000
1727539733.911,87.402,4.883,-0.488,45.410,0.000
1727539733.914,-85.449,7.812,-8.789,-80.566,0.000
1727539733.918,-171.387,6.836,-19.531,-142.578,0.000
1727539733.922,25.879,9.766,-18.066,3.906,0.000
1727539733.926,131.836,7.812,-7.812,83.496,0.000
1727539733.930,85.938,3.418,-1.465,46.875,0.000
1727539733.934,-77.637,4.395,4.395,-65.430,0.000
1727539733.938,-197.266,4.395,5.371,-148.926,0.000
1727539733.942,-13.184,7.324,6.348,-8.301,0.000
1727539733.946,140.625,11.719,2.930,100.098,0.000
1727539733.950,102.051,12.695,-3.906,67.871,0.000
1727539733.953,-57.129,9.766,-9.277,-44.922,0.000
1727539733.957,-187.012,7.812,-12.695,-145.508,0.000
1727539733.961,-19.531,10.254,-9.277,-25.391,0.000
1727539733.965,140.137,14.160,-5.859,90.332,0.000
1727539733.969,105.957,7.812,-10.254,67.871,0.000
1727539733.973,-28.320,2.930,-7.324,-21.484,0.000
1727539733.977,-181.641,1.953,0.000,-138.184,0.000
1727539733.981,-49.805,2.441,-0.488,-40.527,0.000
1727539733.985,136.230,10.254,-8.301,98.145,0.000
1727539733.989,120.117,9.277,-16.113,84.473,0.000
1727539733.993,-15.137,3.418,-27.832,-14.160,0.000
1727539733.996,-193.848,2.930,-21.973,-143.555,0.000
1727539734.000,-90.820,3.906,-10.254,-72.266,0.000
1727539734.004,108.398,7.812,-9.766,74.219,0.000
1727539734.008,110.352,12.695,-18.555,79.590,0.000
1727539734.012,-1.953,3.418,-32.715,2.441,0.000
1727539734.016,-179.688,-1.465,-26.855,-134.766,0.000
1727539734.020,-107.422,-0.488,-20.996,-96.191,0.000
1727539734.024,108.887,-2.441,-25.391,68.359,0.000
1727539734.028,133.301,3.906,-35.156,98.145,0.000
1727539734.032,27.344,9.766,-24.902,27.832,0.000
1727539734.035,-156.738,8.301,5.371,-112.793,0.000
1727539734.039,-115.234,10.742,15.137,-95.215,0.000
1727539734.043,111.328,11.719,8.789,61.035,0.000
1727539734.047,148.438,9.766,0.488,92.773,0.000
1727539734.051,61.035,12.695,-12.695,36.133,0.000
1727539734.055,-125.000,12.207,-17.090,-107.910,0.000
1727539734.059,-139.160,8.789,-12.207,-114.258,0.000
1727539734.063,78.613,3.418,0.000,52.734,0.000
1727539734.067,123.047,-5.371,0.488,87.891,0.000
1727539734.071,41.016,-5.371,-7.812,38.086,0.000
1727539734.075,-116.211,-1.465,-11.719,-79.102,0.000
1727539734.078,-143.555,2.441,-18.555,-117.676,0.000
1727539734.082,80.566,5.859,-14.160,46.387,0.000
1727539734.086,150.391,5.859,-7.324,107.422,0.000
1727539734.090,72.754,4.883,-12.695,48.340,0.000
1727539734.094,-96.191,1.953,-10.742,-83.984,0.000
1727539734.098,-168.457,3.418,-4.883,-148.438,0.000
1727539734.102,38.574,5.859,-2.441,12.207,0.000
1727539734.106,159.180,4.883,-4.395,104.492,0.000
1727539734.110,110.840,5.859,-5.859,61.035,0.000
1727539734.114,-49.805,1.953,-2.441,-58.105,0.000
1727539734.118,-153.809,-0.488,6.836,-143.555,0.000
1727539734.121,23.438,3.418,1.465,-2.930,0.000
1727539734.125,153.809,7.812,-2.441,108.887,0.000
1727539734.129,107.422,6.348,6.348,85.449,0.000
1727539734.133,-58.105,1.465,10.254,-26.367,0.000
1727539734.137,-188.477,2.930,11.719,-140.625,0.000
1727539734.141,-10.254,8.301,8.301,-20.020,0.000
1727539734.145,146.973,6.348,-4.395,100.586,0.000
1727539734.149,113.281,2.930,-15.137,78.613,0.000
1727539734.153,-30.273,2.441,-11.230,-15.625,0.000
1727539734.157,-179.688,0.488,-14.648,-129.883,0.000
1727539734.161,-41.016,8.789,-12.207,-42.480,0.000
1727539734.164,122.559,9.766,10.742,89.355,0.000
1727539734.168,105.957,-0.488,18.555,89.355,0.000
1727539734.172,-14.648,1.465,17.090,-5.859,0.000
1727539734.176,-172.852,8.789,11.230,-127.441,0.000
1727539734.180,-62.500,8.789,11.719,-52.246,0.000
1727539734.184,131.836,9.277,12.207,90.332,0.000
1727539734.188,137.207,8.789,10.254,97.168,0.000
1727539734.192,20.508,6.836,5.371,11.719,0.000
1727539734.196,-164.551,10.254,-6.836,-120.605,0.000
1727539734.200,-95.703,10.742,-10.742,-77.148,0.000
1727539734.203,113.281,9.277,4.883,75.684,0.000
1727539734.207,127.441,0.977,21.973,98.145,0.000
1727539734.211,18.066,3.906,23.438,22.461,0.000
1727539734.215,-169.434,6.836,13.184,-122.070,0.000
1727539734.219,-131.836,0.488,-2.930,-96.680,0.000
1727539734.223,85.449,7.324,-5.859,65.918,0.000
1727539734.227,125.488,14.160,-13.184,89.355,0.000
1727539734.231,39.551,7.324,-26.367,26.367,0.000
1727539734.235,-142.578,-1.465,-21.973,-122.559,0.000
1727539734.239,-136.230,0.488,-9.766,-132.812,0.000
1727539734.243,82.520,8.301,-16.602,33.691,0.000
1727539734.246,142.578,10.742,-27.344,83.984,0.000
1727539734.250,63.477,3.906,-8.789,38.574,0.000
1727539734.254,-121.094,-3.418,9.277,-101.562,0.000
1727539734.258,-155.762,-5.371,11.230,-136.230,0.000
1727539734.262,53.711,-4.883,2.930,35.645,0.000
1727539734.266,139.160,-1.953,-8.301,100.586,0.000
1727539734.270,77.148,1.465,-10.254,50.781,0.000
1727539734.274,-98.145,2.441,-0.977,-78.613,0.000
1727539734.278,-164.551,1.465,6.836,-147.461,0.000
1727539734.282,40.527,-4.395,11.719,7.812,0.000
1727539734.286,143.066,-7.324,8.789,99.121,0.000
1727539734.289,91.797,-1.465,3.418,64.941,0.000
1727539734.293,-69.336,-2.930,5.371,-55.176,0.000
1727539734.297,-179.199,-3.906,-1.465,-148.926,0.000
1727539734.301,-1.465,-1.953,-8.789,-8.301,0.000
1727539734.305,127.441,-1.953,-9.766,87.402,0.000
1727539734.309,88.379,-8.301,-9.277,58.594,0.000
1727539734.313,-62.012,-12.695,-2.441,-40.039,0.000
1727539734.317,-196.289,-11.230,-7.812,-158.691,0.000
1727539734.321,-27.832,-10.742,-12.207,-36.133,0.000
1727539734.325,127.441,-5.371,-6.836,93.750,0.000
1727539734.328,91.797,-1.465,-6.836,71.289,0.000
1727539734.332,-51.758,-4.883,-19.531,-29.297,0.000
1727539734.336,-202.148,-4.395,-25.879,-165.527,0.000
1727539734.340,-63.965,-8.789,-4.883,-61.523,0.000
1727539734.344,107.910,-10.254,0.977,94.727,0.000
1727539734.348,94.727,-6.348,-7.324,78.125,0.000
1727539734.352,-37.598,-9.277,-9.277,-24.414,0.000
1727539734.356,-201.660,-10.742,-4.395,-151.855,0.000
1727539734.360,-81.543,-6.348,-1.465,-70.312,0.000
1727539734.364,110.352,-5.371,-0.977,78.613,0.000
1727539734.367,111.816,-6.348,-3.906,79.590,0.000
1727539734.371,1.953,-4.883,-8.789,-11.719,0.000
1727539734.375,-178.711,-4.395,-11.230,-143.555,0.000
1727539734.379,-104.004,-6.348,-13.184,-83.984,0.000
1727539734.383,99.609,-9.277,-15.137,67.871,0.000
1727539734.387,113.281,-3.906,-18.066,79.102,0.000
1727539734.391,15.137,1.953,-15.625,11.230,0.000
1727539734.395,-160.156,0.977,-19.531,-137.695,0.000
1727539734.399,-101.562,0.977,-26.367,-110.840,0.000
1727539734.403,109.375,0.000,-23.926,59.570,0.000
1727539734.407,127.441,-2.930,-18.066,95.703,0.000
1727539734.410,28.809,-2.441,-20.020,22.949,0.000
1727539734.414,-155.273,-1.465,-27.832,-134.277,0.000
1727539734.418,-140.625,-0.977,-24.902,-125.977,0.000
1727539734.422,76.172,-2.441,-33.691,44.922,0.000
1727539734.426,135.742,-4.395,-36.621,93.262,0.000
1727539734.430,69.824,0.000,-17.578,41.992,0.000
1727539734.434,-109.863,4.395,-7.324,-90.332,0.000
1727539734.438,-139.648,3.906,-10.742,-127.441,0.000
1727539734.442,70.312,1.953,-20.508,32.227,0.000
1727539734.446,143.555,-0.488,-26.367,95.215,0.000
1727539734.450,77.637,-8.301,-25.391,45.410,0.000
1727539734.453,-107.422,-9.766,-30.273,-83.496,0.000
1727539734.457,-170.410,-7.324,-28.809,-140.625,0.000
1727539734.461,43.945,-0.977,-22.949,6.348,0.000
1727539734.465,142.090,1.465,-21.973,77.637,0.000
1727539734.469,82.520,2.930,-21.973,43.945,0.000
1727539734.473,-82.520,3.418,-25.879,-77.148,0.000
1727539734.477,-179.199,-5.859,-29.785,-159.180,0.000
1727539734.481,13.184,-4.395,-21.484,-12.695,0.000
1727539734.485,142.090,1.953,-9.277,85.449,0.000
1727539734.489,98.633,-1.953,-18.066,49.805,0.000
1727539734.492,-65.918,-6.836,-24.902,-63.477,0.000
1727539734.496,-196.777,-11.719,-25.391,-166.016,0.000
1727539734.500,-29.297,-12.695,-31.738,-44.922,0.000
1727539734.504,116.699,-9.277,-36.133,77.637,0.000
1727539734.508,89.355,-3.906,-37.109,66.895,0.000
1727539734.512,-53.711,-2.441,-34.668,-45.898,0.000
1727539734.516,-195.801,-9.277,-32.715,-164.551,0.000
1727539734.520,-39.062,-8.789,-34.180,-54.199,0.000
1727539734.524,128.906,0.977,-35.156,80.078,0.000
1727539734.528,104.492,-0.488,-39.551,74.219,0.000
1727539734.532,-36.133,-3.418,-39.062,-34.180,0.000
1727539734.535,-170.898,-5.371,-32.715,-147.949,0.000
1727539734.539,-25.879,-5.859,-26.367,-44.434,0.000
1727539734.543,119.141,-6.348,-27.832,78.125,0.000
1727539734.547,107.910,-6.348,-34.180,76.172,0.000
1727539734.551,-13.184,-8.301,-29.297,-3.906,0.000
1727539734.555,-180.176,-7.324,-31.738,-125.488,0.000
1727539734.559,-84.473,0.977,-32.715,-75.684,0.000
1727539734.563,112.305,0.000,-28.809,69.336,0.000
1727539734.567,114.258,-2.441,-25.391,89.844,0.000
1727539734.571,-0.488,-0.977,-19.043,20.020,0.000
1727539734.575,-167.969,-4.395,-25.879,-118.652,0.000
1727539734.578,-112.793,-7.812,-34.668,-86.914,0.000
1727539734.582,92.285,-4.395,-33.691,70.312,0.000
1727539734.586,127.441,-0.488,-36.621,90.820,0.000
1727539734.590,38.086,-2.441,-35.645,30.273,0.000
1727539734.594,-143.555,-2.441,-23.438,-103.516,0.000
1727539734.598,-123.535,-3.418,-28.320,-104.004,0.000
1727539734.602,86.426,-3.906,-31.250,53.223,0.000
1727539734.606,134.766,-3.906,-26.855,97.656,0.000
1727539734.610,57.617,-5.371,-18.555,36.621,0.000
1727539734.614,-121.582,-5.371,-20.020,-99.609,0.000
1727539734.618,-139.648,-6.348,-37.598,-116.211,0.000
1727539734.621,73.730,-4.395,-47.363,38.086,0.000
1727539734.625,147.949,-3.906,-44.922,91.309,0.000
1727539734.629,55.176,-6.348,-31.250,26.855,0.000
1727539734.633,-130.371,-4.883,-27.344,-105.957,0.000
1727539734.637,-159.180,-4.883,-33.691,-132.324,0.000
1727539734.641,33.203,-8.301,-25.391,19.043,0.000
1727539734.645,129.395,-6.348,-15.625,90.820,0.000
1727539734.649,80.566,-4.883,-16.602,49.805,0.000
1727539734.653,-94.238,-10.742,-15.625,-75.195,0.000
1727539734.657,-184.570,-17.090,-19.043,-147.949,0.000
1727539734.661,11.230,-14.648,-29.297,0.488,0.000
1727539734.664,126.465,-10.742,-34.180,91.797,0.000
1727539734.668,80.566,-12.695,-23.926,62.988,0.000
1727539734.672,-69.336,-12.207,-19.043,-46.875,0.000
1727539734.676,-190.430,-8.789,-21.973,-141.602,0.000
1727539734.680,-15.625,0.488,-23.438,-17.090,0.000
1727539734.684,133.789,5.859,-21.973,94.727,0.000
1727539734.688,92.773,1.465,-20.020,78.125,0.000
1727539734.692,-52.246,-2.441,-26.855,-32.715,0.000
1727539734.696,-186.035,0.488,-29.297,-154.297,0.000
1727539734.700,-39.551,-3.418,-21.484,-42.480,0.000
1727539734.703,131.836,-2.441,-18.066,92.773,0.000
1727539734.707,119.141,-0.488,-31.738,72.754,0.000
1727539734.711,-25.879,-2.930,-38.574,-17.578,0.000
1727539734.715,-185.547,1.465,-37.598,-129.395,0.000
1727539734.719,-56.152,-2.441,-35.156,-51.758,0.000
1727539734.723,115.723,-2.441,-35.156,82.031,0.000
1727539734.727,104.004,6.836,-38.574,82.031,0.000
1727539734.731,-7.812,5.859,-36.621,-2.930,0.000
1727539734.735,-172.363,0.488,-31.738,-135.742,0.000
1727539734.739,-90.820,-6.348,-24.902,-71.289,0.000
1727539734.742,93.262,-2.930,-21.973,79.590,0.000
1727539734.746,108.887,3.418,-21.484,92.285,0.000
1727539734.750,5.371,1.953,-13.672,6.836,0.000
1727539734.754,-167.969,0.488,-5.371,-130.859,0.000
1727539734.758,-106.445,1.953,-9.766,-86.426,0.000
1727539734.762,99.121,1.953,-26.367,66.895,0.000
1727539734.766,128.418,-2.441,-34.668,83.496,0.000
1727539734.770,29.297,-2.930,-33.203,14.648,0.000
1727539734.774,-155.762,-2.930,-25.391,-123.535,0.000
1727539734.778,-130.371,-5.859,-20.508,-105.469,0.000
1727539734.782,90.820,-3.418,-26.367,55.664,0.000
1727539734.785,138.184,1.953,-27.344,98.145,0.000
1727539734.789,50.293,0.488,-24.414,51.270,0.000
1727539734.793,-128.418,0.000,-27.832,-88.867,0.000
1727539734.797,-144.043,-4.395,-28.320,-119.141,0.000
1727539734.801,59.082,-8.301,-25.391,37.109,0.000
1727539734.805,121.094,-5.859,-26.367,91.309,0.000
1727539734.809,67.871,-5.859,-26.855,47.852,0.000
1727539734.813,-110.840,-5.859,-21.484,-88.867,0.000
1727539734.817,-148.926,-2.930,-18.066,-124.512,0.000
1727539734.821,77.148,1.465,-18.555,36.133,0.000
1727539734.825,142.090,1.465,-16.602,84.961,0.000
1727539734.828,84.961,0.488,-23.438,53.711,0.000
1727539734.832,-85.938,-1.465,-36.133,-71.289,0.000
1727539734.836,-177.246,-4.883,-36.133,-142.578,0.000
1727539734.840,11.719,-9.277,-22.461,-7.324,0.000
1727539734.844,127.441,-10.254,-9.277,84.473,0.000
1727539734.848,87.402,-7.812,-6.836,68.359,0.000
1727539734.852,-71.777,-7.812,-11.719,-54.199,0.000
1727539734.856,-183.594,-4.883,-27.344,-149.414,0.000
1727539734.860,3.418,-4.395,-32.227,-23.438,0.000
1727539734.864,149.902,-8.301,-18.066,90.332,0.000
1727539734.867,99.121,-7.324,-20.508,66.406,0.000
1727539734.871,-62.988,-9.277,-27.832,-42.480,0.000
1727539734.875,-203.125,-14.160,-33.203,-153.809,0.000
1727539734.879,-49.316,-16.113,-31.738,-44.922,0.000
1727539734.883,119.141,-10.254,-18.066,93.262,0.000
1727539734.887,95.703,-8.789,-15.137,65.430,0.000
1727539734.891,-39.551,-7.812,-11.719,-39.551,0.000
1727539734.895,-192.871,-6.348,-7.812,-143.555,0.000
1727539734.899,-61.035,-7.812,-18.555,-58.594,0.000
1727539734.903,115.723,-8.789,-30.273,82.520,0.000
1727539734.907,107.910,-10.254,-29.785,88.867,0.000
1727539734.910,-11.230,-8.301,-22.461,2.441,0.000
1727539734.914,-183.105,-9.766,-21.484,-135.254,0.000
1727539734.918,-83.496,-12.695,-20.020,-69.824,0.000
1727539734.922,110.352,-9.277,-23.926,80.078,0.000
1727539734.926,112.793,-2.441,-23.926,94.238,0.000
1727539734.930,-0.977,-3.906,-22.461,13.184,0.000
1727539734.934,-182.617,-5.859,-28.320,-135.254,0.000
1727539734.938,-118.164,-8.301,-25.879,-96.680,0.000
1727539734.942,88.867,-7.324,-19.531,58.594,0.000
1727539734.946,106.934,-2.441,-17.090,83.008,0.000
1727539734.950,17.090,-3.906,-17.578,16.602,0.000
1727539734.953,-166.016,-6.836,-17.090,-123.047,0.000
1727539734.957,-141.602,-8.301,-17.090,-111.328,0.000
1727539734.961,80.566,-6.836,-14.648,47.852,0.000
1727539734.965,130.859,3.418,-20.996,88.867,0.000
1727539734.969,53.711,3.418,-26.367,37.598,0.000
1727539734.973,-137.695,-1.953,-25.879,-94.727,0.000
1727539734.977,-158.691,-8.301,-23.438,-125.000,0.000
1727539734.981,55.176,-11.719,-21.484,33.203,0.000
1727539734.985,123.047,-3.906,-25.879,89.844,0.000
1727539734.989,46.875,-10.742,-24.414,35.156,0.000
1727539734.993,-135.742,-20.020,-24.414,-110.840,0.000
1727539734.996,-176.758,-16.113,-27.832,-157.715,0.000
1727539735.000,43.945,-9.766,-17.090,19.531,0.000
1727539735.004,106.934,-8.789,-15.137,85.938,0.000
1727539735.008,40.039,-9.766,-29.785,35.156,0.000
1727539735.012,-89.844,1.465,-31.250,-70.801,0.000
1727539735.016,-173.828,2.930,-28.809,-136.230,0.000
1727539735.020,-1.953,-24.902,-9.277,-7.812,0.000
1727539735.024,129.883,-11.719,-17.578,86.426,0.000
1727539735.028,101.562,29.297,-49.805,73.730,0.000
1727539735.032,-84.473,-5.859,-30.762,-77.637,0.000
1727539735.035,-187.012,-23.438,-8.789,-182.129,0.000
1727539735.039,-1.953,-9.766,-28.809,-34.668,0.000
1727539735.043,119.629,-13.672,-49.316,78.125,0.000
1727539735.047,47.363,-24.902,-33.203,35.645,0.000
1727539735.051,-97.168,-27.832,-20.996,-75.195,0.000
1727539735.055,-181.152,-12.695,-32.227,-154.297,0.000
1727539735.059,-18.066,-10.254,-50.781,-27.344,0.000
1727539735.063,138.672,-11.719,-64.941,87.402,0.000
1727539735.067,75.684,-34.668,-42.480,13.672,0.000
1727539735.071,-60.547,-34.180,-38.086,-82.520,0.000
1727539735.074,-211.914,-32.715,-52.734,-201.172,0.000
1727539735.078,-101.562,-47.363,-48.828,-110.840,0.000
1727539735.082,84.473,-53.223,-33.203,42.969,0.000
1727539735.086,88.379,-47.852,-49.805,42.480,0.000
1727539735.090,-21.484,-39.062,-80.566,-27.832,0.000
1727539735.094,-194.824,-43.945,-53.711,-161.133,0.000
1727539735.098,-91.797,-52.734,-55.176,-99.609,0.000
1727539735.102,81.543,-75.684,-85.449,24.902,0.000
1727539735.106,40.527,-62.012,-73.242,-15.137,0.000
1727539735.110,-42.480,-58.594,-70.801,-54.199,0.000
1727539735.114,-152.832,-69.336,-85.938,-137.695,0.000
1727539735.117,-94.238,-61.523,-78.613,-120.117,0.000
1727539735.121,69.336,-91.797,-80.078,8.301,0.000
1727539735.125,116.211,-75.195,-139.160,69.824,0.000
1727539735.129,51.270,-48.340,-153.809,30.762,0.000
1727539735.133,-183.594,-79.590,-135.742,-166.992,0.000
1727539735.137,-148.438,-80.078,-161.621,-143.555,0.000
1727539735.141,80.566,-84.473,-170.410,32.227,0.000
1727539735.145,104.004,-105.469,-173.340,41.992,0.000
1727539735.149,30.762,-101.074,-238.281,-16.113,0.000
1727539735.153,-133.301,-85.449,-267.090,-161.621,0.000
1727539735.156,-135.254,-93.262,-269.043,-166.992,0.000
1727539735.160,49.316,-105.469,-296.875,5.859,0.000
1727539735.164,81.055,-105.957,-344.238,42.969,0.000
1727539735.168,22.461,-91.797,-402.344,13.672,0.000
1727539735.172,-132.324,-83.984,-460.938,-128.418,0.000
1727539735.176,-187.988,-96.191,-503.906,-208.008,0.000
1727539735.180,32.715,-85.449,-557.617,8.789,0.000
1727539735.184,149.414,-87.891,-639.160,129.395,0.000
1727539735.188,38.574,-105.469,-724.121,26.855,0.000
1727539735.192,-142.578,-102.539,-836.914,-122.559,0.000
1727539735.196,-151.367,-86.426,-974.121,-114.258,0.000
1727539735.199,4.883,-97.168,-1000.000,-11.230,0.000
1727539735.203,78.613,-122.070,-996.582,50.293,0.000
1727539735.207,64.453,-115.723,-1000.000,78.125,0.000
1727539735.211,-73.730,-87.402,-1000.000,-54.688,0.000
1727539735.215,-194.824,-84.961,-1000.000,-186.523,0.000
1727539735.219,-28.809,-94.238,-1000.000,-23.926,0.000
1727539735.223,140.625,-92.285,-1000.000,148.926,0.000
1727539735.227,91.797,-105.957,-1000.000,93.750,0.000
1727539735.231,-103.027,-107.910,-1000.000,-102.051,0.000
1727539735.235,-203.125,-77.637,-1000.000,-171.387,0.000
1727539735.239,-25.391,-84.961,-1000.000,5.371,0.000
1727539735.242,96.191,-107.422,-1000.000,101.074,0.000
1727539735.246,96.191,-83.496,-1000.000,88.867,0.000
1727539735.250,-52.246,-75.684,-1000.000,-24.902,0.000
1727539735.254,-238.770,-103.027,-1000.000,-175.781,0.000
1727539735.258,-43.457,-70.801,-1000.000,-16.602,0.000
1727539735.262,104.492,-84.961,-1000.000,79.102,0.000
1727539735.266,62.500,-107.910,-1000.000,68.848,0.000
1727539735.270,10.254,-53.223,-1000.000,63.477,0.000
1727539735.274,-165.039,-41.992,-1000.000,-130.859,0.000
1727539735.278,-79.102,-51.270,-1000.000,-73.730,0.000
1727539735.281,85.938,-58.105,-1000.000,104.492,0.000
1727539735.285,60.059,-50.781,-1000.000,99.609,0.000
1727539735.289,-30.273,-39.551,-1000.000,10.254,0.000
1727539735.293,-196.289,-51.270,-1000.000,-156.250,0.000
1727539735.297,-125.488,-58.594,-1000.000,-103.027,0.000
1727539735.301,64.453,-62.012,-1000.000,87.402,0.000
1727539735.305,106.934,-40.039,-1000.000,151.367,0.000
1727539735.309,26.855,-29.785,-1000.000,86.426,0.000
1727539735.313,-175.781,-47.852,-1000.000,-119.141,0.000
1727539735.317,-126.465,-48.340,-1000.000,-99.121,0.000
1727539735.321,92.773,-40.039,-1000.000,103.516,0.000
1727539735.324,128.906,-36.133,-1000.000,126.953,0.000
1727539735.328,22.949,-41.992,-1000.000,37.598,0.000
1727539735.332,-166.504,-41.992,-1000.000,-120.605,0.000
1727539735.336,-131.348,-33.691,-1000.000,-107.422,0.000
1727539735.340,93.262,-28.320,-1000.000,90.332,0.000
1727539735.344,137.207,-25.391,-1000.000,144.531,0.000
1727539735.348,55.664,-32.227,-998.047,86.426,0.000
1727539735.352,-124.512,-29.297,-1000.000,-72.754,0.000
1727539735.356,-155.762,-24.414,-985.352,-123.047,0.000
1727539735.360,70.801,-23.926,-908.203,64.453,0.000
1727539735.364,154.297,-18.555,-844.727,149.902,0.000
1727539735.367,103.516,-11.230,-808.594,126.953,0.000
1727539735.371,-70.801,-9.277,-745.117,-37.598,0.000
1727539735.375,-151.367,-12.207,-669.434,-136.230,0.000
1727539735.379,51.758,-13.672,-612.793,52.246,0.000
1727539735.383,145.996,-9.766,-569.336,156.738,0.000
1727539735.387,90.820,-13.184,-509.766,112.305,0.000
1727539735.391,-67.871,-14.648,-460.938,-19.043,0.000
1727539735.395,-167.969,-10.742,-419.434,-109.863,0.000
1727539735.399,42.480,-8.789,-367.676,50.781,0.000
1727539735.403,183.105,-8.301,-291.016,176.758,0.000
1727539735.406,137.207,-2.930,-192.871,150.391,0.000
1727539735.410,-24.414,4.395,-154.785,23.438,0.000
1727539735.414,-159.668,1.465,-128.906,-93.262,0.000
1727539735.418,8.789,-3.906,-4.883,36.133,0.000
1727539735.422,164.551,-7.812,195.312,152.344,0.000
1727539735.426,150.391,-4.395,436.523,143.555,0.000
1727539735.430,2.441,1.465,728.027,40.039,0.000
1727539735.434,-145.508,5.859,921.387,-90.332,0.000
1727539735.438,20.020,9.277,968.750,40.039,0.000
1727539735.442,185.059,10.254,963.867,187.988,0.000
1727539735.445,154.785,10.254,968.262,159.668,0.000
1727539735.449,29.785,8.789,968.262,47.852,0.000
1727539735.453,-133.789,10.254,968.262,-92.773,0.000
1727539735.457,-19.043,16.602,968.262,-3.418,0.000
1727539735.461,159.668,13.672,968.262,147.461,0.000
1727539735.465,132.812,5.371,968.262,117.188,0.000
1727539735.469,-0.488,-0.977,968.262,9.277,0.000
1727539735.473,-168.457,-1.465,968.262,-123.535,0.000
1727539735.477,-74.707,8.301,968.262,-58.594,0.000
1727539735.481,132.324,12.695,968.262,104.492,0.000
1727539735.485,145.020,17.090,968.262,110.352,0.000
1727539735.488,28.809,20.508,968.262,22.461,0.000
1727539735.492,-145.996,12.207,968.262,-120.117,0.000
1727539735.496,-94.727,11.719,968.262,-102.051,0.000
1727539735.500,120.117,14.648,968.262,59.570,0.000
1727539735.504,144.043,15.137,968.262,83.008,0.000
1727539735.508,46.875,22.949,968.262,31.250,0.000
1727539735.512,-126.953,27.344,968.262,-108.887,0.000
1727539735.516,-123.535,20.020,968.262,-129.395,0.000
1727539735.520,80.566,12.695,968.262,26.367,0.000
1727539735.524,129.395,11.719,968.262,78.125,0.000
1727539735.528,62.500,14.648,968.262,39.062,0.000
1727539735.531,-112.305,10.254,968.262,-101.562,0.000
1727539735.535,-137.695,8.301,968.262,-138.184,0.000
1727539735.539,72.266,16.602,968.262,31.250,0.000
1727539735.543,149.414,22.461,968.262,102.051,0.000
1727539735.547,92.285,27.832,968.262,53.711,0.000
1727539735.551,-82.520,28.809,968.262,-86.426,0.000
1727539735.555,-153.809,20.020,968.262,-152.344,0.000
1727539735.559,44.434,19.043,967.773,-10.254,0.000
1727539735.563,151.855,20.508,968.262,95.215,0.000
1727539735.567,74.219,21.973,968.262,43.945,0.000
1727539735.570,-102.539,22.949,968.262,-106.445,0.000
1727539735.574,-161.621,20.020,968.262,-152.832,0.000
1727539735.578,20.996,17.578,968.262,-18.066,0.000
1727539735.582,133.301,11.230,968.262,69.336,0.000
1727539735.586,95.703,8.789,968.262,43.945,0.000
1727539735.590,-58.105,14.160,968.262,-74.707,0.000
1727539735.594,-181.641,14.648,968.262,-190.430,0.000
1727539735.598,0.000,16.113,968.262,-50.293,0.000
1727539735.602,155.762,19.531,968.262,83.008,0.000
1727539735.606,113.281,19.043,968.262,55.176,0.000
1727539735.610,-45.410,8.789,968.750,-54.688,0.000
1727539735.613,-180.176,0.000,966.309,-168.457,0.000
1727539735.617,-25.879,-1.465,969.238,-54.688,0.000
1727539735.621,138.184,-0.977,962.402,80.566,0.000
1727539735.625,115.234,4.395,904.297,62.988,0.000
1727539735.629,-21.484,1.953,855.957,-34.180,0.000
1727539735.633,-189.941,-5.859,835.938,-160.645,0.000
1727539735.637,-73.242,-5.371,808.594,-83.008,0.000
1727539735.641,127.930,2.930,774.414,55.664,0.000
1727539735.645,136.230,11.719,734.863,68.848,0.000
1727539735.649,9.766,10.742,687.500,-8.301,0.000
1727539735.653,-167.480,10.742,660.645,-155.273,0.000
1727539735.656,-79.590,8.301,650.391,-98.145,0.000
1727539735.660,109.863,2.930,628.906,50.293,0.000
1727539735.664,117.188,3.418,601.074,73.730,0.000
1727539735.668,16.113,5.371,572.754,12.207,0.000
1727539735.672,-157.227,9.766,544.434,-129.395,0.000
1727539735.676,-96.191,11.719,507.324,-92.773,0.000
1727539735.680,122.070,12.207,486.816,73.730,0.000
1727539735.684,147.461,15.625,479.492,101.074,0.000
1727539735.688,46.875,12.695,464.844,22.949,0.000
1727539735.692,-144.531,1.465,447.266,-136.719,0.000
1727539735.696,-133.301,-1.465,422.852,-130.859,0.000
1727539735.699,83.496,1.953,410.156,45.898,0.000
1727539735.703,131.836,6.836,387.695,86.426,0.000
1727539735.707,52.246,17.090,363.281,24.902,0.000
1727539735.711,-133.789,13.672,352.051,-110.840,0.000
1727539735.715,-167.969,4.883,341.797,-145.508,0.000
1727539735.719,54.688,10.254,334.961,29.297,0.000
1727539735.723,134.766,15.625,320.312,98.145,0.000
1727539735.727,62.988,9.766,285.645,46.387,0.000
1727539735.731,-116.699,10.742,263.672,-85.938,0.000
1727539735.735,-179.688,8.301,274.902,-146.484,0.000
1727539735.738,30.762,6.348,285.156,21.973,0.000
1727539735.742,132.812,8.789,274.902,112.305,0.000
1727539735.746,83.496,5.859,258.789,72.266,0.000
1727539735.750,-89.355,9.766,244.141,-65.430,0.000
1727539735.754,-151.367,16.113,227.051,-125.977,0.000
1727539735.758,56.641,16.602,212.891,35.156,0.000
1727539735.762,147.949,16.113,194.824,101.074,0.000
1727539735.766,101.074,12.207,188.477,83.008,0.000
1727539735.770,-58.594,4.883,194.336,-22.949,0.000
1727539735.774,-179.199,0.488,183.105,-150.391,0.000
1727539735.778,-16.113,-2.930,167.969,-30.273,0.000
1727539735.781,130.371,-4.395,158.691,89.844,0.000
1727539735.785,100.098,-1.953,150.391,61.523,0.000
1727539735.789,-48.828,0.000,137.695,-45.410,0.000
1727539735.793,-190.918,3.418,132.812,-153.809,0.000
1727539735.797,-31.250,-1.465,113.770,-35.156,0.000
1727539735.801,145.020,-5.859,78.613,102.051,0.000
1727539735.805,112.305,-2.930,103.516,70.801,0.000
1727539735.809,-26.367,-4.883,128.418,-26.367,0.000
1727539735.813,-178.711,-14.648,124.023,-124.023,0.000
1727539735.817,-60.547,-12.207,129.883,-43.945,0.000
1727539735.820,121.094,-7.324,125.977,76.660,0.000
1727539735.824,101.562,-10.742,116.211,64.941,0.000
1727539735.828,-15.625,-4.883,105.469,-17.578,0.000
1727539735.832,-178.711,-3.418,96.191,-148.438,0.000
1727539735.836,-92.285,-0.488,88.379,-80.078,0.000
1727539735.840,118.652,1.465,81.055,87.402,0.000
1727539735.844,133.301,0.488,77.637,99.121,0.000
1727539735.848,21.973,2.930,66.406,16.113,0.000
1727539735.852,-158.203,0.977,50.293,-121.094,0.000
1727539735.856,-89.844,0.488,33.203,-75.684,0.000
1727539735.860,110.352,0.488,42.480,84.473,0.000
1727539735.863,119.629,3.418,62.988,92.285,0.000
1727539735.867,27.344,-0.977,59.082,14.160,0.000
1727539735.871,-148.438,-4.395,55.664,-129.395,0.000
1727539735.875,-123.047,1.465,55.664,-119.141,0.000
1727539735.879,89.844,5.859,47.363,47.852,0.000
1727539735.883,130.859,8.301,52.734,85.938,0.000
1727539735.887,51.270,12.695,74.707,44.434,0.000
1727539735.891,-125.977,15.137,79.590,-84.473,0.000
1727539735.895,-141.113,1.465,82.031,-116.699,0.000
1727539735.899,72.266,-0.488,84.961,47.852,0.000
1727539735.902,141.602,3.906,76.172,113.770,0.000
1727539735.906,78.613,-1.953,65.918,60.059,0.000
1727539735.910,-97.656,-1.465,51.270,-75.195,0.000
1727539735.914,-155.273,-0.977,45.410,-120.605,0.000
1727539735.918,45.898,0.488,55.664,35.645,0.000
1727539735.922,132.324,6.836,55.176,110.352,0.000
1727539735.926,63.477,7.812,45.898,71.777,0.000
1727539735.930,-104.980,7.812,45.898,-59.082,0.000
1727539735.934,-175.781,5.859,43.457,-135.254,0.000
1727539735.938,21.484,-2.441,37.598,10.254,0.000
1727539735.942,129.395,0.000,38.086,96.680,0.000
1727539735.945,89.355,3.418,43.945,63.965,0.000
1727539735.949,-50.781,4.883,41.016,-33.203,0.000
1727539735.953,-166.992,9.277,31.250,-125.000,0.000
1727539735.957,13.672,6.836,27.832,-3.418,0.000
1727539735.961,154.297,3.418,32.715,108.398,0.000
1727539735.965,112.305,2.441,23.438,91.309,0.000
1727539735.969,-38.086,0.977,20.020,-17.578,0.000
1727539735.973,-178.223,-1.465,27.344,-124.023,0.000
1727539735.977,-21.973,-2.930,20.020,-12.207,0.000
1727539735.981,138.672,0.488,22.461,106.445,0.000
1727539735.985,104.492,-0.488,41.992,83.496,0.000
1727539735.988,-41.504,-8.301,52.734,-13.672,0.000
1727539735.992,-193.848,-12.695,40.527,-130.859,0.000
1727539735.996,-56.641,-7.324,32.227,-41.016,0.000
1727539736.000,120.605,0.000,32.227,95.215,0.000
1727539736.004,109.863,-3.418,26.855,104.492,0.000
1727539736.008,-4.883,-1.465,24.414,19.043,0.000
1727539736.012,-166.504,5.859,26.367,-129.883,0.000
1727539736.016,-70.312,3.418,12.207,-61.035,0.000
1727539736.020,115.234,0.977,8.301,105.469,0.000
1727539736.024,118.652,2.930,13.184,110.352,0.000
1727539736.028,22.949,4.395,-1.953,20.508,0.000
1727539736.031,-159.668,3.906,-4.883,-125.488,0.000
1727539736.035,-90.332,2.930,3.906,-77.637,0.000
1727539736.039,123.047,-1.953,7.324,89.844,0.000
1727539736.043,129.883,4.395,0.488,99.121,0.000
1727539736.047,43.457,12.695,-2.930,31.250,0.000
1727539736.051,-133.301,10.742,-5.859,-100.586,0.000
1727539736.055,-109.863,9.277,-14.160,-81.055,0.000
1727539736.059,101.562,7.324,-18.066,82.520,0.000
1727539736.063,147.949,2.441,-20.996,113.281,0.000
1727539736.067,69.336,-0.488,-21.484,47.852,0.000
1727539736.070,-114.746,5.371,-15.137,-86.426,0.000
1727539736.074,-128.418,1.465,-2.441,-104.004,0.000
1727539736.078,79.102,-0.977,-0.977,48.340,0.000
1727539736.082,143.066,3.418,-1.465,102.539,0.000
1727539736.086,68.848,6.348,-0.488,73.242,0.000
1727539736.090,-110.352,6.836,-0.977,-62.012,0.000
1727539736.094,-148.438,6.348,-11.230,-109.375,0.000
1727539736.098,61.523,6.836,-20.996,55.664,0.000
1727539736.102,145.020,2.441,-19.531,113.770,0.000
1727539736.106,96.191,1.465,-27.832,71.289,0.000
1727539736.109,-65.918,-2.441,-37.598,-60.059,0.000
1727539736.113,-155.273,-7.324,-33.691,-135.254,0.000
1727539736.117,35.156,-0.977,-30.273,23.438,0.000
1727539736.121,142.090,-2.441,-51.270,96.680,0.000
1727539736.125,89.355,0.488,-43.457,53.223,0.000
1727539736.129,-60.547,1.465,-9.766,-39.551,0.000
1727539736.133,-171.387,-2.930,-0.488,-133.789,0.000
1727539736.137,3.906,-2.441,2.441,-13.184,0.000
1727539736.141,147.949,0.000,7.812,110.840,0.000
1727539736.145,108.887,3.418,7.812,89.844,0.000
1727539736.149,-41.992,0.000,-3.418,-27.344,0.000
1727539736.152,-178.223,0.488,-8.789,-135.254,0.000
1727539736.156,-22.949,5.371,1.465,-18.066,0.000
1727539736.160,125.000,2.930,-13.672,100.098,0.000
1727539736.164,96.191,6.836,-32.227,70.312,0.000
1727539736.168,-40.527,8.789,-20.508,-34.668,0.000
1727539736.172,-190.918,0.488,2.930,-150.391,0.000
1727539736.176,-43.945,1.953,11.719,-53.711,0.000
1727539736.180,133.301,4.883,14.160,77.148,0.000
1727539736.184,105.469,3.906,10.742,71.777,0.000
1727539736.188,-26.367,0.488,0.488,1.953,0.000
1727539736.192,-196.777,-14.648,-9.277,-132.324,0.000
1727539736.195,-83.496,-14.160,-18.066,-62.012,0.000
1727539736.199,114.746,-10.742,-18.066,86.426,0.000
1727539736.203,109.863,-7.812,-11.719,86.426,0.000
1727539736.207,1.465,0.488,-4.883,1.465,0.000
1727539736.211,-166.504,-2.441,-9.277,-140.625,0.000
1727539736.215,-94.727,-7.812,-13.184,-90.332,0.000
1727539736.219,108.887,-5.859,-11.719,67.383,0.000
1727539736.223,124.512,0.000,-3.906,90.332,0.000
1727539736.227,29.785,-10.742,-2.441,23.438,0.000
1727539736.231,-162.109,-12.207,-6.348,-116.211,0.000
1727539736.234,-138.184,-2.930,-6.836,-101.074,0.000
1727539736.238,83.008,-5.371,-15.625,59.570,0.000
1727539736.242,125.488,-4.395,-23.926,93.750,0.000
1727539736.246,38.574,-2.441,-29.785,39.062,0.000
1727539736.250,-134.766,-2.441,-29.785,-97.168,0.000
1727539736.254,-123.047,-2.441,-28.320,-119.629,0.000
1727539736.258,80.566,-6.836,-23.438,38.086,0.000
1727539736.262,131.836,-10.254,-6.836,87.891,0.000
1727539736.266,66.406,-5.859,-4.883,46.875,0.000
1727539736.270,-106.445,-3.418,-11.230,-83.496,0.000
1727539736.274,-147.949,-11.719,-13.672,-117.188,0.000
1727539736.277,59.570,-11.719,-12.695,49.316,0.000
1727539736.281,143.555,-4.883,-18.066,100.586,0.000
1727539736.285,81.055,-4.883,-32.227,51.270,0.000
1727539736.289,-96.191,-6.836,-26.855,-62.500,0.000
1727539736.293,-173.340,-8.789,-14.160,-117.188,0.000
1727539736.297,25.879,-10.742,-13.672,21.973,0.000
1727539736.301,131.836,-12.695,-17.090,100.586,0.000
1727539736.305,80.566,-12.207,-30.762,72.754,0.000
1727539736.309,-79.102,-13.672,-39.062,-43.945,0.000
1727539736.313,-179.688,-10.742,-33.203,-134.766,0.000
1727539736.317,7.324,-4.395,-29.785,6.348,0.000
1727539736.320,143.066,-4.883,-21.484,104.004,0.000
1727539736.324,110.352,0.488,-25.879,71.289,0.000
1727539736.328,-42.480,0.977,-32.715,-26.367,0.000
1727539736.332,-177.734,-9.277,-22.461,-136.230,0.000
1727539736.336,-14.160,-10.254,-15.137,-24.414,0.000
1727539736.340,142.090,-8.789,-13.184,97.656,0.000
1727539736.344,121.094,-9.277,-13.672,79.590,0.000
1727539736.348,-14.160,-10.742,-9.277,-13.184,0.000
1727539736.352,-166.016,-12.695,-31.250,-126.465,0.000
1727539736.356,-34.668,-8.301,-53.711,-26.367,0.000
1727539736.360,147.949,-2.441,-39.551,105.957,0.000
1727539736.363,127.441,-6.348,-21.484,87.891,0.000
1727539736.367,-14.160,-15.625,-21.484,7.812,0.000
1727539736.371,-171.387,-7.812,-22.949,-113.281,0.000
1727539736.375,-58.105,-3.906,-15.137,-49.805,0.000
1727539736.379,131.836,-9.277,-12.695,104.004,0.000
1727539736.383,129.395,-11.230,-12.695,107.910,0.000
1727539736.387,14.648,-13.672,-19.531,22.949,0.000
1727539736.391,-155.762,-13.672,-29.297,-111.328,0.000
1727539736.395,-69.336,-14.160,-24.414,-65.918,0.000
1727539736.399,137.207,-11.230,-20.020,97.656,0.000
1727539736.402,145.508,-6.836,-26.367,116.699,0.000
1727539736.406,41.016,-10.254,-24.414,38.086,0.000
1727539736.410,-142.090,-12.695,-25.391,-104.980,0.000
1727539736.414,-105.469,-12.207,-37.598,-91.797,0.000
1727539736.418,111.816,-11.719,-26.367,71.289,0.000
1727539736.422,149.902,-10.742,-8.789,93.750,0.000
1727539736.426,60.547,-16.113,-14.160,34.668,0.000
1727539736.430,-121.582,-13.672,-25.879,-89.844,0.000
1727539736.434,-121.582,-10.254,-34.668,-103.027,0.000
1727539736.438,85.449,-10.742,-33.691,55.664,0.000
1727539736.442,129.883,-12.695,-18.555,103.516,0.000
1727539736.445,61.035,-19.043,-11.230,60.059,0.000
1727539736.449,-107.910,-20.996,-17.578,-67.383,0.000
1727539736.453,-145.020,-18.555,-24.902,-113.770,0.000
1727539736.457,62.500,-20.020,-25.879,31.250,0.000
1727539736.461,141.113,-18.555,-28.320,102.051,0.000
1727539736.465,71.777,-16.113,-21.484,67.383,0.000
1727539736.469,-109.863,-18.066,-20.020,-49.805,0.000
1727539736.473,-174.805,-21.484,-29.297,-104.980,0.000
1727539736.477,33.203,-15.625,-35.156,35.645,0.000
1727539736.481,133.301,-11.719,-37.109,106.934,0.000
1727539736.484,79.590,-13.672,-41.504,67.871,0.000
1727539736.488,-76.660,-12.207,-48.828,-47.852,0.000
1727539736.492,-169.922,-17.090,-47.363,-129.883,0.000
1727539736.496,17.090,-15.137,-42.969,8.789,0.000
1727539736.500,142.578,-4.395,-35.156,108.398,0.000
1727539736.504,104.492,-3.418,-28.809,84.473,0.000
1727539736.508,-48.340,-14.160,-23.926,-20.996,0.000
1727539736.512,-171.387,-15.137,-40.527,-127.930,0.000
1727539736.516,7.324,-7.324,-51.758,0.977,0.000
1727539736.520,164.062,-6.348,-41.016,125.488,0.000
1727539736.524,133.301,-4.395,-38.086,94.238,0.000
1727539736.527,-14.648,-0.488,-35.156,-6.348,0.000
1727539736.531,-167.969,-4.395,-38.086,-117.676,0.000
1727539736.535,-24.414,-8.301,-40.039,-13.672,0.000
1727539736.539,150.391,-4.395,-43.945,120.117,0.000
1727539736.543,134.277,-1.465,-54.199,107.422,0.000
1727539736.547,4.395,-1.953,-44.922,14.648,0.000
1727539736.551,-158.691,-7.812,-29.785,-114.746,0.000
1727539736.555,-43.945,-13.672,-19.531,-44.922,0.000
1727539736.559,142.090,-16.113,-20.508,98.145,0.000
1727539736.563,139.160,-15.625,-37.109,104.004,0.000
1727539736.566,17.578,-11.230,-42.969,21.973,0.000
1727539736.570,-151.367,-11.230,-39.551,-107.910,0.000
1727539736.574,-62.988,-11.719,-32.715,-56.152,0.000
1727539736.578,137.695,-9.277,-30.273,97.168,0.000
1727539736.582,146.484,-7.812,-41.992,121.582,0.000
1727539736.586,39.062,-5.371,-46.875,48.828,0.000
1727539736.590,-131.348,-4.883,-32.715,-96.680,0.000
1727539736.594,-75.684,-5.859,-20.996,-72.266,0.000
1727539736.598,135.742,-5.371,-26.855,82.031,0.000
1727539736.602,169.922,-3.906,-37.598,102.539,0.000
1727539736.606,81.055,-0.977,-40.527,62.012,0.000
1727539736.609,-112.305,-2.930,-41.504,-66.895,0.000
1727539736.613,-108.398,-4.395,-31.738,-84.473,0.000
1727539736.617,111.816,1.953,-23.438,78.613,0.000
1727539736.621,166.504,-0.977,-24.414,127.441,0.000
1727539736.625,94.727,-4.395,-22.461,78.613,0.000
1727539736.629,-87.402,-4.883,-15.137,-49.316,0.000
1727539736.633,-125.000,-5.371,-20.996,-86.914,0.000
1727539736.637,92.773,-4.395,-34.180,78.613,0.000
1727539736.641,164.062,-8.789,-37.598,137.695,0.000
1727539736.645,88.867,-13.672,-38.574,81.543,0.000
1727539736.649,-93.262,-20.508,-45.898,-49.316,0.000
1727539736.652,-159.180,-18.555,-48.340,-101.562,0.000
1727539736.656,55.664,-11.719,-43.945,54.199,0.000
1727539736.660,159.180,-12.207,-29.297,124.512,0.000
1727539736.664,116.699,-14.160,-24.414,89.844,0.000
1727539736.668,-40.527,-14.648,-31.738,-30.273,0.000
1727539736.672,-142.578,-21.973,-42.969,-122.070,0.000
1727539736.676,29.297,-33.203,-57.617,7.812,0.000
1727539736.680,144.043,-36.133,-56.152,93.750,0.000
1727539736.684,113.770,-34.180,-49.805,65.430,0.000
1727539736.688,-46.387,-34.180,-57.129,-58.594,0.000
1727539736.691,-151.855,-34.180,-67.871,-134.277,0.000
1727539736.695,19.043,-35.645,-65.918,8.301,0.000
1727539736.699,129.883,-36.133,-64.453,84.473,0.000
1727539736.703,103.027,-29.785,-72.266,69.336,0.000
1727539736.707,-35.156,-25.391,-71.289,-8.789,0.000
1727539736.711,-172.363,-25.879,-69.336,-127.441,0.000
1727539736.715,-24.414,-24.902,-74.707,-39.062,0.000
1727539736.719,147.949,-27.832,-63.477,99.121,0.000
1727539736.723,128.418,-23.926,-46.875,95.215,0.000
1727539736.727,-23.438,-21.484,-44.922,-5.371,0.000
1727539736.731,-187.012,-25.391,-42.480,-133.789,0.000
1727539736.734,-60.059,-28.809,-40.039,-50.781,0.000
1727539736.738,128.418,-27.832,-43.945,99.609,0.000
1727539736.742,125.977,-25.391,-41.016,108.887,0.000
1727539736.746,12.207,-26.367,-35.156,27.832,0.000
1727539736.750,-152.832,-22.949,-41.016,-105.957,0.000
1727539736.754,-63.965,-23.926,-60.547,-47.363,0.000
1727539736.758,137.207,-21.973,-61.035,110.352,0.000
1727539736.762,151.855,-19.043,-39.062,122.070,0.000
1727539736.766,45.898,-17.090,-27.832,44.434,0.000
1727539736.770,-136.230,-16.602,-29.785,-95.703,0.000
1727539736.774,-81.055,-15.625,-37.598,-67.871,0.000
1727539736.777,133.301,-12.695,-35.156,94.727,0.000
1727539736.781,179.199,-13.184,-23.438,131.836,0.000
1727539736.785,73.242,-15.137,-24.414,48.340,0.000
1727539736.789,-121.094,-12.207,-31.250,-99.609,0.000
1727539736.793,-94.238,-12.695,-25.391,-81.055,0.000
1727539736.797,110.840,-18.066,-10.742,80.566,0.000
1727539736.801,163.574,-9.766,-6.836,125.488,0.000
1727539736.805,90.332,-7.812,-6.348,71.289,0.000
1727539736.809,-93.262,-16.113,-12.207,-64.941,0.000
1727539736.813,-114.258,-10.254,-16.113,-86.426,0.000
1727539736.817,92.773,-6.348,-21.484,69.824,0.000
1727539736.820,156.250,-9.766,-28.809,120.605,0.000
1727539736.824,96.680,-9.277,-38.574,76.660,0.000
1727539736.828,-75.195,-14.648,-47.852,-45.898,0.000
1727539736.832,-139.160,-16.602,-44.434,-101.074,0.000
1727539736.836,59.082,-7.812,-30.273,51.270,0.000
1727539736.840,152.832,-11.230,-26.855,122.070,0.000
1727539736.844,105.469,-11.230,-21.973,86.914,0.000
1727539736.848,-59.570,-6.836,-22.461,-23.926,0.000
1727539736.852,-157.715,-11.719,-35.156,-117.676,0.000
1727539736.856,30.762,-10.254,-35.645,20.508,0.000
1727539736.859,145.020,-11.719,-33.203,122.070,0.000
1727539736.863,103.516,-10.742,-38.086,85.449,0.000
1727539736.867,-44.922,-5.371,-42.480,-22.461,0.000
1727539736.871,-159.180,-9.766,-48.828,-115.723,0.000
1727539736.875,24.414,-10.254,-52.734,7.324,0.000
1727539736.879,174.316,-8.301,-51.270,123.047,0.000
1727539736.883,135.742,-9.277,-41.992,100.586,0.000
1727539736.887,-14.648,-10.742,-36.133,-9.277,0.000
1727539736.891,-159.180,-12.207,-41.992,-116.699,0.000
1727539736.895,-17.090,-11.719,-41.016,-13.184,0.000
1727539736.898,147.461,-11.719,-32.227,109.863,0.000
1727539736.902,119.141,-13.672,-30.762,94.727,0.000
1727539736.906,-25.879,-17.090,-34.180,-5.859,0.000
1727539736.910,-179.199,-16.602,-42.480,-122.559,0.000
1727539736.914,-49.805,-13.672,-49.316,-33.691,0.000
1727539736.918,141.602,-19.043,-46.387,108.398,0.000
1727539736.922,131.348,-20.996,-37.598,102.051,0.000
1727539736.926,7.812,-22.461,-41.504,25.391,0.000
1727539736.930,-156.250,-22.949,-41.016,-96.191,0.000
1727539736.934,-55.664,-13.184,-32.715,-40.039,0.000
1727539736.938,136.719,-10.254,-37.109,108.398,0.000
1727539736.941,136.230,-9.766,-39.551,115.723,0.000
1727539736.945,29.785,-7.812,-35.156,40.527,0.000
1727539736.949,-139.160,-6.348,-42.969,-93.262,0.000
1727539736.953,-81.055,-1.465,-50.781,-62.012,0.000
1727539736.957,123.047,-4.395,-42.480,97.656,0.000
1727539736.961,149.902,-8.789,-42.480,117.188,0.000
1727539736.965,56.152,-8.789,-45.410,47.852,0.000
1727539736.969,-128.906,-7.812,-41.016,-94.727,0.000
1727539736.973,-102.051,-6.348,-46.387,-80.078,0.000
1727539736.977,115.234,-6.836,-47.363,86.426,0.000
1727539736.981,141.113,-7.324,-39.062,121.094,0.000
1727539736.984,62.988,-2.930,-36.621,68.359,0.000
1727539736.988,-114.258,-0.488,-36.621,-83.496,0.000
1727539736.992,-127.930,-3.906,-36.621,-100.098,0.000
1727539736.996,85.449,-3.418,-40.039,62.012,0.000
1727539737.000,146.973,-3.418,-40.527,106.445,0.000
1727539737.004,72.754,-2.441,-41.504,56.152,0.000
1727539737.008,-107.910,-6.836,-47.363,-67.871,0.000
1727539737.012,-160.156,-12.695,-45.898,-117.188,0.000
1727539737.016,47.852,-9.277,-41.992,34.180,0.000
1727539737.020,138.672,-8.301,-43.945,104.492,0.000
1727539737.023,79.102,-7.812,-40.039,71.777,0.000
1727539737.027,-83.984,-7.812,-40.039,-37.109,0.000
1727539737.031,-164.062,-8.789,-45.410,-116.699,0.000
1727539737.035,34.668,-14.648,-39.551,22.461,0.000
1727539737.039,150.391,-19.531,-37.109,112.305,0.000
1727539737.043,104.004,-13.672,-41.504,83.984,0.000
1727539737.047,-49.805,-9.277,-40.039,-27.832,0.000
1727539737.051,-170.898,-8.789,-37.109,-127.441,0.000
1727539737.055,-11.719,-10.254,-48.340,1.953,0.000
1727539737.059,118.164,-12.207,-53.711,114.258,0.000
1727539737.063,92.285,-10.254,-36.133,82.520,0.000
1727539737.066,-42.969,-10.742,-21.973,-18.555,0.000
1727539737.070,-177.734,-16.113,-22.949,-118.164,0.000
1727539737.074,-25.879,-16.602,-28.809,-25.879,0.000
1727539737.078,143.066,-7.324,-30.273,106.934,0.000
1727539737.082,135.254,-0.488,-18.555,107.422,0.000
1727539737.086,1.953,-7.812,-11.719,8.789,0.000
1727539737.090,-160.645,-14.648,-21.484,-121.582,0.000
1727539737.094,-32.715,-9.277,-27.344,-34.668,0.000
1727539737.098,142.578,-9.277,-30.273,105.957,0.000
1727539737.102,119.629,-11.719,-29.297,94.727,0.000
1727539737.106,-0.977,-8.301,-22.949,5.371,0.000
1727539737.109,-157.227,-9.766,-24.414,-124.512,0.000
1727539737.113,-57.617,-11.230,-32.227,-57.129,0.000
1727539737.117,131.836,-10.742,-32.715,94.238,0.000
1727539737.121,130.859,-9.277,-33.691,94.238,0.000
1727539737.125,27.832,-9.277,-30.762,17.090,0.000
1727539737.129,-138.184,-6.836,-33.691,-116.699,0.000
1727539737.133,-83.008,-3.418,-35.156,-83.984,0.000
1727539737.137,111.816,-5.371,-29.297,73.730,0.000
1727539737.141,137.207,-4.883,-24.414,93.750,0.000
1727539737.145,48.340,-4.883,-21.973,29.297,0.000
1727539737.149,-125.977,-2.930,-19.531,-99.609,0.000
1727539737.152,-103.516,-4.395,-17.578,-98.145,0.000
1727539737.156,107.910,-11.719,-23.926,61.035,0.000
1727539737.160,136.230,-10.742,-25.879,96.680,0.000
1727539737.164,51.270,-8.789,-21.973,38.574,0.000
1727539737.168,-114.746,-7.324,-27.832,-84.961,0.000
1727539737.172,-133.789,-7.812,-30.273,-107.910,0.000
1727539737.176,75.684,-10.254,-29.297,53.711,0.000
1727539737.180,148.438,-0.488,-31.738,114.258,0.000
1727539737.184,89.355,10.254,-30.762,60.059,0.000
1727539737.188,-80.078,11.719,-28.320,-71.777,0.000
1727539737.191,-127.930,7.324,-26.855,-117.188,0.000
1727539737.195,70.312,4.883,-29.297,38.086,0.000
1727539737.199,162.109,8.789,-29.297,119.629,0.000
1727539737.203,108.887,5.371,-36.133,78.613,0.000
1727539737.207,-67.871,-0.488,-40.527,-52.734,0.000
1727539737.211,-153.809,-0.488,-32.715,-128.906,0.000
1727539737.215,39.551,0.000,-33.691,21.973,0.000
1727539737.219,145.996,1.953,-33.203,117.188,0.000
1727539737.223,97.168,3.906,-29.297,80.566,0.000
1727539737.227,-58.105,1.465,-33.203,-40.039,0.000
1727539737.230,-171.875,-2.441,-30.273,-138.672,0.000
1727539737.234,12.207,-4.883,-24.902,8.301,0.000
1727539737.238,159.668,-4.395,-25.391,135.742,0.000
1727539737.242,113.770,-4.395,-28.320,87.891,0.000
1727539737.246,-38.574,-6.348,-29.297,-26.855,0.000
1727539737.250,-164.062,-2.441,-32.227,-128.906,0.000
1727539737.254,-7.812,-1.465,-38.086,-20.020,0.000
1727539737.258,143.555,-5.371,-34.668,101.562,0.000
1727539737.262,108.398,-5.859,-33.203,89.355,0.000
1727539737.266,-37.598,-5.859,-33.691,2.930,0.000
1727539737.270,-192.383,-7.324,-26.367,-124.023,0.000
1727539737.273,-56.152,-9.277,-31.738,-46.387,0.000
1727539737.277,128.906,-6.348,-35.645,104.004,0.000
1727539737.281,118.652,0.000,-16.602,97.168,0.000
1727539737.285,-1.465,0.488,-18.066,-2.441,0.000
1727539737.289,-174.805,-5.859,-38.574,-135.254,0.000
1727539737.293,-87.402,-10.254,-40.527,-76.172,0.000
1727539737.297,110.352,-5.371,-40.527,74.219,0.000
1727539737.301,113.281,0.000,-36.133,80.566,0.000
1727539737.305,-3.418,-5.371,-23.438,5.859,0.000
1727539737.309,-174.805,-9.766,-21.484,-122.070,0.000
1727539737.313,-108.887,-11.230,-28.809,-80.078,0.000
1727539737.316,99.609,-4.395,-27.344,74.707,0.000
1727539737.320,114.258,-10.254,-25.391,91.309,0.000
1727539737.324,35.645,-4.883,-20.508,38.086,0.000
1727539737.328,-127.441,14.648,-14.648,-83.984,0.000
1727539737.332,-115.723,3.906,-29.785,-83.984,0.000
1727539737.336,81.543,-9.277,-44.434,59.082,0.000
1727539737.340,114.746,-19.043,-46.875,78.125,0.000
1727539737.344,36.133,-22.949,-46.875,15.137,0.000
1727539737.348,-140.137,-20.508,-46.387,-113.281,0.000
1727539737.352,-159.180,-24.414,-46.875,-142.090,0.000
1727539737.355,53.711,-16.113,-43.457,39.062,0.000
1727539737.359,114.746,-14.648,-27.832,97.168,0.000
1727539737.363,43.945,-17.578,-29.785,49.316,0.000
1727539737.367,-102.051,-11.230,-45.410,-63.477,0.000
1727539737.371,-153.809,-12.207,-37.598,-135.742,0.000
1727539737.375,45.410,-11.230,-23.926,17.578,0.000
1727539737.379,136.230,-15.137,-25.879,90.332,0.000
1727539737.383,63.477,-17.578,-22.461,40.039,0.000
1727539737.387,-92.773,-3.906,-27.832,-65.918,0.000
1727539737.391,-161.133,-0.977,-48.340,-133.789,0.000
1727539737.395,39.551,-5.371,-41.504,-7.324,0.000
1727539737.398,144.043,4.395,-37.109,74.219,0.000
1727539737.402,103.027,7.324,-39.062,72.754,0.000
1727539737.406,-66.406,-7.324,-12.695,-62.500,0.000
1727539737.410,-195.801,-9.277,-15.625,-185.059,0.000
1727539737.414,12.695,-3.418,-53.223,3.418,0.000
1727539737.418,143.066,-6.836,-35.156,117.188,0.000
1727539737.422,101.562,7.812,-32.227,74.219,0.000
1727539737.426,-64.941,-7.812,-20.996,-83.008,0.000
1727539737.430,-240.234,-36.621,10.254,-238.281,0.000
1727539737.434,-68.359,-21.484,-17.090,-86.914,0.000
1727539737.438,96.191,-22.461,-32.227,57.617,0.000
1727539737.441,68.359,-15.625,-37.109,44.922,0.000
1727539737.445,-59.082,-2.441,-53.711,-33.691,0.000
1727539737.449,-218.750,-20.508,-29.297,-166.016,0.000
1727539737.453,-112.305,-47.363,-3.418,-131.348,0.000
1727539737.457,40.039,-73.242,-1.465,-25.391,0.000
1727539737.461,40.039,-66.406,-35.645,-13.184,0.000
1727539737.465,-54.688,-38.086,-74.219,-65.430,0.000
1727539737.469,-225.586,-25.879,-39.062,-198.242,0.000
1727539737.473,-101.074,-37.109,-22.949,-117.188,0.000
1727539737.477,64.941,-72.754,-57.129,-3.906,0.000
1727539737.480,1.953,-94.727,-43.457,-57.617,0.000
1727539737.484,-102.539,-86.914,-63.965,-109.375,0.000
1727539737.488,-240.234,-76.660,-131.348,-211.914,0.000
1727539737.492,-220.215,-121.094,-119.141,-227.051,0.000
1727539737.496,-7.812,-110.840,-147.461,-59.570,0.000
1727539737.500,43.457,-90.820,-205.566,-13.184,0.000
1727539737.504,-75.684,-124.512,-236.328,-101.562,0.000
1727539737.508,-208.008,-106.445,-300.293,-187.500,0.000
1727539737.512,-143.066,-96.680,-359.375,-142.578,0.000
1727539737.516,17.090,-122.559,-435.547,-29.785,0.000
1727539737.520,0.977,-141.113,-511.230,-52.246,0.000
1727539737.523,-33.691,-132.324,-652.832,-76.660,0.000
1727539737.527,-161.133,-108.887,-818.359,-171.875,0.000
1727539737.531,-180.176,-107.422,-916.016,-200.195,0.000
1727539737.535,38.574,-108.887,-992.188,-7.812,0.000
1727539737.539,91.309,-111.816,-1000.000,53.711,0.000
1727539737.543,-16.113,-135.742,-998.535,-33.203,0.000
1727539737.547,-175.293,-120.605,-1000.000,-151.855,0.000
1727539737.551,-209.473,-105.469,-1000.000,-183.105,0.000
1727539737.555,8.789,-113.281,-1000.000,-4.395,0.000
1727539737.559,139.160,-96.191,-1000.000,84.473,0.000
1727539737.562,76.172,-91.797,-1000.000,23.926,0.000
1727539737.566,-109.863,-110.352,-1000.000,-107.422,0.000
1727539737.570,-188.965,-125.000,-1000.000,-189.453,0.000
1727539737.574,32.715,-101.074,-1000.000,-15.625,0.000
1727539737.578,144.043,-100.098,-1000.000,99.609,0.000
1727539737.582,86.426,-93.750,-1000.000,49.316,0.000
1727539737.586,-95.703,-71.777,-1000.000,-110.352,0.000
1727539737.590,-196.289,-77.148,-1000.000,-184.570,0.000
1727539737.594,18.555,-62.988,-1000.000,18.555,0.000
1727539737.598,134.766,-66.406,-1000.000,125.977,0.000
1727539737.602,101.562,-67.871,-1000.000,80.078,0.000
1727539737.605,-43.457,-60.547,-1000.000,-56.152,0.000
1727539737.609,-202.148,-78.613,-1000.000,-208.496,0.000
1727539737.613,-31.250,-78.125,-1000.000,-38.086,0.000
1727539737.617,137.695,-60.547,-1000.000,137.695,0.000
1727539737.621,110.840,-57.129,-1000.000,108.398,0.000
1727539737.625,-42.969,-55.664,-1000.000,-4.883,0.000
1727539737.629,-164.062,-53.223,-1000.000,-137.207,0.000
1727539737.633,-15.137,-51.758,-1000.000,-24.414,0.000
1727539737.637,119.141,-48.828,-1000.000,124.023,0.000
1727539737.641,125.977,-42.969,-1000.000,154.785,0.000
1727539737.645,-7.812,-45.898,-1000.000,49.316,0.000
1727539737.648,-201.660,-51.270,-1000.000,-151.855,0.000
1727539737.652,-82.520,-56.641,-1000.000,-40.039,0.000
1727539737.656,149.902,-44.922,-1000.000,183.594,0.000
1727539737.660,149.414,-42.480,-1000.000,166.992,0.000
1727539737.664,25.391,-45.898,-1000.000,56.152,0.000
1727539737.668,-166.504,-49.805,-1000.000,-126.953,0.000
1727539737.672,-96.680,-46.875,-1000.000,-84.473,0.000
1727539737.676,116.699,-32.715,-996.094,111.328,0.000
1727539737.680,136.230,-27.832,-1000.000,152.344,0.000
1727539737.684,20.508,-29.297,-955.078,74.707,0.000
1727539737.687,-177.734,-29.297,-821.777,-93.750,0.000
1727539737.691,-131.836,-32.715,-722.168,-76.660,0.000
1727539737.695,102.051,-27.832,-637.695,127.441,0.000
1727539737.699,131.348,-30.762,-556.641,173.340,0.000
1727539737.703,36.621,-33.203,-485.840,98.145,0.000
1727539737.707,-158.203,-37.598,-415.527,-88.867,0.000
1727539737.711,-153.320,-27.344,-367.676,-98.633,0.000
1727539737.715,79.590,-17.090,-318.848,97.656,0.000
1727539737.719,169.434,-9.766,-276.855,172.852,0.000
1727539737.723,86.914,-8.789,-228.027,121.094,0.000
1727539737.727,-140.625,-22.949,-187.500,-82.031,0.000
1727539737.730,-144.531,-17.090,-196.777,-90.820,0.000
1727539737.734,94.727,-13.672,-162.598,129.395,0.000
1727539737.738,159.668,-12.695,-138.672,175.293,0.000
1727539737.742,104.004,-6.836,-129.395,121.094,0.000
1727539737.746,-82.520,-10.254,-113.281,-48.828,0.000
1727539737.750,-154.297,-11.230,-92.773,-135.254,0.000
1727539737.754,62.500,-9.277,-64.453,46.387,0.000
1727539737.758,153.320,-12.207,-42.480,139.160,0.000
1727539737.762,93.262,-11.719,6.348,110.840,0.000
1727539737.766,-70.312,-12.207,41.504,-18.555,0.000
1727539737.769,-178.223,-20.020,57.129,-132.812,0.000
1727539737.773,21.973,-17.578,90.332,50.781,0.000
1727539737.777,151.855,-16.113,138.184,173.828,0.000
1727539737.781,105.957,-15.625,188.965,118.164,0.000
1727539737.785,-43.945,-14.160,252.441,-11.719,0.000
1727539737.789,-170.410,-13.672,293.457,-127.930,0.000
1727539737.793,8.789,-2.930,324.219,41.016,0.000
1727539737.797,156.738,-1.465,418.457,183.594,0.000
1727539737.801,121.094,-2.930,500.977,151.855,0.000
1727539737.805,-17.578,2.441,559.570,38.574,0.000
1727539737.809,-161.621,3.418,627.441,-90.820,0.000
1727539737.812,-18.066,-3.418,664.551,29.297,0.000
1727539737.816,130.859,-14.160,730.469,157.227,0.000
1727539737.820,102.051,-8.789,793.945,125.000,0.000
1727539737.824,-18.555,-8.301,902.832,22.949,0.000
1727539737.828,-184.570,-9.766,975.098,-112.305,0.000
1727539737.832,-63.965,-0.488,964.355,-20.508,0.000
1727539737.836,129.883,-0.977,967.773,135.254,0.000
1727539737.840,125.977,-4.395,968.262,126.953,0.000
1727539737.844,5.859,0.977,968.262,30.762,0.000
1727539737.848,-175.781,-1.953,968.262,-116.211,0.000
1727539737.852,-93.750,-8.789,968.262,-64.453,0.000
1727539737.855,118.652,-3.418,968.262,107.910,0.000
1727539737.859,132.324,0.977,968.262,117.188,0.000
1727539737.863,34.668,-1.953,968.262,36.133,0.000
1727539737.867,-133.789,3.418,968.262,-96.191,0.000
1727539737.871,-99.121,9.277,967.773,-66.406,0.000
1727539737.875,100.586,11.230,968.262,101.562,0.000
1727539737.879,143.066,13.672,968.262,125.000,0.000
1727539737.883,51.758,13.672,968.262,62.988,0.000
1727539737.887,-140.625,15.625,968.262,-83.984,0.000
1727539737.891,-122.070,17.090,968.262,-82.520,0.000
1727539737.895,93.750,18.555,968.262,99.121,0.000
1727539737.898,134.277,18.555,968.262,136.719,0.000
1727539737.902,57.129,22.949,968.262,71.777,0.000
1727539737.906,-113.281,28.320,968.262,-72.266,0.000
1727539737.910,-140.137,27.344,968.262,-98.145,0.000
1727539737.914,64.453,30.273,968.262,56.152,0.000
1727539737.918,142.578,29.297,968.262,111.328,0.000
1727539737.922,87.891,27.832,968.262,70.801,0.000
1727539737.926,-77.637,29.297,968.262,-63.477,0.000
1727539737.930,-137.207,28.809,968.262,-131.836,0.000
1727539737.934,71.289,32.715,968.262,21.484,0.000
1727539737.937,171.387,38.574,968.262,112.305,0.000
1727539737.941,117.676,40.039,968.262,75.684,0.000
1727539737.945,-52.734,36.133,968.262,-56.641,0.000
1727539737.949,-163.574,25.391,968.262,-152.344,0.000
1727539737.953,23.438,17.578,968.262,-7.812,0.000
1727539737.957,149.414,20.996,968.262,97.656,0.000
1727539737.961,98.633,26.367,968.262,58.594,0.000
1727539737.965,-47.852,32.227,968.262,-51.270,0.000
1727539737.969,-163.086,31.250,968.262,-149.414,0.000
1727539737.973,-1.953,23.926,967.773,-23.926,0.000
1727539737.977,149.414,24.414,968.262,96.191,0.000
1727539737.980,120.117,24.414,968.262,75.684,0.000
1727539737.984,-18.555,19.043,968.262,-25.391,0.000
1727539737.988,-149.902,14.648,967.773,-142.578,0.000
1727539737.992,-0.488,16.602,968.262,-41.504,0.000
1727539737.996,152.344,16.602,968.262,89.844,0.000
1727539738.000,128.418,23.926,968.262,83.496,0.000
1727539738.004,5.859,34.180,968.262,-10.254,0.000
1727539738.008,-149.902,36.621,968.262,-133.789,0.000
1727539738.012,-28.809,33.203,968.262,-41.016,0.000
1727539738.016,146.484,28.320,968.262,105.469,0.000
1727539738.019,135.742,26.855,968.262,96.191,0.000
1727539738.023,13.184,29.297,968.262,14.648,0.000
1727539738.027,-159.668,25.879,967.773,-125.977,0.000
1727539738.031,-73.242,17.578,968.262,-82.031,0.000
1727539738.035,126.953,18.555,968.262,72.754,0.000
1727539738.039,139.160,22.461,968.262,79.590,0.000
1727539738.043,33.691,22.949,966.797,9.766,0.000
1727539738.047,-143.066,22.949,969.238,-126.465,0.000
1727539738.051,-91.797,17.578,958.984,-99.609,0.000
1727539738.055,112.793,18.066,909.668,66.895,0.000
1727539738.059,137.207,21.484,876.465,107.422,0.000
1727539738.062,45.410,15.137,895.020,55.176,0.000
1727539738.066,-138.672,11.719,905.762,-104.004,0.000
1727539738.070,-125.977,7.812,883.301,-122.070,0.000
1727539738.074,87.891,7.324,858.887,39.551,0.000
1727539738.078,135.254,8.789,847.656,88.867,0.000
1727539738.082,57.129,4.883,849.121,24.414,0.000
1727539738.086,-117.676,11.719,822.754,-110.352,0.000
1727539738.090,-146.484,22.461,805.176,-136.230,0.000
1727539738.094,66.895,26.367,812.500,29.785,0.000
1727539738.098,134.277,25.391,762.695,92.285,0.000
1727539738.102,66.895,19.531,708.984,26.367,0.000
1727539738.105,-109.863,9.766,772.949,-93.750,0.000
1727539738.109,-176.758,4.883,860.352,-147.949,0.000
1727539738.113,35.645,5.371,841.309,-0.977,0.000
1727539738.117,128.906,11.719,792.969,86.914,0.000
1727539738.121,73.730,15.137,772.949,57.617,0.000
1727539738.125,-84.961,12.207,752.930,-70.312,0.000
1727539738.129,-173.828,14.160,706.543,-144.043,0.000
1727539738.133,15.625,19.531,660.156,8.301,0.000
1727539738.137,139.648,22.949,628.418,99.609,0.000
1727539738.141,96.680,24.414,604.492,63.477,0.000
1727539738.144,-59.082,16.113,589.844,-54.199,0.000
1727539738.148,-176.758,10.742,570.801,-151.855,0.000
1727539738.152,-8.301,16.602,556.152,-19.531,0.000
1727539738.156,132.812,14.648,543.945,78.125,0.000
1727539738.160,107.910,12.695,521.484,54.688,0.000
1727539738.164,-29.785,14.648,496.094,-46.875,0.000
1727539738.168,-171.387,19.043,477.051,-155.762,0.000
1727539738.172,-29.297,20.996,456.055,-41.504,0.000
1727539738.176,126.465,17.578,427.734,84.473,0.000
1727539738.180,106.934,15.625,422.852,65.918,0.000
1727539738.184,-30.273,13.672,406.738,-29.297,0.000
1727539738.187,-199.707,7.324,378.906,-157.227,0.000
1727539738.191,-67.871,5.859,364.746,-73.242,0.000
1727539738.195,127.441,12.207,343.262,76.660,0.000
1727539738.199,119.141,13.672,327.637,68.848,0.000
1727539738.203,3.418,10.254,323.730,-15.625,0.000
1727539738.207,-164.062,11.719,293.457,-140.137,0.000
1727539738.211,-81.055,14.160,272.949,-73.242,0.000
1727539738.215,113.281,15.625,278.809,80.566,0.000
1727539738.219,123.047,12.695,272.461,77.148,0.000
1727539738.223,14.160,9.766,261.719,-0.977,0.000
1727539738.226,-159.180,10.254,242.188,-135.254,0.000
1727539738.230,-95.215,9.766,211.426,-97.168,0.000
1727539738.234,109.375,13.672,200.684,68.848,0.000
1727539738.238,126.953,22.461,193.848,93.750,0.000
1727539738.242,43.457,21.973,177.734,34.668,0.000
1727539738.246,-131.836,16.602,159.668,-99.121,0.000
1727539738.250,-129.395,8.301,137.695,-101.074,0.000
1727539738.254,80.078,7.812,135.254,57.617,0.000
1727539738.258,136.230,10.254,140.137,95.703,0.000
1727539738.262,54.688,7.324,143.555,34.180,0.000
1727539738.266,-125.488,6.836,144.043,-95.703,0.000
1727539738.269,-138.184,11.230,122.070,-111.816,0.000
1727539738.273,74.707,10.742,111.328,54.199,0.000
1727539738.277,146.973,9.277,121.094,107.910,0.000
1727539738.281,80.078,10.742,120.605,55.176,0.000
1727539738.285,-85.938,6.348,125.977,-72.266,0.000
1727539738.289,-135.742,6.836,140.625,-121.582,0.000
1727539738.293,49.805,9.277,135.254,28.320,0.000
1727539738.297,135.742,9.766,116.699,97.656,0.000
1727539738.301,80.566,10.742,104.492,58.594,0.000
1727539738.305,-88.379,5.371,96.191,-73.730,0.000
1727539738.308,-170.898,4.395,94.727,-145.996,0.000
1727539738.312,28.320,8.789,88.379,17.090,0.000
1727539738.316,140.137,11.719,79.590,113.281,0.000
1727539738.320,104.004,13.184,74.219,82.520,0.000
1727539738.324,-41.016,13.672,70.801,-36.133,0.000
1727539738.328,-162.109,10.742,69.824,-148.926,0.000
1727539738.332,-3.906,1.465,72.754,-18.555,0.000
1727539738.336,122.070,0.488,62.988,98.145,0.000
1727539738.340,90.332,4.395,53.711,75.195,0.000
1727539738.344,-52.734,8.789,60.547,-28.320,0.000
1727539738.348,-188.965,12.695,66.895,-138.672,0.000
1727539738.351,-23.926,7.812,63.965,-24.414,0.000
1727539738.355,142.090,4.395,57.617,103.516,0.000
1727539738.359,111.328,4.395,47.363,81.055,0.000
1727539738.363,-33.203,0.488,34.668,-21.973,0.000
1727539738.367,-190.430,4.883,29.297,-146.973,0.000
1727539738.371,-63.477,2.930,45.410,-58.105,0.000
1727539738.375,112.305,-4.883,58.594,81.543,0.000
1727539738.379,104.980,-3.418,64.941,82.031,0.000
1727539738.383,-15.625,-2.930,62.500,0.000,0.000
1727539738.387,-186.035,-6.348,54.199,-145.996,0.000
1727539738.391,-100.586,-9.766,48.828,-78.125,0.000
1727539738.394,83.984,-4.883,33.691,82.031,0.000
1727539738.398,95.215,4.883,23.438,79.102,0.000
1727539738.402,-6.348,8.789,30.273,9.277,0.000
1727539738.406,-169.922,11.719,27.344,-124.512,0.000
1727539738.410,-98.145,10.742,20.020,-84.473,0.000
1727539738.414,113.281,4.395,10.742,70.801,0.000
1727539738.418,133.789,9.277,8.301,81.055,0.000
1727539738.422,30.762,12.695,23.438,24.902,0.000
1727539738.426,-150.879,7.324,39.062,-103.516,0.000
1727539738.430,-132.324,1.953,35.156,-101.074,0.000
1727539738.433,71.289,-2.441,18.066,56.152,0.000
1727539738.437,122.070,-0.488,10.742,94.238,0.000
1727539738.441,57.617,0.000,12.695,25.879,0.000
1727539738.445,-116.699,1.465,2.441,-108.398,0.000
1727539738.449,-131.348,0.977,-8.301,-116.699,0.000
1727539738.453,89.355,5.859,-14.648,59.082,0.000
1727539738.457,153.320,6.836,-9.766,111.816,0.000
1727539738.461,81.543,0.000,2.441,49.316,0.000
1727539738.465,-80.078,1.953,6.836,-68.359,0.000
1727539738.469,-135.742,-0.977,7.812,-118.652,0.000
1727539738.473,53.223,-1.953,5.859,26.367,0.000
1727539738.476,147.461,11.230,6.348,107.422,0.000
1727539738.480,95.703,13.184,3.906,73.730,0.000
1727539738.484,-72.266,11.719,-1.465,-60.547,0.000
1727539738.488,-156.250,7.812,3.906,-139.160,0.000
1727539738.492,41.504,9.277,14.160,5.859,0.000
1727539738.496,155.762,14.648,15.137,106.934,0.000
1727539738.500,103.516,7.812,10.742,76.660,0.000
1727539738.504,-55.664,9.766,12.695,-49.805,0.000
1727539738.508,-164.062,13.184,16.113,-140.625,0.000
1727539738.512,19.043,7.324,-3.906,-9.766,0.000
1727539738.516,151.367,8.789,-25.391,104.492,0.000
1727539738.519,114.258,10.254,-13.184,84.961,0.000
1727539738.523,-34.180,2.441,13.672,-38.086,0.000
1727539738.527,-190.430,-7.324,23.926,-147.461,0.000
1727539738.531,-36.621,-7.324,12.695,-34.668,0.000
1727539738.535,137.695,-6.348,-3.906,81.055,0.000
1727539738.539,110.840,-10.254,-4.883,68.359,0.000
1727539738.543,-22.461,-11.230,0.977,-17.578,0.000
1727539738.547,-175.293,-12.207,-6.836,-140.137,0.000
1727539738.551,-47.852,-15.625,-1.953,-50.293,0.000
1727539738.555,129.883,-16.602,0.000,86.426,0.000
1727539738.558,116.699,-12.695,-6.348,77.637,0.000
1727539738.562,-6.348,-8.789,-8.789,-10.254,0.000
1727539738.566,-172.852,-9.766,-11.230,-136.719,0.000
1727539738.570,-68.359,-10.254,-24.414,-66.895,0.000
1727539738.574,129.395,-7.324,-26.367,86.914,0.000
1727539738.578,131.348,-6.836,-3.418,95.703,0.000
1727539738.582,18.066,-6.348,-5.371,6.348,0.000
1727539738.586,-161.621,-10.254,-20.508,-128.906,0.000
1727539738.590,-96.191,-11.719,-19.043,-82.520,0.000
1727539738.594,108.398,-8.301,5.371,59.082,0.000
1727539738.598,120.605,-7.812,22.461,81.543,0.000
1727539738.601,32.227,-9.277,11.230,25.879,0.000
1727539738.605,-145.508,-9.766,0.977,-121.582,0.000
1727539738.609,-129.395,-14.648,-3.418,-118.652,0.000
1727539738.613,75.195,-19.043,-11.719,49.316,0.000
1727539738.617,109.375,-15.625,-8.301,92.773,0.000
1727539738.621,27.832,-9.766,-6.348,32.715,0.000
1727539738.625,-144.531,-7.324,-9.766,-107.422,0.000
1727539738.629,-142.578,-7.324,-19.043,-128.418,0.000
1727539738.633,69.824,-7.324,-25.879,36.621,0.000
1727539738.637,120.605,-1.465,-25.879,85.938,0.000
1727539738.640,44.922,-3.418,-13.672,40.527,0.000
1727539738.644,-126.953,-7.324,-25.879,-84.473,0.000
1727539738.648,-160.645,0.000,-44.434,-121.094,0.000
1727539738.652,42.480,5.371,-28.320,35.156,0.000
1727539738.656,126.465,-0.488,-5.859,96.680,0.000
1727539738.660,55.176,-0.977,-1.953,44.922,0.000
1727539738.664,-111.816,-3.418,-16.602,-82.520,0.000
1727539738.668,-163.574,-7.324,-19.531,-135.742,0.000
1727539738.672,29.785,3.418,-14.648,6.348,0.000
1727539738.676,142.578,7.812,-13.184,108.887,0.000
1727539738.680,83.496,4.395,-22.949,82.031,0.000
1727539738.683,-65.430,4.395,-28.809,-38.574,0.000
1727539738.687,-173.828,0.977,-31.250,-135.254,0.000
1727539738.691,-2.441,1.465,-24.902,-8.789,0.000
1727539738.695,135.254,-0.488,-18.555,96.191,0.000
1727539738.699,100.586,-3.906,-21.973,80.566,0.000
1727539738.703,-48.340,-8.301,-22.461,-28.320,0.000
1727539738.707,-191.895,-5.371,-27.832,-144.043,0.000
1727539738.711,-31.738,-3.418,-29.297,-10.254,0.000
1727539738.715,122.559,-7.812,-23.926,100.586,0.000
1727539738.719,95.215,-4.883,-21.973,72.754,0.000
1727539738.722,-33.203,-5.371,-24.902,-12.695,0.000
1727539738.726,-187.988,-8.301,-40.039,-142.090,0.000
1727539738.730,-45.898,-5.371,-39.062,-49.805,0.000
1727539738.734,118.164,-0.977,-16.602,95.703,0.000
1727539738.738,90.820,-2.441,-7.324,82.031,0.000
1727539738.742,-15.137,-1.465,-8.301,-7.812,0.000
1727539738.746,-184.570,-1.953,-10.742,-131.348,0.000
1727539738.750,-79.590,0.488,-9.277,-63.965,0.000
1727539738.754,103.516,0.488,-10.742,74.707,0.000
1727539738.758,97.656,-2.441,-14.648,68.359,0.000
1727539738.762,5.859,0.000,-16.602,5.371,0.000
1727539738.765,-162.598,-0.488,-17.090,-109.863,0.000
1727539738.769,-83.984,3.418,-20.996,-58.594,0.000
1727539738.773,123.535,6.836,-27.832,104.492,0.000
1727539738.777,129.883,5.371,-28.809,104.980,0.000
1727539738.781,26.855,-0.488,-22.949,13.672,0.000
1727539738.785,-150.391,-5.859,-12.695,-104.004,0.000
1727539738.789,-128.906,-4.395,-8.789,-89.844,0.000
1727539738.793,70.801,-6.348,-12.207,54.688,0.000
1727539738.797,107.910,-8.789,-12.695,93.262,0.000
1727539738.801,30.762,-4.395,-14.160,33.691,0.000
1727539738.805,-129.395,-3.418,-16.602,-108.887,0.000
1727539738.808,-127.441,-3.906,-20.508,-112.793,0.000
1727539738.812,87.891,-0.977,-31.250,58.105,0.000
1727539738.816,150.391,-0.977,-35.645,104.492,0.000
1727539738.820,74.707,-4.883,-38.574,50.293,0.000
1727539738.824,-104.492,-6.348,-41.504,-82.520,0.000
1727539738.828,-135.254,-1.953,-43.457,-109.375,0.000
1727539738.832,70.801,-3.418,-45.410,49.805,0.000
1727539738.836,133.789,-4.395,-41.016,93.750,0.000
1727539738.840,80.078,-1.465,-35.156,54.199,0.000
1727539738.844,-84.961,-1.465,-26.855,-59.082,0.000
1727539738.848,-149.902,0.000,-31.250,-126.953,0.000
1727539738.851,53.223,1.953,-36.621,26.855,0.000
1727539738.855,146.484,1.465,-26.367,106.445,0.000
1727539738.859,88.379,0.000,-19.043,62.012,0.000
1727539738.863,-65.430,1.953,-26.367,-53.223,0.000
1727539738.867,-164.062,-0.977,-30.762,-145.996,0.000
1727539738.871,10.254,-1.953,-31.250,1.465,0.000
1727539738.875,140.137,3.418,-44.922,109.863,0.000
1727539738.879,116.211,4.395,-57.617,73.242,0.000
1727539738.883,-36.621,4.395,-60.547,-40.527,0.000
1727539738.887,-174.805,3.906,-71.777,-151.367,0.000
1727539738.890,-4.395,0.977,-61.035,-29.297,0.000
1727539738.894,156.738,5.859,-35.156,88.867,0.000
1727539738.898,123.535,7.812,-33.203,77.148,0.000
1727539738.902,-28.809,-5.859,-38.574,-4.883,0.000
1727539738.906,-188.477,-9.277,-37.598,-128.418,0.000
1727539738.910,-49.316,-4.395,-37.109,-37.109,0.000
1727539738.914,125.488,-9.766,-40.039,92.773,0.000
1727539738.918,106.445,-10.254,-36.133,70.801,0.000
1727539738.922,-15.625,-6.836,-34.668,-15.625,0.000
1727539738.926,-181.641,-9.766,-34.668,-144.043,0.000
1727539738.930,-83.984,-11.719,-39.551,-70.801,0.000
1727539738.933,107.910,-7.812,-40.527,64.941,0.000
1727539738.937,104.980,-8.789,-35.156,65.918,0.000
1727539738.941,-3.418,-4.883,-37.109,8.301,0.000
1727539738.945,-170.898,-5.371,-43.945,-130.859,0.000
1727539738.949,-99.121,-5.859,-38.574,-90.820,0.000
1727539738.953,92.285,-1.953,-35.645,73.730,0.000
1727539738.957,106.934,-4.883,-45.898,84.473,0.000
1727539738.961,15.625,-8.789,-36.621,13.672,0.000
1727539738.965,-161.621,-10.742,-25.879,-120.605,0.000
1727539738.969,-107.910,-5.859,-28.809,-95.703,0.000
1727539738.973,111.816,-0.488,-34.668,62.012,0.000
1727539738.976,145.020,1.465,-44.434,90.820,0.000
1727539738.980,60.059,3.418,-49.805,36.621,0.000
1727539738.984,-122.559,0.000,-46.387,-95.215,0.000
1727539738.988,-125.488,-4.395,-36.133,-105.469,0.000
1727539738.992,79.590,1.953,-30.273,52.246,0.000
1727539738.996,135.742,2.441,-31.250,100.586,0.000
1727539739.000,55.176,2.930,-36.133,54.199,0.000
1727539739.004,-126.465,1.465,-41.992,-77.148,0.000
1727539739.008,-150.879,-0.977,-43.457,-114.746,0.000
1727539739.012,64.941,0.977,-36.133,31.250,0.000
1727539739.015,126.465,2.930,-33.691,97.168,0.000
1727539739.019,58.594,6.348,-30.762,57.617,0.000
1727539739.023,-99.121,1.953,-22.949,-74.707,0.000
1727539739.027,-158.691,2.441,-27.832,-134.766,0.000
1727539739.031,44.922,1.465,-31.250,7.324,0.000
1727539739.035,145.996,-1.465,-29.297,98.145,0.000
1727539739.039,93.750,-1.953,-39.551,72.754,0.000
1727539739.043,-70.312,-4.395,-40.527,-58.105,0.000
