timestamps,TP9,AF7,AF8,TP10,Right AUX
1727710598.471,-28.320,-8.789,-40.039,-31.250,0.000
1727710598.475,-49.805,-9.277,-41.504,-39.062,0.000
1727710598.479,-48.340,-5.859,-41.016,-33.691,0.000
1727710598.483,-28.809,-9.766,-31.738,-41.504,0.000
1727710598.487,-21.973,-11.230,-31.738,-49.805,0.000
1727710598.491,-35.645,-12.695,-37.598,-46.387,0.000
1727710598.494,-62.012,-15.137,-38.086,-50.293,0.000
1727710598.498,-63.965,-13.672,-37.109,-47.852,0.000
1727710598.502,-31.250,-9.766,-36.621,-41.992,0.000
1727710598.506,-13.184,-13.184,-38.574,-31.738,0.000
1727710598.510,-16.113,-15.625,-40.039,-25.879,0.000
1727710598.514,-33.691,-13.184,-41.504,-29.785,0.000
1727710598.518,-46.875,-15.137,-41.504,-40.527,0.000
1727710598.522,-28.809,-17.578,-39.062,-48.340,0.000
1727710598.526,-16.602,-20.508,-41.504,-38.574,0.000
1727710598.530,-24.902,-20.020,-42.480,-28.320,0.000
1727710598.534,-40.527,-19.043,-39.551,-31.738,0.000
1727710598.537,-56.152,-19.043,-39.551,-32.715,0.000
1727710598.541,-42.969,-18.555,-40.039,-31.738,0.000
1727710598.545,-26.367,-19.043,-41.992,-38.574,0.000
1727710598.549,-20.508,-18.555,-43.457,-41.016,0.000
1727710598.553,-34.180,-18.555,-42.969,-40.039,0.000
1727710598.557,-51.758,-19.531,-40.527,-39.551,0.000
1727710598.561,-36.621,-19.531,-34.180,-36.621,0.000
1727710598.565,-26.855,-18.555,-33.203,-33.203,0.000
1727710598.569,-25.879,-19.043,-32.715,-26.855,0.000
1727710598.573,-29.785,-22.949,-29.297,-24.902,0.000
1727710598.576,-38.574,-19.531,-28.320,-26.367,0.000
1727710598.580,-40.039,-12.695,-32.715,-36.133,0.000
1727710598.584,-35.645,-16.113,-33.691,-43.457,0.000
1727710598.588,-33.203,-22.461,-35.156,-38.086,0.000
1727710598.592,-41.992,-26.367,-38.574,-36.133,0.000
1727710598.596,-62.500,-23.438,-39.062,-33.203,0.000
1727710598.600,-52.734,-26.367,-41.016,-34.668,0.000
1727710598.604,-28.809,-31.250,-39.062,-34.180,0.000
1727710598.608,-27.344,-29.297,-36.621,-34.668,0.000
1727710598.612,-39.062,-32.227,-34.180,-35.645,0.000
1727710598.616,-51.758,-32.715,-39.551,-26.855,0.000
1727710598.619,-43.457,-30.273,-37.598,-34.180,0.000
1727710598.623,-29.297,-28.320,-30.273,-34.668,0.000
1727710598.627,-19.043,-27.832,-37.598,-33.691,0.000
1727710598.631,-18.555,-24.902,-39.062,-38.574,0.000
1727710598.635,-27.344,-19.043,-37.598,-31.738,0.000
1727710598.639,-23.926,-18.066,-42.969,-25.879,0.000
1727710598.643,-13.184,-26.367,-49.316,-34.668,0.000
1727710598.647,-8.789,-29.785,-48.340,-31.738,0.000
1727710598.651,-14.160,-28.320,-41.016,-29.785,0.000
1727710598.655,-31.250,-26.367,-38.574,-34.180,0.000
1727710598.659,-40.527,-23.926,-38.574,-31.738,0.000
1727710598.662,-36.133,-25.879,-41.016,-38.574,0.000
1727710598.666,-24.902,-22.949,-42.480,-40.039,0.000
1727710598.670,-21.973,-21.973,-43.457,-33.691,0.000
1727710598.674,-30.762,-25.391,-41.016,-30.273,0.000
1727710598.678,-30.762,-25.391,-39.062,-29.297,0.000
1727710598.682,-16.602,-21.484,-44.434,-34.180,0.000
1727710598.686,-7.812,-20.996,-43.945,-28.809,0.000
1727710598.690,-6.836,-23.926,-37.598,-29.785,0.000
1727710598.694,-18.066,-28.809,-34.180,-30.762,0.000
1727710598.698,-30.762,-25.879,-29.297,-23.926,0.000
1727710598.701,-23.438,-21.484,-29.785,-35.645,0.000
1727710598.705,0.000,-23.438,-28.320,-42.969,0.000
1727710598.709,0.000,-25.391,-30.762,-36.621,0.000
1727710598.713,0.000,-23.438,-33.203,-26.367,0.000
1727710598.717,0.000,-22.949,-32.715,-28.320,0.000
1727710598.721,0.000,-30.273,-36.133,-34.180,0.000
1727710598.725,0.000,-30.273,-33.203,-30.273,0.000
1727710598.729,0.000,-24.902,-32.715,-26.367,0.000
1727710598.733,0.000,-22.949,-30.762,-21.973,0.000
1727710598.737,0.000,-22.949,-27.344,-17.090,0.000
1727710598.741,0.000,-22.949,-26.855,-22.949,0.000
1727710598.744,0.000,-23.926,-27.344,-26.855,0.000
1727710598.748,0.000,-26.367,-32.227,-27.344,0.000
1727710598.752,-33.203,-27.832,-38.086,-32.227,0.000
1727710598.756,-45.410,-25.879,-36.133,-32.227,0.000
1727710598.760,-43.457,-27.832,-35.645,-40.039,0.000
1727710598.764,-30.273,-28.320,-38.574,-44.922,0.000
1727710598.768,-18.555,-23.438,-37.109,-38.574,0.000
1727710598.772,-31.250,-26.367,-34.180,-37.109,0.000
1727710598.776,-57.129,-30.273,-36.133,-40.039,0.000
1727710598.780,-50.293,-25.879,-35.645,-46.875,0.000
1727710598.783,-31.738,-27.344,-32.227,-48.828,0.000
1727710598.787,-29.785,-31.250,-38.574,-41.992,0.000
1727710598.791,-37.109,-23.926,-41.504,-42.480,0.000
1727710598.795,-44.434,-20.020,-44.434,-38.574,0.000
1727710598.799,-30.762,-22.949,-42.969,-23.926,0.000
1727710598.803,-15.137,-28.809,-27.832,-22.461,0.000
1727710598.807,-30.273,-34.180,-27.344,-25.879,0.000
1727710598.811,-44.922,-32.715,-36.133,-34.180,0.000
1727710598.815,-63.965,-35.645,-31.738,-43.945,0.000
1727710598.819,-64.941,-39.551,-25.879,-41.504,0.000
1727710598.823,-53.711,-40.039,-29.785,-55.664,0.000
1727710598.826,-49.805,-44.922,-28.320,-60.547,0.000
1727710598.830,-50.781,-45.898,-23.926,-52.734,0.000
1727710598.834,-73.730,-47.852,-24.902,-49.805,0.000
1727710598.838,-72.754,-53.223,-28.809,-47.852,0.000
1727710598.842,-46.875,-47.852,-32.715,-41.016,0.000
1727710598.846,-25.879,-39.062,-28.320,-33.203,0.000
1727710598.850,-8.301,-32.227,-25.879,-30.762,0.000
1727710598.854,-28.809,-30.762,-32.715,-31.738,0.000
1727710598.858,-47.363,-34.668,-29.785,-29.297,0.000
1727710598.862,-34.180,-39.062,-24.414,-28.809,0.000
1727710598.866,-24.902,-39.551,-27.832,-32.715,0.000
1727710598.869,-21.484,-37.109,-31.738,-31.250,0.000
1727710598.873,-27.344,-35.645,-29.297,-35.156,0.000
1727710598.877,-42.480,-37.598,-26.367,-36.621,0.000
1727710598.881,-38.086,-35.156,-28.809,-31.250,0.000
1727710598.885,-34.180,-33.203,-28.320,-35.156,0.000
1727710598.889,-41.992,-31.738,-25.391,-32.715,0.000
1727710598.893,-50.293,-31.250,-22.949,-25.879,0.000
1727710598.897,-53.223,-30.762,-26.855,-27.832,0.000
1727710598.901,-32.227,-28.809,-27.832,-20.508,0.000
1727710598.905,-13.184,-23.438,-24.902,-22.461,0.000
1727710598.908,-9.277,-21.484,-28.320,-17.578,0.000
1727710598.912,-21.973,-27.832,-32.227,-9.766,0.000
1727710598.916,-44.922,-29.297,-30.273,-17.578,0.000
1727710598.920,-40.527,-29.297,-22.949,-23.926,0.000
1727710598.924,-28.320,-28.320,-21.973,-25.391,0.000
1727710598.928,-18.066,-26.855,-20.508,-21.973,0.000
1727710598.932,-19.531,-23.926,-21.973,-17.090,0.000
1727710598.936,-36.133,-28.320,-29.785,-25.879,0.000
1727710598.940,0.000,-33.203,-26.367,-37.598,0.000
1727710598.944,0.000,-32.715,-28.320,-35.645,0.000
1727710598.948,0.000,-29.297,-31.250,-27.832,0.000
1727710598.951,0.000,-24.902,-31.738,-18.555,0.000
1727710598.955,0.000,-28.320,-39.551,-24.414,0.000
1727710598.959,0.000,-27.344,-37.598,-24.414,0.000
1727710598.963,0.000,-20.020,-27.344,-7.812,0.000
1727710598.967,0.000,-14.160,-27.344,-8.789,0.000
1727710598.971,0.000,-13.672,-38.574,-4.883,0.000
1727710598.975,0.000,-15.625,-32.715,18.066,0.000
1727710598.979,0.000,-19.043,-12.207,7.812,0.000
1727710598.983,0.000,-28.320,-13.184,-25.879,0.000
1727710598.987,-6.836,-37.109,-22.949,-29.785,0.000
1727710598.991,-20.020,-37.598,-17.578,-24.414,0.000
1727710598.994,-49.316,-43.945,-7.324,-28.809,0.000
1727710598.998,-61.523,-53.711,-2.441,-28.809,0.000
1727710599.002,-64.941,-61.035,0.000,-52.246,0.000
1727710599.006,-65.430,-68.359,-2.930,-55.664,0.000
1727710599.010,-69.824,-69.336,-5.859,-56.152,0.000
1727710599.014,-93.262,-71.777,-1.953,-63.477,0.000
1727710599.018,-102.539,-79.102,4.883,-60.059,0.000
1727710599.022,-87.402,-84.473,4.395,-73.730,0.000
1727710599.026,-87.891,-82.520,4.395,-80.078,0.000
1727710599.030,-96.191,-85.449,7.324,-72.266,0.000
1727710599.033,0.000,-90.332,16.113,-54.199,0.000
1727710599.037,0.000,-83.008,11.719,-51.758,0.000
1727710599.041,0.000,-79.102,2.930,-50.293,0.000
1727710599.045,0.000,-80.078,6.348,-40.039,0.000
1727710599.049,0.000,-76.660,4.883,-41.016,0.000
1727710599.053,0.000,-73.242,-4.883,-43.945,0.000
1727710599.057,0.000,-73.730,-5.859,-40.039,0.000
1727710599.061,0.000,-73.730,1.465,-35.156,0.000
1727710599.065,0.000,-67.383,0.977,-24.902,0.000
1727710599.069,0.000,-60.547,-2.441,-21.973,0.000
1727710599.073,0.000,-57.617,-8.789,-21.973,0.000
1727710599.076,0.000,-57.129,-13.672,-22.949,0.000
1727710599.080,-39.062,-58.594,-10.742,-25.391,0.000
1727710599.084,-21.484,-57.617,-5.371,-20.020,0.000
1727710599.088,-26.367,-58.105,-3.906,-18.555,0.000
1727710599.092,-39.062,-52.734,-13.184,-18.555,0.000
1727710599.096,-52.246,-47.363,-22.949,-24.414,0.000
1727710599.100,-45.410,-47.363,-23.926,-33.691,0.000
1727710599.104,-27.344,-45.898,-28.320,-27.344,0.000
1727710599.108,-28.809,-48.340,-22.461,-18.555,0.000
1727710599.112,-48.340,-47.363,-9.766,-25.879,0.000
1727710599.116,-55.176,-44.434,-7.324,-28.320,0.000
1727710599.119,-43.457,-42.969,-6.348,-20.508,0.000
1727710599.123,-38.086,-43.457,-11.719,-27.832,0.000
1727710599.127,-31.738,-42.969,-15.137,-27.832,0.000
1727710599.131,-31.738,-40.039,-14.648,-23.926,0.000
1727710599.135,-44.434,-42.480,-15.137,-24.902,0.000
1727710599.139,-43.457,-41.992,-17.090,-22.461,0.000
1727710599.143,-28.320,-37.598,-17.090,-21.973,0.000
1727710599.147,-27.832,-36.621,-17.578,-26.367,0.000
1727710599.151,-31.250,-36.133,-27.344,-22.461,0.000
1727710599.155,-40.527,-31.738,-25.879,-12.695,0.000
1727710599.158,-39.062,-31.738,-23.438,-24.414,0.000
1727710599.162,-16.113,-32.227,-31.250,-35.156,0.000
1727710599.166,-19.043,-31.250,-31.250,-33.203,0.000
1727710599.170,-41.016,-34.668,-28.320,-32.227,0.000
1727710599.174,-52.734,-34.668,-25.879,-21.973,0.000
1727710599.178,-44.434,-33.691,-26.367,-14.648,0.000
1727710599.182,-30.273,-33.691,-28.320,-20.020,0.000
1727710599.186,-24.902,-30.273,-28.809,-20.020,0.000
1727710599.190,-26.367,-29.785,-26.855,-20.020,0.000
1727710599.194,-31.250,-28.809,-25.879,-16.113,0.000
1727710599.198,-35.645,-34.668,-29.785,-19.531,0.000
1727710599.201,-24.414,-32.227,-31.250,-24.414,0.000
1727710599.205,-8.301,-21.973,-29.297,-17.090,0.000
1727710599.209,-19.043,-26.367,-34.180,-14.648,0.000
1727710599.213,-42.480,-31.250,-39.551,-18.066,0.000
1727710599.217,-43.457,-33.691,-37.109,-23.438,0.000
1727710599.221,-28.809,-31.250,-33.691,-27.832,0.000
1727710599.225,-16.602,-24.902,-33.691,-27.832,0.000
1727710599.229,-18.066,-25.879,-36.133,-28.320,0.000
1727710599.233,-34.180,-25.879,-38.574,-26.855,0.000
1727710599.237,-42.969,-25.879,-35.645,-30.762,0.000
1727710599.240,-32.227,-29.785,-39.062,-36.621,0.000
1727710599.244,-26.855,-29.297,-42.480,-31.250,0.000
1727710599.248,-34.180,-31.738,-36.621,-29.785,0.000
1727710599.252,-41.992,-31.250,-31.738,-30.762,0.000
1727710599.256,-42.969,-23.926,-31.250,-31.250,0.000
1727710599.260,-31.738,-24.902,-28.320,-31.250,0.000
1727710599.264,-12.207,-21.484,-28.320,-27.344,0.000
1727710599.268,-4.883,-21.973,-40.527,-19.043,0.000
1727710599.272,-29.297,-24.414,-39.551,-21.973,0.000
1727710599.276,-66.406,-23.926,-25.879,-42.480,0.000
1727710599.280,-60.547,-29.785,-20.508,-47.363,0.000
1727710599.283,-37.109,-33.203,-14.648,-38.574,0.000
1727710599.287,-36.133,-34.180,-9.766,-40.527,0.000
1727710599.291,-42.969,-35.156,-10.742,-37.109,0.000
1727710599.295,-62.012,-35.645,-9.277,-33.203,0.000
1727710599.299,-65.430,-42.480,-3.418,-39.551,0.000
1727710599.303,-43.457,-47.852,-7.812,-36.621,0.000
1727710599.307,-32.227,-41.992,-15.137,-33.691,0.000
1727710599.311,-46.387,-34.668,-17.090,-33.203,0.000
1727710599.315,-66.895,-33.203,-14.648,-37.109,0.000
1727710599.319,-62.012,-33.691,-20.020,-45.410,0.000
1727710599.323,-35.645,-35.156,-26.855,-36.621,0.000
1727710599.326,-24.902,-32.227,-20.508,-31.250,0.000
1727710599.330,-33.203,-32.227,-20.508,-29.297,0.000
1727710599.334,-42.480,-35.156,-20.996,-21.973,0.000
1727710599.338,-34.668,-28.320,-18.555,-30.273,0.000
1727710599.342,-22.949,-25.879,-18.555,-37.598,0.000
1727710599.346,-25.391,-27.832,-20.996,-29.785,0.000
1727710599.350,-34.180,-28.320,-25.391,-18.066,0.000
1727710599.354,-46.875,-31.738,-24.902,-20.508,0.000
1727710599.358,-47.363,-32.227,-17.578,-27.832,0.000
1727710599.362,-33.691,-31.738,-21.973,-33.691,0.000
1727710599.365,-27.832,-30.762,-39.062,-28.320,0.000
1727710599.369,-29.297,-32.227,-37.598,-25.879,0.000
1727710599.373,-39.062,-34.180,-38.086,-27.344,0.000
1727710599.377,-42.969,-36.133,-39.551,-24.902,0.000
1727710599.381,-32.715,-33.691,-40.527,-27.344,0.000
1727710599.385,-22.949,-27.832,-42.480,-23.926,0.000
1727710599.389,-13.672,-26.855,-41.504,-16.602,0.000
1727710599.393,-18.555,-29.785,-38.574,-9.766,0.000
1727710599.397,-23.438,-30.273,-25.879,-14.648,0.000
1727710599.401,-11.719,-27.832,-23.438,-17.578,0.000
1727710599.405,-13.672,-26.855,-32.715,-16.602,0.000
1727710599.408,0.000,-27.832,-30.273,-22.461,0.000
1727710599.412,0.000,-27.344,-27.344,-22.461,0.000
1727710599.416,0.000,-25.391,-33.203,-30.273,0.000
1727710599.420,0.000,-28.320,-28.320,-40.527,0.000
1727710599.424,0.000,-37.109,-17.090,-38.086,0.000
1727710599.428,0.000,-39.551,-20.508,-37.109,0.000
1727710599.432,0.000,-37.109,-28.809,-35.645,0.000
1727710599.436,0.000,-37.109,-27.832,-34.180,0.000
1727710599.440,0.000,-39.062,-21.484,-37.598,0.000
1727710599.444,0.000,-39.062,-23.438,-36.621,0.000
1727710599.448,0.000,-36.133,-28.809,-27.832,0.000
1727710599.451,0.000,-28.320,-31.738,-30.762,0.000
1727710599.455,-28.809,-24.414,-27.344,-25.879,0.000
1727710599.459,-28.320,-28.320,-26.855,-33.203,0.000
1727710599.463,-28.809,-29.785,-33.203,-42.480,0.000
1727710599.467,-28.320,-26.367,-37.109,-34.180,0.000
1727710599.471,-40.039,-24.414,-41.504,-32.227,0.000
1727710599.475,-47.852,-22.949,-37.109,-37.109,0.000
1727710599.479,-38.574,-20.996,-37.598,-44.434,0.000
1727710599.483,-22.461,-22.949,-34.180,-36.133,0.000
1727710599.487,-16.113,-24.414,-36.621,-37.109,0.000
1727710599.490,-18.066,-23.926,-41.504,-32.227,0.000
1727710599.494,-28.320,-24.414,-30.273,-22.949,0.000
1727710599.498,-22.461,-20.996,-25.879,-29.297,0.000
1727710599.502,-13.672,-16.113,-24.414,-26.855,0.000
1727710599.506,-17.090,-20.508,-28.320,-34.668,0.000
1727710599.510,-22.949,-27.832,-34.180,-35.645,0.000
1727710599.514,-42.480,-27.832,-33.203,-26.367,0.000
1727710599.518,-38.574,-25.879,-35.645,-32.715,0.000
1727710599.522,-19.531,-23.438,-39.062,-34.668,0.000
1727710599.526,-19.531,-26.855,-38.086,-31.250,0.000
1727710599.530,-17.090,-24.414,-40.527,-33.691,0.000
1727710599.533,-39.551,-22.461,-46.387,-33.203,0.000
1727710599.537,-45.410,-20.508,-37.109,-28.320,0.000
1727710599.541,-20.020,-22.949,-36.621,-27.832,0.000
1727710599.545,-16.602,-28.320,-41.992,-31.250,0.000
1727710599.549,-33.203,-25.879,-39.551,-32.715,0.000
1727710599.553,-47.852,-24.902,-40.039,-29.785,0.000
1727710599.557,-53.223,-28.320,-39.551,-32.715,0.000
1727710599.561,-35.156,-26.367,-33.691,-30.273,0.000
1727710599.565,-21.973,-21.484,-33.203,-27.832,0.000
1727710599.569,-24.414,-24.414,-31.250,-34.668,0.000
1727710599.572,-31.250,-30.762,-30.762,-19.043,0.000
1727710599.576,-35.156,-27.832,-32.715,-30.273,0.000
1727710599.580,-28.320,-29.785,-28.320,-40.039,0.000
1727710599.584,-23.438,-29.785,-29.297,-19.531,0.000
1727710599.588,-27.832,-29.785,-33.203,-23.438,0.000
1727710599.592,-42.480,-32.715,-37.109,-32.715,0.000
1727710599.596,-42.969,-31.250,-37.109,-31.250,0.000
1727710599.600,-24.902,-29.785,-31.250,-36.133,0.000
1727710599.604,-10.742,-30.762,-31.738,-29.297,0.000
1727710599.608,-19.531,-28.809,-30.762,-26.855,0.000
1727710599.612,-45.898,-27.832,-32.227,-39.062,0.000
1727710599.615,-55.664,-31.738,-34.668,-35.645,0.000
1727710599.619,-39.551,-31.738,-37.109,-45.410,0.000
1727710599.623,-20.996,-27.832,-34.180,-46.875,0.000
1727710599.627,-27.344,-22.949,-28.809,-42.480,0.000
1727710599.631,-45.898,-25.391,-29.785,-35.645,0.000
1727710599.635,-45.410,-24.414,-31.250,-35.645,0.000
1727710599.639,-37.109,-24.414,-30.273,-51.270,0.000
1727710599.643,-36.621,-31.738,-36.133,-53.711,0.000
1727710599.647,-40.527,-30.273,-36.133,-49.805,0.000
1727710599.651,-51.270,-26.855,-29.297,-44.434,0.000
1727710599.655,-61.523,-27.832,-32.227,-45.410,0.000
1727710599.658,-48.828,-26.367,-35.156,-43.457,0.000
1727710599.662,-30.273,-26.855,-37.109,-35.645,0.000
1727710599.666,-25.391,-26.367,-38.086,-32.227,0.000
1727710599.670,-32.715,-23.926,-31.738,-44.922,0.000
1727710599.674,-42.480,-23.926,-28.320,-44.434,0.000
1727710599.678,-36.621,-37.598,-28.809,-35.645,0.000
1727710599.682,-15.625,-39.062,-37.109,-42.480,0.000
1727710599.686,-8.301,-28.809,-35.645,-42.480,0.000
1727710599.690,0.000,-34.668,-20.508,-39.551,0.000
1727710599.694,0.000,-30.762,-21.973,-38.574,0.000
1727710599.697,0.000,-24.902,-23.926,-41.504,0.000
1727710599.701,0.000,-21.484,-22.461,-44.434,0.000
1727710599.705,0.000,-37.109,-18.066,-30.762,0.000
1727710599.709,0.000,-49.316,-16.602,-16.113,0.000
1727710599.713,0.000,-26.855,-31.738,-34.180,0.000
1727710599.717,0.000,-22.461,-37.109,-48.340,0.000
1727710599.721,0.000,-28.320,-38.086,-49.316,0.000
1727710599.725,0.000,-19.531,-47.852,-46.875,0.000
1727710599.729,0.000,-16.602,-47.363,-46.387,0.000
1727710599.733,0.000,-13.672,-29.785,-41.992,0.000
1727710599.737,-37.598,-17.578,-35.645,-39.062,0.000
1727710599.740,-31.250,-21.973,-45.410,-39.062,0.000
1727710599.744,-35.645,-21.973,-28.320,-30.273,0.000
1727710599.748,-28.809,-25.879,-16.602,-25.879,0.000
1727710599.752,-38.574,-25.879,-20.996,-22.949,0.000
1727710599.756,-40.527,-24.902,-21.973,-27.832,0.000
1727710599.760,-14.160,-23.926,-24.902,-19.531,0.000
1727710599.764,11.230,-18.555,-27.832,-2.930,0.000
1727710599.768,4.883,-12.695,-26.855,-1.465,0.000
1727710599.772,-21.484,-21.973,-27.832,-6.348,0.000
1727710599.776,-26.855,-25.879,-30.273,-4.395,0.000
1727710599.780,-6.348,-15.137,-29.297,-10.742,0.000
1727710599.783,-0.977,-15.625,-30.762,-17.090,0.000
1727710599.787,-8.789,-12.695,-35.156,-18.066,0.000
1727710599.791,-19.043,-9.766,-29.785,-15.625,0.000
1727710599.795,-34.668,-13.672,-28.809,-22.949,0.000
1727710599.799,-27.832,-17.578,-34.180,-34.180,0.000
1727710599.803,-4.395,-18.555,-30.273,-24.902,0.000
1727710599.807,-7.812,-18.066,-32.715,-21.973,0.000
1727710599.811,-36.621,-20.996,-34.668,-26.855,0.000
1727710599.815,-59.082,-20.996,-33.203,-28.320,0.000
1727710599.819,-53.711,-20.020,-45.410,-41.016,0.000
1727710599.822,-46.875,-21.973,-45.898,-41.016,0.000
1727710599.826,-44.434,-23.438,-34.180,-41.504,0.000
1727710599.830,-50.293,-23.926,-33.691,-50.293,0.000
1727710599.834,-63.965,-24.414,-36.133,-48.828,0.000
1727710599.838,-57.617,-21.973,-34.180,-53.223,0.000
1727710599.842,-43.945,-21.973,-29.785,-59.570,0.000
1727710599.846,-35.156,-23.926,-28.320,-54.199,0.000
1727710599.850,-49.316,-24.902,-29.297,-55.664,0.000
1727710599.854,-72.266,-26.855,-25.879,-66.895,0.000
1727710599.858,-53.223,-26.855,-27.832,-54.199,0.000
1727710599.862,-26.367,-27.344,-33.203,-43.457,0.000
1727710599.865,-38.574,-30.273,-28.809,-47.363,0.000
1727710599.869,-52.246,-29.785,-25.391,-51.758,0.000
1727710599.873,-48.828,-25.879,-33.203,-34.668,0.000
1727710599.877,-45.898,-29.785,-25.391,-34.668,0.000
1727710599.881,-38.574,-34.668,-8.301,-42.480,0.000
1727710599.885,-51.270,-39.062,-16.602,-60.059,0.000
1727710599.889,-58.105,-40.039,-19.043,-66.406,0.000
1727710599.893,-24.414,-20.508,-15.137,-26.855,0.000
1727710599.897,-16.113,-14.648,-16.113,-22.461,0.000
1727710599.901,-22.461,-26.855,-6.348,-22.949,0.000
1727710599.905,-3.418,-22.461,-7.324,-13.184,0.000
1727710599.908,-56.152,-38.574,-5.859,-67.871,0.000
1727710599.912,-101.074,-45.410,9.766,-80.078,0.000
1727710599.916,-56.641,-16.113,-21.484,-25.879,0.000
1727710599.920,-30.762,-14.160,-36.621,-32.227,0.000
1727710599.924,-46.387,-42.480,19.531,-70.312,0.000
1727710599.928,-86.426,-67.383,40.039,-108.398,0.000
1727710599.932,-90.820,-46.875,6.836,-83.984,0.000
1727710599.936,-44.922,-15.625,11.719,-28.320,0.000
1727710599.940,-2.930,-14.648,7.812,-24.414,0.000
1727710599.944,-20.020,-20.508,-5.859,-34.180,0.000
1727710599.947,-67.383,-37.109,1.465,-54.688,0.000
1727710599.951,-99.609,-44.434,-11.719,-87.891,0.000
1727710599.955,-104.004,-40.039,-26.367,-89.355,0.000
1727710599.959,-76.660,-39.551,-43.457,-86.426,0.000
1727710599.963,-67.383,-44.434,-37.598,-103.516,0.000
1727710599.967,-50.293,-32.227,-60.547,-72.754,0.000
1727710599.971,-59.570,-32.715,-137.695,-53.223,0.000
1727710599.975,-105.957,-59.082,-156.738,-101.562,0.000
1727710599.979,-86.914,-63.477,-179.688,-94.238,0.000
1727710599.983,-82.520,-67.871,-234.863,-79.102,0.000
1727710599.987,-98.633,-72.266,-299.805,-109.863,0.000
1727710599.990,-75.195,-40.527,-395.020,-123.047,0.000
1727710599.994,-60.059,-31.738,-464.844,-86.426,0.000
1727710599.998,-24.414,-34.180,-565.430,-26.855,0.000
1727710600.002,-41.016,-67.383,-721.680,-41.992,0.000
1727710600.006,-77.637,-86.426,-860.840,-74.707,0.000
1727710600.010,-88.379,-54.199,-952.637,-95.703,0.000
1727710600.014,-90.332,-23.926,-961.426,-96.191,0.000
1727710600.018,-109.863,-32.715,-869.141,-93.262,0.000
1727710600.022,-111.816,-44.434,-817.383,-96.191,0.000
1727710600.026,-61.035,-31.250,-817.383,-70.801,0.000
1727710600.030,-53.711,-35.156,-785.645,-52.246,0.000
1727710600.033,-77.637,-46.875,-784.668,-47.363,0.000
1727710600.037,-69.336,-41.504,-775.879,-61.035,0.000
1727710600.041,-67.383,-43.457,-693.848,-92.285,0.000
1727710600.045,-77.148,-38.574,-618.652,-111.328,0.000
1727710600.049,-71.777,-20.996,-597.656,-83.008,0.000
1727710600.053,-77.637,-19.531,-506.348,-60.059,0.000
1727710600.057,-59.570,-20.020,-426.758,-42.969,0.000
1727710600.061,-50.293,-33.203,-405.762,-58.594,0.000
1727710600.065,-26.855,-26.367,-446.777,-56.641,0.000
1727710600.069,10.742,-37.598,-479.980,-2.441,0.000
1727710600.072,-9.766,-45.410,-481.934,-4.395,0.000
1727710600.076,-51.270,-23.926,-526.855,-75.195,0.000
1727710600.080,-65.918,-25.391,-522.949,-90.820,0.000
1727710600.084,-52.734,-10.742,-526.855,-35.645,0.000
1727710600.088,-71.777,-7.812,-518.066,-56.152,0.000
1727710600.092,-98.633,-19.043,-550.293,-79.102,0.000
1727710600.096,-59.570,-22.949,-588.867,-52.734,0.000
1727710600.100,-39.551,-21.484,-571.289,-36.621,0.000
1727710600.104,-44.434,-4.883,-600.098,-21.973,0.000
1727710600.108,-31.250,8.301,-631.348,-26.367,0.000
1727710600.112,-43.457,-13.672,-615.234,-47.852,0.000
1727710600.115,-55.664,-40.039,-619.629,-39.062,0.000
1727710600.119,-38.086,-23.926,-642.578,-26.367,0.000
1727710600.123,-38.086,-10.742,-638.184,-38.574,0.000
1727710600.127,-42.969,-8.301,-631.348,-48.340,0.000
1727710600.131,-61.523,-2.930,-581.543,-55.664,0.000
1727710600.135,-69.336,-3.906,-529.785,-67.383,0.000
1727710600.139,-40.527,-4.883,-527.832,-42.969,0.000
1727710600.143,-13.672,-12.695,-515.625,15.625,0.000
1727710600.147,-15.625,-26.367,-496.094,7.812,0.000
1727710600.151,-12.207,-22.461,-470.215,-20.020,0.000
1727710600.154,-29.297,-31.250,-443.359,-51.270,0.000
1727710600.158,-52.734,-27.344,-445.801,-65.918,0.000
1727710600.162,-36.621,-6.348,-458.496,-57.617,0.000
1727710600.166,-34.180,-10.254,-483.887,-50.781,0.000
1727710600.170,-55.664,-11.719,-453.613,-42.480,0.000
1727710600.174,-48.340,-7.324,-441.895,-34.668,0.000
1727710600.178,-34.668,-10.742,-440.430,-15.625,0.000
1727710600.182,-17.090,-20.508,-436.035,-17.090,0.000
1727710600.186,0.000,-19.531,-447.266,1.953,0.000
1727710600.190,-3.906,-5.859,-430.664,-7.812,0.000
1727710600.194,-22.949,-17.578,-395.020,-38.086,0.000
1727710600.197,-29.785,-35.645,-357.422,-30.273,0.000
1727710600.201,-0.488,-19.531,-363.770,-10.254,0.000
1727710600.205,-36.621,-26.367,-303.223,-29.297,0.000
1727710600.209,-66.895,-35.156,-260.254,-41.992,0.000
1727710600.213,-23.438,-19.043,-298.828,-20.508,0.000
1727710600.217,-2.930,-11.719,-263.672,-34.180,0.000
1727710600.221,-8.301,-4.883,-215.820,-41.504,0.000
1727710600.225,-10.254,-7.812,-202.148,-12.695,0.000
1727710600.229,-29.297,-22.461,-167.480,4.395,0.000
1727710600.233,-36.621,-29.297,-137.207,-11.719,0.000
1727710600.237,-48.828,-47.852,-92.285,-66.406,0.000
1727710600.240,-22.461,-41.016,-101.074,-21.973,0.000
1727710600.244,-10.254,-32.227,-109.863,1.465,0.000
1727710600.248,-40.039,-39.062,-89.355,-35.645,0.000
1727710600.252,-38.086,-29.785,-75.195,-20.508,0.000
1727710600.256,-29.297,-42.969,-38.574,-15.137,0.000
1727710600.260,-16.113,-46.387,-10.254,-3.418,0.000
1727710600.264,-3.418,-22.461,2.441,1.465,0.000
1727710600.268,-8.301,-18.066,23.926,-19.043,0.000
1727710600.272,-44.434,-33.203,71.289,-41.992,0.000
1727710600.276,-4.883,-29.297,52.246,9.766,0.000
1727710600.279,33.691,-28.320,53.223,33.691,0.000
1727710600.283,21.973,-22.461,87.402,-4.883,0.000
1727710600.287,14.648,-12.207,92.285,-8.301,0.000
1727710600.291,-0.977,-18.066,106.445,-3.418,0.000
1727710600.295,-14.648,-29.785,124.023,-25.879,0.000
1727710600.299,-21.973,-38.574,161.133,-49.805,0.000
1727710600.303,-9.766,-31.250,174.805,-20.508,0.000
1727710600.307,2.441,-23.926,176.758,3.418,0.000
1727710600.311,-11.230,-24.902,266.113,-13.184,0.000
1727710600.315,-21.973,-24.414,333.984,-28.809,0.000
1727710600.319,3.418,-26.367,356.445,-15.137,0.000
1727710600.322,18.555,-26.367,418.457,11.230,0.000
1727710600.326,14.648,-20.020,466.797,7.812,0.000
1727710600.330,9.277,-17.578,516.113,-0.977,0.000
1727710600.334,-7.324,-21.973,567.383,-3.906,0.000
1727710600.338,6.348,-18.555,580.078,-0.977,0.000
1727710600.342,19.531,-23.926,595.215,-2.930,0.000
1727710600.346,9.766,-29.785,713.379,0.000,0.000
1727710600.350,2.930,-24.414,906.738,16.113,0.000
1727710600.354,-5.371,-24.414,973.633,12.207,0.000
1727710600.358,9.766,-23.438,962.891,7.812,0.000
1727710600.362,26.367,-21.973,968.262,8.301,0.000
1727710600.365,34.180,-21.973,968.262,20.996,0.000
1727710600.369,14.648,-19.043,968.262,17.578,0.000
1727710600.373,0.977,-15.137,968.262,11.230,0.000
1727710600.377,31.738,-17.090,967.773,23.438,0.000
1727710600.381,40.039,-17.090,967.773,37.109,0.000
1727710600.385,25.879,-15.625,968.262,28.320,0.000
1727710600.389,4.395,-20.020,968.262,19.043,0.000
1727710600.393,-7.324,-21.973,968.750,16.602,0.000
1727710600.397,6.348,-19.043,966.309,1.465,0.000
1727710600.401,31.250,-17.090,968.262,3.906,0.000
1727710600.404,39.062,-13.672,962.402,20.020,0.000
1727710600.408,32.227,-13.672,894.531,20.508,0.000
1727710600.412,22.461,-14.648,793.457,16.602,0.000
1727710600.416,15.137,-15.137,711.914,19.043,0.000
1727710600.420,35.156,-17.578,716.797,23.438,0.000
1727710600.424,48.828,-17.090,731.934,35.156,0.000
1727710600.428,32.227,-18.555,708.008,22.949,0.000
1727710600.432,13.184,-22.949,703.125,9.277,0.000
1727710600.436,20.020,-25.391,666.992,9.766,0.000
1727710600.440,35.156,-21.484,611.328,2.930,0.000
1727710600.444,34.668,-23.438,598.145,3.418,0.000
1727710600.447,21.484,-24.414,573.730,-0.488,0.000
1727710600.451,3.418,-22.949,572.754,-9.277,0.000
1727710600.455,0.000,-27.344,598.633,-6.836,0.000
1727710600.459,12.695,-22.949,586.426,0.000,0.000
1727710600.463,14.648,-19.531,562.500,7.812,0.000
1727710600.467,15.625,-15.137,516.602,6.348,0.000
1727710600.471,6.836,-11.719,459.961,6.836,0.000
1727710600.475,-3.418,-16.602,407.715,1.465,0.000
1727710600.479,15.625,-12.695,360.352,-0.977,0.000
1727710600.483,16.113,-12.207,331.055,8.301,0.000
1727710600.487,0.488,-12.207,324.707,0.977,0.000
1727710600.490,-15.625,-15.137,317.383,-4.395,0.000
1727710600.494,-21.973,-26.855,297.852,-4.395,0.000
1727710600.498,-1.465,-27.344,262.207,-9.766,0.000
1727710600.502,9.277,-20.508,235.840,-6.348,0.000
1727710600.506,-6.836,-20.996,227.539,-8.301,0.000
1727710600.510,-20.996,-19.531,212.891,-15.625,0.000
1727710600.514,-23.926,-19.043,202.148,-10.742,0.000
1727710600.518,-15.137,-23.438,195.312,-5.859,0.000
1727710600.522,-12.695,-29.785,197.754,-12.207,0.000
1727710600.526,-15.625,-27.832,200.684,-12.695,0.000
1727710600.529,-21.484,-21.484,199.707,-9.766,0.000
1727710600.533,-30.762,-25.391,194.336,-17.578,0.000
1727710600.537,-19.531,-25.391,192.871,-20.508,0.000
1727710600.541,2.930,-22.461,191.895,-15.625,0.000
1727710600.545,7.812,-21.973,175.293,-19.531,0.000
1727710600.549,3.418,-20.996,160.156,-13.184,0.000
1727710600.553,5.859,-18.066,145.996,-4.395,0.000
1727710600.557,5.859,-20.020,133.301,-14.160,0.000
1727710600.561,-6.348,-21.484,140.625,-14.648,0.000
1727710600.565,-9.277,-24.414,147.949,-2.930,0.000
1727710600.569,-9.766,-25.879,152.832,0.977,0.000
1727710600.572,-24.414,-23.926,149.902,-2.930,0.000
1727710600.576,-16.602,-25.879,133.301,3.906,0.000
1727710600.580,11.719,-19.043,128.418,10.742,0.000
1727710600.584,15.137,-12.695,119.141,6.348,0.000
1727710600.588,8.301,-17.578,97.656,15.137,0.000
1727710600.592,-7.812,-19.043,100.098,10.742,0.000
1727710600.596,-0.977,-18.555,111.816,-1.953,0.000
1727710600.600,29.297,-16.113,121.582,12.207,0.000
1727710600.604,19.531,-18.555,111.816,13.184,0.000
1727710600.608,-3.906,-18.555,86.914,6.836,0.000
1727710600.611,-18.555,-14.648,77.148,5.859,0.000
1727710600.615,-10.254,-17.090,76.660,4.883,0.000
1727710600.619,19.531,-13.672,63.965,3.906,0.000
1727710600.623,25.391,-4.883,37.598,3.418,0.000
1727710600.627,12.207,-10.254,36.621,2.930,0.000
1727710600.631,-3.418,-22.461,56.641,-9.766,0.000
1727710600.635,-4.395,-24.902,68.359,-16.113,0.000
1727710600.639,7.812,-24.414,64.453,-17.578,0.000
1727710600.643,14.160,-23.438,54.199,-7.812,0.000
1727710600.647,5.371,-24.414,48.340,-9.766,0.000
1727710600.651,-18.066,-26.367,33.691,-8.789,0.000
1727710600.654,-20.508,-22.461,27.344,-2.930,0.000
1727710600.658,-5.371,-19.531,38.574,-18.555,0.000
1727710600.662,-2.930,-19.531,44.922,-12.207,0.000
1727710600.666,2.930,-23.926,43.457,-0.488,0.000
1727710600.670,5.371,-22.949,22.461,-0.488,0.000
1727710600.674,7.812,-12.207,12.207,-6.836,0.000
1727710600.678,1.953,-22.461,27.344,-15.625,0.000
1727710600.682,-2.930,-37.109,35.645,-14.160,0.000
1727710600.686,-11.719,-32.715,42.480,-17.090,0.000
1727710600.690,-35.645,-25.879,40.039,-24.414,0.000
1727710600.694,-39.551,-27.344,40.527,-23.438,0.000
1727710600.697,-15.625,-26.855,31.738,-23.438,0.000
1727710600.701,2.441,-25.391,19.043,-15.137,0.000
1727710600.705,1.953,-27.344,29.297,-3.906,0.000
1727710600.709,1.953,-20.996,38.574,-4.395,0.000
1727710600.713,-8.789,-19.531,30.762,-3.906,0.000
1727710600.717,-6.348,-26.855,35.645,-3.906,0.000
1727710600.721,8.789,-25.391,45.898,-0.977,0.000
1727710600.725,11.230,-21.484,47.852,10.742,0.000
1727710600.729,-1.465,-20.508,43.945,3.418,0.000
1727710600.733,-3.906,-18.555,37.109,-5.859,0.000
1727710600.736,10.742,-15.625,31.250,0.977,0.000
1727710600.740,20.508,-17.578,25.391,6.836,0.000
1727710600.744,17.090,-17.578,26.855,8.301,0.000
1727710600.748,3.418,-19.531,34.180,7.812,0.000
1727710600.752,7.812,-16.602,40.039,16.602,0.000
1727710600.756,17.578,-12.695,31.250,17.090,0.000
1727710600.760,20.996,-16.113,29.297,4.395,0.000
1727710600.764,21.973,-17.090,33.203,-1.465,0.000
1727710600.768,13.672,-16.602,30.762,3.906,0.000
1727710600.772,2.930,-18.066,32.227,-3.418,0.000
1727710600.776,2.441,-19.531,41.016,-8.789,0.000
1727710600.779,10.254,-25.391,49.805,-2.441,0.000
1727710600.783,9.766,-22.949,55.176,3.418,0.000
1727710600.787,3.418,-13.184,51.270,-2.441,0.000
1727710600.791,4.395,-15.625,42.480,8.789,0.000
1727710600.795,29.297,-20.508,44.434,28.809,0.000
1727710600.799,28.320,-15.137,44.434,5.859,0.000
1727710600.803,-8.789,-12.695,38.574,-20.996,0.000
1727710600.807,-24.414,-20.508,40.039,-21.973,0.000
1727710600.811,-19.531,-20.508,38.574,-14.648,0.000
1727710600.815,-5.859,-15.625,39.062,-13.672,0.000
1727710600.819,11.230,-17.090,36.133,-5.371,0.000
1727710600.822,7.812,-17.090,30.273,-7.812,0.000
1727710600.826,1.465,-15.625,34.180,-7.812,0.000
1727710600.830,-7.812,-15.137,24.902,-3.906,0.000
1727710600.834,-9.277,-15.625,19.043,-4.395,0.000
1727710600.838,0.488,-20.020,20.020,-14.160,0.000
1727710600.842,6.348,-19.043,22.461,-23.926,0.000
1727710600.846,9.277,-18.066,29.785,-11.230,0.000
1727710600.850,-3.906,-18.066,29.785,-8.789,0.000
1727710600.854,-5.371,-18.066,31.738,-17.578,0.000
1727710600.858,9.277,-17.090,29.785,-3.906,0.000
1727710600.861,12.207,-21.973,28.320,3.906,0.000
1727710600.865,9.766,-27.344,24.414,-7.812,0.000
1727710600.869,-0.977,-24.414,15.137,-5.371,0.000
1727710600.873,4.395,-23.438,25.879,3.906,0.000
1727710600.877,21.973,-23.926,32.227,-1.465,0.000
1727710600.881,27.832,-24.902,18.066,-2.441,0.000
1727710600.885,0.488,-31.738,10.742,-10.254,0.000
1727710600.889,-23.926,-34.668,26.855,-14.648,0.000
1727710600.893,-20.508,-31.250,27.832,-10.254,0.000
1727710600.897,-14.648,-29.785,11.719,-18.066,0.000
1727710600.901,-7.812,-33.691,13.672,-16.602,0.000
1727710600.904,-6.348,-35.645,25.391,-13.184,0.000
1727710600.908,-10.742,-34.668,30.273,-0.488,0.000
1727710600.912,-11.719,-39.551,24.414,5.859,0.000
1727710600.916,-0.977,-39.062,17.578,0.000,0.000
1727710600.920,11.230,-35.156,17.090,-3.418,0.000
1727710600.924,8.789,-31.250,6.836,-0.977,0.000
1727710600.928,-10.254,-26.855,1.953,3.906,0.000
1727710600.932,-23.926,-31.738,-0.977,-3.906,0.000
1727710600.936,-20.996,-34.668,-2.441,-11.230,0.000
1727710600.940,-11.719,-28.809,6.836,-5.371,0.000
1727710600.943,0.977,-29.297,11.230,-10.254,0.000
1727710600.947,-8.789,-28.320,15.625,-11.719,0.000
1727710600.951,-18.555,-30.273,13.184,-2.930,0.000
1727710600.955,2.441,-23.438,2.441,3.418,0.000
1727710600.959,18.555,-17.578,2.930,-6.836,0.000
1727710600.963,13.672,-19.531,3.418,-19.531,0.000
1727710600.967,-9.766,-19.531,-17.090,-22.461,0.000
1727710600.971,-33.203,-23.926,-12.207,-28.809,0.000
1727710600.975,-23.438,-27.344,5.371,-33.203,0.000
1727710600.979,-8.789,-27.832,1.953,-28.809,0.000
1727710600.983,-17.090,-28.320,-6.348,-27.344,0.000
1727710600.986,-24.902,-26.855,-1.465,-18.066,0.000
1727710600.990,-23.926,-24.902,-4.395,-18.555,0.000
1727710600.994,-22.949,-22.949,-19.531,-30.273,0.000
1727710600.998,-12.695,-23.438,-18.555,-30.273,0.000
1727710601.002,-17.090,-27.344,-2.441,-33.691,0.000
1727710601.006,-31.250,-24.414,-0.488,-44.434,0.000
1727710601.010,-30.273,-20.020,-21.484,-40.527,0.000
1727710601.014,-31.250,-20.996,-22.949,-41.504,0.000
1727710601.018,-31.250,-24.902,-9.277,-43.945,0.000
1727710601.022,-27.344,-28.809,-2.441,-41.992,0.000
1727710601.026,-25.391,-28.320,-7.812,-36.133,0.000
1727710601.029,-38.086,-26.855,-21.484,-22.461,0.000
1727710601.033,-41.504,-26.855,-22.461,-32.715,0.000
1727710601.037,-31.250,-29.297,-14.160,-37.598,0.000
1727710601.041,-17.578,-33.691,-9.766,-33.203,0.000
1727710601.045,-16.113,-30.273,-15.625,-26.855,0.000
1727710601.049,-45.898,-24.414,-16.602,-22.461,0.000
1727710601.053,-39.062,-24.414,-14.648,-22.949,0.000
1727710601.057,-6.348,-26.855,-15.137,-10.742,0.000
1727710601.061,5.859,-26.367,-2.930,-2.930,0.000
1727710601.065,-9.277,-22.949,5.371,-17.090,0.000
1727710601.068,-31.250,-27.344,7.812,-9.277,0.000
1727710601.072,-32.227,-30.273,3.418,-4.883,0.000
1727710601.076,-18.066,-25.391,-20.020,-31.250,0.000
1727710601.080,-6.836,-21.973,-34.668,-30.273,0.000
1727710601.084,-17.090,-21.973,-16.602,-26.367,0.000
1727710601.088,-49.805,-26.367,5.859,-25.391,0.000
1727710601.092,-65.918,-28.320,3.906,-26.367,0.000
1727710601.096,-52.246,-29.785,-6.348,-31.250,0.000
1727710601.100,-37.109,-29.297,-20.508,-27.832,0.000
1727710601.104,-30.762,-21.484,-23.438,-27.344,0.000
1727710601.108,-40.527,-17.578,-40.039,-26.367,0.000
1727710601.111,-43.945,-14.648,-51.758,-15.625,0.000
1727710601.115,-25.879,-17.578,-10.254,-18.555,0.000
1727710601.119,-15.137,-24.414,7.812,-24.902,0.000
1727710601.123,-2.930,-23.926,7.812,-18.066,0.000
1727710601.127,-7.812,-23.926,8.789,-16.113,0.000
1727710601.131,-25.391,-25.879,2.441,-11.719,0.000
1727710601.135,-28.809,-20.020,-6.348,-18.066,0.000
1727710601.139,-9.766,-17.578,-0.977,-15.625,0.000
1727710601.143,5.859,-22.949,11.719,-15.625,0.000
1727710601.147,-16.113,-22.461,2.441,-22.949,0.000
1727710601.151,-27.344,-20.020,-13.184,-15.625,0.000
1727710601.154,-15.625,-18.555,-19.043,-14.648,0.000
1727710601.158,-2.930,-20.508,-6.348,-15.137,0.000
1727710601.162,-4.883,-27.344,-5.859,-18.555,0.000
1727710601.166,-24.902,-31.250,-16.113,-12.695,0.000
1727710601.170,-44.434,-28.809,-3.418,-12.207,0.000
1727710601.174,-26.855,-25.391,8.301,-18.066,0.000
1727710601.178,-4.395,-24.902,-4.883,-18.555,0.000
1727710601.182,-5.371,-23.926,-34.668,-17.090,0.000
1727710601.186,-14.160,-24.902,-25.879,-21.484,0.000
1727710601.190,-40.039,-34.668,5.371,-20.996,0.000
1727710601.193,-44.434,-38.574,10.254,-21.973,0.000
1727710601.197,-20.996,-36.621,9.766,-25.879,0.000
1727710601.201,-15.625,-39.062,0.488,-25.391,0.000
1727710601.205,-17.090,-38.086,-13.184,-12.207,0.000
1727710601.209,-23.438,-33.691,-15.625,4.395,0.000
1727710601.213,-23.438,-33.691,-13.184,-0.977,0.000
1727710601.217,-0.977,-40.527,-5.371,-11.719,0.000
1727710601.221,10.742,-37.598,-8.301,-0.977,0.000
1727710601.225,-8.789,-33.691,-16.602,-1.953,0.000
1727710601.229,-37.598,-34.668,-14.648,-11.719,0.000
1727710601.233,-34.668,-38.086,-6.836,-5.859,0.000
1727710601.236,0.000,-34.668,-1.953,-9.766,0.000
1727710601.240,0.000,-30.762,-12.695,-13.184,0.000
1727710601.244,0.000,-30.273,-34.180,-11.230,0.000
1727710601.248,0.000,-29.297,-52.246,-8.301,0.000
1727710601.252,0.000,-32.227,-35.156,-10.742,0.000
1727710601.256,0.000,-33.203,-7.324,-14.160,0.000
1727710601.260,0.000,-31.250,0.488,-9.766,0.000
1727710601.264,0.000,-27.344,-7.812,-6.348,0.000
1727710601.268,0.000,-23.438,-10.254,6.348,0.000
1727710601.272,0.000,-18.555,2.930,4.883,0.000
1727710601.275,0.000,-22.461,6.348,-5.859,0.000
1727710601.279,0.000,-28.809,-5.371,-6.836,0.000
1727710601.283,-11.719,-23.438,-13.184,-16.113,0.000
1727710601.287,-9.277,-21.484,-18.555,-20.508,0.000
1727710601.291,-10.742,-23.926,-29.785,-17.578,0.000
1727710601.295,-20.508,-28.320,-27.832,-18.555,0.000
1727710601.299,-41.504,-26.367,-25.391,-21.484,0.000
1727710601.303,-21.484,-20.996,-31.250,-28.320,0.000
1727710601.307,7.324,-26.855,-22.949,-37.598,0.000
1727710601.311,1.465,-26.367,-18.555,-22.461,0.000
1727710601.315,-10.742,-27.832,-19.531,-27.344,0.000
1727710601.318,-18.066,-34.180,-14.160,-43.945,0.000
1727710601.322,-9.766,-32.227,-14.648,-35.645,0.000
1727710601.326,-2.441,-29.785,-33.203,-27.344,0.000
1727710601.330,-25.879,-29.297,-41.992,-24.902,0.000
1727710601.334,-14.648,-32.715,-29.297,-34.668,0.000
1727710601.338,-3.906,-32.227,-17.090,-36.133,0.000
1727710601.342,-4.395,-31.738,-15.625,-30.273,0.000
1727710601.346,-25.879,-33.691,-20.996,-39.062,0.000
1727710601.350,-48.340,-37.598,-27.344,-40.527,0.000
1727710601.354,-37.109,-34.668,-26.855,-34.180,0.000
1727710601.357,-7.324,-31.250,-32.715,-24.902,0.000
1727710601.361,-1.465,-31.738,-38.574,-24.902,0.000
1727710601.365,-17.578,-30.762,-34.180,-24.902,0.000
1727710601.369,-39.551,-31.738,-28.320,-20.020,0.000
1727710601.373,-26.367,-32.227,-34.668,-22.461,0.000
1727710601.377,-5.371,-32.715,-28.320,-26.367,0.000
1727710601.381,-1.465,-28.809,-18.555,-31.250,0.000
1727710601.385,-13.184,-27.832,-23.438,-26.367,0.000
1727710601.389,-36.621,-35.156,-24.902,-12.695,0.000
1727710601.393,-29.297,-33.203,-34.668,-11.719,0.000
1727710601.397,-4.395,-23.438,-46.875,-15.625,0.000
1727710601.400,-3.418,-27.344,-38.086,-7.324,0.000
1727710601.404,-20.996,-40.039,-23.926,-18.555,0.000
1727710601.408,-31.250,-39.062,-14.648,-29.785,0.000
1727710601.412,-34.180,-32.715,-15.137,-18.555,0.000
1727710601.416,-14.160,-32.227,-15.625,-0.488,0.000
1727710601.420,-9.766,-33.203,-12.207,-13.184,0.000
1727710601.424,-36.621,-30.762,-19.531,-32.227,0.000
1727710601.428,-48.828,-30.762,-25.879,-33.203,0.000
1727710601.432,-47.363,-30.762,-27.344,-45.898,0.000
1727710601.436,-35.156,-33.203,-33.203,-58.105,0.000
1727710601.440,-24.414,-34.668,-39.062,-58.105,0.000
1727710601.443,-23.926,-33.691,-32.715,-38.086,0.000
1727710601.447,-31.250,-31.738,-31.738,-22.949,0.000
1727710601.451,-44.434,-35.645,-45.410,-31.738,0.000
1727710601.455,-38.574,-37.598,-45.898,-39.062,0.000
1727710601.459,-15.625,-31.250,-40.039,-41.992,0.000
1727710601.463,-8.301,-31.250,-42.480,-37.109,0.000
1727710601.467,-30.273,-34.180,-25.391,-20.508,0.000
1727710601.471,-47.852,-33.691,-18.555,-24.414,0.000
1727710601.475,-36.621,-30.762,-27.344,-29.297,0.000
1727710601.479,-21.484,-33.203,-25.391,-32.227,0.000
1727710601.482,-9.766,-32.227,-22.949,-33.203,0.000
1727710601.486,-11.719,-29.297,-34.180,-18.066,0.000
1727710601.490,-19.531,-32.227,-41.504,-20.020,0.000
1727710601.494,-17.090,-34.180,-34.668,-28.809,0.000
1727710601.498,-2.930,-39.062,-27.832,-28.320,0.000
1727710601.502,3.418,-41.504,-25.391,-30.273,0.000
1727710601.506,-15.137,-44.922,-26.855,-20.508,0.000
1727710601.510,-35.645,-45.410,-35.156,-13.672,0.000
1727710601.514,-32.227,-41.016,-37.109,-26.855,0.000
1727710601.518,0.000,-36.621,-32.227,-34.180,0.000
1727710601.522,0.000,-35.156,-28.809,-22.461,0.000
1727710601.525,0.000,-36.621,-35.645,-18.555,0.000
1727710601.529,0.000,-40.527,-40.039,-15.625,0.000
1727710601.533,0.000,-44.922,-24.414,-22.461,0.000
1727710601.537,0.000,-47.852,-15.137,-39.062,0.000
1727710601.541,0.000,-48.828,-20.996,-31.738,0.000
1727710601.545,0.000,-45.898,-23.438,-28.320,0.000
1727710601.549,0.000,-43.457,-17.090,-35.645,0.000
1727710601.553,0.000,-43.457,-24.902,-33.691,0.000
1727710601.557,0.000,-42.480,-46.387,-36.133,0.000
1727710601.561,0.000,-41.504,-43.945,-27.344,0.000
1727710601.565,-26.855,-41.992,-25.879,-20.508,0.000
1727710601.568,-38.086,-42.480,-18.066,-24.902,0.000
1727710601.572,-41.504,-42.969,-22.949,-22.461,0.000
1727710601.576,-9.766,-41.504,-27.832,-21.973,0.000
1727710601.580,4.883,-33.691,-27.344,-9.277,0.000
1727710601.584,-9.277,-30.273,-22.461,-16.602,0.000
1727710601.588,-20.020,-36.133,-21.973,-10.742,0.000
1727710601.592,-18.555,-35.645,-34.668,-6.348,0.000
1727710601.596,-11.230,-31.250,-38.086,-7.812,0.000
1727710601.600,-4.395,-31.250,-22.949,-2.441,0.000
1727710601.604,-4.883,-34.180,-19.043,-5.859,0.000
1727710601.607,-25.391,-34.668,-20.996,-3.906,0.000
1727710601.611,0.000,-35.645,-26.855,-21.484,0.000
1727710601.615,0.000,-42.969,-30.273,-23.438,0.000
1727710601.619,0.000,-45.410,-28.809,-9.766,0.000
1727710601.623,0.000,-38.574,-36.621,-3.418,0.000
1727710601.627,0.000,-34.180,-29.297,-5.371,0.000
1727710601.631,0.000,-31.738,-21.484,-9.766,0.000
1727710601.635,0.000,-30.273,-22.461,-11.230,0.000
1727710601.639,0.000,-29.785,-36.133,-5.859,0.000
1727710601.643,0.000,-32.227,-39.551,4.395,0.000
1727710601.647,0.000,-33.691,-32.715,-4.883,0.000
1727710601.650,0.000,-34.668,-33.203,-13.184,0.000
1727710601.654,0.000,-36.621,-27.344,-19.043,0.000
1727710601.658,-4.883,-35.645,-18.555,-20.508,0.000
1727710601.662,-19.043,-36.621,-16.602,-17.090,0.000
1727710601.666,-24.414,-41.504,-28.809,-10.254,0.000
1727710601.670,-32.227,-40.527,-43.945,-6.348,0.000
1727710601.674,-22.461,-40.527,-42.480,-21.484,0.000
1727710601.678,-10.742,-36.621,-29.785,-21.484,0.000
1727710601.682,-8.301,-35.645,-33.691,-12.207,0.000
1727710601.686,-16.602,-41.504,-40.527,-1.465,0.000
1727710601.689,-33.203,-39.062,-29.785,-2.441,0.000
1727710601.693,-22.949,-36.621,-16.602,-20.020,0.000
1727710601.697,-10.254,-39.551,-13.672,-29.297,0.000
1727710601.701,-15.625,-42.969,-22.949,-20.508,0.000
1727710601.705,-31.738,-43.945,-26.855,-19.043,0.000
1727710601.709,-41.504,-47.852,-29.297,-19.043,0.000
1727710601.713,-18.066,-42.969,-30.762,-24.902,0.000
1727710601.717,0.488,-35.156,-24.414,-23.438,0.000
1727710601.721,1.465,-33.691,-24.414,-9.277,0.000
1727710601.725,-9.277,-36.133,-26.855,-20.020,0.000
1727710601.729,-16.602,-33.691,-24.902,-21.973,0.000
1727710601.732,-16.113,-34.668,-23.926,-1.953,0.000
1727710601.736,-15.625,-34.180,-23.438,-16.113,0.000
1727710601.740,-12.695,-31.738,-18.066,-28.809,0.000
1727710601.744,-15.137,-37.109,-4.395,-6.836,0.000
1727710601.748,-26.855,-40.039,-4.883,-10.742,0.000
1727710601.752,-29.785,-42.480,-13.672,-29.297,0.000
1727710601.756,-12.695,-42.480,-15.625,-16.602,0.000
1727710601.760,-5.859,-37.598,-15.625,-14.648,0.000
1727710601.764,-18.066,-35.645,-23.438,-23.438,0.000
1727710601.768,-33.203,-34.668,-27.832,-15.625,0.000
1727710601.772,-32.227,-33.691,-16.113,-16.602,0.000
1727710601.775,-10.742,-32.715,-15.137,-12.207,0.000
1727710601.779,-7.812,-30.273,-20.020,1.953,0.000
1727710601.783,0.977,-31.250,-15.625,-11.719,0.000
1727710601.787,-3.906,-33.203,-10.254,-18.555,0.000
1727710601.791,-13.672,-32.715,-10.742,-3.906,0.000
1727710601.795,16.113,-32.227,-14.648,5.371,0.000
1727710601.799,29.297,-30.762,-14.648,21.484,0.000
1727710601.803,4.395,-30.273,-21.973,6.836,0.000
1727710601.807,-24.902,-30.762,-23.438,-13.672,0.000
1727710601.811,-21.484,-24.902,-23.438,-9.766,0.000
1727710601.814,-2.441,-22.949,-20.996,-13.184,0.000
1727710601.818,13.672,-24.902,-7.812,-1.465,0.000
1727710601.822,19.531,-23.438,-4.883,16.602,0.000
1727710601.826,-5.371,-28.809,-14.160,1.953,0.000
1727710601.830,-14.160,-31.738,-25.879,-5.859,0.000
1727710601.834,0.000,-31.250,-24.902,3.906,0.000
1727710601.838,13.184,-30.273,-20.996,-0.488,0.000
1727710601.842,15.625,-24.902,-29.297,-9.277,0.000
1727710601.846,-5.371,-23.438,-40.039,-0.977,0.000
1727710601.850,-23.438,-23.926,-40.527,-3.906,0.000
1727710601.854,-13.672,-22.461,-38.574,-18.066,0.000
1727710601.857,3.418,-17.090,-36.133,-15.137,0.000
1727710601.861,1.953,-16.113,-24.902,-15.625,0.000
1727710601.865,-21.484,-24.902,-19.043,-16.602,0.000
1727710601.869,-43.457,-27.832,-13.672,-19.043,0.000
1727710601.873,-27.344,-27.832,-27.832,-18.066,0.000
1727710601.877,-6.836,-29.297,-38.086,-20.996,0.000
1727710601.881,-15.137,-27.832,-28.320,-25.391,0.000
1727710601.885,-18.066,-26.855,-25.391,-10.742,0.000
1727710601.889,-27.832,-25.879,-32.227,-10.254,0.000
1727710601.893,-22.461,-23.926,-41.504,-19.531,0.000
1727710601.897,-8.789,-31.250,-38.086,-20.996,0.000
1727710601.900,-17.578,-33.691,-31.250,-26.367,0.000
1727710601.904,-23.926,-31.250,-24.902,-30.762,0.000
1727710601.908,-45.898,-33.691,-20.020,-29.297,0.000
1727710601.912,-37.598,-30.273,-27.344,-29.785,0.000
1727710601.916,1.953,-25.879,-36.621,-29.297,0.000
1727710601.920,4.883,-26.855,-23.438,-21.973,0.000
1727710601.924,-13.672,-31.250,-16.602,-22.949,0.000
1727710601.928,-35.645,-33.691,-24.902,-19.531,0.000
1727710601.932,-41.504,-32.227,-32.227,-17.090,0.000
1727710601.936,-24.414,-32.715,-31.738,-29.297,0.000
1727710601.939,-19.531,-37.109,-23.926,-36.133,0.000
1727710601.943,-26.367,-40.039,-22.949,-37.598,0.000
1727710601.947,-30.762,-37.109,-31.250,-29.785,0.000
1727710601.951,-25.391,-34.180,-36.621,-26.855,0.000
1727710601.955,-21.484,-38.086,-38.086,-32.227,0.000
1727710601.959,-26.855,-41.016,-45.410,-30.762,0.000
1727710601.963,-29.785,-38.574,-44.434,-28.809,0.000
1727710601.967,-27.832,-30.762,-41.504,-20.996,0.000
1727710601.971,-25.391,-24.414,-31.738,-18.555,0.000
1727710601.975,-23.438,-30.273,-17.090,-26.855,0.000
1727710601.979,-13.672,-36.133,-5.859,-38.574,0.000
1727710601.982,-4.883,-33.691,-2.441,-26.367,0.000
1727710601.986,-20.020,-32.227,-11.230,-17.578,0.000
1727710601.990,-32.227,-33.691,-21.484,-29.785,0.000
1727710601.994,-24.902,-31.250,-23.438,-43.457,0.000
1727710601.998,-13.672,-28.809,-27.344,-33.203,0.000
1727710602.002,-20.996,-30.273,-30.273,-20.020,0.000
1727710602.006,-30.273,-35.645,-35.156,-26.367,0.000
1727710602.010,-35.645,-41.016,-36.621,-33.691,0.000
1727710602.014,-29.785,-34.180,-32.227,-31.250,0.000
1727710602.018,-17.090,-30.762,-32.715,-25.879,0.000
1727710602.022,-13.672,-32.227,-31.738,-20.996,0.000
1727710602.025,-30.762,-32.227,-28.320,-20.020,0.000
1727710602.029,-37.109,-35.156,-22.461,-19.043,0.000
1727710602.033,-29.785,-36.133,-23.438,-21.973,0.000
1727710602.037,-15.625,-29.785,-27.832,-35.156,0.000
1727710602.041,-5.859,-26.367,-25.879,-31.250,0.000
1727710602.045,-26.855,-31.250,-34.180,-33.203,0.000
1727710602.049,-41.016,-29.785,-41.504,-37.598,0.000
1727710602.053,-22.949,-32.227,-37.109,-32.715,0.000
1727710602.057,-10.742,-35.645,-28.809,-40.527,0.000
1727710602.061,-19.531,-30.762,-21.484,-32.715,0.000
1727710602.064,-27.344,-30.762,-24.414,-21.484,0.000
1727710602.068,-30.762,-33.203,-25.879,-28.809,0.000
1727710602.072,-27.344,-29.785,-19.531,-21.484,0.000
1727710602.076,-18.555,-28.809,-23.438,-25.391,0.000
1727710602.080,-21.973,-29.785,-28.809,-34.668,0.000
1727710602.084,-38.086,-30.273,-33.691,-36.621,0.000
1727710602.088,-48.828,-35.156,-32.715,-34.668,0.000
1727710602.092,-49.316,-36.133,-25.391,-29.297,0.000
1727710602.096,-31.738,-35.645,-28.809,-20.996,0.000
1727710602.100,-15.625,-35.645,-28.809,-13.672,0.000
1727710602.104,-33.691,-38.574,-39.062,-13.184,0.000
1727710602.107,-46.875,-38.086,-40.527,-21.484,0.000
1727710602.111,-32.227,-34.180,-24.902,-36.133,0.000
1727710602.115,-10.254,-34.668,-20.996,-26.367,0.000
1727710602.119,-10.254,-37.598,-22.949,-22.949,0.000
1727710602.123,-24.902,-39.551,-28.320,-26.855,0.000
1727710602.127,0.000,-35.645,-22.949,-28.809,0.000
1727710602.131,0.000,-31.250,-26.855,-37.598,0.000
1727710602.135,0.000,-33.691,-25.391,-25.391,0.000
1727710602.139,0.000,-35.645,-25.879,-17.090,0.000
1727710602.143,0.000,-33.691,-35.156,-22.949,0.000
1727710602.146,0.000,-34.668,-31.250,-24.414,0.000
1727710602.150,0.000,-32.227,-26.855,-23.438,0.000
1727710602.154,0.000,-27.832,-20.020,-21.973,0.000
1727710602.158,0.000,-30.762,-19.043,-26.855,0.000
1727710602.162,0.000,-34.668,-27.832,-26.367,0.000
1727710602.166,0.000,-34.180,-40.039,-24.902,0.000
1727710602.170,0.000,-32.715,-39.551,-30.273,0.000
1727710602.174,-32.715,-36.133,-30.762,-31.738,0.000
1727710602.178,-28.320,-39.551,-24.414,-34.668,0.000
1727710602.182,-28.809,-34.668,-23.438,-30.762,0.000
1727710602.186,-41.992,-35.156,-28.320,-35.645,0.000
1727710602.189,-42.969,-33.203,-27.832,-39.551,0.000
1727710602.193,-29.785,-27.344,-24.902,-28.809,0.000
1727710602.197,-15.137,-25.879,-23.926,-17.090,0.000
1727710602.201,-15.137,-26.855,-28.320,-25.391,0.000
1727710602.205,-35.645,-34.180,-27.832,-42.480,0.000
1727710602.209,-44.922,-31.250,-31.738,-38.574,0.000
1727710602.213,-27.832,-27.832,-33.691,-40.039,0.000
1727710602.217,-23.438,-34.180,-27.344,-39.551,0.000
1727710602.221,-37.598,-34.668,-32.227,-27.832,0.000
1727710602.225,-41.992,-33.203,-37.598,-32.715,0.000
1727710602.229,-47.363,-35.156,-38.086,-43.945,0.000
1727710602.232,-32.715,-31.738,-33.691,-39.062,0.000
1727710602.236,-21.973,-29.785,-34.668,-32.227,0.000
1727710602.240,-32.227,-29.785,-40.527,-27.832,0.000
1727710602.244,-34.180,-28.809,-35.156,-27.344,0.000
1727710602.248,-35.645,-26.367,-30.762,-32.715,0.000
1727710602.252,-24.414,-23.438,-28.320,-28.320,0.000
1727710602.256,-8.301,-28.320,-25.879,-17.578,0.000
1727710602.260,-7.812,-32.227,-36.133,-25.879,0.000
1727710602.264,-20.508,-31.250,-44.922,-36.133,0.000
1727710602.268,-36.133,-27.344,-44.434,-32.227,0.000
1727710602.271,-19.531,-22.949,-40.527,-24.414,0.000
1727710602.275,2.441,-26.367,-34.668,-20.020,0.000
1727710602.279,1.465,-31.738,-35.645,-28.809,0.000
1727710602.283,-8.789,-30.762,-39.551,-31.738,0.000
1727710602.287,-26.367,-28.809,-30.273,-25.879,0.000
1727710602.291,-32.715,-29.297,-23.438,-18.066,0.000
1727710602.295,-28.809,-29.297,-25.879,-11.230,0.000
1727710602.299,-31.738,-28.809,-25.391,-12.207,0.000
1727710602.303,-38.574,-33.691,-27.832,-12.207,0.000
1727710602.307,-52.734,-33.691,-37.109,-20.508,0.000
1727710602.311,-49.316,-32.715,-38.574,-23.926,0.000
1727710602.314,-34.180,-33.203,-31.738,-27.832,0.000
1727710602.318,-21.973,-34.668,-32.227,-28.320,0.000
1727710602.322,-20.508,-34.180,-29.297,-21.484,0.000
1727710602.326,-44.434,-31.250,-33.203,-27.832,0.000
1727710602.330,-49.805,-32.227,-43.945,-32.227,0.000
1727710602.334,-32.715,-32.227,-43.457,-38.086,0.000
1727710602.338,-24.414,-27.344,-36.133,-42.969,0.000
1727710602.342,-21.484,-28.320,-28.809,-38.574,0.000
1727710602.346,-33.203,-33.203,-27.344,-33.691,0.000
1727710602.350,-45.898,-31.738,-28.809,-30.273,0.000
1727710602.354,-41.992,-28.320,-33.691,-43.457,0.000
1727710602.357,-38.574,-38.574,-39.062,-43.945,0.000
1727710602.361,-34.668,-41.016,-32.715,-30.762,0.000
1727710602.365,-36.133,-33.691,-32.227,-29.785,0.000
1727710602.369,-34.180,-32.227,-33.203,-35.156,0.000
1727710602.373,-31.250,-36.621,-29.785,-46.875,0.000
1727710602.377,-34.668,-40.039,-34.180,-49.805,0.000
1727710602.381,-30.762,-37.598,-34.180,-36.621,0.000
1727710602.385,-46.387,-33.691,-34.180,-29.785,0.000
1727710602.389,-45.898,-31.250,-42.480,-34.180,0.000
1727710602.393,-29.785,-32.227,-49.316,-30.273,0.000
1727710602.396,-25.879,-32.715,-46.387,-27.832,0.000
1727710602.400,-27.832,-33.203,-37.598,-27.832,0.000
1727710602.404,-41.992,-34.180,-31.250,-30.762,0.000
1727710602.408,-50.781,-36.621,-27.832,-35.156,0.000
1727710602.412,-41.016,-37.109,-22.949,-37.109,0.000
1727710602.416,-34.180,-39.551,-21.484,-35.156,0.000
1727710602.420,-30.762,-36.133,-25.879,-24.902,0.000
1727710602.424,-40.527,-28.809,-25.391,-22.461,0.000
1727710602.428,-48.828,-28.320,-26.367,-21.484,0.000
1727710602.432,-36.621,-25.391,-32.227,-21.973,0.000
1727710602.436,-16.602,-26.855,-34.668,-27.344,0.000
1727710602.439,-12.207,-26.367,-33.203,-15.625,0.000
1727710602.443,-35.156,-28.320,-39.062,-17.090,0.000
1727710602.447,-66.406,-36.621,-43.457,-28.320,0.000
1727710602.451,-51.270,-33.691,-42.480,-32.715,0.000
1727710602.455,-26.855,-28.809,-43.945,-33.203,0.000
1727710602.459,-32.715,-37.109,-41.992,-38.086,0.000
1727710602.463,-39.062,-38.086,-37.109,-25.391,0.000
1727710602.467,-48.828,-32.227,-32.227,-26.855,0.000
1727710602.471,-40.527,-27.832,-28.320,-44.922,0.000
1727710602.475,-33.691,-27.832,-34.180,-36.133,0.000
1727710602.479,-44.922,-30.273,-39.551,-32.227,0.000
1727710602.482,-58.594,-30.762,-38.574,-38.086,0.000
1727710602.486,-74.707,-26.367,-48.828,-44.434,0.000
1727710602.490,-71.289,-29.297,-53.223,-47.852,0.000
1727710602.494,-47.852,-34.668,-44.922,-49.805,0.000
1727710602.498,-35.645,-33.691,-41.992,-49.805,0.000
1727710602.502,-35.645,-31.738,-45.410,-42.969,0.000
1727710602.506,-41.016,-30.762,-46.875,-39.062,0.000
1727710602.510,-44.922,-34.668,-42.480,-32.715,0.000
1727710602.514,-22.949,-38.574,-34.668,-33.691,0.000
1727710602.518,-19.531,-38.574,-34.668,-37.598,0.000
1727710602.521,-26.855,-39.551,-36.621,-50.293,0.000
1727710602.525,-41.016,-37.109,-36.133,-43.457,0.000
1727710602.529,-55.664,-34.180,-33.203,-33.203,0.000
1727710602.533,-40.039,-37.598,-29.297,-41.992,0.000
1727710602.537,-24.414,-38.086,-30.762,-45.410,0.000
1727710602.541,-35.645,-39.551,-36.133,-48.340,0.000
1727710602.545,-56.152,-41.016,-44.434,-41.992,0.000
1727710602.549,-69.336,-37.109,-53.711,-48.340,0.000
1727710602.553,-57.617,-33.203,-48.340,-38.086,0.000
1727710602.557,-34.180,-35.645,-40.039,-29.785,0.000
1727710602.561,-32.715,-33.203,-37.109,-43.457,0.000
1727710602.564,-55.176,-30.762,-34.668,-49.316,0.000
1727710602.568,-59.082,-34.180,-33.203,-42.480,0.000
1727710602.572,-37.598,-35.156,-31.250,-40.039,0.000
1727710602.576,-27.832,-33.691,-32.227,-41.992,0.000
1727710602.580,-30.273,-34.668,-29.785,-41.992,0.000
1727710602.584,-33.203,-29.297,-22.949,-35.645,0.000
1727710602.588,-42.480,-27.832,-30.273,-33.691,0.000
1727710602.592,-37.598,-25.879,-35.156,-37.598,0.000
1727710602.596,-31.250,-23.438,-34.668,-36.133,0.000
1727710602.600,-27.832,-25.879,-35.645,-28.809,0.000
1727710602.603,-36.133,-35.156,-35.156,-31.738,0.000
1727710602.607,-48.340,-37.109,-37.109,-38.574,0.000
1727710602.611,-38.574,-35.156,-36.621,-41.016,0.000
1727710602.615,-28.809,-37.598,-35.645,-44.434,0.000
1727710602.619,-37.109,-36.133,-33.691,-38.086,0.000
1727710602.623,-51.758,-32.227,-31.250,-32.715,0.000
1727710602.627,-54.688,-27.832,-33.203,-39.062,0.000
1727710602.631,-37.109,-28.809,-32.227,-41.504,0.000
1727710602.635,-19.043,-30.762,-27.832,-34.180,0.000
1727710602.639,-33.691,-27.832,-27.832,-33.203,0.000
1727710602.643,-43.457,-29.297,-33.203,-33.691,0.000
1727710602.646,-32.227,-35.156,-36.621,-22.461,0.000
1727710602.650,-18.555,-35.156,-46.387,-23.926,0.000
1727710602.654,-9.277,-30.762,-51.270,-23.438,0.000
1727710602.658,-22.949,-31.250,-47.363,-23.438,0.000
1727710602.662,-40.039,-34.180,-44.434,-35.156,0.000
1727710602.666,-49.316,-33.691,-39.062,-39.062,0.000
1727710602.670,-39.062,-29.785,-31.738,-43.457,0.000
1727710602.674,-27.344,-28.320,-34.668,-38.086,0.000
1727710602.678,-22.949,-28.320,-35.645,-32.715,0.000
1727710602.682,-33.691,-26.855,-28.809,-36.621,0.000
1727710602.686,-53.223,-31.250,-30.273,-34.180,0.000
1727710602.689,-46.875,-27.832,-31.250,-37.598,0.000
1727710602.693,-32.227,-26.367,-31.738,-43.457,0.000
1727710602.697,-19.531,-31.738,-33.691,-37.598,0.000
1727710602.701,-26.367,-29.785,-32.227,-30.273,0.000
1727710602.705,-52.734,-26.367,-26.367,-25.391,0.000
1727710602.709,-52.734,-23.438,-25.879,-29.297,0.000
1727710602.713,-39.062,-23.926,-25.391,-44.922,0.000
1727710602.717,-29.785,-23.438,-23.438,-38.086,0.000
1727710602.721,-17.578,-24.414,-29.297,-28.809,0.000
1727710602.725,-37.598,-23.926,-27.832,-37.109,0.000
1727710602.728,-41.016,-23.438,-29.785,-44.434,0.000
1727710602.732,-29.785,-25.391,-33.203,-38.574,0.000
1727710602.736,-25.879,-25.879,-37.598,-33.203,0.000
1727710602.740,-24.414,-23.438,-40.039,-26.367,0.000
1727710602.744,-42.480,-26.855,-33.691,-37.598,0.000
1727710602.748,-44.922,-25.391,-33.203,-33.203,0.000
1727710602.752,-35.156,-21.973,-33.203,-26.367,0.000
1727710602.756,-32.227,-25.391,-26.855,-35.156,0.000
1727710602.760,-34.180,-26.367,-23.438,-36.133,0.000
1727710602.764,-48.340,-23.926,-21.484,-40.527,0.000
1727710602.768,-59.082,-22.461,-22.461,-38.086,0.000
1727710602.771,-46.387,-28.320,-31.250,-45.898,0.000
1727710602.775,-32.715,-25.879,-31.738,-57.617,0.000
1727710602.779,-32.227,-20.996,-28.320,-47.363,0.000
1727710602.783,-31.738,-20.020,-34.668,-32.227,0.000
1727710602.787,-37.598,-19.531,-31.738,-33.203,0.000
1727710602.791,-31.250,-23.926,-28.320,-41.992,0.000
1727710602.795,-27.344,-22.949,-28.809,-52.734,0.000
1727710602.799,-30.273,-25.391,-32.227,-49.805,0.000
1727710602.803,-45.410,-34.180,-32.715,-48.340,0.000
1727710602.807,-59.570,-28.809,-32.227,-59.082,0.000
1727710602.810,-46.875,-20.508,-34.668,-56.152,0.000
1727710602.814,-30.762,-19.531,-32.227,-33.691,0.000
1727710602.818,-28.809,-18.066,-30.273,-27.344,0.000
1727710602.822,-42.480,-20.508,-35.156,-28.320,0.000
1727710602.826,-47.852,-16.113,-36.621,-24.414,0.000
1727710602.830,-40.527,-13.672,-34.180,-40.527,0.000
1727710602.834,-36.133,-20.996,-27.832,-40.039,0.000
1727710602.838,-25.879,-19.531,-28.809,-36.621,0.000
1727710602.842,-36.621,-16.602,-34.668,-41.016,0.000
1727710602.846,-56.152,-19.043,-30.273,-34.668,0.000
1727710602.850,-42.480,-24.902,-28.809,-41.992,0.000
1727710602.853,-50.293,-38.086,-20.508,-56.152,0.000
1727710602.857,-54.688,-41.504,-12.695,-58.105,0.000
1727710602.861,-45.898,-29.297,-32.227,-54.199,0.000
1727710602.865,-72.266,-31.250,-34.668,-73.242,0.000
1727710602.869,-81.055,-33.691,-25.391,-81.055,0.000
1727710602.873,-37.109,-25.879,-31.250,-34.180,0.000
1727710602.877,-53.223,-28.809,-25.391,-48.340,0.000
1727710602.881,-64.453,-32.227,-17.090,-64.453,0.000
1727710602.885,-43.945,-33.691,-38.574,-28.320,0.000
1727710602.889,-55.664,-27.344,-47.852,-49.805,0.000
1727710602.893,-41.504,-22.461,-38.574,-87.402,0.000
1727710602.896,-44.434,-32.715,-33.691,-91.309,0.000
1727710602.900,-80.078,-48.340,-14.648,-96.680,0.000
1727710602.904,-96.680,-50.293,0.000,-93.262,0.000
1727710602.908,-72.266,-31.250,-31.250,-76.660,0.000
1727710602.912,-58.594,-22.461,-54.688,-70.312,0.000
1727710602.916,-58.594,-37.109,-30.762,-81.543,0.000
1727710602.920,-70.801,-52.246,-3.418,-106.934,0.000
1727710602.924,-80.078,-28.809,-23.438,-81.543,0.000
1727710602.928,-94.238,-29.297,-26.367,-62.988,0.000
1727710602.932,-73.730,-47.852,-18.555,-77.148,0.000
1727710602.935,-45.410,-33.691,-49.805,-78.125,0.000
1727710602.939,-59.082,-30.273,-64.941,-80.078,0.000
1727710602.943,-110.352,-48.828,-48.340,-111.816,0.000
1727710602.947,-123.047,-49.805,-46.875,-104.492,0.000
1727710602.951,-67.871,-56.641,-84.473,-64.941,0.000
1727710602.955,-92.773,-76.660,-56.641,-125.488,0.000
1727710602.959,-104.492,-47.852,-92.285,-123.535,0.000
1727710602.963,-72.754,-16.602,-185.547,-38.086,0.000
1727710602.967,-71.777,-10.742,-188.965,-37.598,0.000
1727710602.971,-68.848,-33.691,-185.547,-93.750,0.000
1727710602.975,-87.891,-79.102,-207.031,-119.629,0.000
1727710602.978,-93.750,-64.453,-247.070,-107.910,0.000
1727710602.982,-89.844,-23.438,-333.496,-87.402,0.000
1727710602.986,-67.871,-15.137,-438.477,-62.988,0.000
1727710602.990,-41.992,-14.160,-548.828,-77.148,0.000
1727710602.994,-49.805,-26.367,-635.254,-84.473,0.000
1727710602.998,-77.637,-56.641,-668.945,-69.824,0.000
1727710603.002,-78.613,-58.105,-689.941,-58.105,0.000
1727710603.006,-83.496,-44.922,-675.781,-92.285,0.000
1727710603.010,-96.680,-35.645,-603.516,-99.121,0.000
1727710603.014,-69.824,-21.973,-552.734,-62.012,0.000
1727710603.018,-42.480,-17.090,-514.160,-41.504,0.000
1727710603.021,-72.266,-26.367,-510.254,-81.055,0.000
1727710603.025,-86.426,-39.551,-574.707,-85.449,0.000
1727710603.029,-72.754,-49.316,-580.078,-83.496,0.000
1727710603.033,-63.965,-42.969,-567.383,-101.074,0.000
1727710603.037,-49.316,-22.461,-562.500,-60.059,0.000
1727710603.041,-37.598,-18.555,-574.219,-43.457,0.000
1727710603.045,-70.312,-41.016,-616.699,-76.172,0.000
1727710603.049,-87.402,-60.547,-614.746,-86.426,0.000
1727710603.053,-37.109,-42.480,-686.523,-38.574,0.000
1727710603.057,-40.527,-27.344,-749.023,-45.410,0.000
1727710603.060,-79.590,-40.527,-721.191,-96.680,0.000
1727710603.064,-71.289,-43.945,-750.977,-62.012,0.000
1727710603.068,-53.711,-26.855,-793.945,-8.789,0.000
1727710603.072,-48.340,-24.414,-812.988,-51.758,0.000
1727710603.076,-20.020,-13.184,-878.906,-66.406,0.000
1727710603.080,-36.621,-9.277,-901.855,-50.781,0.000
1727710603.084,-50.781,-28.320,-900.391,-55.664,0.000
1727710603.088,-55.176,-39.062,-907.227,-60.059,0.000
1727710603.092,-56.152,-30.762,-900.391,-55.664,0.000
1727710603.096,-25.879,-19.043,-934.570,-13.672,0.000
1727710603.100,-29.297,-19.531,-937.988,-34.180,0.000
1727710603.103,-71.777,-29.785,-912.109,-62.988,0.000
1727710603.107,-65.918,-34.180,-913.086,-41.016,0.000
1727710603.111,-13.184,-21.973,-913.574,-45.898,0.000
1727710603.115,-39.551,-34.180,-867.676,-67.383,0.000
1727710603.119,-94.238,-55.176,-790.039,-67.871,0.000
1727710603.123,-70.312,-29.785,-797.363,-26.855,0.000
1727710603.127,-34.668,-12.207,-805.176,-13.184,0.000
1727710603.131,-41.504,-17.578,-761.719,-30.273,0.000
1727710603.135,-51.758,-23.926,-717.773,-62.012,0.000
1727710603.139,-59.082,-28.809,-687.500,-83.496,0.000
1727710603.143,-66.895,-27.344,-692.383,-59.570,0.000
1727710603.146,-103.516,-45.898,-661.133,-73.242,0.000
1727710603.150,-93.262,-49.805,-631.836,-68.359,0.000
1727710603.154,-35.156,-42.480,-630.859,-43.945,0.000
1727710603.158,-27.832,-42.969,-596.680,-34.668,0.000
1727710603.162,-55.664,-50.293,-537.598,-35.645,0.000
1727710603.166,-76.172,-55.664,-493.164,-63.965,0.000
1727710603.170,-62.500,-49.316,-475.098,-39.551,0.000
1727710603.174,-33.203,-48.828,-446.289,-25.879,0.000
1727710603.178,-30.762,-42.480,-408.691,-57.617,0.000
1727710603.182,-29.785,-36.621,-403.320,-18.555,0.000
1727710603.185,-42.480,-46.387,-379.395,20.508,0.000
1727710603.189,-42.969,-49.316,-356.934,-17.578,0.000
1727710603.193,-33.691,-57.129,-303.223,-47.852,0.000
1727710603.197,-60.059,-70.312,-258.789,-73.242,0.000
1727710603.201,-31.738,-50.781,-306.641,-37.109,0.000
1727710603.205,-10.254,-35.645,-273.438,2.441,0.000
1727710603.209,-37.109,-49.805,-215.820,-18.555,0.000
1727710603.213,-30.273,-51.270,-207.031,-22.461,0.000
1727710603.217,-11.230,-40.527,-184.082,0.977,0.000
1727710603.221,-26.855,-40.527,-143.066,9.277,0.000
1727710603.225,-52.246,-42.480,-124.512,-12.695,0.000
1727710603.228,-37.598,-38.574,-122.070,-24.902,0.000
1727710603.232,-12.695,-33.691,-98.633,-2.441,0.000
1727710603.236,-8.789,-33.691,-80.566,-2.930,0.000
1727710603.240,-11.230,-37.598,-57.129,-15.625,0.000
1727710603.244,-21.973,-43.457,-19.531,4.395,0.000
1727710603.248,-20.508,-41.016,7.812,3.418,0.000
1727710603.252,-3.906,-34.180,23.438,3.418,0.000
1727710603.256,3.418,-29.297,56.641,-0.977,0.000
1727710603.260,-11.230,-26.855,99.609,2.930,0.000
1727710603.264,-20.508,-21.484,127.930,17.090,0.000
1727710603.267,-20.508,-18.555,182.129,4.395,0.000
1727710603.271,-15.625,-21.484,235.840,-5.859,0.000
1727710603.275,-0.977,-31.250,266.113,1.465,0.000
1727710603.279,0.488,-36.133,296.387,11.230,0.000
1727710603.283,-18.066,-34.668,317.383,9.766,0.000
1727710603.287,-20.996,-29.785,313.477,4.883,0.000
1727710603.291,2.441,-24.414,330.566,6.836,0.000
1727710603.295,12.695,-28.809,434.082,0.977,0.000
1727710603.299,9.766,-32.227,568.848,-1.953,0.000
1727710603.303,-9.766,-23.926,716.309,1.953,0.000
1727710603.307,-11.230,-19.043,829.102,-0.977,0.000
1727710603.310,17.090,-16.602,866.699,-4.395,0.000
1727710603.314,20.996,-12.695,930.664,10.254,0.000
1727710603.318,18.066,-15.137,971.680,16.602,0.000
1727710603.322,6.836,-20.020,966.309,9.766,0.000
1727710603.326,-7.324,-21.484,967.773,7.324,0.000
1727710603.330,9.277,-22.949,968.262,10.254,0.000
1727710603.334,20.508,-21.973,968.262,15.137,0.000
1727710603.338,13.672,-14.648,968.262,17.578,0.000
1727710603.342,9.277,-8.301,968.262,21.973,0.000
1727710603.346,-1.465,-7.812,968.262,13.184,0.000
1727710603.350,-2.441,-16.602,967.773,-0.977,0.000
1727710603.353,6.348,-16.113,968.262,2.930,0.000
1727710603.357,0.488,-11.719,968.750,6.348,0.000
1727710603.361,-18.555,-14.160,964.844,2.441,0.000
1727710603.365,-25.391,-14.160,971.191,-10.254,0.000
1727710603.369,-18.555,-17.090,947.754,-11.230,0.000
1727710603.373,-1.465,-11.719,842.773,-9.766,0.000
1727710603.377,15.137,-6.348,806.152,-5.371,0.000
1727710603.381,4.395,-10.254,827.148,-2.930,0.000
1727710603.385,-11.719,-9.766,806.152,-9.277,0.000
1727710603.389,-15.137,-9.277,797.363,-14.160,0.000
1727710603.392,-2.441,-10.742,775.879,-16.113,0.000
1727710603.396,-1.953,-12.695,722.656,-16.113,0.000
1727710603.400,-12.207,-13.672,679.688,-14.160,0.000
1727710603.404,-16.113,-16.113,694.336,-14.160,0.000
1727710603.408,-15.625,-16.113,691.406,-13.672,0.000
1727710603.412,-2.441,-12.207,625.977,-1.953,0.000
1727710603.416,10.742,-6.348,577.148,-3.906,0.000
1727710603.420,4.883,-2.930,544.922,-16.602,0.000
1727710603.424,-17.578,-4.395,507.812,-19.043,0.000
1727710603.428,-15.625,-1.465,477.051,-11.719,0.000
1727710603.432,-1.953,-3.418,427.246,-9.277,0.000
1727710603.435,8.301,-1.465,371.582,-22.461,0.000
1727710603.439,11.719,-0.488,338.867,-16.602,0.000
1727710603.443,-15.625,-5.371,336.914,-9.766,0.000
1727710603.447,-34.180,-11.230,339.355,-20.996,0.000
1727710603.451,-13.672,-11.719,317.383,-21.484,0.000
1727710603.455,1.465,-9.766,298.340,-18.066,0.000
1727710603.459,-14.160,-11.230,277.832,-24.902,0.000
1727710603.463,-34.668,-12.207,252.930,-25.391,0.000
1727710603.467,-29.785,-11.719,235.840,-19.043,0.000
1727710603.471,-10.254,-14.160,219.238,-26.367,0.000
1727710603.474,-8.789,-16.113,191.895,-18.066,0.000
1727710603.478,-11.719,-12.207,191.895,-10.742,0.000
1727710603.482,-24.902,-13.184,222.656,-22.949,0.000
1727710603.486,-31.250,-19.531,226.562,-25.879,0.000
1727710603.490,-19.531,-23.926,211.914,-20.996,0.000
1727710603.494,-5.371,-21.973,196.289,-31.738,0.000
1727710603.498,0.977,-18.066,175.293,-26.367,0.000
1727710603.502,-10.742,-18.555,162.598,-7.812,0.000
1727710603.506,-21.484,-22.461,144.043,-14.648,0.000
1727710603.510,-21.484,-22.461,131.348,-26.367,0.000
1727710603.514,-9.766,-21.484,123.047,-32.715,0.000
1727710603.517,-3.418,-25.391,113.770,-29.297,0.000
1727710603.521,-25.879,-26.367,135.254,-24.414,0.000
1727710603.525,-35.156,-23.438,145.996,-23.926,0.000
1727710603.529,-17.578,-25.879,148.926,-26.855,0.000
1727710603.533,-3.906,-28.320,152.344,-39.551,0.000
1727710603.537,-6.348,-23.926,140.625,-31.250,0.000
1727710603.541,-24.902,-22.461,121.582,-28.320,0.000
1727710603.545,-41.504,-23.926,113.770,-28.320,0.000
1727710603.549,-33.203,-20.508,105.957,-24.902,0.000
1727710603.553,-11.719,-16.602,94.727,-31.738,0.000
1727710603.557,-19.043,-16.602,94.238,-26.367,0.000
1727710603.560,-26.855,-24.902,88.867,-26.855,0.000
1727710603.564,-25.391,-26.855,86.914,-12.207,0.000
1727710603.568,-28.809,-24.902,96.191,-28.320,0.000
1727710603.572,-14.648,-24.414,97.168,-33.691,0.000
1727710603.576,-4.883,-25.391,73.242,-10.254,0.000
1727710603.580,-20.996,-25.391,59.570,-10.742,0.000
1727710603.584,-43.945,-24.902,61.523,-19.531,0.000
1727710603.588,-32.715,-21.484,52.246,-27.832,0.000
1727710603.592,-7.324,-19.531,41.504,-27.344,0.000
1727710603.596,-0.488,-19.531,51.270,-20.020,0.000
1727710603.599,-10.742,-19.043,54.199,-20.996,0.000
1727710603.603,-30.762,-17.090,52.734,-15.137,0.000
1727710603.607,-34.668,-14.160,62.500,-10.742,0.000
1727710603.611,-24.902,-19.043,65.918,-22.461,0.000
1727710603.615,-13.672,-16.113,52.734,-15.625,0.000
1727710603.619,-8.789,-11.719,44.922,-13.184,0.000
1727710603.623,-16.113,-13.184,38.574,-27.344,0.000
1727710603.627,-13.184,-15.137,31.250,-21.973,0.000
1727710603.631,0.977,-20.020,43.457,-15.625,0.000
1727710603.635,6.348,-22.461,54.199,-19.531,0.000
1727710603.639,0.488,-24.902,54.688,-23.926,0.000
1727710603.642,-32.227,-23.926,53.711,-26.367,0.000
1727710603.646,-35.645,-23.438,59.082,-20.020,0.000
1727710603.650,-16.602,-22.949,56.152,-15.625,0.000
1727710603.654,-10.742,-23.926,47.363,-22.461,0.000
1727710603.658,-14.648,-28.809,46.875,-28.809,0.000
1727710603.662,-33.203,-27.344,51.270,-20.996,0.000
1727710603.666,-32.715,-26.367,46.875,-16.113,0.000
1727710603.670,-14.160,-24.414,39.062,-23.438,0.000
1727710603.674,-7.812,-28.809,43.457,-21.484,0.000
1727710603.678,-15.625,-28.320,39.062,-21.484,0.000
1727710603.682,-30.762,-25.391,28.809,-27.344,0.000
1727710603.685,-48.828,-27.344,27.832,-36.133,0.000
1727710603.689,-32.227,-28.809,35.156,-32.227,0.000
1727710603.693,-14.648,-34.180,42.480,-34.668,0.000
1727710603.697,-24.414,-28.809,40.039,-42.480,0.000
1727710603.701,-38.086,-28.809,32.227,-37.109,0.000
1727710603.705,-48.828,-30.273,31.250,-32.715,0.000
1727710603.709,-44.922,-25.879,36.621,-39.062,0.000
1727710603.713,-27.344,-25.391,40.039,-40.527,0.000
1727710603.717,-11.230,-24.902,37.598,-29.297,0.000
1727710603.721,-17.090,-25.879,35.156,-26.367,0.000
1727710603.724,-48.340,-22.949,40.039,-34.180,0.000
1727710603.728,-44.434,-16.602,34.668,-33.203,0.000
1727710603.732,-22.461,-20.508,12.695,-27.832,0.000
1727710603.736,-21.484,-23.438,21.484,-37.598,0.000
1727710603.740,-33.203,-25.879,54.199,-37.598,0.000
1727710603.744,-53.223,-30.762,49.805,-28.809,0.000
1727710603.748,-49.316,-29.785,33.203,-40.039,0.000
1727710603.752,-42.480,-28.809,35.156,-48.828,0.000
1727710603.756,-40.527,-27.832,36.621,-47.852,0.000
1727710603.760,-41.504,-26.367,35.156,-39.062,0.000
1727710603.764,-60.547,-30.273,31.738,-40.527,0.000
1727710603.767,-47.852,-25.391,26.855,-35.156,0.000
1727710603.771,-21.484,-25.391,30.273,-27.832,0.000
1727710603.775,-19.043,-31.738,29.297,-29.297,0.000
1727710603.779,-30.762,-27.832,27.832,-27.832,0.000
1727710603.783,-40.039,-22.949,23.438,-18.555,0.000
1727710603.787,-34.668,-27.344,16.602,-18.066,0.000
1727710603.791,-14.648,-26.855,23.926,-31.738,0.000
1727710603.795,-1.465,-27.832,34.180,-29.785,0.000
1727710603.799,2.930,-25.391,34.180,-21.973,0.000
1727710603.803,-16.602,-21.973,22.461,-17.090,0.000
1727710603.807,-37.109,-28.320,8.789,-28.320,0.000
1727710603.810,-30.762,-26.855,12.207,-30.762,0.000
1727710603.814,-31.250,-24.902,19.531,-31.738,0.000
1727710603.818,-42.480,-27.344,22.949,-33.691,0.000
1727710603.822,-42.480,-29.785,18.555,-28.809,0.000
1727710603.826,-37.598,-31.738,12.207,-22.461,0.000
1727710603.830,-22.949,-27.832,12.695,-36.621,0.000
1727710603.834,-17.578,-22.949,16.602,-47.852,0.000
1727710603.838,-21.973,-24.902,22.461,-26.855,0.000
1727710603.842,-27.832,-25.879,2.930,-20.508,0.000
1727710603.846,-39.062,-23.438,-14.160,-21.973,0.000
1727710603.849,-20.020,-22.461,-2.930,-22.461,0.000
1727710603.853,-8.789,-26.367,8.789,-35.645,0.000
1727710603.857,-18.066,-30.762,16.602,-30.762,0.000
1727710603.861,-25.879,-30.762,26.855,-17.578,0.000
1727710603.865,-41.992,-33.203,28.320,-26.855,0.000
1727710603.869,-39.551,-32.715,22.461,-35.156,0.000
1727710603.873,-25.879,-32.227,10.742,-27.832,0.000
1727710603.877,-24.414,-30.762,4.395,-27.344,0.000
1727710603.881,-35.645,-27.344,-4.883,-39.062,0.000
1727710603.885,-42.480,-26.367,-13.184,-42.969,0.000
1727710603.889,-38.086,-23.926,7.324,-38.086,0.000
1727710603.892,-24.414,-24.902,4.883,-37.109,0.000
1727710603.896,-11.719,-26.367,-9.766,-37.109,0.000
1727710603.900,-39.062,-22.461,-11.719,-40.039,0.000
1727710603.904,-59.570,-22.949,-1.465,-44.434,0.000
1727710603.908,-35.645,-31.250,13.184,-41.504,0.000
1727710603.912,-29.785,-33.203,11.719,-28.320,0.000
1727710603.916,-41.016,-29.297,4.883,-15.625,0.000
1727710603.920,-30.762,-26.855,1.465,-10.254,0.000
1727710603.924,-29.297,-23.438,-9.766,-17.090,0.000
1727710603.928,-21.484,-20.020,-9.277,-24.902,0.000
1727710603.932,0.488,-16.113,-0.977,-28.320,0.000
1727710603.935,2.930,-15.137,-4.395,-21.973,0.000
1727710603.939,-14.160,-15.625,-0.488,-7.812,0.000
1727710603.943,-37.598,-18.066,-0.488,-25.879,0.000
1727710603.947,-27.832,-20.508,4.395,-27.344,0.000
1727710603.951,-11.719,-22.461,5.859,-20.996,0.000
1727710603.955,-14.648,-24.414,-2.930,-26.367,0.000
1727710603.959,-19.043,-22.461,-0.977,-20.020,0.000
1727710603.963,-24.902,-17.578,0.977,-12.695,0.000
1727710603.967,-16.113,-12.695,-9.277,-11.719,0.000
1727710603.971,-2.930,-11.719,-19.043,-15.625,0.000
1727710603.974,-7.812,-16.602,-10.254,-20.996,0.000
1727710603.978,-28.320,-20.508,-4.883,-19.043,0.000
1727710603.982,-47.363,-22.461,2.441,-11.719,0.000
1727710603.986,-40.527,-22.461,14.648,-13.672,0.000
1727710603.990,-22.461,-22.461,7.812,-22.461,0.000
1727710603.994,-1.465,-24.414,7.324,-14.648,0.000
1727710603.998,-2.441,-24.414,12.207,-16.113,0.000
1727710604.002,-18.555,-16.602,4.883,-24.414,0.000
1727710604.006,-26.855,-20.020,-2.930,-20.508,0.000
1727710604.010,-20.996,-26.367,-7.324,-28.320,0.000
1727710604.014,-10.742,-27.832,-21.973,-27.344,0.000
1727710604.017,-18.066,-28.809,-25.879,-27.832,0.000
1727710604.021,-43.945,-29.297,-18.555,-35.156,0.000
1727710604.025,-40.039,-23.438,-14.160,-29.785,0.000
1727710604.029,-31.250,-17.090,-3.418,-23.438,0.000
1727710604.033,-40.527,-28.320,-3.418,-37.598,0.000
1727710604.037,-41.504,-32.227,-8.301,-49.805,0.000
1727710604.041,-52.246,-28.809,-8.301,-50.293,0.000
1727710604.045,-53.223,-28.809,-10.254,-44.922,0.000
1727710604.049,-32.227,-27.832,-11.230,-40.527,0.000
1727710604.053,-29.785,-28.320,-15.625,-45.410,0.000
1727710604.056,-39.062,-25.879,-23.438,-48.828,0.000
1727710604.060,-49.805,-28.809,-20.020,-34.668,0.000
1727710604.064,-57.129,-34.180,-20.996,-34.668,0.000
1727710604.068,-41.992,-32.227,-23.926,-49.805,0.000
1727710604.072,-28.809,-28.320,-32.227,-46.875,0.000
1727710604.076,-30.273,-30.762,-43.945,-41.016,0.000
1727710604.080,-36.133,-31.250,-35.645,-43.945,0.000
1727710604.084,-36.133,-29.785,-11.230,-31.738,0.000
1727710604.088,-29.297,-30.762,-11.719,-37.598,0.000
1727710604.092,-15.625,-30.273,-21.973,-43.457,0.000
1727710604.096,-18.066,-33.691,-10.254,-38.086,0.000
1727710604.099,-29.785,-33.203,2.441,-24.414,0.000
1727710604.103,-30.762,-30.762,-5.371,-16.602,0.000
1727710604.107,-24.414,-24.902,-20.996,-17.578,0.000
1727710604.111,-22.461,-18.066,-20.508,-18.555,0.000
1727710604.115,-27.832,-19.531,-8.789,-15.625,0.000
1727710604.119,-30.762,-22.949,-6.348,-26.855,0.000
1727710604.123,-31.250,-22.461,-18.555,-26.855,0.000
1727710604.127,-33.203,-22.949,-15.625,-15.625,0.000
1727710604.131,-12.695,-20.996,-4.395,-18.066,0.000
1727710604.135,-13.672,-19.531,-7.812,-19.531,0.000
1727710604.139,-32.227,-26.367,-9.277,-21.484,0.000
1727710604.142,-46.387,-28.320,-6.348,-22.461,0.000
1727710604.146,-38.574,-24.414,-8.301,-20.996,0.000
1727710604.150,-9.766,-25.879,-8.301,-20.996,0.000
1727710604.154,-7.812,-24.902,-14.160,-23.926,0.000
1727710604.158,-22.949,-24.414,-20.020,-27.832,0.000
1727710604.162,-37.598,-23.926,-15.137,-25.391,0.000
1727710604.166,-31.738,-24.902,-12.695,-29.785,0.000
1727710604.170,-7.812,-29.785,-20.020,-29.785,0.000
1727710604.174,-10.742,-33.203,-22.461,-29.785,0.000
1727710604.178,-25.391,-33.691,-18.555,-35.156,0.000
1727710604.181,-28.809,-31.250,-23.926,-26.367,0.000
1727710604.185,-32.715,-26.367,-27.832,-26.367,0.000
1727710604.189,-31.250,-22.949,-25.391,-34.180,0.000
1727710604.193,-30.762,-22.461,-23.926,-34.180,0.000
1727710604.197,-37.109,-24.902,-22.949,-33.691,0.000
1727710604.201,-44.922,-21.484,-29.785,-30.762,0.000
1727710604.205,-47.363,-18.066,-32.715,-33.691,0.000
1727710604.209,-39.062,-22.461,-17.578,-36.621,0.000
1727710604.213,-35.645,-22.461,-12.207,-39.062,0.000
1727710604.217,-44.434,-22.461,-11.719,-48.828,0.000
1727710604.221,-62.012,-22.949,-14.648,-39.551,0.000
1727710604.224,-56.641,-22.949,-30.762,-32.715,0.000
1727710604.228,-28.809,-23.926,-30.762,-42.969,0.000
1727710604.232,-17.578,-23.926,-29.785,-36.133,0.000
1727710604.236,-27.344,-26.367,-27.832,-30.762,0.000
1727710604.240,-46.875,-29.785,-17.090,-38.574,0.000
1727710604.244,-57.617,-33.203,-21.973,-54.199,0.000
1727710604.248,-42.969,-32.715,-24.902,-39.062,0.000
1727710604.252,-30.762,-26.855,-22.949,-33.203,0.000
1727710604.256,-16.602,-24.414,-17.090,-34.180,0.000
1727710604.260,-19.531,-25.879,-14.648,-29.297,0.000
1727710604.264,-40.039,-27.832,-33.203,-32.715,0.000
1727710604.267,-30.762,-30.273,-31.738,-23.926,0.000
1727710604.271,-10.742,-29.785,-12.207,-15.625,0.000
1727710604.275,-0.977,-24.902,-12.695,-6.348,0.000
1727710604.279,-19.043,-19.531,-22.949,-20.020,0.000
1727710604.283,-38.086,-18.555,-16.113,-36.133,0.000
1727710604.287,-22.949,-22.949,-8.301,-25.391,0.000
1727710604.291,-13.184,-21.484,-9.766,-24.902,0.000
1727710604.295,-24.414,-21.973,-16.113,-37.598,0.000
1727710604.299,-37.109,-25.391,-19.043,-40.039,0.000
1727710604.303,-42.480,-23.926,-19.043,-31.738,0.000
1727710604.306,-35.156,-24.902,-27.344,-35.156,0.000
1727710604.310,-13.672,-24.902,-41.992,-32.715,0.000
1727710604.314,-5.859,-22.461,-45.410,-21.973,0.000
1727710604.318,-20.996,-26.367,-30.762,-23.438,0.000
1727710604.322,-40.527,-28.320,-18.555,-27.344,0.000
1727710604.326,-34.180,-25.879,-20.020,-20.996,0.000
1727710604.330,-16.113,-22.949,-22.949,-16.602,0.000
1727710604.334,-6.348,-20.996,-24.414,-15.625,0.000
1727710604.338,-11.719,-20.996,-28.320,-16.602,0.000
1727710604.342,-34.668,-25.879,-25.879,-19.531,0.000
1727710604.346,-39.062,-24.902,-26.367,-24.902,0.000
1727710604.349,-18.066,-21.484,-30.273,-24.902,0.000
1727710604.353,-15.137,-25.879,-26.367,-27.832,0.000
1727710604.357,-23.438,-29.785,-23.438,-24.902,0.000
1727710604.361,-32.715,-32.227,-22.461,-21.484,0.000
1727710604.365,-36.133,-30.762,-27.344,-25.879,0.000
1727710604.369,-14.160,-26.367,-44.434,-29.297,0.000
1727710604.373,-12.695,-28.320,-49.316,-33.203,0.000
1727710604.377,-28.320,-30.273,-37.109,-36.133,0.000
1727710604.381,-36.621,-30.762,-20.020,-38.574,0.000
1727710604.385,-42.480,-32.715,-15.137,-41.992,0.000
1727710604.388,-24.902,-31.250,-17.090,-40.527,0.000
1727710604.392,-9.277,-32.715,-19.531,-37.109,0.000
1727710604.396,-16.113,-31.738,-21.484,-28.809,0.000
1727710604.400,-34.668,-30.762,-21.973,-14.160,0.000
1727710604.404,-36.133,-28.320,-28.809,-15.137,0.000
1727710604.408,-23.438,-25.879,-41.016,-29.785,0.000
1727710604.412,-14.648,-27.344,-40.527,-30.273,0.000
1727710604.416,-14.160,-29.297,-31.250,-19.043,0.000
1727710604.420,-29.297,-28.320,-36.621,-20.020,0.000
1727710604.424,0.000,-32.715,-50.293,-30.273,0.000
1727710604.428,0.000,-36.621,-43.457,-33.691,0.000
1727710604.431,0.000,-27.832,-32.227,-33.691,0.000
1727710604.435,0.000,-27.344,-35.645,-34.180,0.000
1727710604.439,0.000,-28.809,-40.039,-34.668,0.000
1727710604.443,0.000,-26.367,-28.320,-34.180,0.000
1727710604.447,0.000,-25.879,-15.137,-33.691,0.000
1727710604.451,0.000,-26.855,-17.578,-31.250,0.000
1727710604.455,0.000,-26.855,-20.508,-34.668,0.000
1727710604.459,0.000,-24.902,-27.832,-29.785,0.000
1727710604.463,0.000,-25.879,-37.598,-29.785,0.000
1727710604.467,0.000,-30.273,-49.316,-44.922,0.000
1727710604.471,-24.902,-28.320,-55.664,-43.457,0.000
1727710604.474,-24.902,-21.973,-44.434,-34.668,0.000
1727710604.478,-39.062,-21.973,-31.738,-29.785,0.000
1727710604.482,-38.086,-24.414,-20.508,-29.785,0.000
1727710604.486,-22.461,-28.809,-8.301,-32.715,0.000
1727710604.490,-24.902,-28.809,-11.230,-35.645,0.000
1727710604.494,-26.367,-27.344,-18.066,-31.250,0.000
1727710604.498,-35.645,-29.297,-24.414,-12.207,0.000
1727710604.502,-64.941,-31.250,-33.203,-21.973,0.000
1727710604.506,-50.781,-29.297,-30.273,-33.691,0.000
1727710604.510,-17.578,-25.391,-32.227,-21.973,0.000
1727710604.513,-21.484,-26.367,-30.762,-25.879,0.000
1727710604.517,-29.297,-22.461,-22.461,-30.762,0.000
1727710604.521,-36.133,-17.090,-26.855,-26.367,0.000
1727710604.525,-34.668,-18.066,-25.391,-26.855,0.000
1727710604.529,-13.672,-17.090,-29.785,-33.203,0.000
1727710604.533,-10.742,-20.996,-33.691,-26.367,0.000
1727710604.537,-22.461,-24.414,-26.855,-22.461,0.000
1727710604.541,-39.062,-22.461,-20.020,-23.926,0.000
1727710604.545,-39.062,-20.508,-21.973,-22.949,0.000
1727710604.549,-24.414,-18.555,-30.762,-30.273,0.000
1727710604.553,-18.555,-17.090,-31.738,-28.320,0.000
1727710604.556,-21.484,-13.672,-25.391,-21.484,0.000
1727710604.560,-27.344,-11.230,-29.297,-21.484,0.000
1727710604.564,-28.809,-15.137,-34.668,-19.531,0.000
1727710604.568,-19.531,-17.090,-32.227,-19.531,0.000
1727710604.572,-7.324,-18.066,-33.691,-22.949,0.000
1727710604.576,-7.324,-17.578,-30.762,-21.484,0.000
1727710604.580,-20.508,-15.137,-29.297,-21.973,0.000
1727710604.584,-26.855,-16.113,-40.527,-21.484,0.000
1727710604.588,-15.137,-15.137,-41.016,-22.461,0.000
1727710604.592,-8.789,-18.066,-33.203,-21.973,0.000
1727710604.596,-10.742,-22.949,-24.902,-17.090,0.000
1727710604.599,-15.625,-26.855,-33.203,-19.531,0.000
1727710604.603,-28.320,-29.297,-39.551,-35.156,0.000
1727710604.607,-29.785,-26.367,-28.320,-22.461,0.000
1727710604.611,-24.414,-23.926,-28.809,-16.602,0.000
1727710604.615,-27.344,-25.391,-34.668,-27.344,0.000
1727710604.619,-32.227,-21.484,-29.297,-18.066,0.000
1727710604.623,-37.109,-16.113,-24.902,-11.230,0.000
1727710604.627,-37.109,-23.926,-27.832,-19.043,0.000
1727710604.631,-17.578,-24.902,-40.527,-24.414,0.000
1727710604.635,-6.348,-20.508,-45.898,-22.461,0.000
1727710604.638,-22.949,-22.461,-31.738,-24.414,0.000
1727710604.642,-37.598,-26.367,-23.438,-24.414,0.000
1727710604.646,-23.926,-29.785,-30.762,-19.043,0.000
1727710604.650,-8.789,-29.785,-39.062,-32.715,0.000
1727710604.654,-14.160,-29.297,-40.039,-40.039,0.000
1727710604.658,-30.273,-27.832,-51.270,-40.527,0.000
1727710604.662,-41.992,-21.484,-56.641,-40.527,0.000
1727710604.666,-35.156,-20.508,-43.457,-39.062,0.000
1727710604.670,-24.414,-26.855,-29.297,-41.992,0.000
1727710604.674,-20.508,-27.344,-19.043,-37.109,0.000
1727710604.678,-28.809,-25.391,-14.160,-34.180,0.000
1727710604.681,-47.363,-28.809,-20.996,-36.133,0.000
1727710604.685,-41.016,-27.832,-28.320,-41.504,0.000
1727710604.689,-23.926,-22.949,-31.738,-41.992,0.000
1727710604.693,-26.855,-29.297,-39.062,-42.480,0.000
1727710604.697,-30.273,-28.809,-32.715,-41.504,0.000
1727710604.701,-41.504,-21.484,-23.926,-29.785,0.000
1727710604.705,-41.504,-22.461,-32.227,-33.203,0.000
1727710604.709,-20.508,-24.902,-48.340,-36.133,0.000
1727710604.713,-16.602,-22.949,-47.363,-30.762,0.000
1727710604.717,-23.926,-23.926,-27.832,-31.738,0.000
1727710604.720,-38.086,-26.855,-21.973,-36.621,0.000
1727710604.724,-34.668,-27.344,-28.320,-37.109,0.000
1727710604.728,-19.531,-23.926,-28.809,-30.273,0.000
1727710604.732,-33.691,-23.926,-33.203,-29.297,0.000
1727710604.736,-39.551,-28.809,-36.621,-31.738,0.000
1727710604.740,-42.969,-27.832,-41.016,-37.598,0.000
1727710604.744,-42.969,-28.809,-44.434,-38.574,0.000
1727710604.748,-31.738,-29.785,-33.691,-36.621,0.000
1727710604.752,-22.461,-31.250,-32.715,-37.109,0.000
1727710604.756,-17.090,-26.367,-38.086,-27.344,0.000
1727710604.760,-31.250,-27.832,-40.527,-21.484,0.000
1727710604.763,-41.504,-28.809,-53.223,-33.691,0.000
1727710604.767,-34.180,-28.320,-47.363,-36.133,0.000
1727710604.771,-31.738,-30.273,-20.508,-31.738,0.000
1727710604.775,-30.273,-26.367,-6.836,-24.902,0.000
1727710604.779,-42.969,-27.832,-1.953,-23.926,0.000
1727710604.783,-46.387,-27.344,-2.441,-24.414,0.000
1727710604.787,-31.738,-27.832,-6.348,-21.484,0.000
1727710604.791,-20.508,-28.320,-5.859,-25.391,0.000
1727710604.795,-23.926,-28.320,-7.812,-24.902,0.000
1727710604.799,-41.504,-26.855,-14.160,-24.414,0.000
1727710604.803,-50.293,-22.461,-18.555,-28.320,0.000
1727710604.806,-32.715,-25.879,-12.695,-26.367,0.000
1727710604.810,-10.742,-23.926,-24.902,-22.461,0.000
1727710604.814,-16.602,-18.555,-44.434,-25.879,0.000
1727710604.818,-29.785,-22.461,-27.344,-24.414,0.000
1727710604.822,-46.387,-25.391,-9.277,-22.949,0.000
1727710604.826,-44.922,-26.855,-7.324,-25.879,0.000
1727710604.830,-20.020,-25.391,-6.348,-20.508,0.000
1727710604.834,-20.020,-26.855,-10.742,-20.996,0.000
1727710604.838,-41.992,-28.320,-12.207,-24.902,0.000
1727710604.842,-48.340,-23.926,-17.090,-26.855,0.000
1727710604.845,-34.180,-23.438,-26.367,-28.809,0.000
1727710604.849,-23.438,-22.949,-29.297,-26.855,0.000
1727710604.853,-20.996,-22.949,-27.344,-23.926,0.000
1727710604.857,-30.762,-24.902,-27.832,-35.156,0.000
1727710604.861,-42.480,-25.391,-37.598,-39.062,0.000
1727710604.865,-42.969,-24.902,-37.598,-32.715,0.000
1727710604.869,-24.902,-23.926,-27.832,-36.621,0.000
1727710604.873,-25.879,-28.320,-33.691,-31.738,0.000
1727710604.877,-35.156,-29.785,-42.480,-31.738,0.000
1727710604.881,-33.203,-29.297,-40.039,-29.297,0.000
1727710604.885,-32.227,-30.273,-36.133,-32.715,0.000
1727710604.888,-19.531,-28.320,-35.156,-36.133,0.000
1727710604.892,-19.531,-28.320,-36.133,-28.320,0.000
1727710604.896,-31.738,-27.344,-35.645,-33.203,0.000
1727710604.900,-42.969,-22.949,-28.809,-37.598,0.000
1727710604.904,-47.363,-25.391,-31.250,-40.527,0.000
1727710604.908,-32.715,-35.645,-36.133,-34.668,0.000
1727710604.912,-28.320,-32.715,-30.762,-32.715,0.000
1727710604.916,-47.363,-29.785,-48.828,-39.551,0.000
1727710604.920,-52.734,-28.809,-67.871,-37.598,0.000
1727710604.924,-51.758,-24.902,-51.758,-29.785,0.000
1727710604.927,-36.621,-24.414,-26.367,-24.414,0.000
1727710604.931,-21.973,-19.531,-13.672,-32.715,0.000
1727710604.935,-32.715,-23.926,-10.742,-25.879,0.000
1727710604.939,-48.340,-25.391,-16.602,-16.602,0.000
1727710604.943,-39.062,-19.531,-26.367,-23.438,0.000
1727710604.947,-15.137,-19.043,-31.738,-33.203,0.000
1727710604.951,-13.672,-23.926,-35.645,-32.715,0.000
1727710604.955,-14.648,-19.043,-42.480,-31.738,0.000
1727710604.959,-25.879,-13.672,-43.945,-39.062,0.000
1727710604.963,-41.504,-20.996,-39.062,-36.621,0.000
1727710604.967,-34.180,-21.973,-34.180,-39.551,0.000
1727710604.970,-23.926,-20.020,-34.180,-38.086,0.000
1727710604.974,-19.043,-22.949,-35.156,-27.832,0.000
1727710604.978,-31.250,-28.809,-38.574,-27.832,0.000
1727710604.982,-45.410,-29.785,-35.156,-30.762,0.000
1727710604.986,-33.203,-28.320,-37.598,-39.551,0.000
1727710604.990,-14.648,-25.391,-44.922,-35.156,0.000
1727710604.994,-20.996,-21.484,-37.109,-30.762,0.000
1727710604.998,-35.156,-21.973,-36.133,-30.762,0.000
1727710605.002,-36.621,-20.020,-37.598,-23.926,0.000
1727710605.006,-31.250,-20.020,-41.016,-27.832,0.000
1727710605.010,-15.625,-23.926,-42.969,-28.320,0.000
1727710605.013,-20.508,-27.832,-45.410,-30.273,0.000
1727710605.017,-31.250,-32.227,-39.062,-34.180,0.000
1727710605.021,-38.574,-29.297,-34.180,-32.715,0.000
1727710605.025,-33.691,-23.926,-37.598,-30.762,0.000
1727710605.029,-21.973,-25.391,-34.668,-24.414,0.000
1727710605.033,-21.484,-20.508,-37.109,-28.809,0.000
1727710605.037,-28.809,-17.090,-39.551,-31.250,0.000
1727710605.041,-42.480,-21.484,-41.016,-35.156,0.000
1727710605.045,-31.250,-20.508,-46.387,-35.645,0.000
1727710605.049,-14.648,-21.484,-45.410,-38.086,0.000
1727710605.052,-15.625,-27.344,-38.086,-38.574,0.000
1727710605.056,-28.809,-26.855,-39.551,-35.156,0.000
1727710605.060,-35.156,-30.762,-39.551,-29.785,0.000
1727710605.064,-22.461,-33.203,-41.992,-23.438,0.000
1727710605.068,-11.719,-26.367,-45.898,-28.809,0.000
1727710605.072,-16.602,-35.156,-44.434,-38.574,0.000
1727710605.076,-36.621,-40.527,-41.992,-36.133,0.000
1727710605.080,-37.598,-33.203,-38.086,-25.879,0.000
1727710605.084,-20.508,-31.738,-37.598,-23.438,0.000
1727710605.088,-13.672,-29.785,-44.922,-24.902,0.000
1727710605.092,-6.348,-23.926,-57.617,-25.879,0.000
1727710605.095,-10.254,-25.879,-61.523,-25.879,0.000
1727710605.099,-35.156,-31.250,-46.875,-29.785,0.000
1727710605.103,-43.945,-32.715,-35.156,-37.598,0.000
1727710605.107,-29.785,-34.668,-31.250,-31.250,0.000
1727710605.111,-20.020,-31.738,-41.016,-35.645,0.000
1727710605.115,-20.996,-25.879,-47.852,-39.062,0.000
1727710605.119,-33.691,-25.879,-46.875,-28.320,0.000
1727710605.123,-43.457,-29.785,-48.828,-36.133,0.000
1727710605.127,-31.250,-31.250,-48.340,-37.109,0.000
1727710605.131,-17.578,-27.832,-48.828,-33.691,0.000
1727710605.135,-26.855,-26.367,-43.457,-35.645,0.000
1727710605.138,-44.434,-30.762,-40.527,-31.250,0.000
1727710605.142,-49.805,-25.391,-41.504,-26.855,0.000
1727710605.146,-38.574,-25.879,-43.457,-28.809,0.000
1727710605.150,-25.391,-28.809,-50.781,-32.227,0.000
1727710605.154,-26.855,-25.879,-51.758,-33.691,0.000
1727710605.158,-38.574,-24.414,-42.969,-35.645,0.000
1727710605.162,-50.781,-24.414,-43.457,-41.504,0.000
1727710605.166,-37.109,-23.438,-47.363,-39.062,0.000
1727710605.170,-23.438,-25.879,-45.898,-36.621,0.000
1727710605.174,-22.461,-24.902,-41.016,-44.434,0.000
1727710605.177,-36.133,-23.926,-41.992,-47.363,0.000
1727710605.181,-52.734,-29.785,-41.992,-41.016,0.000
1727710605.185,-41.504,-27.344,-31.738,-34.180,0.000
1727710605.189,-27.344,-23.926,-27.344,-30.273,0.000
1727710605.193,-27.344,-25.879,-33.691,-36.133,0.000
1727710605.197,-35.156,-24.414,-38.574,-24.902,0.000
1727710605.201,-49.316,-20.508,-38.086,-29.785,0.000
1727710605.205,-41.992,-21.484,-32.715,-39.062,0.000
1727710605.209,-23.438,-19.531,-31.250,-35.645,0.000
1727710605.213,-14.160,-18.066,-30.762,-37.598,0.000
1727710605.217,-20.996,-17.090,-28.809,-35.156,0.000
1727710605.220,-44.434,-21.973,-27.832,-28.809,0.000
1727710605.224,-37.109,-23.926,-28.320,-22.949,0.000
1727710605.228,-11.230,-22.949,-39.551,-29.297,0.000
1727710605.232,-4.883,-24.414,-42.480,-26.855,0.000
1727710605.236,-28.320,-27.344,-35.156,-24.414,0.000
1727710605.240,-43.457,-30.273,-42.969,-25.391,0.000
1727710605.244,-32.715,-22.461,-47.363,-26.367,0.000
1727710605.248,-25.391,-21.973,-38.086,-35.156,0.000
1727710605.252,-19.531,-27.832,-28.809,-42.480,0.000
1727710605.256,-33.691,-28.320,-24.902,-33.203,0.000
1727710605.260,-49.316,-30.762,-30.273,-34.180,0.000
1727710605.263,-36.133,-34.180,-32.715,-45.410,0.000
1727710605.267,-18.066,-34.180,-30.762,-50.781,0.000
1727710605.271,-11.230,-29.785,-25.391,-38.086,0.000
1727710605.275,-28.320,-27.344,-33.203,-27.832,0.000
1727710605.279,-48.828,-27.344,-45.410,-32.715,0.000
1727710605.283,-39.551,-25.391,-39.551,-34.668,0.000
1727710605.287,-22.949,-27.832,-36.133,-36.133,0.000
1727710605.291,-17.578,-29.785,-39.551,-39.551,0.000
1727710605.295,-23.926,-27.344,-37.598,-38.574,0.000
1727710605.299,-47.852,-32.227,-37.109,-26.367,0.000
1727710605.302,-53.223,-33.691,-36.133,-26.855,0.000
1727710605.306,-36.621,-34.180,-36.133,-41.504,0.000
1727710605.310,-33.203,-38.086,-46.875,-41.992,0.000
1727710605.314,-28.809,-34.180,-49.805,-29.785,0.000
1727710605.318,-33.691,-30.273,-41.504,-19.531,0.000
1727710605.322,-39.062,-29.785,-41.992,-22.949,0.000
1727710605.326,-35.645,-34.180,-38.574,-24.414,0.000
1727710605.330,-30.762,-39.551,-37.109,-27.344,0.000
1727710605.334,-27.344,-36.133,-38.574,-33.691,0.000
1727710605.338,-33.691,-26.855,-39.062,-30.273,0.000
1727710605.342,-38.086,-27.344,-49.316,-45.410,0.000
1727710605.345,-12.207,-29.297,-47.363,-40.039,0.000
1727710605.349,0.488,-27.832,-38.574,-28.320,0.000
1727710605.353,-22.461,-26.855,-36.621,-37.109,0.000
1727710605.357,-35.645,-22.461,-30.762,-20.020,0.000
1727710605.361,-39.551,-21.973,-32.227,-27.344,0.000
1727710605.365,-30.273,-21.484,-46.875,-42.969,0.000
1727710605.369,-22.949,-23.438,-51.758,-29.297,0.000
1727710605.373,-32.715,-27.832,-45.898,-37.109,0.000
1727710605.377,-40.527,-27.344,-40.039,-40.039,0.000
1727710605.381,-43.945,-26.367,-41.992,-27.344,0.000
1727710605.385,-38.086,-27.344,-52.246,-33.203,0.000
1727710605.388,-30.762,-25.391,-50.781,-50.293,0.000
1727710605.392,-28.809,-21.973,-50.781,-41.992,0.000
1727710605.396,-35.156,-20.996,-46.387,-31.250,0.000
1727710605.400,-42.480,-19.043,-36.621,-35.156,0.000
1727710605.404,-24.414,-16.113,-38.574,-28.809,0.000
1727710605.408,-19.531,-21.973,-35.156,-28.320,0.000
1727710605.412,-22.461,-22.949,-30.762,-19.043,0.000
1727710605.416,-19.531,-14.160,-33.691,-11.230,0.000
1727710605.420,-49.316,-16.113,-35.156,-17.578,0.000
1727710605.424,-38.574,-20.508,-36.621,-16.602,0.000
1727710605.427,-6.836,-27.344,-47.363,-8.789,0.000
1727710605.431,-14.648,-30.762,-44.922,-1.465,0.000
1727710605.435,-31.738,-29.785,-26.855,-3.418,0.000
1727710605.439,-42.480,-31.738,-15.625,-21.484,0.000
1727710605.443,-25.879,-24.414,-13.672,-31.738,0.000
1727710605.447,-19.531,-20.508,-21.484,-29.785,0.000
1727710605.451,-14.160,-18.555,-24.414,-34.180,0.000
1727710605.455,-21.484,-18.555,-31.738,-42.969,0.000
1727710605.459,-45.898,-20.508,-40.039,-38.574,0.000
1727710605.463,-30.273,-17.578,-32.715,-25.879,0.000
1727710605.467,-4.883,-20.508,-30.762,-13.184,0.000
1727710605.470,-1.953,-21.484,-22.949,-15.625,0.000
1727710605.474,-10.254,-19.043,-14.160,-21.973,0.000
1727710605.478,-25.879,-20.020,-20.996,-18.066,0.000
1727710605.482,-32.715,-25.879,-23.438,-20.508,0.000
1727710605.486,-24.414,-20.996,-22.949,-21.484,0.000
1727710605.490,-15.137,-14.648,-25.879,-29.297,0.000
1727710605.494,-23.926,-21.484,-33.203,-31.738,0.000
1727710605.498,-39.062,-22.949,-38.574,-27.832,0.000
1727710605.502,-38.086,-17.578,-30.762,-39.062,0.000
1727710605.506,-23.438,-18.555,-31.250,-32.715,0.000
1727710605.509,-8.789,-17.090,-34.668,-21.973,0.000
1727710605.513,-17.090,-14.160,-33.203,-30.762,0.000
1727710605.517,-41.992,-12.207,-32.227,-35.156,0.000
1727710605.521,-47.363,-13.672,-37.109,-41.016,0.000
1727710605.525,-29.785,-12.207,-41.016,-29.785,0.000
1727710605.529,-17.578,-11.719,-38.574,-22.949,0.000
1727710605.533,-26.855,-14.648,-33.691,-34.668,0.000
1727710605.537,-46.875,-14.648,-25.879,-38.574,0.000
1727710605.541,-42.969,-13.184,-30.762,-41.992,0.000
1727710605.545,-30.273,-16.113,-35.645,-41.992,0.000
1727710605.549,-29.297,-19.043,-33.691,-38.574,0.000
1727710605.552,-32.227,-24.414,-32.715,-34.180,0.000
1727710605.556,-36.133,-22.949,-31.250,-30.762,0.000
1727710605.560,-32.227,-15.137,-29.297,-28.320,0.000
1727710605.564,-28.809,-13.184,-28.320,-31.250,0.000
1727710605.568,-27.832,-18.066,-30.762,-32.715,0.000
1727710605.572,-25.879,-22.461,-34.668,-40.039,0.000
1727710605.576,-36.621,-23.438,-36.133,-43.457,0.000
1727710605.580,-53.223,-21.484,-36.133,-40.039,0.000
1727710605.584,-53.223,-20.020,-38.574,-49.316,0.000
1727710605.588,-41.016,-25.879,-40.039,-48.340,0.000
1727710605.592,-26.855,-27.832,-37.598,-37.598,0.000
1727710605.595,-26.367,-28.809,-36.621,-40.039,0.000
1727710605.599,-41.016,-29.297,-36.621,-45.410,0.000
1727710605.603,-39.062,-29.297,-35.645,-41.016,0.000
1727710605.607,-35.645,-31.250,-32.227,-41.016,0.000
1727710605.611,-37.598,-31.738,-30.762,-46.875,0.000
1727710605.615,-52.246,-34.180,-35.645,-42.969,0.000
1727710605.619,-68.359,-39.551,-30.762,-41.016,0.000
1727710605.623,-50.293,-35.645,-23.438,-38.086,0.000
1727710605.627,-31.738,-37.109,-33.691,-31.738,0.000
1727710605.631,-29.785,-45.410,-44.922,-38.574,0.000
1727710605.634,-27.344,-41.016,-41.016,-40.527,0.000
1727710605.638,-25.391,-30.273,-36.621,-28.809,0.000
1727710605.642,-14.160,-28.320,-35.645,-16.113,0.000
1727710605.646,-5.859,-30.762,-37.109,-15.137,0.000
1727710605.650,-14.160,-31.738,-28.320,-15.625,0.000
1727710605.654,-26.855,-40.039,-33.203,-22.949,0.000
1727710605.658,-47.852,-49.316,-34.180,-44.434,0.000
1727710605.662,-41.504,-40.527,-31.738,-47.363,0.000
1727710605.666,-27.832,-24.414,-47.363,-27.832,0.000
1727710605.670,-29.297,-28.809,-36.621,-20.508,0.000
1727710605.674,-46.875,-41.992,-7.324,-34.668,0.000
1727710605.677,-73.730,-41.992,-10.254,-47.363,0.000
1727710605.681,-61.035,-28.320,-18.066,-43.457,0.000
1727710605.685,-16.602,-21.973,-29.785,-47.363,0.000
1727710605.689,5.859,-22.949,-61.035,-45.410,0.000
1727710605.693,-13.672,-25.391,-53.223,-40.527,0.000
1727710605.697,-49.316,-35.156,-30.762,-47.363,0.000
1727710605.701,-62.012,-41.016,-19.043,-23.926,0.000
1727710605.705,-29.785,-39.551,-20.996,-5.859,0.000
1727710605.709,-21.484,-38.086,-23.926,-30.762,0.000
1727710605.713,-35.645,-31.250,-27.832,-37.109,0.000
1727710605.717,-47.852,-25.879,-56.152,-33.203,0.000
1727710605.720,-70.312,-25.391,-62.500,-64.453,0.000
1727710605.724,-72.754,-44.434,-22.461,-97.168,0.000
1727710605.728,-62.012,-50.781,-16.602,-92.773,0.000
1727710605.732,-35.645,-19.531,-60.547,-46.387,0.000
1727710605.736,0.000,-9.766,-80.078,-23.926,0.000
1727710605.740,0.000,-31.250,-85.449,-42.969,0.000
1727710605.744,0.000,-37.109,-70.801,-31.250,0.000
1727710605.748,0.000,-44.434,-68.359,-35.645,0.000
1727710605.752,0.000,-42.969,-94.238,-53.711,0.000
1727710605.756,0.000,-42.969,-87.402,-58.594,0.000
1727710605.759,0.000,-56.152,-83.984,-75.195,0.000
1727710605.763,0.000,-56.152,-94.727,-95.703,0.000
1727710605.767,0.000,-35.156,-127.930,-62.500,0.000
1727710605.771,0.000,-34.180,-144.043,-58.594,0.000
1727710605.775,0.000,-47.363,-164.551,-87.891,0.000
1727710605.779,0.000,-40.039,-183.105,-78.125,0.000
1727710605.783,-45.410,-35.156,-228.516,-61.523,0.000
1727710605.787,-50.293,-45.898,-265.625,-76.660,0.000
1727710605.791,-75.195,-53.711,-291.992,-85.449,0.000
1727710605.795,-54.199,-42.480,-381.836,-46.387,0.000
1727710605.799,-54.688,-40.039,-432.129,-33.691,0.000
1727710605.802,-49.805,-41.504,-522.949,-46.875,0.000
1727710605.806,-24.902,-28.320,-643.555,-45.410,0.000
1727710605.810,-33.203,-31.250,-669.434,-40.039,0.000
1727710605.814,-50.781,-51.758,-637.695,-49.805,0.000
1727710605.818,-54.688,-49.805,-601.074,-53.711,0.000
1727710605.822,-75.195,-46.875,-518.066,-84.473,0.000
1727710605.826,-51.758,-42.969,-470.703,-92.773,0.000
1727710605.830,-24.414,-29.297,-488.770,-102.539,0.000
1727710605.834,-42.969,-37.598,-489.258,-93.262,0.000
1727710605.838,-70.312,-66.406,-500.000,-58.594,0.000
1727710605.841,-82.520,-78.125,-555.176,-78.613,0.000
1727710605.845,-61.523,-54.688,-598.145,-57.129,0.000
1727710605.849,-33.203,-24.902,-619.629,-33.691,0.000
1727710605.853,-47.852,-24.902,-586.914,-66.895,0.000
1727710605.857,-63.965,-24.902,-562.500,-64.453,0.000
1727710605.861,-62.012,-22.461,-567.383,-57.129,0.000
1727710605.865,-70.801,-38.086,-604.004,-91.309,0.000
1727710605.869,-86.426,-49.805,-657.227,-127.441,0.000
1727710605.873,-63.477,-41.992,-715.332,-89.355,0.000
1727710605.877,-86.426,-61.523,-712.402,-69.336,0.000
1727710605.881,-93.750,-59.570,-720.703,-68.848,0.000
1727710605.884,-38.574,-19.531,-776.855,-24.902,0.000
1727710605.888,-39.551,-32.227,-759.766,-22.949,0.000
1727710605.892,-65.918,-53.223,-732.422,-35.156,0.000
1727710605.896,-83.008,-53.223,-704.590,-45.410,0.000
1727710605.900,-84.961,-50.781,-711.426,-66.895,0.000
1727710605.904,-59.082,-42.969,-770.996,-63.965,0.000
1727710605.908,-25.879,-38.574,-807.129,-35.156,0.000
1727710605.912,-55.176,-55.176,-807.617,-23.926,0.000
1727710605.916,-80.566,-60.547,-825.195,-48.340,0.000
1727710605.920,-64.941,-41.016,-849.121,-24.902,0.000
1727710605.924,-67.871,-48.828,-817.871,-37.598,0.000
1727710605.927,-44.922,-42.969,-847.656,-80.078,0.000
1727710605.931,-9.766,-14.648,-925.293,-41.992,0.000
1727710605.935,-58.594,-35.645,-880.371,-18.555,0.000
1727710605.939,-83.008,-50.293,-842.773,-24.414,0.000
1727710605.943,-40.039,-36.621,-864.746,-19.531,0.000
1727710605.947,-19.043,-41.016,-873.047,-11.719,0.000
1727710605.951,-18.555,-32.715,-863.281,-28.809,0.000
1727710605.955,-33.691,-23.438,-857.422,-43.945,0.000
1727710605.959,-78.613,-41.504,-801.758,-32.715,0.000
1727710605.963,-70.801,-48.828,-764.648,-29.297,0.000
1727710605.966,-36.621,-42.480,-765.625,-20.508,0.000
1727710605.970,-36.621,-29.785,-732.910,-25.391,0.000
1727710605.974,-43.945,-20.020,-709.473,-39.062,0.000
1727710605.978,-62.500,-25.879,-667.480,-38.574,0.000
1727710605.982,-81.055,-30.762,-599.121,-59.082,0.000
1727710605.986,-45.410,-24.902,-558.594,-34.668,0.000
1727710605.990,-40.039,-37.109,-503.418,-8.789,0.000
1727710605.994,-45.410,-30.762,-498.535,-36.621,0.000
1727710605.998,-44.922,-18.555,-490.234,-22.461,0.000
1727710606.002,-52.246,-36.133,-418.457,-8.789,0.000
1727710606.006,-39.062,-39.551,-363.281,-52.734,0.000
1727710606.009,-33.203,-30.273,-354.492,-56.641,0.000
1727710606.013,-20.020,-24.902,-354.980,-24.902,0.000
1727710606.017,-38.574,-36.133,-299.805,-55.664,0.000
1727710606.021,-66.895,-43.945,-261.230,-63.965,0.000
1727710606.025,-40.039,-28.809,-256.348,-41.016,0.000
1727710606.029,-26.367,-29.785,-217.285,-31.250,0.000
1727710606.033,-23.926,-33.203,-191.406,-3.418,0.000
1727710606.037,-15.137,-24.902,-187.988,14.648,0.000
1727710606.041,-18.555,-22.949,-172.363,16.113,0.000
1727710606.045,-10.254,-24.414,-137.207,4.395,0.000
1727710606.048,-21.484,-26.855,-118.164,-9.766,0.000
1727710606.052,-38.086,-32.227,-101.562,-18.555,0.000
1727710606.056,-47.852,-37.109,-83.008,-36.133,0.000
1727710606.060,-52.734,-41.504,-80.078,-41.992,0.000
1727710606.064,-18.066,-30.762,-82.031,-31.738,0.000
1727710606.068,-5.371,-25.879,-79.590,-40.527,0.000
1727710606.072,-20.020,-34.180,-66.895,-26.855,0.000
1727710606.076,-27.832,-24.902,-41.016,0.977,0.000
1727710606.080,-40.039,-17.090,-26.367,-7.324,0.000
1727710606.084,-11.719,-16.602,-16.602,-15.137,0.000
1727710606.088,15.625,-15.625,30.762,4.883,0.000
1727710606.091,12.207,-13.184,119.141,8.789,0.000
1727710606.095,0.977,-12.207,255.371,6.836,0.000
1727710606.099,-14.160,-16.602,415.527,9.766,0.000
1727710606.103,-12.695,-14.160,541.504,6.348,0.000
1727710606.107,5.371,-4.883,680.664,14.648,0.000
1727710606.111,6.348,-8.301,864.258,13.672,0.000
1727710606.115,-13.184,-13.672,964.844,6.348,0.000
1727710606.119,-17.578,-13.184,966.309,5.859,0.000
1727710606.123,6.348,-10.254,966.309,0.000,0.000
1727710606.127,28.320,-8.789,968.750,3.418,0.000
1727710606.131,28.809,-5.859,968.262,10.254,0.000
1727710606.134,12.207,-4.883,968.262,8.789,0.000
1727710606.138,-12.695,-2.441,968.262,6.348,0.000
1727710606.142,-15.137,-3.418,967.773,2.441,0.000
1727710606.146,0.488,-7.812,967.773,-0.977,0.000
1727710606.150,17.578,-8.789,968.262,6.836,0.000
1727710606.154,11.719,-7.324,968.750,10.254,0.000
1727710606.158,5.371,-5.859,964.844,19.043,0.000
1727710606.162,14.648,-3.418,973.145,27.344,0.000
1727710606.166,14.648,0.488,937.988,14.648,0.000
1727710606.170,16.113,-1.465,839.355,-1.953,0.000
1727710606.173,12.207,-2.930,770.020,-0.977,0.000
1727710606.177,-8.789,-6.348,715.820,2.441,0.000
1727710606.181,-10.254,-8.789,653.809,-3.906,0.000
1727710606.185,2.441,-11.719,629.395,-6.836,0.000
1727710606.189,2.930,-12.695,629.395,-14.160,0.000
1727710606.193,-10.742,-11.719,616.699,-19.043,0.000
1727710606.197,-34.180,-14.648,625.000,-18.066,0.000
1727710606.201,-36.621,-17.090,631.836,-35.156,0.000
1727710606.205,-14.160,-15.137,597.656,-23.926,0.000
1727710606.209,-9.766,-14.648,548.340,-17.090,0.000
1727710606.213,-13.184,-19.531,505.859,-23.926,0.000
1727710606.216,-9.766,-18.555,487.793,-1.953,0.000
1727710606.220,-12.695,-13.184,548.340,0.488,0.000
1727710606.224,-19.531,-12.207,603.027,-14.160,0.000
1727710606.228,-6.348,-9.766,561.035,-12.207,0.000
1727710606.232,-6.836,-6.348,519.043,-3.418,0.000
1727710606.236,-24.902,-4.395,500.000,-2.441,0.000
1727710606.240,-34.668,-11.719,483.887,-23.438,0.000
1727710606.244,-22.949,-17.578,473.633,-32.227,0.000
1727710606.248,-5.371,-16.602,455.078,-18.066,0.000
1727710606.252,-8.789,-18.555,419.434,-20.508,0.000
1727710606.256,-11.719,-16.113,386.230,-10.742,0.000
1727710606.259,-5.371,-11.230,367.188,-11.230,0.000
1727710606.263,-4.395,-14.160,340.332,-21.973,0.000
1727710606.267,3.906,-10.742,326.172,-16.602,0.000
1727710606.271,9.277,-8.301,326.172,-13.672,0.000
1727710606.275,-16.113,-15.137,302.734,-8.789,0.000
1727710606.279,-22.461,-16.113,282.715,-4.395,0.000
1727710606.283,-8.301,-13.184,276.367,-4.883,0.000
1727710606.287,-1.465,-11.230,260.742,-2.441,0.000
1727710606.291,-9.766,-13.184,238.281,-9.766,0.000
1727710606.295,-26.855,-17.578,227.051,-11.719,0.000
1727710606.298,-32.227,-19.043,231.934,-7.812,0.000
1727710606.302,-20.996,-25.391,233.887,-29.297,0.000
1727710606.306,-18.066,-23.438,220.703,-35.645,0.000
1727710606.310,-18.555,-19.043,207.031,-12.207,0.000
1727710606.314,-16.602,-20.020,194.336,-12.695,0.000
1727710606.318,-30.273,-16.602,183.594,-19.531,0.000
1727710606.322,-21.484,-16.113,176.758,-15.625,0.000
1727710606.326,-0.977,-17.578,152.832,-10.742,0.000
1727710606.330,3.906,-13.184,118.652,-17.578,0.000
1727710606.334,-9.277,-13.672,120.117,-27.344,0.000
1727710606.338,-24.414,-15.625,140.137,-28.320,0.000
1727710606.341,-25.391,-16.602,139.648,-32.715,0.000
1727710606.345,-18.066,-22.461,125.977,-27.344,0.000
1727710606.349,-23.926,-23.926,115.234,-29.297,0.000
1727710606.353,-27.344,-22.949,108.398,-39.062,0.000
1727710606.357,-20.996,-19.531,105.469,-24.902,0.000
1727710606.361,-18.555,-14.160,101.074,-32.715,0.000
1727710606.365,-11.719,-13.672,83.984,-31.250,0.000
1727710606.369,-2.441,-12.695,63.477,-23.438,0.000
1727710606.373,-14.648,-16.113,64.941,-40.527,0.000
1727710606.377,-34.668,-19.043,72.266,-36.621,0.000
1727710606.381,-38.086,-19.531,67.871,-24.902,0.000
1727710606.384,-22.461,-20.996,71.289,-26.855,0.000
1727710606.388,-8.789,-20.020,78.613,-27.344,0.000
1727710606.392,-13.184,-20.020,72.266,-22.461,0.000
1727710606.396,-41.016,-20.508,59.082,-23.926,0.000
1727710606.400,-42.969,-16.113,43.457,-20.996,0.000
1727710606.404,-14.648,-15.137,39.062,-23.438,0.000
1727710606.408,-5.859,-17.090,41.016,-23.926,0.000
1727710606.412,-16.113,-16.602,53.711,-21.973,0.000
1727710606.416,-29.297,-21.973,66.895,-28.320,0.000
1727710606.420,-21.973,-20.020,69.336,-29.785,0.000
1727710606.423,-6.348,-20.996,66.406,-26.855,0.000
1727710606.427,6.348,-24.902,60.547,-23.438,0.000
1727710606.431,8.301,-20.020,58.105,-20.996,0.000
1727710606.435,-14.648,-18.555,50.293,-14.160,0.000
1727710606.439,0.000,-15.625,42.969,-8.789,0.000
1727710606.443,0.000,-18.066,51.758,-8.301,0.000
1727710606.447,0.000,-19.043,57.129,-14.648,0.000
1727710606.451,0.000,-17.090,53.711,-10.254,0.000
1727710606.455,0.000,-14.160,51.270,-5.859,0.000
1727710606.459,0.000,-11.230,35.156,-12.207,0.000
1727710606.463,0.000,-11.719,14.648,-24.414,0.000
1727710606.466,0.000,-13.672,4.395,-32.715,0.000
1727710606.470,0.000,-19.531,9.277,-23.926,0.000
1727710606.474,0.000,-27.832,29.785,-24.414,0.000
1727710606.478,0.000,-28.320,55.176,-38.574,0.000
1727710606.482,0.000,-24.414,60.547,-40.527,0.000
1727710606.486,-10.742,-24.414,47.852,-31.250,0.000
1727710606.490,-6.348,-21.973,32.227,-24.414,0.000
1727710606.494,-22.949,-24.902,22.949,-33.203,0.000
1727710606.498,-33.203,-27.832,24.902,-34.180,0.000
1727710606.502,-29.297,-23.438,25.879,-29.297,0.000
1727710606.506,-12.695,-17.578,9.766,-30.762,0.000
1727710606.509,-14.648,-15.137,3.418,-25.879,0.000
1727710606.513,-31.250,-20.996,12.695,-30.762,0.000
1727710606.517,-44.922,-27.344,15.137,-30.273,0.000
1727710606.521,-37.598,-24.902,12.207,-26.855,0.000
1727710606.525,-20.508,-19.531,-2.930,-27.344,0.000
1727710606.529,-30.273,-25.879,4.395,-33.203,0.000
1727710606.533,-43.457,-32.715,20.508,-34.180,0.000
1727710606.537,-39.062,-24.902,18.555,-25.391,0.000
1727710606.541,-37.598,-18.066,6.348,-22.949,0.000
1727710606.545,-34.668,-18.066,-0.977,-27.832,0.000
1727710606.548,-23.926,-24.902,7.812,-30.273,0.000
1727710606.552,-39.551,-30.762,16.113,-26.855,0.000
1727710606.556,-51.270,-23.926,19.043,-32.715,0.000
1727710606.560,-32.227,-21.973,15.625,-23.438,0.000
1727710606.564,-6.836,-21.484,5.371,-9.766,0.000
1727710606.568,-0.488,-16.602,-4.395,-15.625,0.000
1727710606.572,-15.625,-16.113,-1.465,-15.625,0.000
1727710606.576,-35.156,-17.578,1.953,-23.926,0.000
1727710606.580,-30.762,-14.648,-14.648,-28.809,0.000
1727710606.584,-13.672,-15.137,-12.695,-18.555,0.000
1727710606.588,-9.766,-19.531,7.812,-17.090,0.000
1727710606.591,-21.973,-20.996,17.090,-22.949,0.000
1727710606.595,-31.250,-20.996,12.207,-21.484,0.000
1727710606.599,-16.602,-27.832,11.719,-27.832,0.000
1727710606.603,0.488,-27.832,16.113,-30.273,0.000
1727710606.607,2.930,-22.949,16.113,-20.020,0.000
1727710606.611,-15.137,-24.414,13.184,-27.832,0.000
1727710606.615,-34.180,-22.461,4.395,-30.762,0.000
1727710606.619,-40.039,-20.020,-1.465,-25.391,0.000
1727710606.623,-31.738,-20.020,-9.766,-17.578,0.000
1727710606.627,-17.090,-17.578,-13.672,-18.555,0.000
1727710606.630,-14.648,-20.020,-0.977,-18.555,0.000
1727710606.634,-29.297,-27.832,11.230,-20.508,0.000
1727710606.638,-33.691,-27.344,14.160,-27.344,0.000
1727710606.642,-27.344,-24.902,19.043,-31.738,0.000
1727710606.646,-22.949,-29.297,29.297,-30.762,0.000
1727710606.650,-25.391,-30.273,35.156,-28.320,0.000
1727710606.654,-39.062,-26.855,31.738,-19.043,0.000
1727710606.658,-44.922,-25.879,11.230,-20.508,0.000
1727710606.662,-20.020,-24.414,2.930,-25.879,0.000
1727710606.666,-5.371,-21.973,14.160,-16.113,0.000
1727710606.670,-16.113,-27.344,24.902,-21.973,0.000
1727710606.673,-28.320,-29.785,29.297,-27.344,0.000
1727710606.677,-32.715,-25.879,22.461,-20.508,0.000
1727710606.681,-27.344,-22.949,5.859,-27.832,0.000
1727710606.685,-19.531,-23.926,0.488,-34.668,0.000
1727710606.689,-10.254,-25.391,8.301,-44.922,0.000
1727710606.693,-17.578,-23.438,7.812,-36.621,0.000
1727710606.697,-20.508,-19.531,-10.742,-4.883,0.000
1727710606.701,-6.836,-17.578,-22.461,0.000,0.000
1727710606.705,-8.301,-20.996,-8.789,-11.230,0.000
1727710606.709,-23.926,-27.832,16.602,-26.367,0.000
1727710606.713,-51.270,-31.250,26.855,-40.039,0.000
1727710606.716,-60.547,-27.832,16.602,-44.922,0.000
1727710606.720,-37.109,-27.344,10.742,-35.645,0.000
1727710606.724,-20.020,-28.809,5.371,-32.227,0.000
1727710606.728,-6.836,-24.902,-3.418,-29.785,0.000
1727710606.732,-14.648,-24.414,-9.766,-26.855,0.000
1727710606.736,-40.527,-25.391,-7.324,-33.691,0.000
1727710606.740,-34.180,-23.926,-9.277,-31.250,0.000
1727710606.744,-12.695,-21.484,-11.230,-28.809,0.000
1727710606.748,-24.414,-21.973,-2.930,-27.832,0.000
1727710606.752,-24.414,-25.391,2.441,-28.320,0.000
1727710606.755,-27.344,-21.484,-6.348,-28.809,0.000
1727710606.759,-35.156,-19.531,-9.277,-19.043,0.000
1727710606.763,-17.578,-28.320,0.000,-19.043,0.000
1727710606.767,-12.695,-29.785,-1.465,-31.738,0.000
1727710606.771,-19.043,-27.832,2.441,-32.227,0.000
1727710606.775,-23.438,-29.785,4.395,-21.973,0.000
1727710606.779,-33.203,-29.785,-5.859,-21.484,0.000
1727710606.783,-20.020,-26.855,-7.324,-29.297,0.000
1727710606.787,1.465,-27.344,-6.348,-21.484,0.000
1727710606.791,-3.418,-27.344,-20.508,-18.555,0.000
1727710606.795,-24.414,-20.020,-20.508,-30.273,0.000
1727710606.798,-38.086,-21.484,-4.883,-36.133,0.000
1727710606.802,-20.996,-21.484,2.930,-31.250,0.000
1727710606.806,-2.930,-20.020,-6.348,-40.039,0.000
1727710606.810,-11.230,-23.438,-13.672,-48.340,0.000
1727710606.814,-30.273,-19.043,-9.766,-24.414,0.000
1727710606.818,-34.668,-24.414,-9.277,-28.320,0.000
1727710606.822,-25.879,-25.879,0.977,-39.062,0.000
1727710606.826,-20.508,-20.508,6.836,-25.879,0.000
1727710606.830,-25.879,-26.367,1.953,-28.320,0.000
1727710606.834,-40.527,-29.297,-5.859,-37.109,0.000
1727710606.838,-50.293,-24.902,-6.348,-32.715,0.000
1727710606.841,-44.922,-28.320,-13.184,-42.969,0.000
1727710606.845,-30.762,-27.344,-27.832,-37.598,0.000
1727710606.849,-21.484,-21.973,-27.832,-20.020,0.000
1727710606.853,-40.039,-23.438,-17.578,-32.715,0.000
1727710606.857,-48.828,-29.785,-9.766,-48.828,0.000
1727710606.861,-25.391,-28.320,-2.930,-46.875,0.000
1727710606.865,-18.555,-27.344,-5.371,-39.062,0.000
1727710606.869,-24.414,-30.762,-16.602,-25.879,0.000
1727710606.873,-35.645,-30.762,-22.949,-19.043,0.000
1727710606.877,-55.664,-29.297,-15.625,-20.508,0.000
1727710606.880,-51.758,-26.367,-5.859,-31.738,0.000
1727710606.884,-36.133,-21.484,-11.230,-36.133,0.000
1727710606.888,-31.250,-17.578,-13.672,-29.297,0.000
1727710606.892,-41.016,-24.414,-13.672,-32.715,0.000
1727710606.896,-55.664,-29.785,-22.949,-31.738,0.000
1727710606.900,-40.527,-26.855,-27.344,-33.203,0.000
1727710606.904,-15.137,-31.250,-31.250,-36.621,0.000
1727710606.908,-15.625,-32.715,-20.996,-29.297,0.000
1727710606.912,-20.020,-26.855,-9.277,-24.414,0.000
1727710606.916,-29.297,-28.809,-8.789,-35.645,0.000
1727710606.920,-31.250,-27.344,-6.348,-33.203,0.000
1727710606.923,-28.809,-24.414,-10.742,-22.949,0.000
1727710606.927,-24.414,-29.785,-17.090,-25.391,0.000
1727710606.931,-21.973,-31.250,-19.531,-22.461,0.000
1727710606.935,-32.227,-32.715,-16.113,-14.160,0.000
1727710606.939,-26.367,-39.062,-14.648,-6.836,0.000
1727710606.943,-9.766,-37.109,-25.391,-5.859,0.000
1727710606.947,-8.789,-30.273,-39.062,-15.137,0.000
1727710606.951,-26.367,-24.902,-36.621,-31.738,0.000
1727710606.955,-46.387,-20.020,-22.461,-35.156,0.000
1727710606.959,-41.992,-24.414,-14.160,-35.645,0.000
1727710606.962,-8.789,-24.414,-14.160,-21.484,0.000
1727710606.966,-1.465,-24.902,-18.066,-9.766,0.000
1727710606.970,-7.324,-26.855,-22.949,-9.766,0.000
1727710606.974,-12.207,-25.391,-31.738,-13.672,0.000
1727710606.978,-32.227,-25.879,-37.109,-20.508,0.000
1727710606.982,-20.020,-29.785,-33.203,-13.184,0.000
1727710606.986,-11.719,-30.762,-41.016,-19.043,0.000
1727710606.990,-23.438,-30.273,-45.410,-25.391,0.000
1727710606.994,-33.691,-32.227,-34.180,-15.625,0.000
1727710606.998,-34.668,-27.832,-24.902,-10.742,0.000
1727710607.002,-19.531,-27.344,-19.043,-9.766,0.000
1727710607.005,-6.836,-25.391,-12.695,-12.207,0.000
1727710607.009,-2.930,-25.391,-20.996,-15.137,0.000
1727710607.013,-20.996,-31.250,-26.855,-7.812,0.000
1727710607.017,-38.086,-30.273,-24.414,-6.836,0.000
1727710607.021,-17.578,-30.762,-29.297,-11.719,0.000
1727710607.025,-7.812,-36.621,-25.879,-20.020,0.000
1727710607.029,-18.066,-41.504,-24.414,-26.367,0.000
1727710607.033,-26.855,-37.109,-29.297,-20.020,0.000
1727710607.037,-48.340,-32.715,-28.809,-20.996,0.000
1727710607.041,-31.250,-31.738,-25.391,-25.879,0.000
1727710607.045,-2.930,-32.715,-32.715,-19.531,0.000
1727710607.048,-3.418,-35.156,-35.645,-18.066,0.000
1727710607.052,-13.672,-31.738,-31.738,-8.301,0.000
1727710607.056,-22.461,-26.855,-36.133,-4.395,0.000
1727710607.060,-16.602,-27.832,-39.062,-14.648,0.000
1727710607.064,-8.789,-29.297,-26.855,-17.090,0.000
1727710607.068,-16.602,-28.809,-22.461,-21.484,0.000
1727710607.072,-36.133,-34.668,-25.391,-20.508,0.000
1727710607.076,-41.992,-35.156,-31.250,-21.973,0.000
1727710607.080,-30.762,-34.180,-34.668,-28.320,0.000
1727710607.084,-20.020,-38.086,-29.785,-26.367,0.000
1727710607.087,-8.301,-36.621,-21.973,-26.367,0.000
1727710607.091,-14.160,-35.156,-24.902,-19.043,0.000
1727710607.095,-29.785,-32.715,-33.203,-13.672,0.000
1727710607.099,-26.367,-35.156,-37.109,-17.090,0.000
1727710607.103,-19.531,-36.621,-37.598,-11.230,0.000
1727710607.107,-23.438,-31.738,-37.598,-20.508,0.000
1727710607.111,-18.555,-34.668,-46.387,-27.832,0.000
1727710607.115,-20.508,-33.691,-39.551,-18.555,0.000
1727710607.119,-21.973,-30.762,-40.527,-21.973,0.000
1727710607.123,-25.879,-26.855,-47.363,-38.574,0.000
1727710607.127,-22.949,-20.020,-37.109,-37.109,0.000
1727710607.130,-16.602,-23.926,-28.809,-26.855,0.000
1727710607.134,-25.879,-28.320,-27.344,-26.367,0.000
1727710607.138,-18.555,-27.832,-29.297,-20.020,0.000
1727710607.142,1.465,-26.855,-44.922,-6.836,0.000
1727710607.146,0.000,-29.297,-41.504,-14.160,0.000
1727710607.150,-10.742,-29.785,-34.668,-20.508,0.000
1727710607.154,-15.137,-28.320,-37.598,-14.648,0.000
1727710607.158,-15.137,-26.367,-27.344,-17.090,0.000
1727710607.162,-3.906,-23.926,-20.020,-18.066,0.000
1727710607.166,4.395,-26.855,-13.672,-10.742,0.000
1727710607.169,-0.977,-29.785,-19.531,-5.371,0.000
1727710607.173,-17.090,-27.832,-25.391,-9.277,0.000
1727710607.177,-24.414,-25.391,-28.809,-14.160,0.000
1727710607.181,-10.254,-25.391,-29.297,-14.648,0.000
1727710607.185,5.371,-26.367,-22.461,-8.789,0.000
1727710607.189,4.883,-23.438,-25.879,-9.277,0.000
1727710607.193,-10.254,-27.832,-32.715,-5.859,0.000
1727710607.197,-14.160,-35.156,-33.203,-5.859,0.000
1727710607.201,-7.324,-35.156,-34.180,-10.254,0.000
1727710607.205,-5.371,-35.645,-44.434,-12.695,0.000
1727710607.209,1.953,-29.297,-51.758,-18.066,0.000
1727710607.212,-22.949,-25.391,-45.898,-15.137,0.000
1727710607.216,-32.715,-24.414,-48.828,-17.090,0.000
1727710607.220,-4.395,-23.438,-47.852,-16.113,0.000
1727710607.224,-1.465,-23.438,-39.062,-13.672,0.000
1727710607.228,-8.301,-25.391,-37.109,-21.484,0.000
1727710607.232,-7.324,-24.902,-35.156,-14.648,0.000
1727710607.236,-18.555,-23.438,-34.668,-10.742,0.000
1727710607.240,-7.812,-28.320,-38.574,-15.137,0.000
1727710607.244,14.160,-27.344,-39.062,-17.578,0.000
1727710607.248,8.789,-25.391,-41.016,-8.301,0.000
1727710607.252,-8.789,-30.762,-44.434,-1.953,0.000
1727710607.255,-20.020,-33.203,-33.691,-1.953,0.000
1727710607.259,-1.953,-30.762,-29.785,4.883,0.000
1727710607.263,23.926,-30.273,-37.598,8.789,0.000
1727710607.267,26.855,-27.832,-36.621,7.324,0.000
1727710607.271,17.578,-28.320,-21.973,-3.418,0.000
1727710607.275,1.465,-27.344,-24.902,-4.395,0.000
1727710607.279,-7.812,-28.320,-41.504,-1.465,0.000
1727710607.283,-2.441,-35.645,-42.480,-10.742,0.000
1727710607.287,0.000,-34.668,-40.527,-14.648,0.000
1727710607.291,-4.883,-30.762,-37.109,-3.906,0.000
1727710607.294,-12.207,-38.086,-31.738,-1.953,0.000
1727710607.298,-8.301,-43.457,-50.781,-15.625,0.000
1727710607.302,-4.395,-44.434,-54.688,-10.742,0.000
1727710607.306,-5.371,-41.016,-36.621,-3.418,0.000
1727710607.310,0.000,-39.551,-22.461,0.977,0.000
1727710607.314,-11.719,-41.504,-20.508,0.000,0.000
1727710607.318,-5.371,-44.922,-25.391,-8.789,0.000
1727710607.322,8.301,-40.527,-25.879,-5.859,0.000
1727710607.326,-3.906,-36.133,-34.180,-13.672,0.000
1727710607.330,-4.395,-38.574,-44.922,-10.254,0.000
1727710607.334,-3.906,-39.062,-43.457,3.418,0.000
1727710607.337,-9.766,-37.109,-41.504,-4.395,0.000
1727710607.341,-0.488,-35.645,-50.293,-10.254,0.000
1727710607.345,3.418,-39.062,-56.152,-5.371,0.000
1727710607.349,-6.348,-41.016,-53.711,-3.906,0.000
1727710607.353,-16.602,-44.434,-49.805,-1.953,0.000
1727710607.357,-15.137,-46.875,-41.016,3.418,0.000
1727710607.361,-4.883,-47.363,-37.109,-8.301,0.000
1727710607.365,4.883,-42.480,-41.016,-10.254,0.000
1727710607.369,16.602,-37.109,-37.109,4.883,0.000
1727710607.373,9.766,-43.945,-35.156,11.230,0.000
1727710607.377,-0.488,-46.387,-36.133,7.324,0.000
1727710607.380,4.395,-45.410,-41.504,4.395,0.000
1727710607.384,13.184,-45.898,-39.551,5.859,0.000
1727710607.388,12.207,-44.434,-43.457,-3.418,0.000
1727710607.392,0.488,-47.363,-56.152,-0.488,0.000
1727710607.396,-13.672,-49.805,-52.734,2.441,0.000
1727710607.400,-8.301,-50.781,-37.598,0.977,0.000
1727710607.404,-1.953,-50.293,-30.273,15.625,0.000
1727710607.408,-5.371,-44.922,-36.621,10.254,0.000
1727710607.412,-8.301,-38.574,-39.062,-0.977,0.000
1727710607.416,-19.531,-40.039,-27.832,6.836,0.000
1727710607.419,-13.184,-42.480,-23.438,11.230,0.000
1727710607.423,19.043,-39.062,-32.715,11.230,0.000
1727710607.427,25.879,-37.598,-41.504,11.230,0.000
1727710607.431,0.000,-47.363,-42.969,2.930,0.000
