timestamps,TP9,AF7,AF8,TP10,Right AUX
1727710502.709,-21.484,-31.738,-44.434,-33.203,0.000
1727710502.713,-33.691,-31.250,-38.574,-22.461,0.000
1727710502.717,-41.504,-31.250,-33.203,-27.344,0.000
1727710502.721,-16.602,-28.320,-28.320,-29.297,0.000
1727710502.725,-5.371,-23.926,-23.438,-17.090,0.000
1727710502.729,-9.766,-26.367,-25.879,-16.113,0.000
1727710502.732,-21.484,-25.879,-27.344,-15.625,0.000
1727710502.736,-48.828,-28.320,-30.762,-23.438,0.000
1727710502.740,-36.133,-32.715,-34.180,-27.344,0.000
1727710502.744,-17.578,-30.762,-33.691,-27.832,0.000
1727710502.748,-17.578,-28.320,-36.621,-26.367,0.000
1727710502.752,-24.414,-28.320,-38.086,-22.461,0.000
1727710502.756,-37.109,-25.391,-33.691,-26.855,0.000
1727710502.760,-24.902,-18.066,-36.133,-28.809,0.000
1727710502.764,-16.113,-23.438,-40.527,-27.344,0.000
1727710502.768,-18.066,-28.809,-32.227,-23.926,0.000
1727710502.772,-23.438,-25.879,-24.414,-37.109,0.000
1727710502.775,-40.527,-21.973,-25.391,-29.297,0.000
1727710502.779,-53.711,-22.949,-29.297,-15.137,0.000
1727710502.783,-38.574,-26.855,-31.738,-20.020,0.000
1727710502.787,-9.766,-27.832,-31.738,-20.020,0.000
1727710502.791,-14.160,-24.414,-30.762,-28.320,0.000
1727710502.795,-47.852,-25.879,-29.297,-31.738,0.000
1727710502.799,-50.781,-34.180,-33.203,-29.785,0.000
1727710502.803,-29.297,-39.062,-42.969,-28.809,0.000
1727710502.807,-20.996,-40.527,-41.504,-23.438,0.000
1727710502.811,-15.137,-32.227,-31.738,-20.508,0.000
1727710502.814,-32.227,-23.926,-29.785,-22.949,0.000
1727710502.818,-36.621,-21.484,-35.156,-26.855,0.000
1727710502.822,-11.230,-20.508,-36.133,-27.832,0.000
1727710502.826,-4.883,-21.973,-41.016,-14.160,0.000
1727710502.830,18.066,-23.438,-38.574,17.578,0.000
1727710502.834,17.578,-16.113,-31.738,25.879,0.000
1727710502.838,-35.156,-10.742,-40.527,-13.184,0.000
1727710502.842,-40.527,-13.184,-40.039,-32.715,0.000
1727710502.846,-12.695,-16.602,-36.621,-19.531,0.000
1727710502.850,15.625,-13.672,-41.992,-1.465,0.000
1727710502.854,13.184,-4.883,-40.039,5.371,0.000
1727710502.857,9.766,3.906,-37.598,7.812,0.000
1727710502.861,34.180,12.207,-41.016,12.695,0.000
1727710502.865,45.410,13.672,-44.922,11.230,0.000
1727710502.869,50.293,18.555,-50.293,20.996,0.000
1727710502.873,31.738,22.461,-51.270,26.367,0.000
1727710502.877,23.438,20.996,-50.293,18.555,0.000
1727710502.881,56.152,16.113,-52.246,25.391,0.000
1727710502.885,62.012,10.742,-46.387,31.738,0.000
1727710502.889,47.363,12.207,-41.504,25.879,0.000
1727710502.893,27.344,12.207,-41.016,27.344,0.000
1727710502.897,6.836,11.719,-41.992,23.438,0.000
1727710502.900,28.809,7.812,-46.875,21.484,0.000
1727710502.904,37.598,2.441,-43.457,17.578,0.000
1727710502.908,32.227,5.371,-39.062,22.461,0.000
1727710502.912,25.879,7.812,-40.039,24.414,0.000
1727710502.916,8.789,0.977,-40.527,22.461,0.000
1727710502.920,18.555,-1.953,-40.527,18.555,0.000
1727710502.924,33.203,-0.977,-39.551,16.602,0.000
1727710502.928,20.508,0.977,-40.527,6.348,0.000
1727710502.932,13.184,4.883,-40.527,4.395,0.000
1727710502.936,-8.789,1.465,-41.504,-1.465,0.000
1727710502.939,-18.066,-5.859,-47.852,-10.742,0.000
1727710502.943,9.277,-6.348,-53.223,-4.395,0.000
1727710502.947,22.949,-13.672,-49.805,0.000,0.000
1727710502.951,13.672,-15.137,-45.898,-5.371,0.000
1727710502.955,-10.254,-9.277,-45.410,-13.672,0.000
1727710502.959,-7.324,-6.836,-39.062,6.836,0.000
1727710502.963,15.137,-4.395,-35.645,6.348,0.000
1727710502.967,19.043,-8.789,-41.016,-5.859,0.000
1727710502.971,14.160,-10.254,-44.922,2.441,0.000
1727710502.975,-0.977,-13.184,-44.922,4.395,0.000
1727710502.979,-2.930,-13.672,-39.062,5.859,0.000
1727710502.982,9.766,-13.184,-36.133,-5.859,0.000
1727710502.986,17.578,-21.484,-43.945,-9.766,0.000
1727710502.990,0.000,-23.438,-44.922,-3.906,0.000
1727710502.994,0.000,-20.508,-38.574,-6.348,0.000
1727710502.998,0.000,-20.508,-36.133,-1.953,0.000
1727710503.002,0.000,-21.973,-40.039,9.766,0.000
1727710503.006,0.000,-22.461,-36.133,16.602,0.000
1727710503.010,0.000,-18.555,-34.668,11.719,0.000
1727710503.014,0.000,-24.902,-38.086,2.930,0.000
1727710503.018,0.000,-33.691,-38.086,-6.348,0.000
1727710503.022,0.000,-28.809,-41.016,-1.953,0.000
1727710503.025,0.000,-23.438,-38.574,2.930,0.000
1727710503.029,0.000,-25.391,-38.086,-8.789,0.000
1727710503.033,0.000,-26.855,-42.480,-5.859,0.000
1727710503.037,-23.438,-27.344,-39.551,3.906,0.000
1727710503.041,-4.395,-28.809,-41.992,-2.930,0.000
1727710503.045,13.672,-29.297,-40.527,-3.906,0.000
1727710503.049,3.418,-34.180,-38.574,5.371,0.000
1727710503.053,-10.742,-33.691,-33.691,5.859,0.000
1727710503.057,-19.531,-32.227,-34.180,-3.418,0.000
1727710503.061,-5.371,-32.715,-40.527,-6.348,0.000
1727710503.065,6.836,-32.227,-38.086,-1.953,0.000
1727710503.068,6.348,-25.879,-40.039,4.883,0.000
1727710503.072,-9.766,-23.438,-37.109,2.441,0.000
1727710503.076,-9.766,-26.855,-33.203,-9.766,0.000
1727710503.080,4.883,-26.855,-32.715,-9.766,0.000
1727710503.084,11.719,-30.273,-29.785,-7.324,0.000
1727710503.088,12.207,-30.762,-34.180,-8.301,0.000
1727710503.092,-4.883,-30.762,-40.039,3.418,0.000
1727710503.096,-20.020,-31.738,-38.574,-1.953,0.000
1727710503.100,-8.301,-33.691,-39.062,-6.348,0.000
1727710503.104,24.414,-37.598,-37.598,1.953,0.000
1727710503.107,38.574,-36.133,-36.621,11.230,0.000
1727710503.111,19.043,-29.297,-37.598,16.113,0.000
1727710503.115,-15.625,-33.203,-34.180,-2.441,0.000
1727710503.119,-20.996,-39.062,-37.598,-11.719,0.000
1727710503.123,5.859,-38.086,-52.246,-7.324,0.000
1727710503.127,23.438,-36.133,-51.270,2.441,0.000
1727710503.131,20.020,-31.738,-42.480,16.602,0.000
1727710503.135,3.418,-33.203,-40.039,13.672,0.000
1727710503.139,-5.371,-39.551,-43.457,-0.488,0.000
1727710503.143,11.230,-41.992,-43.457,-6.836,0.000
1727710503.147,15.137,-39.062,-42.969,-0.977,0.000
1727710503.150,1.953,-43.457,-41.504,1.465,0.000
1727710503.154,-6.348,-48.340,-40.527,4.395,0.000
1727710503.158,0.977,-41.016,-41.504,8.301,0.000
1727710503.162,16.113,-41.016,-38.086,8.301,0.000
1727710503.166,21.484,-43.457,-39.062,11.230,0.000
1727710503.170,19.043,-40.527,-40.527,11.230,0.000
1727710503.174,7.812,-41.016,-38.574,9.277,0.000
1727710503.178,11.230,-45.898,-42.969,11.719,0.000
1727710503.182,34.668,-48.828,-45.410,12.695,0.000
1727710503.186,35.156,-47.363,-45.410,10.742,0.000
1727710503.190,18.066,-48.340,-44.434,5.371,0.000
1727710503.193,-6.348,-51.270,-49.805,5.859,0.000
1727710503.197,-10.742,-54.199,-50.781,9.766,0.000
1727710503.201,10.254,-55.664,-49.805,16.602,0.000
1727710503.205,31.738,-51.270,-52.246,20.996,0.000
1727710503.209,26.367,-48.340,-47.363,9.766,0.000
1727710503.213,5.371,-52.246,-44.434,8.301,0.000
1727710503.217,-5.859,-57.617,-46.875,20.996,0.000
1727710503.221,13.184,-58.594,-43.945,24.414,0.000
1727710503.225,29.297,-56.152,-45.898,20.996,0.000
1727710503.229,18.555,-59.570,-43.457,24.902,0.000
1727710503.232,2.441,-63.477,-41.992,21.484,0.000
1727710503.236,-3.906,-60.547,-46.387,20.508,0.000
1727710503.240,12.207,-57.617,-48.828,19.043,0.000
1727710503.244,26.367,-55.664,-42.969,22.461,0.000
1727710503.248,21.484,-57.129,-39.551,18.066,0.000
1727710503.252,5.371,-58.594,-43.945,15.625,0.000
1727710503.256,1.953,-58.594,-46.875,20.020,0.000
1727710503.260,15.137,-58.105,-47.363,9.766,0.000
1727710503.264,30.273,-55.664,-42.969,15.137,0.000
1727710503.268,33.203,-58.594,-46.875,17.578,0.000
1727710503.272,10.742,-66.406,-52.734,5.371,0.000
1727710503.275,-5.371,-69.824,-59.082,5.371,0.000
1727710503.279,14.160,-65.430,-67.383,4.395,0.000
1727710503.283,54.199,-65.918,-65.918,26.367,0.000
1727710503.287,57.129,-76.660,-48.828,44.434,0.000
1727710503.291,13.184,-76.172,-40.527,24.414,0.000
1727710503.295,-22.461,-77.148,-42.480,3.906,0.000
1727710503.299,-7.812,-83.008,-40.039,10.742,0.000
1727710503.303,12.695,-90.820,-37.109,13.184,0.000
1727710503.307,-3.418,-101.562,-34.180,5.859,0.000
1727710503.311,-32.227,-105.957,-29.297,-2.441,0.000
1727710503.315,-62.988,-113.770,-24.414,-19.531,0.000
1727710503.318,-55.664,-122.070,-20.996,-28.320,0.000
1727710503.322,-45.410,-126.953,-30.762,-41.016,0.000
1727710503.326,-53.711,-133.301,-33.691,-36.621,0.000
1727710503.330,-73.242,-145.996,-20.020,-32.227,0.000
1727710503.334,-100.098,-149.414,-14.160,-41.504,0.000
1727710503.338,-97.168,-150.391,-9.766,-39.062,0.000
1727710503.342,-73.730,-155.273,-4.883,-41.992,0.000
1727710503.346,-64.941,-157.227,-7.812,-47.363,0.000
1727710503.350,-74.707,-161.621,-10.254,-50.781,0.000
1727710503.354,-87.402,-163.086,-11.230,-49.805,0.000
1727710503.358,-90.820,-160.156,-12.695,-39.062,0.000
1727710503.361,-70.312,-155.762,-13.672,-25.391,0.000
1727710503.365,-53.223,-145.996,-15.625,-19.043,0.000
1727710503.369,-51.270,-142.090,-21.973,-18.066,0.000
1727710503.373,-63.965,-136.230,-24.902,-6.348,0.000
1727710503.377,-60.059,-125.000,-26.367,-3.418,0.000
1727710503.381,-36.621,-119.629,-26.855,-11.719,0.000
1727710503.385,-18.066,-119.629,-23.926,-6.836,0.000
1727710503.389,-12.695,-122.559,-23.926,1.953,0.000
1727710503.393,-30.273,-119.141,-31.738,-9.277,0.000
1727710503.397,-39.551,-110.840,-34.668,-16.602,0.000
1727710503.400,-11.230,-104.980,-33.203,-10.742,0.000
1727710503.404,6.348,-101.562,-35.645,-4.395,0.000
1727710503.408,3.906,-95.703,-29.297,8.789,0.000
1727710503.412,3.906,-90.332,-22.949,17.090,0.000
1727710503.416,-9.766,-91.309,-26.367,17.090,0.000
1727710503.420,-1.953,-87.891,-29.785,23.926,0.000
1727710503.424,20.996,-84.473,-29.785,37.109,0.000
1727710503.428,20.996,-84.473,-26.367,30.273,0.000
1727710503.432,11.230,-79.590,-24.414,20.020,0.000
1727710503.436,5.371,-76.660,-30.762,16.602,0.000
1727710503.440,12.207,-75.195,-32.715,25.879,0.000
1727710503.443,26.367,-73.730,-33.691,31.738,0.000
1727710503.447,29.297,-73.730,-36.621,20.508,0.000
1727710503.451,14.160,-67.871,-35.156,18.555,0.000
1727710503.455,4.883,-70.312,-35.645,22.949,0.000
1727710503.459,23.926,-73.730,-37.598,30.762,0.000
1727710503.463,46.387,-66.406,-42.969,32.227,0.000
1727710503.467,62.012,-60.059,-36.621,32.227,0.000
1727710503.471,48.828,-57.617,-31.738,49.805,0.000
1727710503.475,21.973,-56.152,-26.855,54.199,0.000
1727710503.479,18.066,-60.059,-29.297,36.621,0.000
1727710503.483,32.715,-61.035,-35.156,41.992,0.000
1727710503.486,40.039,-59.570,-36.133,47.852,0.000
1727710503.490,24.414,-60.059,-36.621,38.086,0.000
1727710503.494,5.371,-63.477,-38.086,33.691,0.000
1727710503.498,15.137,-72.266,-43.457,37.109,0.000
1727710503.502,42.969,-75.684,-41.016,28.320,0.000
1727710503.506,53.711,-67.871,-40.527,24.414,0.000
1727710503.510,38.086,-59.570,-46.387,23.926,0.000
1727710503.514,18.066,-59.570,-47.363,29.297,0.000
1727710503.518,17.578,-66.406,-41.992,24.414,0.000
1727710503.522,48.828,-63.965,-40.039,32.715,0.000
1727710503.526,56.641,-59.570,-37.109,40.527,0.000
1727710503.529,37.598,-65.430,-40.039,37.598,0.000
1727710503.533,7.812,-70.312,-45.410,37.109,0.000
1727710503.537,-4.883,-70.801,-43.457,17.090,0.000
1727710503.541,21.973,-70.801,-40.527,20.020,0.000
1727710503.545,32.227,-69.336,-37.109,24.414,0.000
1727710503.549,37.109,-62.500,-35.156,27.344,0.000
1727710503.553,31.738,-57.129,-40.527,33.203,0.000
1727710503.557,20.020,-58.105,-43.945,21.484,0.000
1727710503.561,20.508,-65.430,-47.852,20.508,0.000
1727710503.565,23.438,-64.941,-52.734,22.461,0.000
1727710503.568,29.785,-62.500,-58.594,14.648,0.000
1727710503.572,11.230,-64.453,-56.641,-1.953,0.000
1727710503.576,-5.859,-58.105,-54.688,9.766,0.000
1727710503.580,25.879,-51.758,-55.664,33.203,0.000
1727710503.584,37.598,-56.641,-54.688,23.438,0.000
1727710503.588,29.297,-58.594,-52.734,18.066,0.000
1727710503.592,17.578,-63.965,-48.828,15.625,0.000
1727710503.596,-1.465,-63.477,-41.992,18.066,0.000
1727710503.600,12.695,-52.734,-49.805,19.043,0.000
1727710503.604,25.879,-49.805,-41.992,17.090,0.000
1727710503.608,34.668,-51.270,-39.062,12.695,0.000
1727710503.611,26.855,-53.223,-48.828,11.230,0.000
1727710503.615,0.977,-60.059,-43.457,10.742,0.000
1727710503.619,7.812,-56.641,-44.922,5.859,0.000
1727710503.623,12.695,-52.734,-49.805,10.254,0.000
1727710503.627,13.672,-53.223,-58.594,6.836,0.000
1727710503.631,19.043,-50.293,-61.523,5.371,0.000
1727710503.635,-4.883,-50.781,-55.664,-4.395,0.000
1727710503.639,-23.926,-58.594,-40.527,-27.344,0.000
1727710503.643,-10.742,-65.430,-21.973,-27.832,0.000
1727710503.647,5.859,-53.223,-41.016,1.953,0.000
1727710503.651,-28.320,-56.641,-40.527,-22.461,0.000
1727710503.654,-64.941,-67.383,-13.184,-66.895,0.000
1727710503.658,-5.859,-49.316,-44.922,-22.461,0.000
1727710503.662,48.828,-50.781,-44.922,29.785,0.000
1727710503.666,47.363,-48.340,-41.992,36.621,0.000
1727710503.670,-1.465,-45.410,-56.641,23.438,0.000
1727710503.674,-39.551,-63.477,-12.207,-2.441,0.000
1727710503.678,-29.785,-57.617,-3.418,-44.922,0.000
1727710503.682,-14.648,-65.430,-20.508,-57.129,0.000
1727710503.686,-20.508,-86.914,-1.953,-59.082,0.000
1727710503.690,-18.555,-66.406,3.906,-58.105,0.000
1727710503.694,0.000,-41.504,-12.207,-15.137,0.000
1727710503.697,0.000,-37.598,-35.645,14.160,0.000
1727710503.701,0.000,-46.875,-101.562,-1.465,0.000
1727710503.705,0.000,-52.734,-164.062,-13.184,0.000
1727710503.709,0.000,-40.039,-197.754,-28.320,0.000
1727710503.713,0.000,-52.734,-232.422,-52.734,0.000
1727710503.717,0.000,-69.824,-269.043,-40.527,0.000
1727710503.721,0.000,-59.570,-380.371,1.465,0.000
1727710503.725,0.000,-51.758,-611.816,-9.766,0.000
1727710503.729,0.000,-67.871,-803.223,-61.523,0.000
1727710503.733,0.000,-71.289,-952.148,-23.926,0.000
1727710503.736,0.000,-68.848,-1000.000,-30.273,0.000
1727710503.740,-11.719,-48.340,-996.094,-44.922,0.000
1727710503.744,-18.555,-36.133,-1000.000,-28.809,0.000
1727710503.748,-46.875,-47.363,-1000.000,-42.969,0.000
1727710503.752,-96.680,-65.430,-1000.000,-64.453,0.000
1727710503.756,-113.281,-83.008,-1000.000,-100.586,0.000
1727710503.760,-49.805,-77.637,-1000.000,-76.660,0.000
1727710503.764,-18.066,-60.059,-1000.000,-32.227,0.000
1727710503.768,-9.277,-48.340,-1000.000,-29.297,0.000
1727710503.772,-22.461,-56.641,-1000.000,-21.973,0.000
1727710503.776,-58.594,-72.754,-1000.000,-25.391,0.000
1727710503.779,-54.199,-72.266,-1000.000,-42.969,0.000
1727710503.783,-43.457,-61.035,-1000.000,-66.406,0.000
1727710503.787,-49.805,-62.988,-1000.000,-66.895,0.000
1727710503.791,-33.203,-51.758,-1000.000,-43.457,0.000
1727710503.795,-25.879,-36.133,-1000.000,-66.406,0.000
1727710503.799,-26.367,-60.059,-1000.000,-54.199,0.000
1727710503.803,-13.184,-79.102,-1000.000,-16.602,0.000
1727710503.807,-38.574,-63.965,-1000.000,-54.688,0.000
1727710503.811,-56.152,-50.293,-1000.000,-43.945,0.000
1727710503.815,-67.871,-65.430,-1000.000,-44.434,0.000
1727710503.819,-72.266,-74.707,-1000.000,-76.660,0.000
1727710503.822,-13.184,-50.781,-1000.000,-19.043,0.000
1727710503.826,-20.508,-60.059,-998.047,9.277,0.000
1727710503.830,-61.523,-76.172,-1000.000,-20.020,0.000
1727710503.834,-73.730,-65.918,-984.375,-60.059,0.000
1727710503.838,-94.727,-68.359,-911.133,-70.312,0.000
1727710503.842,-57.617,-60.059,-870.117,-29.297,0.000
1727710503.846,-9.277,-41.016,-876.465,-20.508,0.000
1727710503.850,-43.457,-53.223,-806.152,-52.734,0.000
1727710503.854,-66.895,-60.547,-756.348,-17.578,0.000
1727710503.858,-5.371,-41.504,-757.812,52.734,0.000
1727710503.861,11.230,-41.016,-707.520,40.039,0.000
1727710503.865,-4.395,-48.828,-652.344,-14.648,0.000
1727710503.869,-31.738,-58.105,-589.355,-59.082,0.000
1727710503.873,-53.711,-54.688,-568.359,-31.738,0.000
1727710503.877,-35.156,-54.199,-551.270,13.184,0.000
1727710503.881,-20.508,-59.570,-503.418,5.859,0.000
1727710503.885,-9.766,-57.129,-446.289,-12.695,0.000
1727710503.889,-20.996,-50.293,-414.551,-3.906,0.000
1727710503.893,-29.297,-46.875,-394.531,-11.719,0.000
1727710503.897,-14.160,-45.410,-345.703,-17.090,0.000
1727710503.901,10.254,-47.852,-300.781,-6.348,0.000
1727710503.904,9.766,-59.082,-254.395,7.324,0.000
1727710503.908,-5.371,-54.199,-218.750,29.785,0.000
1727710503.912,-34.668,-47.852,-190.918,18.066,0.000
1727710503.916,-29.297,-44.922,-164.551,1.465,0.000
1727710503.920,-5.371,-50.781,-108.887,9.766,0.000
1727710503.924,-3.418,-50.781,-69.824,7.812,0.000
1727710503.928,-5.859,-48.828,-41.504,6.348,0.000
1727710503.932,-17.090,-42.969,-28.320,-1.465,0.000
1727710503.936,-22.461,-40.039,-5.371,-12.695,0.000
1727710503.940,0.000,-40.039,57.129,13.672,0.000
1727710503.944,17.090,-32.715,104.492,19.531,0.000
1727710503.947,9.766,-31.250,127.930,7.324,0.000
1727710503.951,-8.789,-30.273,162.109,15.137,0.000
1727710503.955,0.000,-25.391,221.680,12.207,0.000
1727710503.959,21.484,-24.414,304.688,7.324,0.000
1727710503.963,41.016,-27.344,371.582,39.062,0.000
1727710503.967,43.945,-28.809,400.391,45.898,0.000
1727710503.971,28.809,-29.297,437.012,25.879,0.000
1727710503.975,7.324,-29.297,523.438,19.043,0.000
1727710503.979,16.113,-23.438,642.090,20.508,0.000
1727710503.983,24.902,-20.020,754.883,16.113,0.000
1727710503.986,16.602,-18.555,810.059,23.926,0.000
1727710503.990,12.207,-21.484,826.172,17.090,0.000
1727710503.994,2.930,-23.438,842.285,12.695,0.000
1727710503.998,32.227,-16.113,859.863,25.391,0.000
1727710504.002,60.059,-8.301,922.852,36.621,0.000
1727710504.006,47.852,-11.719,970.703,40.039,0.000
1727710504.010,28.809,-16.113,966.797,27.832,0.000
1727710504.014,8.789,-11.719,967.285,26.367,0.000
1727710504.018,19.531,-10.742,968.262,40.039,0.000
1727710504.022,43.945,-11.230,963.379,32.715,0.000
1727710504.026,35.645,-15.625,965.820,18.555,0.000
1727710504.029,27.344,-13.672,969.238,20.508,0.000
1727710504.033,23.438,-8.301,965.332,24.902,0.000
1727710504.037,30.762,-8.301,969.727,22.949,0.000
1727710504.041,57.617,-4.883,959.473,36.133,0.000
1727710504.045,66.406,-4.883,875.000,23.926,0.000
1727710504.049,56.641,-0.977,827.148,20.996,0.000
1727710504.053,40.527,1.953,854.492,42.969,0.000
1727710504.057,22.461,-6.348,848.633,29.785,0.000
1727710504.061,30.273,-4.883,822.754,26.855,0.000
1727710504.065,43.457,3.418,770.020,37.109,0.000
1727710504.069,31.738,-4.883,728.027,33.691,0.000
1727710504.072,12.695,-4.395,708.008,28.809,0.000
1727710504.076,11.230,0.977,652.832,12.695,0.000
1727710504.080,22.461,0.488,593.262,5.371,0.000
1727710504.084,27.832,-2.441,556.152,6.836,0.000
1727710504.088,15.625,-6.348,529.297,4.395,0.000
1727710504.092,0.000,-1.465,517.578,3.906,0.000
1727710504.096,-0.977,0.488,504.395,6.836,0.000
1727710504.100,22.461,-1.953,502.930,-0.977,0.000
1727710504.104,40.527,-7.324,508.301,7.812,0.000
1727710504.108,27.832,-7.812,487.305,12.695,0.000
1727710504.111,9.766,-4.883,455.566,4.395,0.000
1727710504.115,-10.254,-9.277,423.828,-3.418,0.000
1727710504.119,1.465,-11.719,388.672,2.441,0.000
1727710504.123,18.555,-7.812,352.051,7.324,0.000
1727710504.127,20.508,-5.859,322.754,7.324,0.000
1727710504.131,8.789,-4.395,304.688,14.160,0.000
1727710504.135,0.488,-5.859,272.461,14.160,0.000
1727710504.139,20.020,-3.906,241.211,13.184,0.000
1727710504.143,32.227,-4.395,234.375,13.672,0.000
1727710504.147,22.461,-13.184,238.281,8.301,0.000
1727710504.151,-3.418,-18.555,237.793,-3.906,0.000
1727710504.154,-8.789,-14.160,231.934,-7.812,0.000
1727710504.158,5.859,-10.254,222.656,1.465,0.000
1727710504.162,19.531,-4.883,207.031,3.418,0.000
1727710504.166,17.578,-9.277,200.684,9.277,0.000
1727710504.170,2.930,-11.230,182.129,11.719,0.000
1727710504.174,-13.672,-8.301,151.367,-1.953,0.000
1727710504.178,-17.578,-14.160,151.367,-10.742,0.000
1727710504.182,-6.836,-16.113,188.477,-3.418,0.000
1727710504.186,1.953,-18.555,205.566,-1.953,0.000
1727710504.190,-1.465,-9.766,189.453,-1.465,0.000
1727710504.194,-21.484,-10.742,177.246,3.906,0.000
1727710504.197,-12.207,-17.578,171.875,-2.441,0.000
1727710504.201,8.789,-14.648,164.062,-7.812,0.000
1727710504.205,4.395,-12.695,151.367,-2.441,0.000
1727710504.209,-0.488,-10.254,136.230,6.348,0.000
1727710504.213,-14.648,-8.301,118.164,-9.277,0.000
1727710504.217,-16.602,-10.254,124.023,-24.414,0.000
1727710504.221,-1.953,-8.789,144.531,-20.020,0.000
1727710504.225,-0.488,-14.160,152.832,-14.160,0.000
1727710504.229,-15.137,-21.973,150.879,-22.461,0.000
1727710504.233,-38.086,-20.508,143.555,-31.250,0.000
1727710504.237,-33.203,-17.578,140.625,-20.020,0.000
1727710504.240,-11.719,-13.672,125.488,-13.184,0.000
1727710504.244,-4.883,-11.719,112.793,-20.508,0.000
1727710504.248,-5.859,-8.789,115.723,-9.766,0.000
1727710504.252,-28.809,-5.371,123.535,-17.090,0.000
1727710504.256,-36.133,-13.184,127.441,-22.949,0.000
1727710504.260,-12.207,-16.113,119.629,-15.137,0.000
1727710504.264,0.977,-10.742,122.070,-14.648,0.000
1727710504.268,-8.301,-16.113,133.789,-30.762,0.000
1727710504.272,-39.062,-20.508,140.625,-42.480,0.000
1727710504.276,-38.086,-15.625,143.555,-35.156,0.000
1727710504.279,-22.461,-14.648,138.184,-22.461,0.000
1727710504.283,-20.020,-21.973,131.348,-23.926,0.000
1727710504.287,-14.648,-20.508,119.141,-26.367,0.000
1727710504.291,-29.297,-12.695,104.492,-22.949,0.000
1727710504.295,-41.504,-14.160,104.492,-28.809,0.000
1727710504.299,-14.160,-22.949,119.141,-25.391,0.000
1727710504.303,9.766,-21.973,116.699,-19.043,0.000
1727710504.307,0.488,-19.531,102.051,-18.555,0.000
1727710504.311,-20.020,-21.973,99.121,-19.043,0.000
1727710504.315,-33.203,-16.113,106.934,-15.625,0.000
1727710504.319,-20.020,-12.695,115.723,-25.391,0.000
1727710504.322,-3.906,-12.207,119.141,-23.438,0.000
1727710504.326,1.465,-10.254,125.488,0.000,0.000
1727710504.330,-12.207,-7.812,118.652,-9.766,0.000
1727710504.334,-36.133,-5.371,122.070,-14.648,0.000
1727710504.338,-21.484,-3.906,133.789,-11.719,0.000
1727710504.342,5.859,-4.883,128.906,-16.602,0.000
1727710504.346,8.789,-3.906,121.582,-9.766,0.000
1727710504.350,-17.090,-2.930,115.723,-11.230,0.000
1727710504.354,-35.156,-6.348,104.980,-18.066,0.000
1727710504.358,-16.602,-7.324,99.121,-28.320,0.000
1727710504.362,4.883,-4.883,94.727,-18.555,0.000
1727710504.365,-8.301,-8.789,94.727,-17.578,0.000
1727710504.369,-38.574,-11.719,98.145,-29.785,0.000
1727710504.373,-51.270,-9.277,93.750,-22.461,0.000
1727710504.377,-45.898,-10.742,93.262,-32.227,0.000
1727710504.381,-21.973,-5.859,85.938,-32.227,0.000
1727710504.385,-18.555,-3.906,88.867,-22.461,0.000
1727710504.389,-31.738,-4.395,87.402,-26.855,0.000
1727710504.393,-42.480,-0.977,83.496,-32.227,0.000
1727710504.397,-49.805,-5.371,86.914,-34.180,0.000
1727710504.401,-23.926,-8.789,79.590,-30.273,0.000
1727710504.405,-1.953,-3.906,78.125,-20.508,0.000
1727710504.408,-16.602,-3.418,76.660,-18.066,0.000
1727710504.412,-37.598,-7.324,82.031,-30.273,0.000
1727710504.416,-39.551,-11.719,83.496,-38.086,0.000
1727710504.420,-22.949,-10.254,73.242,-33.203,0.000
1727710504.424,-17.578,-6.348,68.848,-34.668,0.000
1727710504.428,-23.926,-7.812,67.871,-36.133,0.000
1727710504.432,-36.621,-6.836,60.059,-26.367,0.000
1727710504.436,-44.434,-5.371,47.363,-25.879,0.000
1727710504.440,-24.902,-5.859,43.945,-30.762,0.000
1727710504.444,-13.184,-5.371,36.621,-28.809,0.000
1727710504.447,-27.344,-8.301,26.367,-26.855,0.000
1727710504.451,-42.969,-14.648,52.246,-37.598,0.000
1727710504.455,-40.527,-11.719,79.590,-39.551,0.000
1727710504.459,-34.668,-13.184,65.918,-36.133,0.000
1727710504.463,-21.973,-22.949,50.293,-32.227,0.000
1727710504.467,-15.625,-21.484,45.898,-32.715,0.000
1727710504.471,-34.668,-9.766,48.340,-37.109,0.000
1727710504.475,-45.898,-8.789,45.898,-32.715,0.000
1727710504.479,-36.621,-13.672,34.180,-20.508,0.000
1727710504.483,-21.484,-15.137,21.973,-17.090,0.000
1727710504.487,-21.973,-18.066,27.344,-34.180,0.000
1727710504.490,-43.945,-17.578,43.457,-52.246,0.000
1727710504.494,-61.035,-19.043,48.340,-52.734,0.000
1727710504.498,-43.457,-20.020,51.758,-40.039,0.000
1727710504.502,-26.367,-19.531,53.223,-31.250,0.000
1727710504.506,-29.785,-17.090,42.969,-22.949,0.000
1727710504.510,-47.852,-15.137,28.320,-37.109,0.000
1727710504.514,-62.988,-16.113,21.973,-49.805,0.000
1727710504.518,-43.945,-18.555,36.133,-45.410,0.000
1727710504.522,-20.020,-21.973,57.617,-35.156,0.000
1727710504.526,-21.973,-20.508,60.547,-32.227,0.000
1727710504.530,-40.527,-21.484,50.781,-46.875,0.000
1727710504.533,-59.082,-21.973,47.852,-46.387,0.000
1727710504.537,-42.480,-18.555,41.504,-42.969,0.000
1727710504.541,-20.508,-20.996,35.156,-41.016,0.000
1727710504.545,-26.367,-25.879,30.273,-45.410,0.000
1727710504.549,-39.551,-23.438,24.414,-47.363,0.000
1727710504.553,-57.129,-24.414,21.484,-40.527,0.000
1727710504.557,-51.758,-25.391,22.461,-39.062,0.000
1727710504.561,-29.297,-22.461,21.973,-49.805,0.000
1727710504.565,-25.879,-19.043,21.973,-45.410,0.000
1727710504.569,-39.062,-15.137,23.438,-33.203,0.000
1727710504.572,-60.059,-16.113,22.949,-38.086,0.000
1727710504.576,-60.059,-16.113,22.461,-43.945,0.000
1727710504.580,-31.738,-11.719,20.508,-43.457,0.000
1727710504.584,-28.320,-9.766,23.438,-41.504,0.000
1727710504.588,-35.156,-7.812,19.043,-41.992,0.000
1727710504.592,-50.293,-9.766,5.371,-46.387,0.000
1727710504.596,-47.852,-7.812,-5.859,-46.875,0.000
1727710504.600,-13.672,-2.441,-7.324,-35.156,0.000
1727710504.604,-4.395,-3.418,15.137,-32.715,0.000
1727710504.608,-12.207,-11.719,33.691,-29.785,0.000
1727710504.612,-28.809,-13.184,33.691,-21.973,0.000
1727710504.615,-38.574,-12.207,29.785,-26.855,0.000
1727710504.619,-16.113,-12.207,31.738,-25.879,0.000
1727710504.623,-4.883,-10.254,29.785,-17.090,0.000
1727710504.627,-19.043,-2.441,22.461,-27.344,0.000
1727710504.631,-43.457,-9.277,17.578,-35.645,0.000
1727710504.635,-48.828,-16.602,13.672,-28.320,0.000
1727710504.639,-29.297,-11.719,7.812,-30.273,0.000
1727710504.643,-20.020,-16.113,14.160,-20.996,0.000
1727710504.647,-19.531,-18.555,20.508,-21.484,0.000
1727710504.651,-28.320,-16.602,15.625,-32.227,0.000
1727710504.655,-52.734,-17.578,6.836,-34.180,0.000
1727710504.658,-41.992,-14.648,9.766,-36.621,0.000
1727710504.662,-25.391,-8.789,15.625,-42.969,0.000
1727710504.666,-24.902,-9.766,20.996,-34.180,0.000
1727710504.670,-41.504,-15.625,24.902,-34.180,0.000
1727710504.674,-55.176,-17.090,21.973,-36.621,0.000
1727710504.678,-33.691,-19.043,20.508,-36.133,0.000
1727710504.682,-28.320,-20.996,19.043,-39.062,0.000
1727710504.686,-29.785,-20.020,8.789,-33.203,0.000
1727710504.690,-40.527,-19.531,3.418,-35.156,0.000
1727710504.694,-55.176,-20.020,10.254,-41.992,0.000
1727710504.697,-35.645,-15.625,4.395,-41.016,0.000
1727710504.701,-14.648,-19.043,5.371,-24.902,0.000
1727710504.705,-27.344,-26.367,3.906,-32.715,0.000
1727710504.709,-40.039,-25.391,-12.207,-42.480,0.000
1727710504.713,-40.527,-21.973,-1.953,-38.086,0.000
1727710504.717,-36.133,-21.484,14.160,-46.387,0.000
1727710504.721,-18.555,-20.996,18.066,-35.645,0.000
1727710504.725,-10.742,-22.949,24.414,-28.320,0.000
1727710504.729,-23.438,-27.344,32.715,-27.832,0.000
1727710504.733,-39.062,-22.949,33.203,-15.137,0.000
1727710504.737,-37.598,-11.230,24.414,-20.508,0.000
1727710504.740,-15.625,-7.324,17.578,-33.691,0.000
1727710504.744,-8.301,-8.789,17.090,-29.297,0.000
1727710504.748,-37.109,-13.672,15.625,-35.645,0.000
1727710504.752,-55.176,-10.742,9.277,-40.527,0.000
1727710504.756,-27.344,-8.789,12.207,-30.273,0.000
1727710504.760,-5.371,-8.789,13.672,-24.902,0.000
1727710504.764,-9.277,-6.348,6.836,-30.762,0.000
1727710504.768,-22.461,-6.836,4.883,-33.691,0.000
1727710504.772,-46.875,-8.789,6.348,-40.039,0.000
1727710504.776,-42.969,-9.766,5.371,-38.574,0.000
1727710504.780,-7.812,-9.766,6.348,-32.715,0.000
1727710504.783,-2.441,-7.812,9.277,-41.016,0.000
1727710504.787,-7.324,-9.277,10.742,-30.273,0.000
1727710504.791,-33.691,-14.648,12.695,-26.367,0.000
1727710504.795,-53.711,-14.160,16.602,-40.039,0.000
1727710504.799,-24.414,-8.301,15.137,-30.273,0.000
1727710504.803,-11.230,-11.230,14.160,-26.855,0.000
1727710504.807,-25.391,-16.113,19.043,-28.809,0.000
1727710504.811,-49.316,-17.578,21.484,-32.227,0.000
1727710504.815,-47.363,-17.090,21.484,-35.156,0.000
1727710504.819,-19.531,-15.137,16.602,-31.250,0.000
1727710504.823,-21.973,-18.066,6.348,-36.133,0.000
1727710504.826,-29.297,-19.531,24.902,-36.621,0.000
1727710504.830,-42.480,-21.484,48.340,-45.898,0.000
1727710504.834,-62.500,-23.926,45.898,-56.641,0.000
1727710504.838,-42.480,-20.996,46.387,-41.504,0.000
1727710504.842,-20.020,-18.555,34.180,-26.367,0.000
1727710504.846,-18.555,-20.508,25.879,-36.133,0.000
1727710504.850,-37.109,-19.043,31.738,-39.062,0.000
1727710504.854,-60.547,-17.090,28.320,-31.738,0.000
1727710504.858,-46.875,-21.484,26.367,-40.039,0.000
1727710504.862,-30.273,-23.926,19.043,-44.434,0.000
1727710504.866,-29.785,-25.879,6.836,-39.062,0.000
1727710504.869,-38.086,-25.879,8.789,-44.922,0.000
1727710504.873,-54.688,-21.484,13.672,-50.781,0.000
1727710504.877,-36.621,-23.438,15.625,-47.363,0.000
1727710504.881,-8.789,-18.066,13.184,-38.574,0.000
1727710504.885,-15.625,-17.090,10.742,-36.133,0.000
1727710504.889,-30.762,-20.996,9.277,-36.133,0.000
1727710504.893,-54.199,-18.555,8.301,-42.480,0.000
1727710504.897,-55.664,-19.531,7.324,-38.086,0.000
1727710504.901,-30.762,-20.020,6.836,-31.738,0.000
1727710504.905,-30.273,-22.461,2.930,-40.527,0.000
1727710504.908,-50.781,-24.902,-4.883,-45.898,0.000
1727710504.912,-66.406,-18.066,-10.742,-43.457,0.000
1727710504.916,-46.875,-12.207,-2.441,-40.039,0.000
1727710504.920,-28.809,-14.160,11.719,-35.156,0.000
1727710504.924,-30.273,-12.695,10.254,-38.086,0.000
1727710504.928,-39.551,-14.160,3.418,-46.875,0.000
1727710504.932,-57.617,-16.113,-0.977,-51.758,0.000
1727710504.936,-56.152,-14.648,0.977,-61.035,0.000
1727710504.940,-31.738,-22.461,3.906,-45.898,0.000
1727710504.944,-27.832,-24.414,-2.930,-34.180,0.000
1727710504.948,-43.457,-20.020,-5.371,-49.805,0.000
1727710504.951,-57.129,-16.113,0.000,-47.852,0.000
1727710504.955,-50.781,-15.137,-2.441,-40.039,0.000
1727710504.959,-34.668,-12.695,-11.230,-41.992,0.000
1727710504.963,-28.320,-14.160,-5.859,-38.574,0.000
1727710504.967,-30.762,-17.578,-1.465,-35.156,0.000
1727710504.971,-46.875,-19.531,-8.301,-40.039,0.000
1727710504.975,-44.434,-16.602,-18.555,-39.551,0.000
1727710504.979,-30.273,-19.043,-14.160,-29.785,0.000
1727710504.983,-31.738,-26.367,0.000,-31.250,0.000
1727710504.987,-24.902,-30.273,-3.906,-32.227,0.000
1727710504.990,-38.574,-26.855,-7.324,-32.715,0.000
1727710504.994,-48.828,-24.414,-6.836,-35.645,0.000
1727710504.998,-32.715,-25.391,-7.324,-39.062,0.000
1727710505.002,-23.438,-29.297,-16.602,-43.457,0.000
1727710505.006,-23.926,-30.273,-27.832,-48.828,0.000
1727710505.010,-45.898,-26.855,-18.555,-46.875,0.000
1727710505.014,-55.176,-27.832,-2.441,-33.203,0.000
1727710505.018,-41.016,-24.414,-1.465,-30.273,0.000
1727710505.022,-30.273,-22.949,-12.207,-34.668,0.000
1727710505.026,-30.273,-24.902,-20.020,-38.574,0.000
1727710505.030,-38.574,-27.832,-9.766,-33.203,0.000
1727710505.033,-50.293,-31.250,-3.418,-32.715,0.000
1727710505.037,-44.922,-28.809,-11.719,-38.086,0.000
1727710505.041,-26.367,-24.414,-16.602,-34.668,0.000
1727710505.045,-19.531,-27.344,-10.742,-39.551,0.000
1727710505.049,-35.645,-30.273,-5.371,-47.852,0.000
1727710505.053,-52.246,-24.902,-13.184,-41.992,0.000
1727710505.057,-37.598,-22.461,-20.996,-33.691,0.000
1727710505.061,-20.020,-19.043,-14.648,-29.785,0.000
1727710505.065,-20.020,-16.113,-5.371,-27.344,0.000
1727710505.069,-20.508,-22.461,-5.859,-35.156,0.000
1727710505.073,-45.898,-22.949,-8.301,-39.551,0.000
1727710505.076,-42.480,-15.137,-13.184,-31.250,0.000
1727710505.080,-3.906,-10.742,-17.090,-22.949,0.000
1727710505.084,-7.812,-14.648,-15.137,-27.344,0.000
1727710505.088,-28.809,-17.578,-12.207,-34.180,0.000
1727710505.092,-41.016,-13.672,-16.113,-30.762,0.000
1727710505.096,-33.691,-14.160,-15.137,-32.227,0.000
1727710505.100,-17.090,-18.555,-17.578,-31.738,0.000
1727710505.104,-11.230,-20.508,-35.156,-32.227,0.000
1727710505.108,-31.250,-22.461,-38.574,-37.109,0.000
1727710505.112,-62.988,-20.996,-22.461,-39.551,0.000
1727710505.115,-58.594,-18.555,-14.160,-42.969,0.000
1727710505.119,-33.203,-14.160,-16.602,-38.574,0.000
1727710505.123,-19.531,-12.695,-32.227,-29.785,0.000
1727710505.127,-6.836,-13.672,-37.598,-19.531,0.000
1727710505.131,-11.719,-12.207,-24.902,-13.672,0.000
1727710505.135,-32.227,-19.531,-15.625,-22.461,0.000
1727710505.139,-32.715,-24.902,-4.883,-44.922,0.000
1727710505.143,-14.160,-20.508,-0.977,-37.598,0.000
1727710505.147,-17.578,-19.043,-7.324,-26.367,0.000
1727710505.151,-49.805,-24.902,-14.648,-50.293,0.000
1727710505.155,-64.453,-24.414,-19.531,-58.594,0.000
1727710505.158,-41.016,-20.996,-23.438,-48.340,0.000
1727710505.162,-31.250,-27.344,-27.832,-53.711,0.000
1727710505.166,-47.852,-27.832,-32.227,-54.199,0.000
1727710505.170,-67.383,-25.879,-38.086,-49.805,0.000
1727710505.174,-61.035,-32.715,-31.738,-45.898,0.000
1727710505.178,-36.133,-35.156,-29.297,-38.574,0.000
1727710505.182,-18.066,-27.832,-41.504,-25.879,0.000
1727710505.186,-11.230,-20.996,-35.156,-24.902,0.000
1727710505.190,-22.461,-24.414,-16.602,-29.297,0.000
1727710505.194,-32.227,-22.949,-19.531,-32.715,0.000
1727710505.198,-23.926,-18.555,-25.391,-32.227,0.000
1727710505.201,-27.832,-23.438,-19.531,-29.785,0.000
1727710505.205,-35.156,-22.461,-7.324,-30.273,0.000
1727710505.209,-39.551,-15.625,-3.418,-32.715,0.000
1727710505.213,-48.828,-18.555,-8.789,-31.250,0.000
1727710505.217,-28.809,-21.484,-3.418,-20.508,0.000
1727710505.221,-11.230,-15.625,-11.719,-11.230,0.000
1727710505.225,-10.254,-13.672,-34.668,-6.836,0.000
1727710505.229,-18.555,-14.160,-36.621,-11.230,0.000
1727710505.233,-37.598,-17.578,-8.301,-27.832,0.000
1727710505.237,-23.438,-20.996,1.465,-28.809,0.000
1727710505.241,-9.277,-18.555,-10.742,-22.949,0.000
1727710505.244,-11.719,-19.043,-19.043,-22.461,0.000
1727710505.248,-11.719,-22.461,-23.438,-21.484,0.000
1727710505.252,-30.273,-24.414,-16.602,-27.344,0.000
1727710505.256,-28.320,-19.043,-18.555,-19.531,0.000
1727710505.260,-8.301,-16.602,-20.508,-13.672,0.000
1727710505.264,-7.324,-20.996,-15.137,-22.949,0.000
1727710505.268,-23.926,-23.438,-16.113,-26.855,0.000
1727710505.272,-38.086,-21.484,-12.207,-17.578,0.000
1727710505.276,-23.926,-20.020,-12.207,-15.137,0.000
1727710505.280,-1.465,-18.555,-16.113,-20.996,0.000
1727710505.283,3.418,-19.531,-20.996,-20.508,0.000
1727710505.287,-4.395,-23.926,-32.715,-24.902,0.000
1727710505.291,-31.738,-21.484,-31.738,-29.297,0.000
1727710505.295,-37.598,-19.043,-30.273,-23.926,0.000
1727710505.299,-12.207,-20.020,-22.949,-23.438,0.000
1727710505.303,-15.625,-15.137,-11.230,-35.156,0.000
1727710505.307,-26.367,-15.625,-16.602,-25.879,0.000
1727710505.311,-45.898,-16.602,-27.344,-30.273,0.000
1727710505.315,-47.363,-20.508,-23.438,-40.527,0.000
1727710505.319,-29.297,-24.902,-13.672,-34.668,0.000
1727710505.323,-28.320,-22.461,-9.277,-33.203,0.000
1727710505.326,-31.250,-25.879,-16.602,-36.621,0.000
1727710505.330,-52.246,-28.320,-21.484,-46.387,0.000
1727710505.334,-57.617,-22.949,-21.973,-44.434,0.000
1727710505.338,-32.227,-19.043,-18.555,-35.156,0.000
1727710505.342,-15.625,-26.367,-21.973,-33.691,0.000
1727710505.346,-17.090,-23.926,-33.691,-31.250,0.000
1727710505.350,-39.062,-20.020,-29.297,-25.879,0.000
1727710505.354,-42.969,-26.367,-18.555,-24.902,0.000
1727710505.358,-29.785,-24.902,-13.672,-29.785,0.000
1727710505.362,-18.066,-23.438,-19.531,-19.531,0.000
1727710505.366,-17.090,-27.344,-36.621,-18.555,0.000
1727710505.369,-44.434,-27.344,-37.109,-32.715,0.000
1727710505.373,-48.340,-30.762,-29.297,-40.039,0.000
1727710505.377,-19.531,-30.273,-31.250,-30.273,0.000
1727710505.381,-3.418,-24.902,-33.203,-23.926,0.000
1727710505.385,-14.648,-24.414,-32.227,-33.691,0.000
1727710505.389,-31.738,-23.926,-26.855,-28.320,0.000
1727710505.393,-43.457,-22.949,-26.855,-32.715,0.000
1727710505.397,-33.691,-24.414,-26.855,-35.156,0.000
1727710505.401,-22.461,-29.297,-28.809,-34.180,0.000
1727710505.405,-21.484,-31.250,-32.715,-37.598,0.000
1727710505.409,-35.156,-26.367,-31.738,-30.273,0.000
1727710505.412,-44.922,-19.531,-32.227,-32.715,0.000
1727710505.416,-28.320,-20.508,-29.785,-28.809,0.000
1727710505.420,-8.789,-21.484,-31.738,-15.137,0.000
1727710505.424,-8.789,-16.602,-43.945,-17.578,0.000
1727710505.428,-20.508,-18.555,-49.805,-24.902,0.000
1727710505.432,-42.480,-20.508,-39.551,-26.367,0.000
1727710505.436,-44.922,-18.555,-29.297,-29.297,0.000
1727710505.440,-14.648,-21.484,-21.484,-32.227,0.000
1727710505.444,-11.230,-29.297,-16.113,-29.297,0.000
1727710505.448,-39.062,-30.273,-21.484,-36.133,0.000
1727710505.451,-45.410,-30.273,-28.809,-28.320,0.000
1727710505.455,-29.785,-29.297,-29.297,-13.672,0.000
1727710505.459,-17.090,-22.949,-29.297,-24.902,0.000
1727710505.463,-12.207,-23.438,-32.715,-26.367,0.000
1727710505.467,-26.367,-25.879,-32.715,-21.484,0.000
1727710505.471,-46.875,-25.391,-27.832,-23.926,0.000
1727710505.475,-39.062,-25.391,-27.832,-25.879,0.000
1727710505.479,-9.277,-21.973,-35.645,-20.508,0.000
1727710505.483,0.977,-22.461,-41.992,-20.508,0.000
1727710505.487,-7.812,-20.996,-30.273,-15.137,0.000
1727710505.491,-29.785,-19.531,-24.902,-9.766,0.000
1727710505.494,-38.086,-24.414,-26.855,-18.555,0.000
1727710505.498,-23.438,-27.832,-30.273,-8.789,0.000
1727710505.502,-14.160,-29.297,-41.016,-16.113,0.000
1727710505.506,-17.578,-33.691,-35.156,-35.156,0.000
1727710505.510,-41.992,-32.715,-31.738,-42.969,0.000
1727710505.514,-42.969,-27.344,-33.691,-40.527,0.000
1727710505.518,-18.066,-25.391,-26.367,-29.785,0.000
1727710505.522,-13.672,-22.949,-32.227,-28.320,0.000
1727710505.526,-17.578,-22.949,-39.062,-24.414,0.000
1727710505.530,-33.691,-20.020,-34.668,-24.414,0.000
1727710505.534,-52.246,-20.508,-46.387,-35.645,0.000
1727710505.537,-32.715,-27.832,-45.898,-40.039,0.000
1727710505.541,-9.277,-27.832,-29.297,-21.484,0.000
1727710505.545,-9.766,-26.855,-23.438,-14.160,0.000
1727710505.549,-33.691,-28.320,-29.785,-36.133,0.000
1727710505.553,-43.457,-24.414,-32.227,-39.551,0.000
1727710505.557,-15.625,-23.438,-25.391,-24.902,0.000
1727710505.561,-12.695,-24.414,-26.855,-30.762,0.000
1727710505.565,-11.230,-24.414,-35.156,-32.227,0.000
1727710505.569,-21.484,-26.855,-38.574,-21.973,0.000
1727710505.573,-40.527,-28.809,-44.434,-34.668,0.000
1727710505.577,-23.926,-27.832,-45.410,-30.762,0.000
1727710505.580,-6.836,-24.902,-34.668,-16.602,0.000
1727710505.584,-18.066,-26.855,-32.227,-20.020,0.000
1727710505.588,-40.039,-29.785,-37.109,-32.715,0.000
1727710505.592,-55.176,-26.855,-36.133,-27.344,0.000
1727710505.596,-32.715,-24.902,-34.180,-14.160,0.000
1727710505.600,-15.625,-24.414,-34.180,-8.789,0.000
1727710505.604,-21.484,-26.855,-36.133,-6.836,0.000
1727710505.608,-30.762,-32.227,-34.668,-20.996,0.000
1727710505.612,-48.340,-32.715,-33.203,-35.645,0.000
1727710505.616,-41.504,-26.855,-39.551,-37.109,0.000
1727710505.619,-22.949,-23.438,-41.992,-38.574,0.000
1727710505.623,-23.438,-25.879,-38.086,-43.945,0.000
1727710505.627,-47.363,-29.297,-31.250,-40.039,0.000
1727710505.631,-52.246,-30.273,-28.320,-28.320,0.000
1727710505.635,-31.250,-32.715,-30.762,-28.320,0.000
1727710505.639,-19.531,-29.785,-33.203,-25.879,0.000
1727710505.643,-17.578,-27.832,-34.668,-28.320,0.000
1727710505.647,-28.320,-32.715,-33.691,-32.715,0.000
1727710505.651,-45.898,-30.273,-32.227,-29.297,0.000
1727710505.655,-25.879,-22.949,-33.691,-21.484,0.000
1727710505.659,-4.883,-27.832,-37.109,-17.578,0.000
1727710505.662,0.000,-31.250,-37.598,-31.738,0.000
1727710505.666,0.000,-27.832,-39.062,-32.715,0.000
1727710505.670,0.000,-29.785,-37.109,-25.391,0.000
1727710505.674,0.000,-31.738,-35.156,-21.973,0.000
1727710505.678,0.000,-30.273,-34.180,-20.508,0.000
1727710505.682,0.000,-30.762,-33.691,-29.785,0.000
1727710505.686,0.000,-33.203,-34.668,-28.320,0.000
1727710505.690,0.000,-33.203,-34.180,-17.090,0.000
1727710505.694,0.000,-34.668,-34.668,-20.996,0.000
1727710505.698,0.000,-34.180,-37.598,-30.762,0.000
1727710505.701,0.000,-31.738,-34.668,-21.484,0.000
1727710505.705,0.000,-25.879,-37.598,-27.344,0.000
1727710505.709,-24.414,-21.484,-45.410,-38.086,0.000
1727710505.713,-21.973,-20.508,-44.922,-45.410,0.000
1727710505.717,-7.812,-24.414,-32.715,-31.738,0.000
1727710505.721,6.836,-22.461,-32.227,-19.531,0.000
1727710505.725,-7.812,-25.391,-39.062,-32.227,0.000
1727710505.729,-46.875,-42.480,-35.645,-36.133,0.000
1727710505.733,-58.105,-41.016,-35.156,-37.598,0.000
1727710505.737,-38.574,-37.109,-37.109,-37.109,0.000
1727710505.741,-19.531,-32.715,-34.180,-30.762,0.000
1727710505.744,-23.926,-32.227,-29.785,-40.039,0.000
1727710505.748,-43.945,-34.668,-35.156,-50.293,0.000
1727710505.752,-44.434,-29.785,-37.109,-34.180,0.000
1727710505.756,-36.133,-31.738,-41.992,-39.062,0.000
1727710505.760,-34.668,-34.180,-47.852,-49.805,0.000
1727710505.764,-32.227,-34.668,-42.969,-22.949,0.000
1727710505.768,-40.039,-29.785,-43.945,-18.555,0.000
1727710505.772,-54.688,-34.180,-39.551,-30.762,0.000
1727710505.776,-44.922,-43.457,-39.062,-36.133,0.000
1727710505.780,-20.508,-35.645,-41.504,-15.137,0.000
1727710505.784,-20.996,-30.273,-42.480,-25.879,0.000
1727710505.787,-31.250,-27.832,-42.969,-41.504,0.000
1727710505.791,-38.574,-21.484,-39.062,-20.996,0.000
1727710505.795,-35.156,-23.926,-41.504,-26.855,0.000
1727710505.799,-15.137,-30.273,-45.898,-34.180,0.000
1727710505.803,-12.207,-27.832,-40.527,-30.273,0.000
1727710505.807,-34.668,-26.367,-37.109,-25.879,0.000
1727710505.811,-46.387,-23.438,-39.551,-41.504,0.000
1727710505.815,-29.297,-24.414,-33.203,-47.363,0.000
1727710505.819,-22.949,-31.250,-28.320,-41.992,0.000
1727710505.823,-37.598,-38.086,-34.668,-64.453,0.000
1727710505.827,-42.480,-43.945,-37.598,-51.758,0.000
1727710505.830,-73.730,-40.527,-36.133,-53.223,0.000
1727710505.834,-77.637,-38.574,-27.832,-83.984,0.000
1727710505.838,-16.602,-30.273,-31.738,-50.781,0.000
1727710505.842,-3.418,-23.926,-35.156,-10.254,0.000
1727710505.846,-26.855,-18.066,-42.480,-2.930,0.000
1727710505.850,-42.969,-21.973,-52.734,-19.531,0.000
1727710505.854,-55.664,-35.645,-35.156,-33.691,0.000
1727710505.858,-49.805,-41.504,-13.672,-40.527,0.000
1727710505.862,-38.574,-45.410,-12.695,-56.152,0.000
1727710505.866,-20.996,-31.250,-28.809,-55.664,0.000
1727710505.869,-23.438,-21.484,-59.570,-38.086,0.000
1727710505.873,-50.293,-33.203,-49.316,-30.762,0.000
1727710505.877,-23.926,-27.344,-29.785,-14.648,0.000
1727710505.881,-13.672,-26.367,-29.785,-21.484,0.000
1727710505.885,-56.152,-37.598,-45.898,-58.594,0.000
1727710505.889,-86.914,-46.875,-39.062,-97.656,0.000
1727710505.893,-76.172,-42.969,0.000,-84.961,0.000
1727710505.897,-81.543,-44.922,-5.859,-70.312,0.000
1727710505.901,-82.031,-51.270,-30.273,-91.797,0.000
1727710505.905,-17.090,-23.926,-98.145,-40.039,0.000
1727710505.909,-7.324,-22.949,-134.766,-28.320,0.000
1727710505.912,-59.082,-46.875,-116.699,-63.965,0.000
1727710505.916,-48.828,-35.156,-145.508,-46.387,0.000
1727710505.920,-40.039,-28.320,-163.086,-42.969,0.000
1727710505.924,-83.496,-43.457,-164.551,-91.797,0.000
1727710505.928,-78.125,-39.062,-217.285,-92.285,0.000
1727710505.932,-57.129,-32.715,-288.574,-25.879,0.000
1727710505.936,-63.477,-48.340,-332.031,-42.969,0.000
1727710505.940,-48.340,-59.570,-430.664,-84.473,0.000
1727710505.944,-56.152,-72.754,-494.141,-69.824,0.000
1727710505.948,-87.891,-72.754,-529.297,-78.613,0.000
1727710505.952,-104.492,-43.945,-597.168,-109.375,0.000
1727710505.955,-84.961,-32.227,-610.840,-109.863,0.000
1727710505.959,-52.246,-40.527,-567.871,-67.871,0.000
1727710505.963,-25.391,-38.574,-562.012,-23.926,0.000
1727710505.967,-73.242,-48.828,-529.297,-71.289,0.000
1727710505.971,-124.023,-49.805,-509.277,-99.121,0.000
1727710505.975,-86.914,-39.551,-552.734,-74.707,0.000
1727710505.979,-54.199,-36.621,-540.527,-76.660,0.000
1727710505.983,-61.523,-31.250,-502.930,-63.965,0.000
1727710505.987,-76.172,-35.156,-525.391,-64.941,0.000
1727710505.991,-94.238,-43.945,-588.867,-119.141,0.000
1727710505.995,-76.660,-39.062,-619.629,-106.934,0.000
1727710505.998,-23.438,-45.410,-698.730,-30.762,0.000
1727710506.002,-37.598,-56.641,-779.785,-47.363,0.000
1727710506.006,-71.289,-34.668,-819.824,-80.566,0.000
1727710506.010,-110.840,-35.645,-848.633,-85.938,0.000
1727710506.014,-130.859,-55.176,-854.492,-85.938,0.000
1727710506.018,-81.055,-41.992,-903.809,-48.340,0.000
1727710506.022,-60.059,-35.645,-960.449,-46.875,0.000
1727710506.026,-56.152,-38.086,-982.910,-68.359,0.000
1727710506.030,-108.887,-46.387,-1000.000,-64.453,0.000
1727710506.034,-116.211,-44.434,-1000.000,-59.570,0.000
1727710506.038,-35.645,-28.809,-1000.000,-52.734,0.000
1727710506.041,-42.480,-41.504,-1000.000,-68.359,0.000
1727710506.045,-60.059,-39.062,-1000.000,-57.617,0.000
1727710506.049,-67.871,-31.250,-999.023,-23.438,0.000
1727710506.053,-56.641,-38.574,-1000.000,-7.812,0.000
1727710506.057,-21.484,-33.203,-992.676,-18.066,0.000
1727710506.061,-37.109,-41.016,-938.477,-66.406,0.000
1727710506.065,-61.523,-43.457,-878.418,-75.684,0.000
1727710506.069,-82.520,-40.527,-857.422,-42.480,0.000
1727710506.073,-82.520,-40.527,-825.195,-31.250,0.000
1727710506.077,-54.199,-37.109,-777.832,-36.621,0.000
1727710506.080,-49.316,-41.504,-717.773,-58.105,0.000
1727710506.084,-61.523,-51.758,-641.113,-37.598,0.000
1727710506.088,-63.477,-46.875,-609.375,-20.996,0.000
1727710506.092,-39.551,-27.832,-604.980,-16.113,0.000
1727710506.096,-7.324,-17.578,-560.547,-25.391,0.000
1727710506.100,-10.254,-26.367,-494.629,-13.672,0.000
1727710506.104,-29.297,-37.109,-437.012,8.301,0.000
1727710506.108,-48.340,-34.180,-388.184,0.977,0.000
1727710506.112,-60.059,-30.762,-348.145,-2.930,0.000
1727710506.116,-40.039,-31.250,-316.406,-18.066,0.000
1727710506.120,-16.113,-32.227,-295.410,-39.551,0.000
1727710506.123,-16.602,-32.715,-257.812,-33.691,0.000
1727710506.127,-36.133,-31.250,-217.285,-8.301,0.000
1727710506.131,-29.785,-22.949,-210.449,-7.812,0.000
1727710506.135,-2.441,-21.484,-178.711,-0.977,0.000
1727710506.139,13.184,-21.973,-123.535,14.648,0.000
1727710506.143,-1.465,-24.414,-82.520,7.324,0.000
1727710506.147,-21.484,-25.391,-38.574,1.465,0.000
1727710506.151,-23.926,-19.531,28.320,0.000,0.000
1727710506.155,-3.418,-19.043,149.414,-0.488,0.000
1727710506.159,6.836,-20.996,321.289,9.277,0.000
1727710506.162,7.812,-20.020,478.516,1.465,0.000
1727710506.166,-6.348,-17.090,589.844,-6.348,0.000
1727710506.170,-25.879,-8.789,693.848,-3.906,0.000
1727710506.174,-3.906,-3.418,809.570,-4.395,0.000
1727710506.178,27.832,-1.953,910.645,6.836,0.000
1727710506.182,28.809,-5.371,965.332,15.625,0.000
1727710506.186,6.836,-11.230,967.773,6.836,0.000
1727710506.190,-10.742,-9.277,966.797,2.930,0.000
1727710506.194,-10.254,-15.625,968.750,8.301,0.000
1727710506.198,2.930,-19.043,968.262,-3.906,0.000
1727710506.202,7.324,-15.137,968.262,0.488,0.000
1727710506.205,2.930,-14.160,968.262,9.766,0.000
1727710506.209,-14.648,-15.137,968.262,-2.441,0.000
1727710506.213,-3.906,-11.230,967.285,2.441,0.000
1727710506.217,9.766,-8.789,964.844,5.371,0.000
1727710506.221,11.230,-9.766,974.609,10.254,0.000
1727710506.225,2.930,-11.719,901.855,3.906,0.000
1727710506.229,-11.719,-12.695,809.082,-10.742,0.000
1727710506.233,-19.531,-13.184,786.133,-3.418,0.000
1727710506.237,-7.324,-11.230,746.582,-0.977,0.000
1727710506.241,-5.859,-16.113,752.930,-15.625,0.000
1727710506.245,-8.301,-12.207,770.996,-19.043,0.000
1727710506.248,-3.418,1.465,724.609,-7.324,0.000
1727710506.252,-9.277,0.488,672.852,-15.137,0.000
1727710506.256,2.441,-3.906,650.391,-13.672,0.000
1727710506.260,13.184,-3.906,633.301,-5.371,0.000
1727710506.264,8.789,-5.371,592.773,-7.812,0.000
1727710506.268,-10.254,-7.812,548.828,-15.625,0.000
1727710506.272,-19.531,-10.254,525.879,-22.461,0.000
1727710506.276,-8.301,-10.742,502.441,-18.555,0.000
1727710506.280,-4.395,-9.766,478.516,-17.578,0.000
1727710506.284,-9.766,-10.742,459.473,-11.230,0.000
1727710506.287,-20.020,-7.812,458.008,-9.766,0.000
1727710506.291,-29.297,-10.254,460.449,-7.812,0.000
1727710506.295,-15.625,-13.672,432.617,-2.930,0.000
1727710506.299,2.441,-10.742,394.043,-12.207,0.000
1727710506.303,-8.789,-11.719,364.258,-20.996,0.000
1727710506.307,-20.996,-14.648,317.383,-14.160,0.000
1727710506.311,-26.855,-15.625,263.184,-8.301,0.000
1727710506.315,-17.090,-15.625,250.000,-17.578,0.000
1727710506.319,-17.090,-16.602,263.672,-18.555,0.000
1727710506.323,-20.508,-20.020,273.926,-17.090,0.000
1727710506.327,-24.414,-22.949,269.043,-23.926,0.000
1727710506.330,-52.734,-25.879,278.809,-27.832,0.000
1727710506.334,-34.668,-24.902,298.340,-26.855,0.000
1727710506.338,-4.395,-21.973,284.668,-24.902,0.000
1727710506.342,-7.812,-22.949,253.906,-21.484,0.000
1727710506.346,-14.160,-24.414,239.746,-13.672,0.000
1727710506.350,-29.785,-23.438,232.422,-14.160,0.000
1727710506.354,-10.742,-20.020,222.168,-5.371,0.000
1727710506.358,10.742,-12.695,210.938,-2.441,0.000
1727710506.362,6.836,-12.207,201.172,-17.578,0.000
1727710506.366,-1.465,-16.602,203.125,-16.602,0.000
1727710506.370,-22.461,-25.391,201.172,-18.555,0.000
1727710506.373,-20.996,-26.855,198.242,-34.180,0.000
1727710506.377,1.953,-20.020,190.430,-20.508,0.000
1727710506.381,-0.977,-20.508,176.270,-13.184,0.000
1727710506.385,-15.137,-20.020,160.645,-20.020,0.000
1727710506.389,-31.738,-13.184,146.484,-19.043,0.000
1727710506.393,-33.203,-13.672,140.625,-16.113,0.000
1727710506.397,-16.602,-17.578,153.320,-12.207,0.000
1727710506.401,-1.953,-18.066,176.270,-13.672,0.000
1727710506.405,-13.184,-19.531,176.758,-15.137,0.000
1727710506.409,-38.086,-20.996,159.180,-29.785,0.000
1727710506.413,-39.062,-19.043,138.184,-39.062,0.000
1727710506.416,-25.391,-16.113,122.070,-35.645,0.000
1727710506.420,-13.672,-12.695,97.168,-35.156,0.000
1727710506.424,-13.672,-12.695,108.398,-27.344,0.000
1727710506.428,-40.039,-17.578,148.438,-34.180,0.000
1727710506.432,-56.641,-18.555,156.738,-45.410,0.000
1727710506.436,-31.250,-18.066,144.043,-42.969,0.000
1727710506.440,-13.672,-20.508,130.371,-33.203,0.000
1727710506.444,-20.020,-20.020,127.930,-28.320,0.000
1727710506.448,-39.062,-16.113,118.652,-30.762,0.000
1727710506.452,-41.016,-17.578,114.746,-31.250,0.000
1727710506.455,-20.020,-13.672,97.656,-31.738,0.000
1727710506.459,-4.395,-8.789,81.055,-26.855,0.000
1727710506.463,-6.348,-12.207,80.566,-31.250,0.000
1727710506.467,-25.391,-10.742,78.613,-34.180,0.000
1727710506.471,-36.133,-11.719,87.891,-20.996,0.000
1727710506.475,-24.902,-12.695,96.191,-16.113,0.000
1727710506.479,-8.301,-10.742,104.492,-9.277,0.000
1727710506.483,-7.812,-9.766,104.492,-18.066,0.000
1727710506.487,-35.156,-12.207,91.797,-26.367,0.000
1727710506.491,-48.340,-13.184,79.102,-24.902,0.000
1727710506.495,-24.902,-11.719,72.754,-22.461,0.000
1727710506.498,-11.719,-15.625,73.242,-11.719,0.000
1727710506.502,-8.301,-17.578,79.102,-16.113,0.000
1727710506.506,-19.531,-14.160,80.566,-19.043,0.000
1727710506.510,-31.250,-15.625,77.637,-15.137,0.000
1727710506.514,-16.602,-17.578,62.500,-17.090,0.000
1727710506.518,-2.930,-16.113,48.828,-16.602,0.000
1727710506.522,-3.906,-12.695,56.152,-19.531,0.000
1727710506.526,-15.137,-12.207,51.758,-28.320,0.000
1727710506.530,-39.551,-16.113,43.945,-22.461,0.000
1727710506.534,-35.645,-17.578,54.688,-21.484,0.000
1727710506.538,-9.766,-18.066,60.059,-28.809,0.000
1727710506.541,-5.371,-20.996,60.547,-24.414,0.000
1727710506.545,-22.461,-20.020,59.570,-20.508,0.000
1727710506.549,-41.016,-18.066,58.594,-13.672,0.000
1727710506.553,-31.738,-16.602,52.246,-10.742,0.000
1727710506.557,-5.371,-14.160,51.270,0.977,0.000
1727710506.561,-6.836,-13.184,45.898,-2.930,0.000
1727710506.565,-18.555,-13.672,32.715,-17.090,0.000
1727710506.569,-29.297,-14.648,31.250,-20.996,0.000
1727710506.573,-29.297,-14.160,35.645,-25.391,0.000
1727710506.577,-13.672,-15.625,38.574,-16.113,0.000
1727710506.580,-14.648,-20.508,41.016,-22.949,0.000
1727710506.584,-10.254,-16.113,45.898,-21.973,0.000
1727710506.588,-21.973,-14.648,46.875,-8.301,0.000
1727710506.592,-31.250,-17.578,52.246,-8.301,0.000
1727710506.596,-23.926,-19.043,52.734,-23.438,0.000
1727710506.600,-19.531,-20.020,50.781,-33.203,0.000
1727710506.604,-20.020,-18.066,37.598,-23.438,0.000
1727710506.608,-34.180,-19.043,31.250,-27.344,0.000
1727710506.612,-49.805,-21.973,41.992,-39.062,0.000
1727710506.616,-37.109,-22.461,41.016,-39.062,0.000
1727710506.620,-23.926,-21.484,31.250,-37.598,0.000
1727710506.623,-28.809,-20.020,37.598,-31.738,0.000
1727710506.627,-39.062,-18.066,46.875,-37.598,0.000
1727710506.631,-48.340,-23.438,47.852,-45.410,0.000
1727710506.635,-26.855,-21.973,33.691,-31.738,0.000
1727710506.639,-11.230,-19.531,18.066,-21.973,0.000
1727710506.643,-13.184,-26.367,32.227,-21.484,0.000
1727710506.647,-19.531,-27.832,48.340,-25.391,0.000
1727710506.651,-26.367,-21.973,55.176,-26.855,0.000
1727710506.655,-17.090,-22.949,74.219,-27.832,0.000
1727710506.659,-15.137,-33.691,84.961,-31.738,0.000
1727710506.663,-16.602,-34.668,83.496,-31.250,0.000
1727710506.666,-25.879,-26.855,76.172,-19.043,0.000
1727710506.670,-39.551,-29.785,62.500,-28.809,0.000
1727710506.674,-25.391,-32.715,59.082,-35.645,0.000
1727710506.678,-0.977,-23.926,57.129,-20.996,0.000
1727710506.682,-0.977,-22.949,51.270,-15.137,0.000
1727710506.686,-20.996,-25.391,57.617,-20.996,0.000
1727710506.690,-40.527,-25.391,66.406,-29.785,0.000
1727710506.694,-27.344,-28.809,62.012,-27.344,0.000
1727710506.698,-1.953,-22.949,46.875,-26.367,0.000
1727710506.702,4.395,-24.902,47.852,-28.320,0.000
1727710506.706,-10.254,-26.855,39.551,-28.809,0.000
1727710506.709,-30.273,-20.020,27.344,-31.738,0.000
1727710506.713,-19.531,-21.973,41.016,-26.367,0.000
1727710506.717,-5.371,-23.926,36.621,-26.367,0.000
1727710506.721,-4.395,-23.438,31.738,-31.250,0.000
1727710506.725,-11.230,-20.996,45.898,-21.484,0.000
1727710506.729,-36.133,-15.137,41.992,-22.461,0.000
1727710506.733,-35.645,-18.555,36.133,-35.156,0.000
1727710506.737,-10.742,-23.926,40.039,-30.762,0.000
1727710506.741,-10.742,-29.785,31.738,-30.762,0.000
1727710506.745,-28.320,-29.785,30.762,-33.691,0.000
1727710506.748,-43.945,-29.297,37.109,-41.504,0.000
1727710506.752,-46.875,-28.809,33.691,-41.992,0.000
1727710506.756,-29.297,-27.344,24.414,-36.621,0.000
1727710506.760,-19.531,-26.855,22.461,-32.227,0.000
1727710506.764,-24.902,-27.344,21.484,-39.062,0.000
1727710506.768,-36.621,-27.832,11.719,-41.504,0.000
1727710506.772,-38.086,-27.344,5.371,-27.832,0.000
1727710506.776,-20.020,-28.320,4.883,-34.180,0.000
1727710506.780,-11.230,-30.762,7.324,-35.645,0.000
1727710506.784,-21.484,-33.691,15.625,-35.156,0.000
1727710506.788,-29.785,-30.762,24.902,-31.250,0.000
1727710506.791,-35.156,-29.785,21.484,-24.414,0.000
1727710506.795,-23.926,-26.367,11.719,-22.949,0.000
1727710506.799,-27.832,-27.832,6.836,-27.344,0.000
1727710506.803,-36.621,-32.227,12.207,-31.738,0.000
1727710506.807,-45.898,-30.762,11.230,-29.297,0.000
1727710506.811,-51.758,-27.344,5.371,-35.645,0.000
1727710506.815,-32.227,-28.809,-1.953,-34.180,0.000
1727710506.819,-19.531,-32.227,1.953,-23.926,0.000
1727710506.823,-24.902,-27.344,9.277,-27.832,0.000
1727710506.827,-35.645,-28.809,5.859,-29.785,0.000
1727710506.831,-40.527,-26.855,3.418,-25.391,0.000
1727710506.834,-28.320,-27.344,0.000,-19.531,0.000
1727710506.838,-20.020,-34.180,-9.766,-20.508,0.000
1727710506.842,-15.625,-27.344,-11.719,-16.113,0.000
1727710506.846,-37.109,-23.926,-5.859,-12.695,0.000
1727710506.850,-56.641,-22.461,-2.930,-25.391,0.000
1727710506.854,-34.180,-21.484,1.953,-27.344,0.000
1727710506.858,-10.742,-19.043,0.000,-23.926,0.000
1727710506.862,-12.695,-11.719,-7.324,-19.043,0.000
1727710506.866,-27.344,-14.160,-8.789,-16.113,0.000
1727710506.870,-39.062,-19.043,-2.930,-20.996,0.000
1727710506.873,-33.203,-15.137,4.883,-28.320,0.000
1727710506.877,-19.043,-20.996,6.836,-30.273,0.000
1727710506.881,0.000,-29.297,2.930,-33.203,0.000
1727710506.885,0.000,-25.391,0.488,-40.527,0.000
1727710506.889,0.000,-23.926,-2.441,-44.922,0.000
1727710506.893,0.000,-23.926,-6.836,-38.086,0.000
1727710506.897,0.000,-18.555,-9.766,-25.879,0.000
1727710506.901,0.000,-14.160,-12.207,-12.207,0.000
1727710506.905,0.000,-18.555,-7.812,-16.602,0.000
1727710506.909,0.000,-18.555,2.441,-25.391,0.000
1727710506.913,0.000,-15.625,0.977,-28.809,0.000
1727710506.916,0.000,-17.090,-9.766,-20.996,0.000
1727710506.920,0.000,-20.020,-15.625,-12.207,0.000
1727710506.924,0.000,-21.484,-14.648,-19.531,0.000
1727710506.928,-56.641,-20.508,-6.836,-29.785,0.000
1727710506.932,-51.758,-23.438,-0.488,-37.598,0.000
1727710506.936,-29.785,-22.461,-3.906,-45.898,0.000
1727710506.940,-18.555,-16.113,-9.766,-37.109,0.000
1727710506.944,-23.926,-18.066,-10.742,-32.227,0.000
1727710506.948,-48.340,-21.973,-1.953,-40.039,0.000
1727710506.952,-47.852,-13.184,4.395,-30.273,0.000
1727710506.956,-14.160,-15.137,1.465,-23.438,0.000
1727710506.959,-3.906,-23.438,0.488,-25.879,0.000
1727710506.963,-23.438,-23.438,-4.395,-16.113,0.000
1727710506.967,-53.711,-24.414,-13.672,-30.273,0.000
1727710506.971,-57.617,-18.555,-21.484,-41.504,0.000
1727710506.975,-35.645,-21.484,-26.855,-40.527,0.000
1727710506.979,-16.113,-27.344,-12.207,-39.062,0.000
1727710506.983,-19.531,-28.320,-4.883,-29.297,0.000
1727710506.987,-44.922,-30.273,-12.695,-31.250,0.000
1727710506.991,-49.805,-25.879,-7.812,-36.621,0.000
1727710506.995,-28.809,-24.902,-6.836,-29.785,0.000
1727710506.998,-22.461,-22.949,-15.625,-19.043,0.000
1727710507.002,-24.414,-15.625,-23.926,-21.484,0.000
1727710507.006,-40.039,-19.531,-21.484,-28.320,0.000
1727710507.010,-56.152,-26.367,-12.695,-38.086,0.000
1727710507.014,-27.344,-20.508,-12.695,-31.738,0.000
1727710507.018,-14.160,-20.508,-18.066,-28.809,0.000
1727710507.022,-23.926,-26.367,-14.160,-34.668,0.000
1727710507.026,-39.551,-21.973,-17.090,-31.738,0.000
1727710507.030,-50.293,-20.996,-19.531,-22.949,0.000
1727710507.034,-28.809,-22.461,-25.879,-19.043,0.000
1727710507.038,-12.207,-22.461,-32.227,-25.391,0.000
1727710507.041,-19.043,-24.414,-23.438,-25.391,0.000
1727710507.045,-33.691,-20.508,-22.949,-22.949,0.000
1727710507.049,-43.945,-16.113,-31.738,-28.809,0.000
1727710507.053,-25.879,-14.648,-36.621,-23.438,0.000
1727710507.057,-0.488,-17.578,-32.227,-13.184,0.000
1727710507.061,-2.930,-21.973,-18.066,-11.230,0.000
1727710507.065,-12.695,-22.461,-6.348,-13.184,0.000
1727710507.069,0.000,-20.020,-6.348,-19.531,0.000
1727710507.073,0.000,-19.531,-8.301,-14.160,0.000
1727710507.077,0.000,-19.531,-9.766,-5.859,0.000
1727710507.081,0.000,-16.113,-17.578,-16.602,0.000
1727710507.084,0.000,-16.113,-20.508,-27.344,0.000
1727710507.088,0.000,-19.043,-18.066,-27.344,0.000
1727710507.092,0.000,-21.484,-19.043,-27.832,0.000
1727710507.096,0.000,-23.926,-21.973,-35.156,0.000
1727710507.100,0.000,-19.531,-25.391,-25.391,0.000
1727710507.104,0.000,-20.508,-29.297,-21.973,0.000
1727710507.108,0.000,-24.902,-24.902,-23.438,0.000
1727710507.112,0.000,-27.832,-15.137,-23.438,0.000
1727710507.116,-21.484,-30.762,-14.160,-27.344,0.000
1727710507.120,-23.926,-28.320,-13.184,-32.227,0.000
1727710507.123,-9.277,-21.973,-17.578,-38.086,0.000
1727710507.127,-6.836,-19.531,-28.320,-41.016,0.000
1727710507.131,-22.949,-21.973,-28.809,-48.340,0.000
1727710507.135,-37.109,-23.438,-28.320,-44.922,0.000
1727710507.139,-29.785,-25.391,-27.832,-36.621,0.000
1727710507.143,-17.090,-32.715,-28.320,-39.551,0.000
1727710507.147,-9.766,-40.039,-29.297,-33.203,0.000
1727710507.151,-27.832,-40.039,-22.461,-20.020,0.000
1727710507.155,-46.875,-33.691,-30.273,-32.715,0.000
1727710507.159,-35.645,-32.715,-35.156,-55.664,0.000
1727710507.163,-46.387,-28.320,-23.438,-49.316,0.000
1727710507.166,-54.199,-21.484,-20.996,-43.457,0.000
1727710507.170,-54.199,-24.902,-20.996,-40.527,0.000
1727710507.174,-34.668,-26.367,-15.625,-42.969,0.000
1727710507.178,-27.832,-26.855,-20.508,-39.551,0.000
1727710507.182,-33.203,-29.297,-28.320,-35.645,0.000
1727710507.186,-42.969,-28.320,-29.785,-47.363,0.000
1727710507.190,-53.711,-26.367,-28.320,-46.387,0.000
1727710507.194,-33.691,-20.996,-22.949,-32.715,0.000
1727710507.198,-10.742,-20.020,-23.926,-31.250,0.000
1727710507.202,-18.555,-21.484,-25.391,-37.598,0.000
1727710507.205,-34.180,-21.973,-24.414,-39.062,0.000
1727710507.209,-47.363,-24.414,-30.273,-34.668,0.000
1727710507.213,-31.250,-23.438,-36.133,-32.227,0.000
1727710507.217,-3.418,-26.855,-32.715,-26.367,0.000
1727710507.221,-4.395,-27.832,-32.715,-20.020,0.000
1727710507.225,-33.691,-28.320,-36.133,-29.297,0.000
1727710507.229,-45.898,-30.762,-34.668,-40.527,0.000
1727710507.233,-28.809,-26.855,-37.109,-36.133,0.000
1727710507.237,-2.930,-26.855,-30.273,-15.137,0.000
1727710507.241,-0.488,-28.809,-16.113,-6.348,0.000
1727710507.245,-21.973,-28.809,-10.742,-19.043,0.000
1727710507.248,-41.504,-27.832,-14.648,-17.578,0.000
1727710507.252,-26.367,-29.785,-26.367,-14.648,0.000
1727710507.256,-7.812,-28.809,-25.879,-11.230,0.000
1727710507.260,-15.625,-28.320,-23.438,-9.766,0.000
1727710507.264,-30.273,-36.133,-17.578,-22.461,0.000
1727710507.268,-39.551,-34.180,-15.625,-19.043,0.000
1727710507.272,-29.785,-32.227,-26.367,-17.090,0.000
1727710507.276,-5.371,-30.762,-32.227,-13.184,0.000
1727710507.280,2.930,-26.367,-27.832,-0.488,0.000
1727710507.284,-12.695,-23.438,-25.391,-2.441,0.000
1727710507.288,-31.738,-22.949,-23.926,-8.301,0.000
1727710507.291,-30.762,-25.879,-13.672,-6.836,0.000
1727710507.295,-13.184,-27.344,-26.367,-10.742,0.000
1727710507.299,-0.488,-21.484,-41.992,-14.648,0.000
1727710507.303,-7.812,-16.602,-27.344,-18.066,0.000
1727710507.307,-36.133,-19.531,-14.160,-23.926,0.000
1727710507.311,-42.480,-20.996,-16.602,-24.902,0.000
1727710507.315,-21.973,-15.625,-20.020,-29.785,0.000
1727710507.319,-18.555,-19.043,-25.391,-37.598,0.000
1727710507.323,-24.902,-24.414,-34.668,-44.922,0.000
1727710507.327,-48.828,-19.531,-35.645,-40.039,0.000
1727710507.330,-52.246,-23.438,-31.738,-33.203,0.000
1727710507.334,-31.738,-28.809,-33.691,-37.109,0.000
1727710507.338,-31.250,-23.926,-35.156,-36.133,0.000
1727710507.342,-31.738,-24.414,-35.645,-41.992,0.000
1727710507.346,-44.922,-26.367,-35.156,-45.898,0.000
1727710507.350,0.000,-24.414,-35.156,-43.945,0.000
1727710507.354,0.000,-22.949,-35.156,-42.969,0.000
1727710507.358,0.000,-22.949,-40.527,-36.133,0.000
1727710507.362,0.000,-26.367,-49.805,-37.109,0.000
1727710507.366,0.000,-24.414,-49.805,-41.016,0.000
1727710507.370,0.000,-20.020,-42.969,-31.738,0.000
1727710507.373,0.000,-18.555,-40.039,-24.414,0.000
1727710507.377,0.000,-20.020,-41.016,-26.367,0.000
1727710507.381,0.000,-21.484,-32.715,-27.832,0.000
1727710507.385,0.000,-23.926,-24.902,-35.156,0.000
1727710507.389,0.000,-23.926,-28.809,-30.762,0.000
1727710507.393,0.000,-22.461,-29.785,-16.113,0.000
1727710507.397,-13.672,-25.879,-28.320,-12.695,0.000
1727710507.401,-8.789,-18.066,-28.320,-15.625,0.000
1727710507.405,-12.695,-12.207,-30.762,-15.137,0.000
1727710507.409,-28.809,-18.555,-42.480,-14.648,0.000
1727710507.413,-18.555,-18.066,-48.828,-15.625,0.000
1727710507.416,5.859,-17.578,-46.387,3.906,0.000
1727710507.420,6.348,-21.484,-45.410,3.906,0.000
1727710507.424,-14.648,-25.391,-46.387,-10.254,0.000
1727710507.428,-35.156,-25.391,-44.922,-13.184,0.000
1727710507.432,-23.438,-19.531,-47.363,-16.602,0.000
1727710507.436,-10.254,-20.508,-48.828,-12.207,0.000
1727710507.440,-5.859,-26.367,-42.480,-10.254,0.000
1727710507.444,-9.277,-23.926,-33.691,-2.441,0.000
1727710507.448,-27.832,-21.484,-39.062,-8.301,0.000
1727710507.452,-21.973,-21.973,-42.969,-16.113,0.000
1727710507.456,-3.906,-20.996,-41.016,-2.930,0.000
1727710507.459,-3.906,-29.297,-41.504,-6.348,0.000
1727710507.463,-9.766,-30.762,-41.992,-4.883,0.000
1727710507.467,-22.949,-22.949,-48.340,-9.766,0.000
1727710507.471,-26.367,-27.344,-46.875,-21.973,0.000
1727710507.475,-9.766,-25.879,-39.062,-12.695,0.000
1727710507.479,6.836,-20.020,-33.203,1.953,0.000
1727710507.483,-2.441,-17.090,-38.086,-11.719,0.000
1727710507.487,-25.391,-17.090,-41.504,-22.949,0.000
1727710507.491,-22.461,-19.043,-41.016,-9.766,0.000
1727710507.495,-4.883,-24.902,-39.062,-7.324,0.000
1727710507.498,-1.953,-28.320,-42.480,-13.184,0.000
1727710507.502,-12.207,-21.973,-47.363,-22.949,0.000
1727710507.506,-29.785,-25.879,-48.340,-26.855,0.000
1727710507.510,-32.715,-25.391,-52.734,-14.648,0.000
1727710507.514,-7.812,-21.484,-55.176,-11.230,0.000
1727710507.518,-1.465,-25.879,-54.688,-20.508,0.000
1727710507.522,-7.812,-25.879,-50.293,-6.836,0.000
1727710507.526,-24.414,-19.043,-45.898,-9.766,0.000
1727710507.530,-37.109,-22.461,-47.363,-21.973,0.000
1727710507.534,-20.508,-33.203,-47.363,-11.719,0.000
1727710507.538,-12.207,-36.621,-43.945,-16.602,0.000
1727710507.541,-15.137,-35.156,-42.480,-15.625,0.000
1727710507.545,-26.367,-30.762,-48.340,-6.836,0.000
1727710507.549,-22.949,-28.809,-54.199,4.395,0.000
1727710507.553,-2.930,-31.250,-51.270,4.395,0.000
1727710507.557,-2.930,-33.691,-50.293,-12.695,0.000
1727710507.561,-4.883,-33.203,-54.688,-7.812,0.000
1727710507.565,-0.977,-34.180,-48.828,6.348,0.000
1727710507.569,-15.625,-36.133,-44.434,9.277,0.000
1727710507.573,-5.371,-39.551,-46.387,3.418,0.000
1727710507.577,20.508,-34.180,-43.457,-5.859,0.000
1727710507.581,14.160,-32.227,-44.922,-5.371,0.000
1727710507.584,-4.395,-35.645,-51.758,1.953,0.000
1727710507.588,-25.879,-32.715,-54.199,-10.254,0.000
1727710507.592,-15.625,-33.203,-46.387,-11.719,0.000
1727710507.596,12.207,-32.227,-42.480,-0.977,0.000
1727710507.600,11.719,-25.879,-43.457,-2.441,0.000
1727710507.604,0.000,-20.508,-44.434,-0.488,0.000
1727710507.608,-12.695,-22.461,-42.480,0.977,0.000
1727710507.612,-16.113,-27.344,-40.039,-2.930,0.000
1727710507.616,1.465,-30.273,-38.086,3.418,0.000
1727710507.620,9.766,-29.785,-40.527,8.789,0.000
1727710507.623,3.906,-29.297,-53.223,6.836,0.000
1727710507.627,-10.254,-30.273,-56.641,-4.395,0.000
1727710507.631,-10.254,-27.832,-31.738,-10.254,0.000
1727710507.635,5.859,-26.367,-14.160,-6.348,0.000
1727710507.639,15.625,-26.855,-19.531,-3.418,0.000
1727710507.643,13.672,-27.344,-25.879,-10.254,0.000
1727710507.647,-9.766,-30.762,-27.344,-11.230,0.000
1727710507.651,-15.137,-31.250,-27.832,-8.789,0.000
1727710507.655,7.324,-36.133,-34.180,-11.230,0.000
1727710507.659,12.695,-41.992,-42.480,-6.348,0.000
1727710507.663,6.348,-40.039,-41.016,-0.977,0.000
1727710507.666,-13.184,-38.086,-41.016,-0.977,0.000
1727710507.670,-12.207,-39.551,-44.434,-4.395,0.000
1727710507.674,7.324,-38.574,-41.992,-0.488,0.000
1727710507.678,0.000,-37.598,-43.457,-1.953,0.000
1727710507.682,0.000,-38.574,-44.922,-2.930,0.000
1727710507.686,0.000,-35.645,-41.992,-0.488,0.000
1727710507.690,0.000,-38.574,-42.969,-0.488,0.000
1727710507.694,0.000,-41.992,-41.992,4.883,0.000
1727710507.698,0.000,-43.457,-45.410,11.719,0.000
1727710507.702,0.000,-45.410,-48.828,17.090,0.000
1727710507.706,0.000,-43.457,-48.828,5.371,0.000
1727710507.709,0.000,-43.457,-48.828,-2.930,0.000
1727710507.713,0.000,-49.805,-51.758,3.906,0.000
1727710507.717,0.000,-53.711,-50.293,4.395,0.000
1727710507.721,0.000,-52.734,-51.758,3.906,0.000
1727710507.725,-6.836,-51.270,-50.293,8.301,0.000
1727710507.729,-13.184,-50.293,-44.434,13.184,0.000
1727710507.733,3.906,-46.387,-50.293,9.277,0.000
1727710507.737,21.484,-48.340,-50.781,10.742,0.000
1727710507.741,23.926,-54.199,-44.922,22.461,0.000
1727710507.745,6.348,-50.781,-45.898,16.113,0.000
1727710507.748,-10.742,-47.852,-49.316,13.672,0.000
1727710507.752,2.930,-51.758,-50.293,5.371,0.000
1727710507.756,22.461,-54.199,-54.199,0.977,0.000
1727710507.760,20.996,-56.152,-52.246,13.184,0.000
1727710507.764,6.348,-59.570,-52.734,13.184,0.000
1727710507.768,-4.883,-61.523,-59.082,10.254,0.000
1727710507.772,-2.441,-57.617,-56.641,13.672,0.000
1727710507.776,18.555,-52.246,-51.758,19.531,0.000
1727710507.780,30.273,-51.270,-51.270,14.648,0.000
1727710507.784,15.137,-52.246,-45.410,9.766,0.000
1727710507.788,-2.441,-51.758,-46.875,14.160,0.000
1727710507.791,2.930,-56.641,-56.152,9.766,0.000
1727710507.795,26.855,-56.152,-54.199,15.625,0.000
1727710507.799,33.691,-53.223,-50.781,23.438,0.000
1727710507.803,14.648,-53.223,-46.387,20.020,0.000
1727710507.807,4.883,-52.246,-45.410,26.855,0.000
1727710507.811,9.277,-51.270,-52.246,22.461,0.000
1727710507.815,25.879,-58.105,-54.688,11.719,0.000
1727710507.819,0.000,-58.105,-55.664,17.090,0.000
1727710507.823,0.000,-56.641,-61.523,15.625,0.000
1727710507.827,0.000,-60.059,-63.477,11.230,0.000
1727710507.831,0.000,-59.082,-53.711,16.113,0.000
1727710507.834,0.000,-61.035,-50.781,31.250,0.000
1727710507.838,0.000,-64.941,-56.641,26.367,0.000
1727710507.842,0.000,-65.430,-58.105,21.973,0.000
1727710507.846,0.000,-64.453,-62.012,20.996,0.000
1727710507.850,0.000,-67.871,-66.406,18.066,0.000
1727710507.854,0.000,-62.012,-66.895,32.715,0.000
1727710507.858,0.000,-57.129,-68.359,30.762,0.000
1727710507.862,0.000,-58.105,-66.895,18.066,0.000
1727710507.866,1.953,-59.082,-65.918,9.277,0.000
1727710507.870,-8.301,-64.453,-77.637,4.883,0.000
1727710507.874,14.160,-70.312,-80.566,10.254,0.000
1727710507.877,32.715,-68.359,-74.707,11.719,0.000
1727710507.881,22.461,-65.918,-75.195,2.441,0.000
1727710507.885,-18.555,-70.801,-73.242,-5.371,0.000
1727710507.889,-21.973,-69.336,-72.754,3.418,0.000
1727710507.893,10.254,-66.406,-74.219,8.789,0.000
1727710507.897,24.414,-62.988,-67.871,27.832,0.000
1727710507.901,19.531,-63.965,-61.523,30.273,0.000
1727710507.905,-0.977,-67.871,-62.500,8.301,0.000
1727710507.909,-7.812,-67.871,-62.012,12.207,0.000
1727710507.913,0.000,-66.895,-61.523,14.648,0.000
1727710507.917,0.000,-66.406,-66.895,17.090,0.000
1727710507.920,0.000,-64.453,-69.336,20.508,0.000
1727710507.924,0.000,-63.477,-63.965,20.996,0.000
1727710507.928,0.000,-60.547,-60.547,18.555,0.000
1727710507.932,0.000,-61.035,-64.453,16.113,0.000
1727710507.936,0.000,-65.918,-63.965,15.625,0.000
1727710507.940,0.000,-61.035,-67.383,21.484,0.000
1727710507.944,0.000,-57.617,-64.453,24.414,0.000
1727710507.948,0.000,-58.105,-58.105,12.695,0.000
1727710507.952,0.000,-52.246,-58.105,17.090,0.000
1727710507.956,0.000,-49.805,-54.688,26.367,0.000
1727710507.959,40.039,-51.758,-49.316,22.949,0.000
1727710507.963,22.461,-54.199,-50.781,25.879,0.000
1727710507.967,12.695,-54.688,-56.152,26.367,0.000
1727710507.971,24.902,-50.293,-55.176,17.578,0.000
1727710507.975,37.109,-45.898,-55.176,14.160,0.000
1727710507.979,38.086,-47.852,-60.547,14.648,0.000
1727710507.983,26.367,-48.340,-66.895,20.996,0.000
1727710507.987,19.531,-43.945,-65.430,32.227,0.000
1727710507.991,25.879,-41.992,-65.430,33.691,0.000
1727710507.995,33.691,-44.922,-63.965,32.227,0.000
1727710507.999,31.250,-46.387,-56.152,26.855,0.000
1727710508.002,32.227,-43.945,-61.523,15.137,0.000
1727710508.006,13.672,-42.480,-65.918,9.766,0.000
1727710508.010,9.277,-45.898,-57.617,13.672,0.000
1727710508.014,21.973,-50.781,-56.641,9.277,0.000
1727710508.018,27.344,-51.758,-64.941,17.578,0.000
1727710508.022,35.156,-44.922,-62.012,24.902,0.000
1727710508.026,16.113,-43.945,-60.059,18.066,0.000
1727710508.030,12.207,-49.805,-62.500,29.297,0.000
1727710508.034,32.715,-49.316,-59.082,35.645,0.000
1727710508.038,31.738,-50.781,-58.105,20.508,0.000
1727710508.041,21.973,-52.734,-57.129,8.301,0.000
1727710508.045,-4.395,-52.246,-58.105,-2.441,0.000
1727710508.049,-18.066,-53.223,-56.641,-7.812,0.000
1727710508.053,3.906,-52.246,-63.477,-6.836,0.000
1727710508.057,28.809,-47.852,-67.871,5.371,0.000
1727710508.061,28.320,-53.223,-62.988,9.766,0.000
1727710508.065,7.324,-53.711,-60.547,-1.953,0.000
1727710508.069,1.465,-48.340,-55.664,-1.953,0.000
1727710508.073,21.973,-49.805,-62.988,20.020,0.000
1727710508.077,19.531,-59.570,-51.758,2.441,0.000
1727710508.081,24.414,-59.570,-48.828,-22.949,0.000
1727710508.084,38.086,-48.828,-71.777,-2.930,0.000
1727710508.088,2.930,-62.500,-46.387,16.113,0.000
1727710508.092,-1.953,-67.871,-31.250,23.438,0.000
1727710508.096,22.461,-54.199,-45.410,14.160,0.000
1727710508.100,32.715,-52.246,-43.945,5.859,0.000
1727710508.104,-2.441,-53.711,-45.898,-20.996,0.000
1727710508.108,-47.363,-56.641,-21.484,-29.297,0.000
1727710508.112,32.715,-34.668,-35.645,42.969,0.000
1727710508.116,107.910,-22.949,-64.453,69.336,0.000
1727710508.120,74.707,-41.016,-61.035,48.340,0.000
1727710508.124,8.789,-53.223,-49.805,50.293,0.000
1727710508.127,-43.457,-64.453,-11.719,31.738,0.000
1727710508.131,-15.625,-65.918,-14.160,-4.395,0.000
1727710508.135,62.012,-42.480,-70.801,37.598,0.000
1727710508.139,60.547,-36.621,-85.449,66.406,0.000
1727710508.143,21.973,-45.898,-92.773,26.855,0.000
1727710508.147,30.762,-33.691,-111.816,21.484,0.000
1727710508.151,28.320,-47.363,-87.891,0.977,0.000
1727710508.155,2.930,-68.848,-108.887,-10.254,0.000
1727710508.159,30.273,-41.504,-193.848,27.832,0.000
1727710508.163,10.742,-43.457,-245.605,-4.883,0.000
1727710508.167,-21.484,-64.453,-318.359,-25.391,0.000
1727710508.170,-17.090,-65.430,-378.906,-26.855,0.000
1727710508.174,-36.621,-76.172,-449.219,-62.012,0.000
1727710508.178,-1.465,-52.246,-549.316,0.000,0.000
1727710508.182,9.277,-38.574,-550.293,21.973,0.000
1727710508.186,-25.879,-52.734,-518.555,-46.875,0.000
1727710508.190,-46.875,-64.453,-488.770,-79.102,0.000
1727710508.194,-2.930,-54.688,-499.512,-37.598,0.000
1727710508.198,18.555,-58.594,-486.816,5.371,0.000
1727710508.202,-11.230,-70.801,-494.629,-1.465,0.000
1727710508.206,-35.156,-69.824,-558.594,-26.367,0.000
1727710508.209,-52.246,-79.590,-547.852,-33.203,0.000
1727710508.213,-5.859,-64.941,-561.523,0.000,0.000
1727710508.217,5.859,-57.129,-609.375,-7.812,0.000
1727710508.221,-27.832,-72.266,-650.391,-63.965,0.000
1727710508.225,-31.250,-66.406,-696.777,-33.691,0.000
1727710508.229,-12.207,-46.387,-740.234,0.977,0.000
1727710508.233,-8.301,-57.617,-740.723,-32.227,0.000
1727710508.237,-8.789,-64.941,-746.582,-23.926,0.000
1727710508.241,-15.625,-58.105,-788.086,-15.137,0.000
1727710508.245,-31.250,-55.664,-800.781,-23.438,0.000
1727710508.249,-41.992,-55.176,-803.711,-11.719,0.000
1727710508.252,-37.109,-56.641,-795.410,5.859,0.000
1727710508.256,-18.066,-59.570,-770.996,-15.625,0.000
1727710508.260,-35.156,-63.477,-753.418,-56.641,0.000
1727710508.264,-40.039,-56.152,-750.977,-46.387,0.000
1727710508.268,-18.066,-48.340,-736.816,-21.484,0.000
1727710508.272,-30.762,-59.082,-688.477,-9.766,0.000
1727710508.276,-20.996,-54.688,-653.809,9.766,0.000
1727710508.280,5.859,-43.945,-637.695,36.621,0.000
1727710508.284,-19.531,-51.270,-599.121,17.578,0.000
1727710508.288,-45.410,-50.781,-565.430,-2.930,0.000
1727710508.292,-43.457,-62.500,-517.578,-35.645,0.000
1727710508.295,-9.766,-53.711,-501.465,-35.645,0.000
1727710508.299,17.578,-32.227,-501.953,-15.625,0.000
1727710508.303,2.441,-35.156,-453.125,-14.648,0.000
1727710508.307,-19.043,-33.203,-418.945,3.418,0.000
1727710508.311,-24.902,-36.621,-395.996,-0.488,0.000
1727710508.315,2.441,-40.527,-362.305,15.137,0.000
1727710508.319,20.020,-36.621,-336.426,39.062,0.000
1727710508.323,10.254,-39.551,-312.500,19.043,0.000
1727710508.327,-6.348,-35.156,-285.156,4.395,0.000
1727710508.331,-4.395,-28.320,-255.859,-0.488,0.000
1727710508.335,20.996,-23.926,-221.680,-5.371,0.000
1727710508.338,37.598,-18.066,-164.551,10.254,0.000
1727710508.342,12.207,-19.043,-93.750,20.020,0.000
1727710508.346,-14.648,-21.484,-4.883,19.531,0.000
1727710508.350,7.812,-17.090,95.215,16.602,0.000
1727710508.354,23.438,-15.137,208.496,5.859,0.000
1727710508.358,21.484,-18.555,324.707,11.719,0.000
1727710508.362,17.578,-19.531,377.930,26.367,0.000
1727710508.366,-0.488,-17.578,386.230,23.438,0.000
1727710508.370,8.789,-15.137,426.758,27.832,0.000
1727710508.374,37.598,-15.137,537.109,37.109,0.000
1727710508.377,43.457,-10.742,659.180,30.762,0.000
1727710508.381,28.320,-12.695,706.543,21.973,0.000
1727710508.385,0.977,-14.648,672.852,15.625,0.000
1727710508.389,0.488,-7.812,655.762,11.230,0.000
1727710508.393,22.949,-7.812,665.527,13.672,0.000
1727710508.397,27.344,-9.277,614.746,17.578,0.000
1727710508.401,20.020,-9.277,562.988,14.160,0.000
1727710508.405,4.395,-15.625,567.871,9.277,0.000
1727710508.409,-6.836,-19.531,570.801,-6.348,0.000
1727710508.413,10.254,-20.020,560.547,-9.277,0.000
1727710508.417,32.227,-15.625,551.758,4.883,0.000
1727710508.420,37.109,-8.789,502.930,12.695,0.000
1727710508.424,15.625,-4.395,460.449,0.488,0.000
1727710508.428,-10.742,-4.395,458.984,-4.395,0.000
1727710508.432,6.348,-8.789,474.609,12.207,0.000
1727710508.436,36.133,-5.859,468.262,18.066,0.000
1727710508.440,44.434,-1.953,437.012,26.367,0.000
1727710508.444,25.879,-2.930,406.738,24.902,0.000
1727710508.448,4.395,-2.930,382.324,5.371,0.000
1727710508.452,12.695,-2.441,367.188,0.488,0.000
1727710508.456,27.344,-3.418,379.395,-2.930,0.000
1727710508.459,30.762,-6.836,388.672,3.418,0.000
1727710508.463,13.672,-3.906,364.258,6.348,0.000
1727710508.467,-12.695,-5.371,315.430,-8.789,0.000
1727710508.471,3.418,-10.742,318.359,-8.301,0.000
1727710508.475,20.508,-10.254,361.328,-1.465,0.000
1727710508.479,8.789,-11.230,356.934,0.000,0.000
1727710508.483,-3.418,-6.836,328.613,1.953,0.000
1727710508.487,-11.230,-6.836,299.316,-4.395,0.000
1727710508.491,-3.906,-13.184,286.621,-3.906,0.000
1727710508.495,15.625,-13.184,269.043,2.441,0.000
1727710508.499,22.949,-8.789,258.789,8.789,0.000
1727710508.502,12.695,-2.441,251.465,10.254,0.000
1727710508.506,-9.277,-4.395,245.117,-0.977,0.000
1727710508.510,0.977,-9.277,241.699,-2.441,0.000
1727710508.514,22.949,-6.836,227.539,8.789,0.000
1727710508.518,14.648,-9.277,219.238,-0.977,0.000
1727710508.522,2.930,-13.672,216.309,-3.906,0.000
1727710508.526,-5.371,-12.207,213.867,5.371,0.000
1727710508.530,-7.812,-7.812,196.289,8.789,0.000
1727710508.534,10.742,-10.254,195.312,11.230,0.000
1727710508.538,11.719,-14.648,199.707,8.301,0.000
1727710508.542,-0.488,-10.742,185.547,4.395,0.000
1727710508.545,-10.254,-12.695,175.293,7.324,0.000
1727710508.549,-6.836,-15.137,159.180,-0.977,0.000
1727710508.553,7.812,-13.184,144.531,-5.859,0.000
1727710508.557,-4.395,-14.160,139.160,-3.906,0.000
1727710508.561,-16.113,-14.160,137.207,-7.324,0.000
1727710508.565,-26.855,-12.207,140.625,-9.277,0.000
1727710508.569,-23.926,-8.789,127.441,-4.395,0.000
1727710508.573,-4.883,-10.254,120.117,4.395,0.000
1727710508.577,13.672,-11.719,108.398,3.418,0.000
1727710508.581,10.742,-8.301,97.168,1.953,0.000
1727710508.585,-19.043,-12.207,98.145,-10.742,0.000
1727710508.588,-21.484,-15.625,95.703,-16.113,0.000
1727710508.592,7.324,-12.207,99.609,-1.953,0.000
1727710508.596,14.160,-3.418,91.797,-9.766,0.000
1727710508.600,6.348,-6.348,75.684,-3.418,0.000
1727710508.604,-8.789,-12.207,70.312,-0.977,0.000
1727710508.608,-15.137,-12.207,74.219,-6.836,0.000
1727710508.612,8.301,-14.160,75.195,-2.930,0.000
1727710508.616,0.000,-12.207,67.383,-0.488,0.000
1727710508.620,0.000,-11.230,55.664,-7.324,0.000
1727710508.624,0.000,-4.883,44.434,-13.672,0.000
1727710508.628,0.000,-4.883,49.316,-6.348,0.000
1727710508.631,0.000,-10.742,54.199,-3.906,0.000
1727710508.635,0.000,-4.395,50.293,-7.324,0.000
1727710508.639,0.000,-5.371,48.828,-16.113,0.000
1727710508.643,0.000,-13.184,42.480,-25.391,0.000
1727710508.647,0.000,-11.719,32.715,-13.672,0.000
1727710508.651,0.000,-9.277,35.156,-6.348,0.000
1727710508.655,0.000,-7.324,40.039,-11.230,0.000
1727710508.659,0.000,-5.371,38.574,-11.230,0.000
1727710508.663,-15.625,-12.695,35.156,-16.602,0.000
1727710508.667,-37.109,-14.648,29.297,-21.484,0.000
1727710508.670,-19.043,-12.207,24.414,-25.391,0.000
1727710508.674,-0.488,-12.207,20.996,-26.855,0.000
1727710508.678,-6.836,-15.137,22.461,-21.973,0.000
1727710508.682,-22.949,-20.020,20.508,-25.391,0.000
1727710508.686,-45.898,-18.555,10.742,-30.273,0.000
1727710508.690,-28.809,-17.090,-3.906,-20.996,0.000
1727710508.694,-1.465,-20.996,-8.789,-18.555,0.000
1727710508.698,-5.859,-21.484,7.812,-30.273,0.000
1727710508.702,-21.973,-23.926,32.227,-32.227,0.000
1727710508.706,-40.527,-27.832,43.945,-24.414,0.000
1727710508.710,-34.668,-25.879,38.574,-23.438,0.000
1727710508.713,-15.137,-24.414,27.832,-19.043,0.000
1727710508.717,-6.348,-22.461,20.020,-16.602,0.000
1727710508.721,-13.672,-25.391,16.602,-25.391,0.000
1727710508.725,-32.227,-20.020,16.113,-23.438,0.000
1727710508.729,-27.832,-15.625,12.207,-17.578,0.000
1727710508.733,0.488,-11.719,7.812,-11.230,0.000
1727710508.737,1.465,-13.184,19.043,-11.719,0.000
1727710508.741,-12.695,-17.090,26.367,-15.625,0.000
1727710508.745,-34.668,-13.672,21.484,-26.367,0.000
1727710508.749,-35.156,-18.066,19.043,-32.227,0.000
1727710508.752,0.000,-14.648,15.137,-14.648,0.000
1727710508.756,11.230,-12.695,5.859,-6.836,0.000
1727710508.760,-3.418,-15.625,0.488,-13.672,0.000
1727710508.764,-26.367,-18.066,9.766,-17.578,0.000
1727710508.768,-31.250,-18.066,14.648,-13.672,0.000
1727710508.772,-5.859,-15.137,11.719,-13.672,0.000
1727710508.776,5.859,-15.625,23.926,-14.648,0.000
1727710508.780,-9.766,-19.043,24.902,-10.742,0.000
1727710508.784,-34.180,-18.066,11.230,-8.789,0.000
1727710508.788,-39.062,-18.066,9.277,-15.137,0.000
1727710508.792,-21.973,-21.484,13.672,-22.949,0.000
1727710508.795,-12.695,-20.996,19.531,-20.020,0.000
1727710508.799,-16.113,-19.531,15.137,-25.879,0.000
1727710508.803,-30.762,-18.555,-0.977,-30.762,0.000
1727710508.807,-39.062,-20.508,1.465,-19.531,0.000
1727710508.811,-35.156,-28.320,15.137,-24.414,0.000
1727710508.815,-23.926,-30.762,27.344,-32.715,0.000
1727710508.819,-29.297,-28.809,26.855,-36.621,0.000
1727710508.823,-47.363,-30.273,20.020,-42.480,0.000
1727710508.827,-60.547,-24.902,16.113,-46.875,0.000
1727710508.831,-55.176,-20.508,14.160,-51.270,0.000
1727710508.835,-41.016,-20.020,11.719,-57.129,0.000
1727710508.838,-41.992,-20.508,6.348,-56.152,0.000
1727710508.842,-46.875,-20.020,6.348,-58.105,0.000
1727710508.846,-52.246,-15.625,6.836,-61.523,0.000
1727710508.850,-29.297,-15.625,7.812,-45.410,0.000
1727710508.854,-4.395,-16.602,11.230,-23.926,0.000
1727710508.858,2.441,-18.066,3.418,-25.879,0.000
1727710508.862,-14.648,-15.137,-11.719,-37.598,0.000
1727710508.866,-62.988,-17.578,-11.230,-57.129,0.000
1727710508.870,-62.500,-20.996,2.930,-51.758,0.000
1727710508.874,-34.180,-24.414,5.371,-21.484,0.000
1727710508.877,-31.738,-25.879,-8.301,-24.414,0.000
1727710508.881,-41.016,-26.855,0.488,-41.504,0.000
1727710508.885,-49.316,-31.738,26.367,-41.504,0.000
1727710508.889,-32.715,-27.832,26.855,-36.133,0.000
1727710508.893,-15.625,-20.508,29.297,-29.785,0.000
1727710508.897,-16.602,-22.461,47.363,-37.109,0.000
1727710508.901,-22.461,-21.973,54.688,-33.203,0.000
1727710508.905,-45.898,-17.578,55.664,-32.715,0.000
1727710508.909,-43.457,-15.137,50.781,-38.574,0.000
1727710508.913,-8.789,-11.230,39.062,-31.738,0.000
1727710508.917,0.977,-11.230,31.250,-24.902,0.000
1727710508.920,-21.484,-17.090,41.016,-29.297,0.000
1727710508.924,-47.852,-16.113,46.875,-33.203,0.000
1727710508.928,-35.156,-14.160,32.227,-32.227,0.000
1727710508.932,-5.371,-14.648,30.273,-21.973,0.000
1727710508.936,-1.465,-16.602,39.062,-22.461,0.000
1727710508.940,-17.578,-23.926,39.551,-41.016,0.000
1727710508.944,-43.457,-21.973,33.691,-47.363,0.000
1727710508.948,-44.922,-19.043,22.461,-41.992,0.000
1727710508.952,-30.762,-21.484,18.555,-40.527,0.000
1727710508.956,-26.855,-20.996,18.066,-41.016,0.000
1727710508.960,-31.738,-17.578,17.090,-43.457,0.000
1727710508.963,-50.781,-21.973,6.836,-45.410,0.000
1727710508.967,-63.477,-22.949,11.719,-49.316,0.000
1727710508.971,-46.387,-19.043,11.230,-46.875,0.000
1727710508.975,-35.645,-18.555,-8.789,-31.738,0.000
1727710508.979,-41.016,-19.531,8.301,-25.879,0.000
1727710508.983,-41.016,-20.996,19.043,-28.320,0.000
1727710508.987,-44.434,-21.484,7.812,-29.785,0.000
1727710508.991,-32.227,-20.996,-5.371,-34.668,0.000
1727710508.995,-22.949,-18.555,6.348,-36.621,0.000
1727710508.999,-34.668,-24.414,33.691,-42.480,0.000
1727710509.003,-45.410,-22.949,33.203,-47.363,0.000
1727710509.006,-52.246,-22.461,19.531,-48.340,0.000
1727710509.010,-38.574,-19.531,10.254,-46.875,0.000
1727710509.014,-26.855,-14.648,17.578,-45.898,0.000
1727710509.018,-32.715,-26.367,26.367,-40.039,0.000
1727710509.022,-31.250,-27.832,22.461,-26.367,0.000
1727710509.026,-40.039,-18.555,15.137,-33.203,0.000
1727710509.030,-39.551,-19.531,13.184,-43.457,0.000
1727710509.034,-28.320,-22.949,-0.488,-37.109,0.000
1727710509.038,-36.133,-23.438,-2.441,-46.387,0.000
1727710509.042,-48.340,-20.996,13.672,-48.828,0.000
1727710509.046,-49.805,-16.113,11.230,-37.109,0.000
1727710509.049,-34.180,-18.066,-1.953,-34.668,0.000
1727710509.053,-15.137,-20.508,2.930,-28.809,0.000
1727710509.057,-10.254,-19.043,11.719,-29.785,0.000
1727710509.061,-27.832,-16.113,0.977,-31.738,0.000
1727710509.065,-46.875,-17.578,-12.207,-35.156,0.000
1727710509.069,-41.504,-23.438,-2.930,-37.109,0.000
1727710509.073,-21.484,-20.020,2.930,-30.273,0.000
1727710509.077,-18.066,-9.766,-7.324,-29.297,0.000
1727710509.081,-31.250,-14.648,-11.230,-39.062,0.000
1727710509.085,-50.781,-22.461,-2.441,-42.969,0.000
1727710509.089,-50.293,-20.508,-1.953,-47.363,0.000
1727710509.092,-27.344,-15.625,4.395,-48.340,0.000
1727710509.096,-24.414,-22.461,21.484,-29.297,0.000
1727710509.100,-40.039,-26.367,30.762,-32.715,0.000
1727710509.104,-62.500,-20.508,25.879,-51.270,0.000
1727710509.108,-65.430,-15.625,19.043,-51.270,0.000
1727710509.112,-48.340,-12.207,18.066,-41.016,0.000
1727710509.116,-37.598,-10.742,15.137,-27.832,0.000
1727710509.120,-43.945,-12.695,-5.859,-46.387,0.000
1727710509.124,-62.012,-13.672,-10.742,-52.246,0.000
1727710509.128,-68.848,-18.555,0.000,-56.641,0.000
1727710509.131,-53.223,-26.367,2.441,-60.547,0.000
1727710509.135,-44.434,-23.926,10.254,-46.387,0.000
1727710509.139,-46.387,-20.996,14.160,-49.805,0.000
1727710509.143,-58.594,-21.973,7.812,-52.734,0.000
1727710509.147,-63.477,-20.020,-12.695,-55.176,0.000
1727710509.151,-31.738,-13.184,-24.414,-51.270,0.000
1727710509.155,-18.555,-13.672,-5.859,-42.969,0.000
1727710509.159,-25.391,-19.531,-6.836,-37.598,0.000
1727710509.163,-41.992,-19.531,-27.832,-44.434,0.000
1727710509.167,-50.293,-16.113,-17.578,-49.805,0.000
1727710509.171,-21.973,-14.648,10.254,-50.781,0.000
1727710509.174,-11.230,-17.090,20.020,-46.875,0.000
1727710509.178,-31.738,-23.438,13.184,-49.316,0.000
1727710509.182,-51.758,-17.578,6.348,-58.105,0.000
1727710509.186,-55.664,-10.254,-1.465,-49.316,0.000
1727710509.190,-36.133,-14.648,-1.465,-48.828,0.000
1727710509.194,-17.578,-15.137,-0.977,-54.199,0.000
1727710509.198,-18.066,-14.160,-17.578,-42.969,0.000
1727710509.202,-36.133,-8.301,-23.438,-33.203,0.000
1727710509.206,-46.387,-4.883,-1.953,-35.645,0.000
1727710509.210,-19.043,-7.812,14.648,-30.762,0.000
1727710509.213,13.184,-8.301,4.395,-5.371,0.000
1727710509.217,10.254,-10.742,-8.789,8.789,0.000
1727710509.221,-21.973,-10.254,-6.348,-23.926,0.000
1727710509.225,-49.805,-8.301,3.418,-41.992,0.000
1727710509.229,-50.293,-16.113,12.695,-29.785,0.000
1727710509.233,-35.645,-18.555,8.301,-41.992,0.000
1727710509.237,-29.785,-19.043,-4.395,-34.668,0.000
1727710509.241,-33.691,-22.461,-19.531,-30.273,0.000
1727710509.245,-49.316,-23.438,-11.719,-37.598,0.000
1727710509.249,-40.527,-24.414,-3.906,-27.344,0.000
1727710509.253,-27.344,-29.297,-13.184,-32.715,0.000
1727710509.256,-27.344,-29.297,-5.859,-38.574,0.000
1727710509.260,-31.250,-18.066,-4.883,-36.133,0.000
1727710509.264,-55.176,-14.160,-7.812,-40.527,0.000
1727710509.268,-55.664,-19.531,-4.395,-50.781,0.000
1727710509.272,-32.227,-25.391,-18.555,-59.570,0.000
1727710509.276,-28.320,-24.414,-19.043,-53.711,0.000
1727710509.280,-43.945,-22.461,-8.301,-34.668,0.000
1727710509.284,-57.129,-22.949,-6.348,-36.133,0.000
1727710509.288,-45.898,-25.879,-14.648,-43.945,0.000
1727710509.292,-23.926,-26.367,-17.578,-35.156,0.000
1727710509.296,-17.578,-21.973,-15.625,-38.574,0.000
1727710509.299,-32.227,-26.855,-21.484,-39.551,0.000
1727710509.303,-68.848,-28.320,-26.855,-42.480,0.000
1727710509.307,-66.406,-23.926,-26.367,-39.062,0.000
1727710509.311,-36.621,-18.555,-38.086,-29.297,0.000
1727710509.315,-36.133,-23.926,-31.250,-38.086,0.000
1727710509.319,-44.922,-33.691,-3.418,-41.504,0.000
1727710509.323,-63.477,-27.832,9.277,-59.082,0.000
1727710509.327,-69.824,-27.832,9.766,-53.223,0.000
1727710509.331,-63.477,-28.809,0.977,-49.805,0.000
1727710509.335,-60.547,-22.461,-9.766,-60.547,0.000
1727710509.339,-46.387,-22.949,-6.836,-52.246,0.000
1727710509.342,-56.152,-20.508,-8.301,-53.223,0.000
1727710509.346,-75.195,-18.555,-13.672,-73.242,0.000
1727710509.350,-77.637,-24.902,-10.254,-74.707,0.000
1727710509.354,-47.363,-27.344,-11.230,-27.832,0.000
1727710509.358,-10.254,-22.949,-21.484,-19.531,0.000
1727710509.362,-35.645,-20.996,-25.391,-49.316,0.000
1727710509.366,-72.266,-22.949,-22.949,-38.086,0.000
1727710509.370,-37.109,-20.020,-23.926,-32.227,0.000
1727710509.374,-2.441,-14.160,-22.949,-30.273,0.000
1727710509.378,-25.879,-19.043,-21.973,-30.273,0.000
1727710509.381,-53.223,-24.414,-22.461,-55.664,0.000
1727710509.385,-53.711,-21.484,-28.809,-56.152,0.000
1727710509.389,-29.785,-23.438,-35.645,-38.086,0.000
1727710509.393,-8.301,-20.020,-32.227,-17.578,0.000
1727710509.397,-24.902,-21.973,-20.020,-12.207,0.000
1727710509.401,-49.805,-28.320,-21.973,-24.414,0.000
1727710509.405,-56.152,-25.391,-14.648,-38.086,0.000
1727710509.409,-36.621,-22.949,-13.672,-41.016,0.000
1727710509.413,-18.066,-23.438,-34.668,-33.203,0.000
1727710509.417,-31.250,-23.438,-29.297,-26.367,0.000
1727710509.421,-34.180,-22.949,-27.832,-23.438,0.000
1727710509.424,-57.617,-19.531,-43.945,-36.133,0.000
1727710509.428,-56.152,-16.602,-52.246,-35.156,0.000
1727710509.432,-8.301,-19.043,-40.039,-23.438,0.000
1727710509.436,-24.414,-23.438,-16.602,-43.457,0.000
1727710509.440,-53.711,-22.949,-1.465,-48.828,0.000
1727710509.444,-72.754,-21.973,2.441,-35.645,0.000
1727710509.448,-69.824,-25.391,-10.254,-50.781,0.000
1727710509.452,-51.758,-22.949,-21.484,-64.453,0.000
1727710509.456,-42.480,-21.973,-20.508,-56.152,0.000
1727710509.460,-36.621,-19.043,-20.020,-52.246,0.000
1727710509.464,-55.176,-17.578,-26.367,-52.246,0.000
1727710509.467,-51.758,-17.090,-27.344,-49.316,0.000
1727710509.471,-41.992,-22.461,-34.668,-55.176,0.000
1727710509.475,-37.598,-19.531,-45.898,-51.758,0.000
1727710509.479,-32.227,-15.137,-48.340,-63.965,0.000
1727710509.483,-66.895,-18.066,-44.434,-71.289,0.000
1727710509.487,-69.336,-15.137,-46.875,-45.898,0.000
1727710509.491,-55.664,-18.066,-38.086,-45.898,0.000
1727710509.495,-59.570,-23.438,-13.672,-51.758,0.000
1727710509.499,-40.527,-22.949,-9.766,-44.922,0.000
1727710509.503,-37.598,-19.531,-21.484,-52.246,0.000
1727710509.507,0.000,-19.531,-29.785,-54.688,0.000
1727710509.510,0.000,-23.926,-24.902,-48.340,0.000
1727710509.514,0.000,-26.855,-18.066,-41.992,0.000
1727710509.518,0.000,-25.391,-22.949,-35.156,0.000
1727710509.522,0.000,-23.926,-22.949,-35.645,0.000
1727710509.526,0.000,-24.414,-22.461,-36.621,0.000
1727710509.530,0.000,-25.879,-23.926,-41.016,0.000
1727710509.534,0.000,-19.531,-24.414,-27.832,0.000
1727710509.538,0.000,-20.508,-29.785,-16.113,0.000
1727710509.542,0.000,-28.809,-33.203,-20.020,0.000
1727710509.546,0.000,-26.367,-39.062,-30.273,0.000
1727710509.549,0.000,-20.020,-43.457,-37.598,0.000
1727710509.553,-26.367,-21.484,-39.062,-28.809,0.000
1727710509.557,-37.598,-22.461,-36.133,-30.762,0.000
1727710509.561,-55.176,-25.879,-41.992,-40.039,0.000
1727710509.565,-63.965,-26.855,-43.945,-50.293,0.000
1727710509.569,-36.133,-22.949,-43.457,-46.875,0.000
1727710509.573,-9.766,-23.926,-37.598,-31.250,0.000
1727710509.577,-27.832,-25.879,-30.273,-24.414,0.000
1727710509.581,-45.898,-24.414,-30.273,-33.691,0.000
1727710509.585,-46.387,-22.461,-29.785,-38.086,0.000
1727710509.589,-40.039,-24.414,-29.785,-49.316,0.000
1727710509.592,-36.133,-25.879,-35.645,-56.152,0.000
1727710509.596,-32.227,-22.461,-39.551,-62.500,0.000
1727710509.600,-42.480,-20.508,-41.016,-56.152,0.000
1727710509.604,-59.570,-20.508,-38.574,-42.969,0.000
1727710509.608,-50.781,-18.555,-37.109,-48.340,0.000
1727710509.612,-38.574,-21.484,-37.109,-55.176,0.000
1727710509.616,-46.875,-26.855,-36.133,-70.801,0.000
1727710509.620,-56.641,-25.391,-39.551,-65.430,0.000
1727710509.624,-63.965,-22.949,-41.504,-34.180,0.000
1727710509.628,-52.734,-20.020,-41.504,-37.109,0.000
1727710509.632,-30.762,-17.090,-41.504,-53.711,0.000
1727710509.635,-34.668,-23.926,-39.551,-48.340,0.000
1727710509.639,-39.551,-22.461,-40.039,-46.387,0.000
1727710509.643,-56.152,-16.602,-41.016,-46.875,0.000
1727710509.647,-64.453,-20.508,-37.598,-42.969,0.000
1727710509.651,-45.410,-24.414,-38.086,-50.781,0.000
1727710509.655,-41.504,-23.438,-40.527,-61.523,0.000
1727710509.659,-52.734,-24.414,-45.898,-62.012,0.000
1727710509.663,-70.312,-25.391,-45.410,-49.805,0.000
1727710509.667,-66.406,-22.949,-41.016,-38.086,0.000
1727710509.671,-47.363,-22.461,-40.527,-38.574,0.000
1727710509.674,-27.344,-20.020,-43.945,-54.199,0.000
1727710509.678,-26.855,-23.926,-41.992,-62.500,0.000
1727710509.682,-52.246,-24.902,-33.203,-46.387,0.000
1727710509.686,-60.059,-26.855,-30.273,-39.062,0.000
1727710509.690,-40.527,-27.344,-32.227,-36.133,0.000
1727710509.694,-41.016,-25.879,-32.227,-19.531,0.000
1727710509.698,-41.504,-29.297,-33.203,-31.250,0.000
1727710509.702,-51.270,-24.902,-36.621,-52.734,0.000
1727710509.706,-55.176,-21.973,-37.109,-45.410,0.000
1727710509.710,-32.227,-19.043,-39.062,-33.691,0.000
1727710509.714,-26.855,-23.438,-39.551,-40.039,0.000
1727710509.717,-28.320,-26.367,-39.062,-34.180,0.000
1727710509.721,-43.945,-25.879,-41.016,-26.855,0.000
1727710509.725,-60.059,-30.273,-42.969,-27.832,0.000
1727710509.729,-36.621,-28.320,-34.668,-18.555,0.000
1727710509.733,-13.184,-21.973,-28.320,-22.949,0.000
1727710509.737,-15.137,-19.043,-41.992,-38.574,0.000
1727710509.741,-35.645,-23.438,-45.410,-47.852,0.000
1727710509.745,-52.246,-27.344,-34.180,-36.621,0.000
1727710509.749,-37.109,-21.973,-30.762,-35.156,0.000
1727710509.753,-12.695,-18.555,-36.621,-36.133,0.000
1727710509.757,-11.230,-20.020,-37.109,-31.250,0.000
1727710509.760,-23.438,-26.367,-38.086,-38.574,0.000
1727710509.764,-37.598,-29.297,-35.645,-38.086,0.000
1727710509.768,-32.715,-28.809,-32.715,-39.062,0.000
1727710509.772,-23.926,-30.273,-38.086,-22.461,0.000
1727710509.776,-20.508,-28.809,-39.062,-20.020,0.000
1727710509.780,-28.809,-25.391,-36.621,-30.273,0.000
1727710509.784,-44.434,-25.879,-35.156,-28.809,0.000
1727710509.788,-45.898,-33.203,-32.227,-28.809,0.000
1727710509.792,-27.832,-30.273,-31.250,-22.949,0.000
1727710509.796,-18.066,-30.762,-32.715,-25.391,0.000
1727710509.800,-36.621,-38.086,-32.715,-27.344,0.000
1727710509.803,-56.641,-30.273,-29.785,-30.273,0.000
1727710509.807,-44.922,-23.438,-34.180,-45.410,0.000
1727710509.811,-20.020,-26.855,-38.574,-44.922,0.000
1727710509.815,-16.113,-29.297,-36.621,-39.551,0.000
1727710509.819,-30.762,-33.691,-39.551,-39.062,0.000
1727710509.823,-55.176,-36.621,-43.457,-44.922,0.000
1727710509.827,-60.059,-31.738,-41.992,-61.035,0.000
1727710509.831,-33.691,-26.855,-38.086,-43.457,0.000
1727710509.835,-24.902,-23.438,-37.598,-26.855,0.000
1727710509.839,-36.133,-25.391,-37.109,-28.809,0.000
1727710509.843,-55.664,-35.645,-32.227,-37.109,0.000
1727710509.846,-56.152,-33.203,-33.691,-40.527,0.000
1727710509.850,-37.598,-29.785,-35.645,-35.156,0.000
1727710509.854,-35.156,-34.668,-23.926,-34.668,0.000
1727710509.858,-50.293,-37.598,-28.320,-54.688,0.000
1727710509.862,-72.754,-32.715,-45.410,-55.176,0.000
1727710509.866,-72.754,-28.320,-42.480,-42.480,0.000
1727710509.870,-53.711,-34.668,-27.832,-59.570,0.000
1727710509.874,-44.922,-36.133,-42.480,-62.988,0.000
1727710509.878,-69.824,-47.852,-50.293,-74.707,0.000
1727710509.882,-91.309,-51.758,-34.668,-78.125,0.000
1727710509.885,-83.008,-31.738,-46.387,-74.219,0.000
1727710509.889,-73.730,-36.133,-49.316,-79.102,0.000
1727710509.893,-49.805,-38.574,-22.461,-50.293,0.000
1727710509.897,-41.504,-27.832,-47.363,-40.527,0.000
1727710509.901,-51.270,-25.391,-51.270,-39.551,0.000
1727710509.905,-58.594,-32.715,-16.113,-40.527,0.000
1727710509.909,-48.340,-28.809,-18.066,-49.316,0.000
1727710509.913,-51.270,-26.855,-24.902,-62.988,0.000
1727710509.917,-73.730,-42.480,-20.020,-80.566,0.000
1727710509.921,-97.656,-46.387,-23.438,-76.172,0.000
1727710509.925,-123.047,-49.316,-32.227,-91.309,0.000
1727710509.928,-96.191,-49.316,-68.848,-108.398,0.000
1727710509.932,-62.012,-43.945,-86.426,-104.492,0.000
1727710509.936,-50.781,-50.293,-75.195,-87.891,0.000
1727710509.940,-76.660,-75.195,-70.312,-82.031,0.000
1727710509.944,-88.379,-65.918,-88.867,-76.172,0.000
1727710509.948,-62.988,-43.457,-140.137,-83.008,0.000
1727710509.952,-49.316,-40.527,-152.344,-83.496,0.000
1727710509.956,-47.363,-40.527,-137.695,-40.039,0.000
1727710509.960,-79.590,-42.969,-139.160,-51.270,0.000
1727710509.964,-116.211,-50.293,-130.371,-92.773,0.000
1727710509.967,-79.102,-35.645,-143.555,-83.008,0.000
1727710509.971,-14.160,-16.602,-161.621,-33.203,0.000
1727710509.975,0.000,-41.504,-150.879,-33.203,0.000
1727710509.979,0.000,-54.199,-157.227,-49.805,0.000
1727710509.983,0.000,-39.551,-173.340,-83.496,0.000
1727710509.987,0.000,-27.832,-215.332,-59.570,0.000
1727710509.991,0.000,-23.438,-240.723,-22.949,0.000
1727710509.995,0.000,-22.949,-254.883,-52.246,0.000
1727710509.999,0.000,-17.578,-314.941,-20.996,0.000
1727710510.003,0.000,-34.180,-350.586,-8.789,0.000
1727710510.007,0.000,-45.898,-401.367,-33.203,0.000
1727710510.010,0.000,-38.574,-451.172,-40.527,0.000
1727710510.014,0.000,-34.180,-451.660,-26.855,0.000
1727710510.018,0.000,-30.273,-453.613,-16.602,0.000
1727710510.022,-72.754,-29.785,-463.867,-41.016,0.000
1727710510.026,-37.598,-20.996,-489.746,-31.738,0.000
1727710510.030,-2.930,-22.461,-441.895,-25.879,0.000
1727710510.034,18.066,-35.645,-400.879,-12.207,0.000
1727710510.038,27.344,-34.668,-373.047,14.160,0.000
1727710510.042,-36.621,-34.668,-323.730,-11.230,0.000
1727710510.046,-70.312,-24.902,-322.266,-32.227,0.000
1727710510.049,-43.457,-17.578,-343.262,-47.363,0.000
1727710510.053,-37.598,-20.508,-369.141,-72.266,0.000
1727710510.057,-28.320,-40.527,-438.965,-70.312,0.000
1727710510.061,14.160,-30.273,-510.254,4.395,0.000
1727710510.065,-19.531,-22.461,-506.348,3.418,0.000
1727710510.069,-44.434,-46.387,-477.051,-44.434,0.000
1727710510.073,0.977,-37.598,-520.996,-28.809,0.000
1727710510.077,-38.574,-27.832,-636.719,-78.613,0.000
1727710510.081,-76.660,-40.039,-740.723,-76.172,0.000
1727710510.085,-38.086,-31.250,-779.297,-21.484,0.000
1727710510.089,-20.508,-18.555,-819.824,-25.879,0.000
1727710510.092,-25.879,-40.039,-913.574,-13.184,0.000
1727710510.096,6.836,-42.480,-990.723,4.883,0.000
1727710510.100,-3.906,-23.926,-1000.000,-7.812,0.000
1727710510.104,-63.477,-32.227,-998.047,-26.367,0.000
1727710510.108,-28.809,-31.250,-1000.000,-29.785,0.000
1727710510.112,-5.371,-26.367,-1000.000,-40.039,0.000
1727710510.116,-42.480,-52.734,-1000.000,-41.016,0.000
1727710510.120,-36.621,-60.059,-1000.000,-4.395,0.000
1727710510.124,-46.875,-52.246,-1000.000,-32.227,0.000
1727710510.128,-28.809,-43.457,-1000.000,-54.199,0.000
1727710510.132,4.883,-41.504,-1000.000,-6.348,0.000
1727710510.135,-14.648,-55.176,-1000.000,0.000,0.000
1727710510.139,-58.105,-65.918,-1000.000,-44.434,0.000
1727710510.143,-52.734,-53.223,-1000.000,-62.500,0.000
1727710510.147,4.395,-29.785,-1000.000,-27.344,0.000
1727710510.151,13.184,-38.574,-1000.000,-13.672,0.000
1727710510.155,-2.441,-46.387,-1000.000,-25.391,0.000
1727710510.159,-21.973,-47.852,-1000.000,-5.371,0.000
1727710510.163,-25.391,-57.129,-1000.000,7.812,0.000
1727710510.167,8.789,-57.617,-1000.000,20.020,0.000
1727710510.171,3.418,-67.383,-1000.000,-0.977,0.000
1727710510.175,-17.090,-72.266,-1000.000,0.977,0.000
1727710510.178,-31.738,-72.754,-1000.000,-4.395,0.000
1727710510.182,-54.688,-66.895,-1000.000,-25.391,0.000
1727710510.186,-37.109,-64.453,-998.047,-2.930,0.000
1727710510.190,3.418,-59.570,-1000.000,7.812,0.000
1727710510.194,-0.977,-51.758,-947.754,-29.785,0.000
1727710510.198,-8.789,-47.852,-867.188,-17.090,0.000
1727710510.202,-30.762,-42.969,-798.340,7.324,0.000
1727710510.206,-80.078,-65.918,-698.730,-50.781,0.000
1727710510.210,-31.250,-69.336,-625.977,-41.016,0.000
1727710510.214,35.156,-47.363,-591.309,23.438,0.000
1727710510.218,21.484,-53.223,-536.133,34.668,0.000
1727710510.221,-4.883,-51.270,-476.074,20.020,0.000
1727710510.225,2.441,-39.062,-425.293,20.508,0.000
1727710510.229,14.160,-45.898,-361.328,13.184,0.000
1727710510.233,17.090,-53.223,-311.035,15.625,0.000
1727710510.237,28.320,-56.152,-275.879,33.691,0.000
1727710510.241,2.930,-61.035,-256.836,20.508,0.000
1727710510.245,-15.137,-59.082,-228.027,-1.953,0.000
1727710510.249,5.859,-54.199,-198.242,-3.418,0.000
1727710510.253,12.695,-61.035,-176.758,11.230,0.000
1727710510.257,8.301,-62.500,-148.438,4.395,0.000
1727710510.260,-1.465,-52.734,-116.699,-10.254,0.000
1727710510.264,-5.859,-48.828,-59.082,12.207,0.000
1727710510.268,17.090,-51.270,41.992,18.066,0.000
1727710510.272,39.551,-47.363,146.973,21.973,0.000
1727710510.276,41.016,-48.340,248.535,54.688,0.000
1727710510.280,24.414,-46.875,341.309,60.059,0.000
1727710510.284,3.906,-41.992,396.973,40.039,0.000
1727710510.288,17.578,-47.363,431.641,36.133,0.000
1727710510.292,58.105,-42.480,453.613,51.758,0.000
1727710510.296,56.152,-37.598,464.844,61.523,0.000
1727710510.300,39.062,-46.387,475.098,48.340,0.000
1727710510.303,21.484,-53.711,497.070,20.996,0.000
1727710510.307,26.367,-53.223,559.082,28.320,0.000
1727710510.311,47.363,-51.758,627.441,53.223,0.000
1727710510.315,45.410,-51.758,719.727,46.387,0.000
1727710510.319,35.156,-46.875,836.426,50.293,0.000
1727710510.323,24.902,-45.898,931.641,46.875,0.000
1727710510.327,33.203,-47.363,967.773,28.809,0.000
1727710510.331,62.988,-41.504,966.797,32.227,0.000
1727710510.335,64.453,-39.551,967.773,42.480,0.000
1727710510.339,41.504,-42.480,968.262,40.527,0.000
1727710510.342,24.414,-40.527,968.262,33.691,0.000
1727710510.346,25.879,-37.598,968.262,40.527,0.000
1727710510.350,51.270,-34.180,968.262,46.387,0.000
1727710510.354,58.594,-36.133,968.262,37.598,0.000
1727710510.358,49.316,-38.574,968.262,42.480,0.000
1727710510.362,33.691,-36.621,968.262,45.898,0.000
1727710510.366,33.691,-38.086,968.262,35.156,0.000
1727710510.370,58.105,-38.086,968.262,35.156,0.000
1727710510.374,64.453,-35.156,968.262,46.387,0.000
1727710510.378,48.828,-35.645,968.262,42.969,0.000
1727710510.382,30.273,-36.621,968.262,32.227,0.000
1727710510.385,31.250,-38.086,968.262,29.785,0.000
1727710510.389,57.129,-37.598,968.262,37.598,0.000
1727710510.393,67.871,-31.738,968.262,49.316,0.000
1727710510.397,47.363,-28.809,968.262,44.922,0.000
1727710510.401,28.809,-31.250,966.797,39.062,0.000
1727710510.405,25.879,-36.133,969.238,33.691,0.000
1727710510.409,38.574,-41.992,962.402,36.133,0.000
1727710510.413,48.828,-40.527,933.105,42.969,0.000
1727710510.417,46.875,-37.598,910.156,42.969,0.000
1727710510.421,35.156,-35.645,887.695,40.527,0.000
1727710510.425,28.809,-34.180,869.629,31.738,0.000
1727710510.428,43.457,-31.250,850.098,32.715,0.000
1727710510.432,52.734,-31.250,813.477,38.086,0.000
1727710510.436,50.781,-32.715,777.344,55.664,0.000
1727710510.440,36.621,-32.227,732.910,46.387,0.000
1727710510.444,30.762,-36.133,668.945,28.809,0.000
1727710510.448,45.898,-35.645,634.277,35.156,0.000
1727710510.452,46.875,-33.691,619.141,35.156,0.000
1727710510.456,35.156,-35.645,588.379,36.133,0.000
1727710510.460,13.184,-36.621,574.707,24.902,0.000
1727710510.464,5.371,-39.062,564.941,16.602,0.000
1727710510.467,41.016,-28.809,515.625,32.715,0.000
1727710510.471,50.781,-24.902,485.352,41.016,0.000
1727710510.475,41.016,-30.762,481.934,39.062,0.000
1727710510.479,29.785,-30.762,470.215,32.715,0.000
1727710510.483,12.207,-29.785,471.191,22.461,0.000
1727710510.487,25.391,-29.785,463.867,23.438,0.000
1727710510.491,55.176,-30.762,424.805,30.762,0.000
1727710510.495,64.941,-27.832,377.930,28.809,0.000
1727710510.499,47.852,-30.273,338.379,25.879,0.000
1727710510.503,18.066,-34.180,333.008,22.461,0.000
1727710510.507,25.391,-34.668,348.633,28.809,0.000
1727710510.510,54.688,-37.109,327.148,30.762,0.000
1727710510.514,55.176,-36.133,282.227,29.785,0.000
1727710510.518,51.758,-44.922,259.277,42.969,0.000
1727710510.522,39.062,-54.688,267.578,45.898,0.000
1727710510.526,36.133,-37.598,257.812,38.086,0.000
1727710510.530,41.992,-26.367,240.723,23.926,0.000
1727710510.534,41.504,-27.832,205.078,18.066,0.000
1727710510.538,0.000,-24.414,176.270,26.367,0.000
1727710510.542,0.000,-23.438,188.477,31.738,0.000
1727710510.546,0.000,-28.809,190.430,29.785,0.000
1727710510.550,0.000,-28.320,175.781,31.738,0.000
1727710510.553,0.000,-22.949,156.738,37.598,0.000
1727710510.557,0.000,-22.949,137.207,37.109,0.000
1727710510.561,0.000,-25.879,134.766,27.344,0.000
1727710510.565,0.000,-23.926,137.207,28.320,0.000
1727710510.569,0.000,-25.391,124.512,46.875,0.000
1727710510.573,0.000,-27.344,114.258,50.293,0.000
1727710510.577,0.000,-30.762,107.422,31.738,0.000
1727710510.581,0.000,-32.715,103.027,20.020,0.000
1727710510.585,19.531,-29.297,101.074,24.902,0.000
1727710510.589,37.598,-28.809,90.820,17.090,0.000
1727710510.593,47.363,-24.902,82.520,4.395,0.000
1727710510.596,48.340,-20.020,86.426,11.719,0.000
1727710510.600,21.973,-20.508,86.426,17.578,0.000
1727710510.604,7.324,-20.996,75.195,5.371,0.000
1727710510.608,25.879,-23.438,68.848,0.977,0.000
1727710510.612,47.363,-25.879,69.824,18.555,0.000
1727710510.616,50.781,-26.855,82.520,25.879,0.000
1727710510.620,31.250,-24.414,85.449,33.203,0.000
1727710510.624,13.184,-25.879,74.707,25.879,0.000
1727710510.628,18.555,-31.250,68.359,11.230,0.000
1727710510.632,0.000,-30.762,77.637,23.438,0.000
1727710510.635,0.000,-26.855,78.125,15.625,0.000
1727710510.639,0.000,-25.391,53.223,13.672,0.000
1727710510.643,0.000,-22.461,32.715,19.043,0.000
1727710510.647,0.000,-22.461,39.062,19.531,0.000
1727710510.651,0.000,-21.484,51.758,27.832,0.000
1727710510.655,0.000,-25.879,63.965,29.785,0.000
1727710510.659,0.000,-26.855,71.777,28.320,0.000
1727710510.663,0.000,-23.926,62.012,13.672,0.000
1727710510.667,0.000,-21.973,49.316,11.719,0.000
1727710510.671,0.000,-22.461,51.270,29.297,0.000
1727710510.675,0.000,-22.461,55.664,39.551,0.000
1727710510.678,32.227,-15.137,47.363,38.086,0.000
1727710510.682,15.625,-17.578,44.922,30.762,0.000
1727710510.686,22.461,-23.926,58.594,30.762,0.000
1727710510.690,39.062,-27.832,64.453,31.250,0.000
1727710510.694,42.969,-28.320,60.059,26.855,0.000
1727710510.698,36.621,-24.414,52.734,38.086,0.000
1727710510.702,17.578,-24.414,41.992,35.156,0.000
1727710510.706,23.926,-23.926,33.691,25.879,0.000
1727710510.710,32.715,-24.414,40.527,29.785,0.000
1727710510.714,37.598,-19.043,49.316,40.039,0.000
1727710510.717,37.598,-14.160,47.363,41.504,0.000
1727710510.721,16.113,-20.020,44.434,30.273,0.000
1727710510.725,23.438,-25.391,39.062,32.227,0.000
1727710510.729,41.504,-26.855,32.715,40.527,0.000
1727710510.733,34.668,-36.133,20.508,20.996,0.000
1727710510.737,18.555,-43.945,19.043,16.113,0.000
1727710510.741,2.930,-40.527,28.809,23.438,0.000
1727710510.745,-3.418,-34.668,21.484,8.789,0.000
1727710510.749,15.625,-27.344,16.602,10.742,0.000
1727710510.753,31.250,-25.391,21.973,19.043,0.000
1727710510.757,30.762,-23.438,22.461,15.625,0.000
1727710510.760,5.371,-21.973,13.184,11.719,0.000
1727710510.764,-5.371,-21.973,10.742,15.137,0.000
1727710510.768,24.414,-21.973,10.742,15.137,0.000
1727710510.772,38.574,-25.879,4.395,19.043,0.000
1727710510.776,32.227,-25.879,-0.977,11.719,0.000
1727710510.780,9.277,-23.438,-3.906,4.883,0.000
1727710510.784,-1.465,-25.879,0.977,12.695,0.000
1727710510.788,26.367,-24.902,13.184,8.789,0.000
1727710510.792,46.875,-20.508,23.926,20.996,0.000
1727710510.796,42.969,-22.949,27.832,21.973,0.000
1727710510.800,20.996,-25.879,13.184,20.508,0.000
1727710510.803,5.371,-25.879,3.418,13.184,0.000
1727710510.807,11.719,-23.926,23.438,6.348,0.000
1727710510.811,27.832,-26.367,33.691,6.836,0.000
1727710510.815,34.180,-25.879,32.227,12.695,0.000
1727710510.819,14.648,-20.020,29.297,9.766,0.000
1727710510.823,-8.301,-20.508,25.879,0.977,0.000
1727710510.827,0.000,-25.391,24.902,1.953,0.000
1727710510.831,26.855,-22.949,19.043,-5.859,0.000
1727710510.835,14.160,-26.367,13.184,-7.324,0.000
1727710510.839,-10.254,-31.738,13.184,-11.719,0.000
1727710510.843,-12.207,-28.809,10.742,-7.324,0.000
1727710510.846,1.953,-25.879,14.160,-3.418,0.000
1727710510.850,5.371,-25.391,19.043,-16.602,0.000
1727710510.854,11.230,-27.832,17.090,-5.371,0.000
1727710510.858,9.766,-30.762,16.113,4.883,0.000
1727710510.862,-11.230,-33.691,12.695,-1.953,0.000
1727710510.866,-3.906,-29.785,17.090,0.000,0.000
1727710510.870,10.254,-30.762,17.090,2.930,0.000
1727710510.874,20.020,-32.227,9.277,17.578,0.000
1727710510.878,14.160,-30.762,13.184,22.949,0.000
1727710510.882,6.348,-36.133,14.648,27.344,0.000
1727710510.886,33.691,-30.762,13.184,41.992,0.000
1727710510.889,39.551,-19.531,3.418,23.926,0.000
1727710510.893,11.719,-18.066,-7.812,-4.395,0.000
1727710510.897,-4.883,-19.043,0.000,-6.836,0.000
1727710510.901,-8.789,-18.555,8.789,0.977,0.000
1727710510.905,6.836,-18.066,13.672,10.254,0.000
1727710510.909,25.879,-17.090,14.648,18.555,0.000
1727710510.913,0.000,-18.555,10.742,19.043,0.000
1727710510.917,0.000,-19.531,9.277,12.207,0.000
1727710510.921,0.000,-20.996,11.230,8.789,0.000
1727710510.925,0.000,-20.996,6.348,0.000,0.000
1727710510.928,0.000,-20.996,-0.977,0.488,0.000
1727710510.932,0.000,-21.484,0.488,14.160,0.000
1727710510.936,0.000,-22.949,9.766,0.000,0.000
1727710510.940,0.000,-25.879,15.625,-7.812,0.000
1727710510.944,0.000,-25.879,16.602,-6.348,0.000
1727710510.948,0.000,-22.949,15.137,-7.812,0.000
1727710510.952,0.000,-17.578,6.836,-7.812,0.000
1727710510.956,0.000,-21.973,-3.906,-5.859,0.000
1727710510.960,-21.973,-26.855,-2.930,-13.184,0.000
1727710510.964,-23.926,-28.320,9.277,-12.695,0.000
1727710510.968,-3.418,-26.855,15.625,-6.836,0.000
1727710510.971,2.930,-26.367,8.789,-12.695,0.000
1727710510.975,0.977,-33.691,7.812,-15.137,0.000
1727710510.979,-20.508,-39.062,8.301,-19.531,0.000
1727710510.983,-40.527,-37.598,0.488,-22.461,0.000
1727710510.987,-28.320,-40.039,-10.254,-13.672,0.000
1727710510.991,-8.789,-39.551,-15.625,-20.020,0.000
1727710510.995,-14.648,-37.598,-10.254,-29.297,0.000
1727710510.999,-35.156,-36.621,-4.395,-27.344,0.000
1727710511.003,-38.086,-30.762,-19.043,-29.297,0.000
1727710511.007,-13.672,-31.250,-47.363,-13.672,0.000
1727710511.011,7.324,-30.762,-41.504,-13.672,0.000
1727710511.014,1.953,-27.344,-0.977,-12.695,0.000
1727710511.018,-15.137,-33.691,21.973,-6.836,0.000
1727710511.022,-29.785,-33.691,14.648,-15.625,0.000
1727710511.026,-15.137,-31.738,7.812,-18.555,0.000
1727710511.030,16.602,-32.715,1.953,-11.230,0.000
1727710511.034,18.555,-25.879,-11.719,0.488,0.000
1727710511.038,-12.207,-25.879,-13.184,-7.812,0.000
1727710511.042,-32.227,-27.832,-10.742,-14.160,0.000
1727710511.046,-21.484,-28.809,-19.531,-5.859,0.000
1727710511.050,-3.906,-28.320,-17.578,1.953,0.000
1727710511.053,3.906,-22.461,-13.184,4.883,0.000
1727710511.057,-1.953,-22.949,-12.695,4.395,0.000
1727710511.061,-22.461,-27.832,-11.230,-0.977,0.000
1727710511.065,-11.230,-24.902,-18.555,-8.789,0.000
1727710511.069,8.301,-23.438,-19.043,-9.766,0.000
1727710511.073,6.348,-25.391,-4.883,-16.113,0.000
1727710511.077,0.488,-22.949,2.441,-8.789,0.000
1727710511.081,-20.996,-26.367,-3.418,-4.395,0.000
1727710511.085,-23.926,-30.762,-6.836,-13.184,0.000
1727710511.089,-2.930,-30.273,-6.836,-7.324,0.000
1727710511.093,8.789,-26.855,-5.371,1.465,0.000
1727710511.096,-0.488,-25.879,-1.465,-2.930,0.000
1727710511.100,-17.578,-26.855,0.488,-14.160,0.000
1727710511.104,-20.020,-27.344,0.488,-17.578,0.000
1727710511.108,-14.160,-26.855,-3.418,-17.090,0.000
1727710511.112,-3.906,-26.855,4.395,-14.648,0.000
1727710511.116,-15.137,-26.367,16.113,-21.484,0.000
1727710511.120,-35.156,-26.367,21.973,-27.832,0.000
1727710511.124,-34.180,-22.461,17.578,-26.367,0.000
1727710511.128,-16.113,-22.949,11.230,-27.344,0.000
1727710511.132,3.906,-25.391,14.648,-20.508,0.000
1727710511.135,1.465,-23.438,4.395,-15.137,0.000
1727710511.139,-18.066,-21.484,6.348,-22.949,0.000
1727710511.143,-28.809,-26.367,17.090,-19.043,0.000
1727710511.147,-4.395,-30.762,9.277,-14.648,0.000
1727710511.151,6.836,-28.320,-1.953,-24.902,0.000
1727710511.155,-6.836,-27.832,-5.371,-14.648,0.000
1727710511.159,-24.414,-26.855,-11.719,-6.348,0.000
1727710511.163,-30.273,-26.855,-17.578,-20.996,0.000
1727710511.167,-9.766,-21.973,-12.207,-18.066,0.000
1727710511.171,1.465,-20.996,1.465,-15.137,0.000
1727710511.175,-2.930,-29.785,8.789,-27.344,0.000
1727710511.178,-14.648,-33.203,6.836,-28.320,0.000
1727710511.182,-28.809,-24.902,1.953,-23.438,0.000
1727710511.186,-14.160,-21.484,1.465,-18.066,0.000
1727710511.190,-1.465,-30.762,3.906,-19.043,0.000
1727710511.194,-7.812,-37.109,0.000,-26.855,0.000
1727710511.198,-24.902,-35.156,-4.395,-32.227,0.000
1727710511.202,-40.527,-30.762,-4.883,-33.691,0.000
1727710511.206,-20.020,-27.832,0.488,-24.902,0.000
1727710511.210,3.418,-22.461,1.465,-11.719,0.000
1727710511.214,-2.930,-18.066,-2.441,-16.113,0.000
1727710511.218,-20.508,-23.438,-9.766,-21.973,0.000
1727710511.221,-34.668,-30.762,-12.207,-30.762,0.000
1727710511.225,-17.090,-30.273,-9.277,-29.297,0.000
1727710511.229,-0.977,-31.738,-12.695,-16.113,0.000
1727710511.233,-4.883,-32.227,-12.695,-15.625,0.000
1727710511.237,-25.391,-28.809,-6.348,-17.578,0.000
1727710511.241,-51.758,-30.762,-6.836,-28.320,0.000
1727710511.245,-42.480,-29.297,-8.789,-27.832,0.000
1727710511.249,-17.090,-30.273,-2.930,-25.879,0.000
1727710511.253,-7.324,-30.273,-0.977,-15.625,0.000
1727710511.257,-12.207,-30.762,-6.836,-3.906,0.000
1727710511.261,-27.344,-32.715,-9.277,-20.996,0.000
1727710511.264,-20.996,-29.785,-14.160,-16.113,0.000
1727710511.268,16.113,-27.832,-12.695,7.812,0.000
1727710511.272,16.602,-21.484,-9.277,5.859,0.000
1727710511.276,-16.602,-17.578,-14.160,-16.113,0.000
1727710511.280,-36.133,-15.625,-19.043,-30.762,0.000
1727710511.284,-15.625,-19.531,-12.695,-21.484,0.000
1727710511.288,10.742,-22.949,-7.812,-15.137,0.000
1727710511.292,18.066,-15.137,-5.859,-5.371,0.000
1727710511.296,9.277,-12.695,-3.906,-7.324,0.000
1727710511.300,-17.090,-16.602,-16.602,-20.020,0.000
1727710511.303,-24.414,-22.461,-27.344,-10.742,0.000
1727710511.307,-9.766,-26.367,-25.879,-13.184,0.000
1727710511.311,0.977,-25.879,-24.414,-23.926,0.000
1727710511.315,1.465,-23.926,-22.949,-20.996,0.000
1727710511.319,-15.137,-20.020,-26.367,-23.438,0.000
1727710511.323,-28.809,-22.461,-31.250,-31.738,0.000
1727710511.327,-10.254,-23.438,-21.484,-30.273,0.000
1727710511.331,0.488,-20.996,-13.672,-22.461,0.000
1727710511.335,-11.230,-22.949,-16.113,-9.766,0.000
1727710511.339,-22.949,-26.367,-24.902,-7.324,0.000
1727710511.343,-28.320,-31.250,-21.973,-15.625,0.000
1727710511.346,-23.926,-27.832,-16.602,-21.973,0.000
1727710511.350,-20.020,-27.832,-24.902,-28.320,0.000
1727710511.354,-15.625,-30.762,-26.367,-29.785,0.000
1727710511.358,-32.227,-28.809,-22.949,-29.785,0.000
1727710511.362,-41.992,-30.273,-27.832,-19.531,0.000
1727710511.366,-20.020,-30.762,-37.109,-17.090,0.000
1727710511.370,-10.254,-29.297,-38.086,-23.926,0.000
1727710511.374,-22.461,-27.832,-29.297,-25.391,0.000
1727710511.378,-39.062,-28.320,-24.414,-35.645,0.000
1727710511.382,-45.898,-28.809,-19.531,-36.621,0.000
1727710511.386,-43.945,-29.785,-18.066,-35.645,0.000
1727710511.389,-26.855,-27.832,-24.414,-38.086,0.000
1727710511.393,-9.766,-23.438,-24.414,-22.949,0.000
1727710511.397,-9.277,-22.949,-19.531,-16.602,0.000
1727710511.401,-27.832,-23.438,-15.625,-26.855,0.000
1727710511.405,-23.438,-22.949,-13.184,-30.273,0.000
1727710511.409,-7.812,-21.484,-20.996,-25.391,0.000
1727710511.413,-16.602,-22.949,-24.902,-24.902,0.000
1727710511.417,-26.855,-24.902,-22.461,-37.598,0.000
1727710511.421,-31.738,-21.484,-33.691,-35.645,0.000
1727710511.425,-29.785,-17.578,-29.785,-26.855,0.000
1727710511.429,-21.973,-16.602,-14.648,-25.879,0.000
1727710511.432,-15.137,-17.090,-19.043,-33.203,0.000
1727710511.436,-15.625,-21.484,-18.555,-33.203,0.000
1727710511.440,-30.762,-25.391,-14.160,-30.762,0.000
1727710511.444,-33.691,-22.949,-13.672,-31.738,0.000
1727710511.448,-27.344,-22.461,-14.648,-40.527,0.000
1727710511.452,-22.461,-25.391,-16.602,-36.621,0.000
1727710511.456,-26.855,-25.391,-23.926,-31.738,0.000
1727710511.460,-51.270,-23.926,-27.344,-45.410,0.000
1727710511.464,-49.316,-23.926,-24.414,-45.410,0.000
1727710511.468,-16.113,-20.020,-20.996,-40.039,0.000
1727710511.471,-13.672,-20.508,-25.391,-40.039,0.000
1727710511.475,-34.180,-29.297,-19.043,-48.828,0.000
1727710511.479,-49.805,-26.367,-12.695,-44.922,0.000
1727710511.483,-54.199,-23.926,-9.766,-31.250,0.000
1727710511.487,-39.062,-26.855,0.000,-26.367,0.000
1727710511.491,-26.855,-21.973,4.395,-27.344,0.000
1727710511.495,-31.738,-26.367,8.301,-27.832,0.000
1727710511.499,-52.246,-33.203,4.395,-28.320,0.000
1727710511.503,-59.570,-32.715,-8.301,-33.203,0.000
1727710511.507,-32.227,-31.250,-10.254,-32.715,0.000
1727710511.511,-22.949,-29.297,-6.836,-29.297,0.000
1727710511.514,-26.855,-33.203,-7.812,-22.949,0.000
1727710511.518,-39.551,-37.598,-11.719,-25.391,0.000
1727710511.522,-63.477,-40.039,-10.254,-31.250,0.000
1727710511.526,-46.875,-39.551,-3.418,-23.926,0.000
1727710511.530,-29.297,-33.691,-3.418,-18.066,0.000
1727710511.534,-27.344,-33.203,-11.230,-16.602,0.000
1727710511.538,-37.109,-33.691,-11.230,-28.809,0.000
1727710511.542,-60.547,-32.227,-9.766,-31.738,0.000
1727710511.546,-40.039,-31.250,-8.789,-29.297,0.000
1727710511.550,-18.066,-30.762,-0.488,-31.250,0.000
1727710511.553,-22.949,-28.320,-5.859,-26.367,0.000
1727710511.557,-31.738,-25.391,-14.160,-23.926,0.000
1727710511.561,-47.363,-28.320,-11.719,-20.996,0.000
1727710511.565,-29.297,-28.320,-2.930,-18.066,0.000
1727710511.569,-11.230,-28.809,-5.371,-19.531,0.000
1727710511.573,-10.742,-33.691,-21.484,-11.719,0.000
1727710511.577,-11.230,-31.738,-18.555,-0.977,0.000
1727710511.581,-43.457,-29.785,-15.137,-27.832,0.000
1727710511.585,-44.922,-32.227,-26.855,-55.176,0.000
1727710511.589,-20.020,-31.738,-25.391,-53.711,0.000
1727710511.593,-32.227,-28.809,-14.648,-59.082,0.000
1727710511.596,-58.594,-29.297,-9.766,-67.871,0.000
1727710511.600,-83.984,-32.227,-19.531,-79.590,0.000
1727710511.604,-83.008,-32.715,-28.809,-86.426,0.000
1727710511.608,-63.965,-35.645,-30.273,-83.008,0.000
1727710511.612,-62.988,-39.062,-24.414,-83.984,0.000
1727710511.616,-86.914,-36.621,-22.949,-72.754,0.000
1727710511.620,-108.887,-32.227,-23.926,-62.012,0.000
1727710511.624,-81.055,-33.203,-23.438,-62.012,0.000
1727710511.628,-38.574,-30.762,-30.273,-53.223,0.000
1727710511.632,-40.527,-28.809,-31.738,-59.570,0.000
1727710511.636,-48.340,-32.227,-34.180,-60.547,0.000
1727710511.639,-52.734,-29.785,-31.250,-54.199,0.000
1727710511.643,-51.270,-28.320,-26.855,-49.316,0.000
1727710511.647,-30.273,-28.320,-31.738,-38.574,0.000
1727710511.651,-27.832,-29.785,-31.738,-40.039,0.000
1727710511.655,-43.945,-31.738,-27.344,-48.340,0.000
1727710511.659,-61.523,-35.645,-22.949,-40.039,0.000
1727710511.663,-60.059,-35.645,-25.391,-34.668,0.000
1727710511.667,-41.992,-34.180,-30.273,-36.133,0.000
1727710511.671,-29.297,-33.691,-32.715,-29.785,0.000
1727710511.675,-28.320,-29.297,-31.738,-35.156,0.000
1727710511.678,-44.922,-28.809,-34.668,-43.457,0.000
1727710511.682,-50.293,-28.320,-34.180,-36.133,0.000
1727710511.686,-31.738,-21.973,-34.668,-33.691,0.000
1727710511.690,-25.391,-22.949,-42.480,-35.645,0.000
1727710511.694,-31.250,-29.785,-47.363,-28.809,0.000
1727710511.698,-49.316,-28.320,-45.410,-30.762,0.000
1727710511.702,-62.500,-25.879,-25.879,-40.039,0.000
1727710511.706,-43.945,-32.227,-11.719,-36.621,0.000
1727710511.710,-26.367,-30.273,-13.184,-27.832,0.000
1727710511.714,-33.691,-27.344,-13.672,-34.180,0.000
1727710511.718,-52.246,-28.809,-15.137,-41.504,0.000
1727710511.721,-51.270,-26.855,-20.508,-39.062,0.000
1727710511.725,-38.574,-24.414,-25.879,-48.340,0.000
1727710511.729,-30.273,-20.508,-24.414,-49.805,0.000
1727710511.733,-38.086,-16.602,-28.809,-48.340,0.000
1727710511.737,-55.176,-13.184,-34.668,-50.781,0.000
1727710511.741,-69.824,-16.602,-45.410,-52.246,0.000
1727710511.745,-55.664,-19.043,-51.270,-56.152,0.000
1727710511.749,-31.738,-16.602,-43.457,-56.152,0.000
1727710511.753,-28.809,-19.043,-38.574,-50.293,0.000
1727710511.757,-43.457,-20.996,-35.645,-40.527,0.000
1727710511.761,-59.570,-21.484,-39.551,-44.434,0.000
1727710511.764,-41.016,-20.508,-45.410,-45.898,0.000
