timestamps,TP9,AF7,AF8,TP10,Right AUX
1727575934.460,-16.602,-40.527,-46.875,-27.344,0.000
1727575934.463,-46.387,-36.621,-35.645,-43.945,0.000
1727575934.467,-43.945,-30.273,-29.297,-20.996,0.000
1727575934.471,-33.203,-34.180,-31.738,-13.184,0.000
1727575934.475,-31.250,-34.668,-34.180,-31.738,0.000
1727575934.479,-21.484,-43.457,-41.016,-39.551,0.000
1727575934.483,-61.523,-59.570,-49.805,-60.547,0.000
1727575934.487,-73.242,-52.734,-46.875,-46.387,0.000
1727575934.491,-42.969,-34.180,-34.668,-26.367,0.000
1727575934.495,-28.809,-35.156,-38.574,-37.109,0.000
1727575934.499,-20.996,-33.203,-53.223,-39.551,0.000
1727575934.502,-48.340,-45.410,-53.711,-52.246,0.000
1727575934.506,-62.988,-44.922,-44.434,-41.016,0.000
1727575934.510,-30.762,-35.156,-39.062,-6.348,0.000
1727575934.514,-19.043,-51.758,-34.668,-14.160,0.000
1727575934.518,-10.742,-63.965,-37.598,-36.621,0.000
1727575934.522,-26.367,-60.547,-43.457,-50.781,0.000
1727575934.526,-47.852,-44.922,-39.062,-29.297,0.000
1727575934.530,-28.809,-30.273,-41.016,0.977,0.000
1727575934.534,-14.160,-31.738,-52.734,-5.859,0.000
1727575934.538,6.348,-21.973,-52.246,-15.625,0.000
1727575934.541,-21.973,-32.227,-43.457,-41.504,0.000
1727575934.545,-72.266,-43.945,-33.691,-54.688,0.000
1727575934.549,-42.480,-28.320,-24.414,-11.230,0.000
1727575934.553,-11.719,-36.133,-19.531,3.418,0.000
1727575934.557,1.953,-51.758,-20.996,-4.883,0.000
1727575934.561,-14.160,-47.363,-26.367,-18.555,0.000
1727575934.565,-50.781,-44.922,-31.250,-30.762,0.000
1727575934.569,-33.691,-41.016,-29.785,1.465,0.000
1727575934.572,-13.184,-42.969,-23.926,11.719,0.000
1727575934.576,8.301,-56.641,-26.367,2.441,0.000
1727575934.580,3.906,-35.645,-31.250,-1.953,0.000
1727575934.584,-40.039,-19.043,-36.133,-26.367,0.000
1727575934.588,-41.504,-27.344,-34.668,-10.742,0.000
1727575934.592,-27.344,-26.367,-28.809,-2.930,0.000
1727575934.596,-4.395,-18.555,-23.438,-17.090,0.000
1727575934.599,0.977,-27.832,-27.344,-26.367,0.000
1727575934.603,-54.688,-46.387,-36.133,-40.039,0.000
1727575934.607,-58.105,-39.551,-33.691,-18.555,0.000
1727575934.611,-30.273,-32.715,-26.855,-4.883,0.000
1727575934.615,-16.113,-34.180,-15.625,-6.836,0.000
1727575934.619,-13.184,-47.852,-20.508,-25.391,0.000
1727575934.623,-51.758,-56.641,-30.273,-49.316,0.000
1727575934.627,-53.223,-38.086,-30.762,-23.926,0.000
1727575934.631,-38.086,-31.250,-28.809,-1.953,0.000
1727575934.635,-30.762,-52.734,-33.203,-21.484,0.000
1727575934.638,-24.414,-52.734,-36.133,-32.715,0.000
1727575934.642,-56.152,-54.688,-38.086,-40.039,0.000
1727575934.647,-63.477,-59.082,-44.922,-24.414,0.000
1727575934.651,-43.457,-39.551,-40.527,-2.441,0.000
1727575934.654,-37.109,-33.203,-32.715,-19.043,0.000
1727575934.658,-30.273,-42.480,-38.086,-37.109,0.000
1727575934.662,-48.340,-56.152,-37.598,-42.480,0.000
1727575934.666,-46.875,-54.199,-39.062,-21.484,0.000
1727575934.670,-28.809,-40.039,-34.668,1.465,0.000
1727575934.674,-38.086,-43.457,-32.227,-11.230,0.000
1727575934.678,-24.414,-51.270,-42.480,-20.020,0.000
1727575934.682,-35.156,-59.082,-45.898,-29.785,0.000
1727575934.686,-55.176,-38.086,-35.156,-19.531,0.000
1727575934.690,-36.133,-30.762,-20.508,3.418,0.000
1727575934.694,-25.391,-39.551,-21.973,-6.348,0.000
1727575934.698,-5.371,-23.926,-19.531,-17.090,0.000
1727575934.702,-23.438,-28.809,-25.391,-34.668,0.000
1727575934.706,-52.246,-39.551,-31.250,-30.273,0.000
1727575934.709,-34.180,-36.621,-25.879,3.906,0.000
1727575934.713,-21.973,-48.828,-32.227,-3.906,0.000
1727575934.717,-9.277,-53.223,-36.621,-28.320,0.000
1727575934.721,-19.043,-42.969,-41.504,-42.480,0.000
1727575934.725,-57.617,-47.852,-42.480,-36.621,0.000
1727575934.729,-54.688,-40.039,-40.039,-4.395,0.000
1727575934.733,-41.504,-32.227,-36.133,-12.695,0.000
1727575934.737,-24.902,-50.781,-33.203,-35.645,0.000
1727575934.741,-31.250,-62.500,-43.945,-47.852,0.000
1727575934.745,-51.758,-41.504,-43.457,-44.922,0.000
1727575934.749,-40.527,-17.578,-29.297,-13.672,0.000
1727575934.753,-41.992,-30.273,-30.273,-7.324,0.000
1727575934.756,-32.715,-48.340,-45.898,-32.227,0.000
1727575934.760,-22.461,-48.828,-45.898,-48.828,0.000
1727575934.764,-59.082,-52.246,-36.133,-56.152,0.000
1727575934.768,-69.824,-58.105,-38.574,-33.203,0.000
1727575934.772,-45.410,-62.012,-44.434,-7.812,0.000
1727575934.776,-25.391,-38.086,-33.691,-24.414,0.000
1727575934.780,-17.090,-30.762,-29.785,-35.156,0.000
1727575934.784,-46.875,-51.758,-42.969,-43.945,0.000
1727575934.788,-45.410,-41.016,-30.273,0.000,0.000
1727575934.792,-24.414,-32.715,-21.973,0.000,0.000
1727575934.796,-21.973,-46.387,-39.551,0.000,0.000
1727575934.800,-7.812,-45.898,-36.133,0.000,0.000
1727575934.804,-34.668,-46.875,-35.645,0.000,0.000
1727575934.807,-49.316,-40.039,-41.992,0.000,0.000
1727575934.811,-29.785,-20.020,-40.039,0.000,0.000
1727575934.815,-20.020,-32.715,-39.062,0.000,0.000
1727575934.819,-7.324,-46.875,-34.668,0.000,0.000
1727575934.823,-40.039,-35.645,-36.621,0.000,0.000
1727575934.827,-69.824,-33.203,-38.574,0.000,0.000
1727575934.831,-46.875,-38.086,-36.133,0.000,0.000
1727575934.835,-37.598,-38.086,-43.457,-30.273,0.000
1727575934.839,-18.555,-28.809,-42.480,-35.645,0.000
1727575934.843,-30.762,-29.785,-42.480,-36.621,0.000
1727575934.846,-58.594,-32.715,-36.133,-33.203,0.000
1727575934.850,-35.645,-21.973,-25.391,0.977,0.000
1727575934.854,-9.277,-29.297,-27.832,1.953,0.000
1727575934.858,18.555,-41.504,-30.762,-15.625,0.000
1727575934.862,-14.648,-53.223,-35.645,-27.344,0.000
1727575934.866,-62.012,-38.086,-32.715,-32.227,0.000
1727575934.870,-41.504,-18.555,-27.832,-9.277,0.000
1727575934.874,-26.855,-29.785,-43.457,-20.020,0.000
1727575934.878,-8.789,-42.480,-37.109,-35.645,0.000
1727575934.881,-20.996,-42.480,-31.250,-45.410,0.000
1727575934.885,-61.523,-37.598,-38.086,-63.477,0.000
1727575934.889,-49.805,-41.504,-40.039,-33.691,0.000
1727575934.893,-30.762,-25.879,-40.039,-17.578,0.000
1727575934.897,-4.883,-9.277,-32.227,-27.832,0.000
1727575934.901,-4.395,-32.227,-39.062,-38.574,0.000
1727575934.905,-59.082,-49.316,-38.574,-44.434,0.000
1727575934.909,-55.664,-45.410,-29.297,-11.719,0.000
1727575934.913,-29.785,-41.016,-31.738,-14.648,0.000
1727575934.917,-28.809,-37.109,-38.574,-36.133,0.000
1727575934.920,-32.715,-47.363,-44.434,-40.527,0.000
1727575934.924,-63.477,-59.570,-44.922,-49.805,0.000
1727575934.928,-54.688,-47.363,-40.527,-15.137,0.000
1727575934.932,-26.367,-42.969,-41.992,-4.883,0.000
1727575934.936,-16.113,-48.340,-43.457,-32.227,0.000
1727575934.940,-6.836,-59.082,-38.574,-44.434,0.000
1727575934.944,-45.410,-71.777,-43.457,-60.547,0.000
1727575934.948,-51.758,-56.152,-43.457,-37.109,0.000
1727575934.952,-32.715,-44.434,-47.852,-15.137,0.000
1727575934.955,-8.301,-31.250,-41.016,-22.461,0.000
1727575934.959,20.508,-31.250,-30.762,-29.785,0.000
1727575934.963,-26.855,-55.176,-45.410,-44.434,0.000
1727575934.967,-49.316,-44.434,-39.551,-30.762,0.000
1727575934.971,-33.203,-29.785,-23.926,-5.859,0.000
1727575934.975,-22.949,-30.762,-33.203,-28.809,0.000
1727575934.979,-5.371,-27.832,-38.574,-44.434,0.000
1727575934.982,-34.668,-29.785,-34.180,-44.922,0.000
1727575934.986,-56.152,-37.598,-30.273,-35.156,0.000
1727575934.990,-37.598,-35.645,-34.180,-18.066,0.000
1727575934.994,-33.691,-48.828,-45.898,-32.227,0.000
1727575934.998,-21.973,-44.922,-51.270,-39.062,0.000
1727575935.002,-39.551,-31.250,-46.387,-61.523,0.000
1727575935.006,-63.477,-38.086,-32.227,-56.152,0.000
1727575935.010,-44.434,-45.410,-32.715,-20.996,0.000
1727575935.014,-35.645,-37.109,-45.410,-35.645,0.000
1727575935.018,-14.648,-33.691,-48.828,-51.270,0.000
1727575935.022,-31.738,-42.480,-40.527,-56.641,0.000
1727575935.026,-64.941,-52.246,-31.738,-43.945,0.000
1727575935.030,-38.574,-35.156,-29.785,-17.578,0.000
1727575935.034,-29.297,-24.902,-38.086,-29.785,0.000
1727575935.037,-15.625,-40.527,-39.551,-42.480,0.000
1727575935.041,-20.508,-64.453,-41.504,-47.363,0.000
1727575935.045,-56.152,-66.406,-42.969,-49.316,0.000
1727575935.049,-25.391,-37.598,-33.203,-17.090,0.000
1727575935.053,-1.465,-36.621,-40.039,-12.695,0.000
1727575935.057,4.395,-43.945,-41.504,-21.484,0.000
1727575935.061,1.465,-26.855,-30.273,-44.922,0.000
1727575935.065,-42.969,-34.180,-39.551,-61.035,0.000
1727575935.069,-39.551,-47.852,-34.668,-30.273,0.000
1727575935.073,-14.160,-40.039,-28.320,-22.949,0.000
1727575935.077,5.371,-27.344,-33.203,-38.574,0.000
1727575935.081,9.277,-35.645,-40.527,-48.340,0.000
1727575935.085,-29.785,-51.758,-37.598,-44.922,0.000
1727575935.089,-30.273,-42.480,-36.133,-7.812,0.000
1727575935.092,-19.043,-29.297,-48.340,3.418,0.000
1727575935.096,-10.742,-27.344,-38.574,-17.578,0.000
1727575935.100,0.977,-41.504,-31.738,-21.973,0.000
1727575935.104,-35.156,-51.758,-39.062,-31.738,0.000
1727575935.108,-46.875,-27.832,-30.762,-19.531,0.000
1727575935.112,-29.297,-23.438,-29.297,1.953,0.000
1727575935.116,-19.531,-35.645,-36.133,-13.672,0.000
1727575935.120,-3.906,-34.180,-34.668,-32.715,0.000
1727575935.124,-37.109,-40.039,-37.598,-50.293,0.000
1727575935.128,-52.246,-42.480,-37.598,-30.273,0.000
1727575935.132,-12.207,-22.461,-24.414,14.160,0.000
1727575935.136,-5.859,-31.250,-38.086,-3.418,0.000
1727575935.139,-4.883,-34.668,-43.945,-38.086,0.000
1727575935.143,-31.738,-28.320,-32.715,-47.852,0.000
1727575935.147,-59.570,-41.992,-34.180,-29.297,0.000
1727575935.151,-34.180,-25.391,-22.461,-13.672,0.000
1727575935.155,-14.648,-24.414,-22.461,-30.762,0.000
1727575935.159,0.488,-43.945,-32.227,-35.645,0.000
1727575935.163,-11.230,-53.223,-31.738,-34.180,0.000
1727575935.167,-42.969,-40.527,-34.180,-24.414,0.000
1727575935.171,-29.785,-18.555,-33.691,-12.207,0.000
1727575935.175,-14.160,-18.555,-31.250,-33.691,0.000
1727575935.179,-17.578,-30.273,-30.762,-48.828,0.000
1727575935.182,-41.992,-56.152,-36.133,-54.199,0.000
1727575935.186,-65.430,-57.617,-40.039,-52.734,0.000
1727575935.190,-44.434,-47.852,-40.039,-16.602,0.000
1727575935.194,-28.809,-47.852,-37.598,-9.766,0.000
1727575935.198,-8.789,-26.367,-29.785,-32.715,0.000
1727575935.202,-8.301,-33.203,-38.574,-41.016,0.000
1727575935.206,-52.734,-40.039,-53.711,-41.992,0.000
1727575935.210,-56.152,-25.391,-46.387,-23.438,0.000
1727575935.214,-38.574,-24.902,-48.828,-29.297,0.000
1727575935.218,-26.367,-34.180,-49.316,-39.062,0.000
1727575935.221,-28.320,-53.223,-48.340,-44.922,0.000
1727575935.225,-65.918,-48.828,-49.805,-47.852,0.000
1727575935.229,-57.617,-33.691,-48.340,-8.301,0.000
1727575935.233,-33.691,-33.691,-44.922,-4.395,0.000
1727575935.237,-7.324,-41.016,-42.969,-27.832,0.000
1727575935.241,6.348,-37.598,-48.828,-39.551,0.000
1727575935.245,-41.504,-44.922,-56.641,-60.059,0.000
1727575935.249,-43.945,-33.691,-50.293,-28.320,0.000
1727575935.253,-28.320,-17.578,-49.316,-15.625,0.000
1727575935.256,0.000,-24.414,-50.293,-38.574,0.000
1727575935.260,0.000,-39.062,-48.828,-44.434,0.000
1727575935.264,0.000,-50.781,-47.363,-63.965,0.000
1727575935.268,0.000,-30.273,-35.156,-37.109,0.000
1727575935.272,0.000,-15.137,-34.180,-12.207,0.000
1727575935.276,0.000,-27.832,-40.039,-33.691,0.000
1727575935.280,0.000,-44.434,-42.480,-46.387,0.000
1727575935.284,0.000,-51.758,-45.410,-47.852,0.000
1727575935.288,0.000,-27.832,-31.250,-22.461,0.000
1727575935.292,0.000,-25.391,-25.879,-5.371,0.000
1727575935.296,0.000,-34.668,-25.879,-19.531,0.000
1727575935.299,0.000,-36.621,-33.203,-25.391,0.000
1727575935.303,-24.414,-47.852,-39.062,-37.109,0.000
1727575935.307,-39.551,-33.203,-23.438,-17.090,0.000
1727575935.311,-32.227,-20.508,-26.367,17.578,0.000
1727575935.315,-46.387,-23.438,-44.434,-20.508,0.000
1727575935.319,-4.395,-20.508,-52.246,-47.363,0.000
1727575935.323,-23.926,-37.109,-60.059,-61.035,0.000
1727575935.327,-83.496,-43.945,-49.805,-53.711,0.000
1727575935.330,-60.547,-19.531,-28.320,-20.508,0.000
1727575935.334,-44.922,-22.949,-33.203,-31.250,0.000
1727575935.338,-22.461,-27.344,-39.551,-35.156,0.000
1727575935.342,-29.297,-21.973,-42.480,-41.016,0.000
1727575935.346,-58.105,-27.344,-40.039,-41.992,0.000
1727575935.350,-41.504,-35.156,-30.273,-10.254,0.000
1727575935.354,-21.973,-28.320,-40.039,-13.672,0.000
1727575935.357,-4.395,-19.043,-43.457,-28.809,0.000
1727575935.361,-20.020,-25.879,-42.969,-36.133,0.000
1727575935.365,-50.781,-34.180,-42.969,-41.016,0.000
1727575935.369,-31.250,-45.898,-38.086,-11.719,0.000
1727575935.373,-30.762,-47.363,-41.992,-4.395,0.000
1727575935.377,-18.066,-28.809,-41.504,-20.020,0.000
1727575935.381,-9.277,-21.973,-39.551,-34.180,0.000
1727575935.385,-42.480,-22.461,-37.598,-36.621,0.000
1727575935.389,-36.621,-7.324,-35.156,-9.277,0.000
1727575935.393,-19.043,-11.719,-31.738,-3.418,0.000
1727575935.397,-1.953,-26.367,-22.949,-11.719,0.000
1727575935.401,2.930,-36.133,-20.996,-20.996,0.000
1727575935.405,-37.109,-38.574,-30.273,-42.480,0.000
1727575935.409,-38.086,-24.902,-36.621,-11.719,0.000
1727575935.413,-12.207,-26.367,-38.086,12.695,0.000
1727575935.416,0.000,-29.297,-28.320,6.836,0.000
1727575935.420,3.906,-25.879,-29.785,-13.672,0.000
1727575935.424,-26.855,-35.156,-37.598,-38.574,0.000
1727575935.428,-48.340,-30.273,-37.598,-4.883,0.000
1727575935.432,-31.738,-29.785,-42.480,18.066,0.000
1727575935.436,-17.578,-28.320,-36.621,-19.043,0.000
1727575935.440,-5.371,-31.738,-33.203,-34.180,0.000
1727575935.444,-39.062,-44.434,-41.992,-47.363,0.000
1727575935.448,-55.176,-43.945,-39.551,-40.039,0.000
1727575935.452,-29.785,-30.273,-36.621,-6.348,0.000
1727575935.456,-23.438,-22.461,-43.457,-15.137,0.000
1727575935.460,-11.230,-31.738,-43.457,-30.273,0.000
1727575935.464,-26.367,-48.828,-46.875,-43.945,0.000
1727575935.467,-56.641,-42.480,-47.363,-38.574,0.000
1727575935.471,-46.875,-35.645,-39.551,-20.508,0.000
1727575935.475,-22.461,-53.711,-41.016,-26.855,0.000
1727575935.479,-5.859,-52.246,-41.504,-25.879,0.000
1727575935.483,-37.598,-45.898,-41.016,-43.945,0.000
1727575935.487,-61.035,-45.898,-44.434,-47.363,0.000
1727575935.491,-36.621,-35.156,-37.109,-0.488,0.000
1727575935.495,-23.926,-39.551,-29.785,-2.930,0.000
1727575935.499,-5.859,-37.598,-34.180,-24.414,0.000
1727575935.503,-19.043,-40.527,-46.387,-40.527,0.000
1727575935.507,-47.852,-54.688,-44.922,-36.621,0.000
1727575935.511,-29.785,-42.969,-35.156,-0.488,0.000
1727575935.514,-8.301,-33.203,-38.086,-8.301,0.000
1727575935.518,4.883,-36.133,-48.340,-24.414,0.000
1727575935.522,-14.160,-47.363,-62.012,-27.832,0.000
1727575935.526,-44.434,-32.715,-47.363,-39.551,0.000
1727575935.530,-26.855,-2.441,-29.785,-15.137,0.000
1727575935.534,-22.949,-10.742,-34.180,-9.766,0.000
1727575935.538,-20.508,-21.973,-38.086,-27.344,0.000
1727575935.542,-14.648,-29.297,-37.109,-39.551,0.000
1727575935.546,-51.758,-39.062,-36.133,-48.828,0.000
1727575935.550,-41.992,-30.762,-33.203,-14.160,0.000
1727575935.554,-17.578,-27.832,-31.250,-3.418,0.000
1727575935.557,-0.488,-39.551,-33.691,-31.250,0.000
1727575935.561,1.465,-45.898,-35.645,-49.805,0.000
1727575935.565,-43.945,-54.688,-46.387,-59.570,0.000
1727575935.569,-47.852,-51.270,-46.875,-30.273,0.000
1727575935.573,-30.762,-31.738,-40.527,-13.672,0.000
1727575935.577,-14.160,-45.410,-44.922,-26.367,0.000
1727575935.581,-18.555,-56.641,-55.176,-40.039,0.000
1727575935.585,-70.801,-50.781,-57.129,-65.430,0.000
1727575935.589,-78.613,-51.270,-49.316,-55.176,0.000
1727575935.593,-47.363,-49.316,-55.176,-22.461,0.000
1727575935.596,-38.086,-44.922,-48.340,-20.996,0.000
1727575935.600,-27.344,-40.039,-45.410,-35.156,0.000
1727575935.604,-42.480,-49.805,-56.641,-55.176,0.000
1727575935.608,-59.082,-52.734,-50.293,-41.504,0.000
1727575935.612,-43.945,-47.363,-53.223,-23.438,0.000
1727575935.616,-38.086,-37.598,-50.781,-44.434,0.000
1727575935.620,-22.949,-41.992,-46.387,-52.246,0.000
1727575935.624,-37.598,-57.129,-52.734,-59.082,0.000
1727575935.628,-62.012,-54.199,-50.293,-47.363,0.000
1727575935.631,-38.086,-38.086,-44.434,-21.484,0.000
1727575935.635,-22.461,-34.180,-39.062,-27.344,0.000
1727575935.639,-15.137,-33.203,-34.668,-33.691,0.000
1727575935.643,-25.879,-35.645,-47.363,-48.828,0.000
1727575935.647,-61.035,-41.016,-49.805,-38.086,0.000
1727575935.651,-57.129,-40.527,-38.574,-10.254,0.000
1727575935.655,-36.133,-40.039,-35.645,-27.344,0.000
1727575935.659,-11.719,-32.715,-32.227,-26.855,0.000
1727575935.663,-21.484,-26.855,-34.180,-28.809,0.000
1727575935.667,-58.594,-31.250,-39.551,-36.133,0.000
1727575935.671,-37.109,-27.832,-33.691,-9.277,0.000
1727575935.674,-13.672,-15.625,-31.250,-5.371,0.000
1727575935.678,-0.488,-11.230,-40.527,-22.461,0.000
1727575935.682,-13.672,-34.668,-39.062,-38.086,0.000
1727575935.686,-55.176,-44.922,-34.180,-41.992,0.000
1727575935.690,-42.969,-30.273,-29.785,-3.906,0.000
1727575935.694,-19.531,-21.484,-21.973,7.324,0.000
1727575935.698,0.000,-29.785,-19.531,2.441,0.000
1727575935.702,6.836,-46.387,-37.598,-9.766,0.000
1727575935.705,-37.109,-40.039,-38.086,-36.621,0.000
1727575935.709,-45.898,-32.227,-33.203,-25.391,0.000
1727575935.713,-27.344,-40.039,-40.527,-17.090,0.000
1727575935.717,-13.672,-37.598,-42.969,-31.738,0.000
1727575935.721,-0.488,-35.156,-35.156,-32.715,0.000
1727575935.725,-50.781,-45.410,-36.621,-57.617,0.000
1727575935.729,-62.988,-48.828,-46.875,-49.805,0.000
1727575935.732,-37.109,-36.621,-48.340,-21.484,0.000
1727575935.736,-28.320,-28.809,-46.875,-37.109,0.000
1727575935.740,-22.949,-36.133,-53.223,-60.059,0.000
1727575935.744,-57.129,-52.246,-65.918,-74.707,0.000
1727575935.748,-69.336,-36.621,-61.035,-47.363,0.000
1727575935.752,-41.992,-12.207,-44.922,-21.973,0.000
1727575935.756,-20.996,-25.391,-46.875,-34.668,0.000
1727575935.760,-8.789,-41.016,-56.641,-46.387,0.000
1727575935.764,-50.293,-46.875,-62.500,-65.430,0.000
1727575935.768,-76.172,-37.598,-70.312,-50.293,0.000
1727575935.772,-53.223,-30.762,-65.918,-21.484,0.000
1727575935.776,-29.297,-43.945,-50.781,-32.227,0.000
1727575935.780,-5.371,-46.875,-40.039,-45.410,0.000
1727575935.784,-36.621,-44.434,-54.199,-57.129,0.000
1727575935.787,-61.035,-45.898,-62.012,-37.598,0.000
1727575935.791,-35.645,-43.945,-52.734,5.371,0.000
1727575935.795,-16.113,-29.785,-49.316,-4.883,0.000
1727575935.799,21.484,-12.207,-48.828,-31.738,0.000
1727575935.803,-10.742,-34.668,-56.152,-46.875,0.000
1727575935.807,-51.758,-45.410,-49.805,-29.785,0.000
1727575935.811,-28.809,-13.184,-34.668,0.488,0.000
1727575935.815,-0.488,-5.371,-29.785,-0.977,0.000
1727575935.819,18.555,-15.625,-38.086,-14.648,0.000
1727575935.823,-13.672,-27.344,-55.664,-36.621,0.000
1727575935.827,-49.805,-20.020,-46.387,-40.527,0.000
1727575935.831,-26.855,-11.719,-27.832,-0.488,0.000
1727575935.835,-6.348,-28.320,-26.367,1.953,0.000
1727575935.838,10.742,-31.738,-29.297,-20.508,0.000
1727575935.842,3.418,-24.902,-35.156,-30.762,0.000
1727575935.846,-32.227,-23.438,-37.598,-34.668,0.000
1727575935.850,-29.297,-17.578,-30.273,-8.789,0.000
1727575935.854,-17.090,-9.766,-30.273,8.301,0.000
1727575935.858,-5.859,-9.277,-39.062,-8.301,0.000
1727575935.862,-14.160,-35.156,-48.340,-34.668,0.000
1727575935.866,-46.875,-55.664,-52.246,-52.734,0.000
1727575935.870,-47.852,-31.738,-48.340,-35.156,0.000
1727575935.874,-46.875,-17.090,-49.805,-24.414,0.000
1727575935.878,-30.762,-23.926,-47.852,-36.133,0.000
1727575935.882,-14.648,-27.832,-42.969,-43.945,0.000
1727575935.885,-53.711,-37.598,-43.457,-62.988,0.000
1727575935.889,-62.500,-35.156,-41.992,-38.086,0.000
1727575935.893,-44.922,-29.785,-38.086,-15.137,0.000
1727575935.897,-22.461,-40.039,-35.645,-29.785,0.000
1727575935.901,-6.348,-34.668,-39.551,-36.133,0.000
1727575935.905,-53.223,-43.945,-48.340,-50.781,0.000
1727575935.909,-71.289,-48.828,-37.109,-39.551,0.000
1727575935.913,-40.039,-33.203,-21.973,-16.602,0.000
1727575935.917,-27.344,-33.691,-30.273,-28.809,0.000
1727575935.921,-8.301,-43.457,-37.598,-37.598,0.000
1727575935.925,-35.156,-47.852,-36.133,-50.293,0.000
1727575935.928,-63.965,-36.621,-34.180,-36.621,0.000
1727575935.932,-39.551,-37.598,-38.574,-5.859,0.000
1727575935.936,-23.926,-38.086,-39.551,-13.184,0.000
1727575935.940,1.953,-30.762,-37.598,-10.742,0.000
1727575935.944,-16.602,-48.828,-44.922,-37.109,0.000
1727575935.948,-51.758,-39.551,-38.086,-45.410,0.000
1727575935.952,-26.855,-18.066,-30.273,5.859,0.000
1727575935.956,-2.930,-28.320,-36.133,-3.418,0.000
1727575935.960,19.531,-29.785,-42.480,-23.438,0.000
1727575935.964,-6.836,-22.949,-46.875,-28.809,0.000
1727575935.967,-46.875,-23.438,-40.039,-33.203,0.000
1727575935.971,-21.973,-24.414,-27.344,2.441,0.000
1727575935.975,-7.812,-20.508,-26.855,-0.488,0.000
1727575935.979,3.418,-25.879,-27.832,-29.297,0.000
1727575935.983,-4.883,-43.945,-35.156,-41.504,0.000
1727575935.987,-37.109,-46.387,-39.062,-35.645,0.000
1727575935.991,-29.785,-20.020,-26.855,-3.418,0.000
1727575935.995,-7.324,-26.855,-23.926,0.488,0.000
1727575935.999,25.391,-37.109,-29.297,-13.672,0.000
1727575936.003,3.906,-34.668,-33.691,-32.227,0.000
1727575936.006,-67.383,-38.086,-41.992,-46.875,0.000
1727575936.010,-56.641,-36.133,-40.527,-25.879,0.000
1727575936.014,-30.762,-38.574,-33.203,-18.066,0.000
1727575936.018,-13.184,-34.180,-33.203,-28.320,0.000
1727575936.022,-10.742,-42.480,-40.039,-41.016,0.000
1727575936.026,-53.223,-67.871,-54.688,-59.082,0.000
1727575936.030,-46.387,-51.270,-57.129,-22.461,0.000
1727575936.034,-35.156,-41.016,-52.246,-13.672,0.000
1727575936.038,-37.598,-36.133,-55.664,-46.875,0.000
1727575936.041,-16.602,-29.785,-61.035,-53.711,0.000
1727575936.045,-54.688,-42.480,-73.242,-71.777,0.000
1727575936.049,-77.148,-38.574,-57.617,-56.641,0.000
1727575936.053,-46.875,-36.133,-48.340,-28.320,0.000
1727575936.057,-18.066,-60.547,-48.340,-38.086,0.000
1727575936.061,-10.742,-100.586,-48.340,-53.223,0.000
1727575936.065,-62.012,-75.195,-52.734,-63.477,0.000
1727575936.069,-54.199,-32.227,-46.387,-29.297,0.000
1727575936.073,-3.418,-48.828,-44.434,17.578,0.000
1727575936.076,1.465,-21.973,-30.762,11.719,0.000
1727575936.080,3.418,-38.574,-40.527,-22.949,0.000
1727575936.084,-0.488,-104.492,-43.457,-32.227,0.000
1727575936.088,-14.160,-126.953,-37.109,-15.137,0.000
1727575936.092,0.488,-72.266,-90.820,6.348,0.000
1727575936.096,3.906,-55.176,-111.328,-4.883,0.000
1727575936.100,101.562,-132.812,23.438,48.828,0.000
1727575936.103,130.859,-140.625,56.641,93.750,0.000
1727575936.107,31.738,-51.758,-61.035,52.734,0.000
1727575936.111,194.336,-64.453,3.418,208.984,0.000
1727575936.115,203.613,-159.180,64.941,187.012,0.000
1727575936.119,11.719,-15.625,-65.918,-24.414,0.000
1727575936.123,-67.383,-31.250,-202.637,-88.867,0.000
1727575936.127,-105.957,-137.695,-100.586,-80.078,0.000
1727575936.131,-25.879,129.883,101.074,11.719,0.000
1727575936.135,51.758,21.484,-16.602,48.828,0.000
1727575936.139,112.305,-78.613,-130.859,75.684,0.000
1727575936.143,-63.477,276.367,19.043,-92.773,0.000
1727575936.147,-223.633,354.980,-94.727,-217.773,0.000
1727575936.151,21.484,533.203,-187.988,54.688,0.000
1727575936.155,41.016,934.082,-30.762,73.242,0.000
1727575936.158,-198.730,976.562,41.504,-196.289,0.000
1727575936.162,-202.637,954.102,10.742,-225.098,0.000
1727575936.166,-103.027,969.727,-30.762,-113.770,0.000
1727575936.170,16.113,966.797,44.922,26.367,0.000
1727575936.174,4.883,966.797,92.773,22.461,0.000
1727575936.178,-68.848,966.797,15.625,-79.590,0.000
1727575936.182,-19.531,966.309,104.492,-45.410,0.000
1727575936.186,-28.320,966.309,194.336,-26.367,0.000
1727575936.190,-25.879,966.797,189.453,-6.348,0.000
1727575936.194,14.160,966.309,179.688,26.367,0.000
1727575936.198,18.555,966.309,217.773,21.973,0.000
1727575936.202,25.391,966.797,293.945,22.949,0.000
1727575936.206,2.441,966.309,327.148,25.391,0.000
1727575936.210,9.766,966.797,353.027,47.852,0.000
1727575936.213,38.574,967.285,375.977,63.477,0.000
1727575936.217,58.594,964.844,396.484,54.199,0.000
1727575936.221,77.148,970.703,424.316,37.109,0.000
1727575936.225,54.688,958.496,446.777,30.273,0.000
1727575936.229,48.340,928.711,464.844,62.988,0.000
1727575936.233,55.176,951.660,464.844,81.055,0.000
1727575936.237,62.012,945.801,457.031,63.965,0.000
1727575936.241,76.172,911.621,458.984,50.293,0.000
1727575936.245,40.527,917.969,431.152,26.855,0.000
1727575936.249,18.555,949.707,395.508,25.879,0.000
1727575936.253,40.527,960.938,365.234,55.664,0.000
1727575936.257,43.457,939.941,333.496,42.969,0.000
1727575936.260,43.457,919.922,301.270,30.273,0.000
1727575936.264,6.836,891.602,266.602,3.418,0.000
1727575936.268,-13.672,861.328,230.957,-10.742,0.000
1727575936.272,5.371,808.105,193.848,28.809,0.000
1727575936.276,-1.465,737.793,169.922,11.230,0.000
1727575936.280,8.789,680.176,145.996,-30.273,0.000
1727575936.284,-11.719,609.375,112.793,-48.828,0.000
1727575936.288,-47.852,518.555,78.613,-50.781,0.000
1727575936.292,-34.668,442.871,36.133,-22.949,0.000
1727575936.296,-24.902,361.328,-20.996,-19.531,0.000
1727575936.300,-13.672,270.020,-66.406,-29.297,0.000
1727575936.303,-19.531,196.289,-95.215,-50.781,0.000
1727575936.307,-53.223,140.625,-119.629,-57.617,0.000
1727575936.311,-55.664,106.934,-133.301,-28.320,0.000
1727575936.315,-45.410,42.480,-150.391,-44.434,0.000
1727575936.319,-51.758,-38.086,-162.598,-64.941,0.000
1727575936.323,-59.570,-87.402,-160.645,-75.195,0.000
1727575936.327,-93.262,-140.625,-179.199,-91.309,0.000
1727575936.331,-91.797,-186.035,-209.473,-64.453,0.000
1727575936.335,0.000,-215.332,-216.309,-54.199,0.000
1727575936.339,0.000,-229.492,-199.707,-69.824,0.000
1727575936.342,0.000,-239.258,-199.219,-81.543,0.000
1727575936.346,0.000,-278.320,-207.031,-102.051,0.000
1727575936.350,0.000,-289.551,-207.031,-68.359,0.000
1727575936.354,0.000,-294.434,-222.168,-41.992,0.000
1727575936.358,0.000,-334.473,-241.699,-61.523,0.000
1727575936.362,0.000,-375.488,-249.023,-68.359,0.000
1727575936.366,0.000,-396.484,-242.676,-88.379,0.000
1727575936.370,0.000,-404.785,-244.141,-75.684,0.000
1727575936.374,0.000,-420.898,-250.488,-56.641,0.000
1727575936.378,0.000,-442.871,-242.188,-70.801,0.000
1727575936.381,-43.945,-464.844,-229.004,-81.543,0.000
1727575936.385,-69.824,-477.539,-223.633,-90.820,0.000
1727575936.389,-70.801,-469.238,-212.402,-60.547,0.000
1727575936.393,-49.805,-470.703,-197.266,-30.273,0.000
1727575936.397,-40.039,-469.727,-196.777,-38.086,0.000
1727575936.401,-30.762,-472.656,-188.477,-60.059,0.000
1727575936.405,-62.988,-493.164,-166.504,-72.266,0.000
1727575936.409,-82.031,-479.004,-145.996,-58.105,0.000
1727575936.413,-60.059,-454.102,-144.043,-48.828,0.000
1727575936.417,-39.062,-467.773,-146.973,-54.688,0.000
1727575936.420,-16.113,-494.629,-130.371,-55.664,0.000
1727575936.424,-38.574,-494.141,-123.535,-78.125,0.000
1727575936.428,-79.102,-476.562,-121.582,-82.031,0.000
1727575936.432,-69.824,-472.656,-117.676,-52.734,0.000
1727575936.436,-50.293,-466.797,-113.281,-51.758,0.000
1727575936.440,-28.320,-464.844,-107.910,-65.918,0.000
1727575936.444,-48.828,-474.609,-116.699,-74.219,0.000
1727575936.448,-88.867,-458.984,-115.723,-72.266,0.000
1727575936.451,-69.336,-447.266,-112.305,-37.598,0.000
1727575936.455,-47.363,-441.406,-104.980,-41.504,0.000
1727575936.459,-25.879,-427.734,-106.934,-71.289,0.000
1727575936.463,-34.180,-418.945,-117.188,-75.684,0.000
1727575936.467,-85.449,-399.902,-112.305,-82.031,0.000
1727575936.471,-75.684,-387.207,-125.000,-55.176,0.000
1727575936.475,-45.898,-377.441,-126.465,-38.086,0.000
1727575936.478,-19.531,-375.488,-98.633,-53.711,0.000
1727575936.482,-12.695,-384.277,-86.426,-51.758,0.000
1727575936.486,-59.082,-399.414,-103.027,-52.246,0.000
1727575936.490,-70.801,-386.719,-116.699,-56.152,0.000
1727575936.494,-61.035,-383.789,-122.559,-61.523,0.000
1727575936.498,-41.992,-376.953,-121.582,-60.547,0.000
1727575936.502,-30.762,-340.820,-114.258,-67.871,0.000
1727575936.506,-76.660,-342.285,-119.629,-81.055,0.000
1727575936.510,-69.336,-333.984,-112.793,-43.457,0.000
1727575936.514,-33.203,-315.430,-99.609,-16.113,0.000
1727575936.518,-23.926,-314.941,-91.797,-38.086,0.000
1727575936.522,-20.020,-323.730,-95.703,-57.617,0.000
1727575936.526,-54.688,-332.031,-100.586,-65.918,0.000
1727575936.530,-58.105,-296.875,-89.844,-30.762,0.000
1727575936.534,-24.414,-275.391,-77.148,9.766,0.000
1727575936.537,-8.789,-295.410,-87.891,-14.648,0.000
1727575936.541,11.230,-300.781,-104.004,-45.898,0.000
1727575936.545,-32.715,-288.574,-101.562,-68.848,0.000
1727575936.549,-56.641,-270.996,-88.379,-50.781,0.000
1727575936.553,-18.555,-273.926,-84.961,-11.719,0.000
1727575936.557,-7.812,-285.645,-96.680,-22.949,0.000
1727575936.561,-2.441,-268.066,-95.703,-35.156,0.000
1727575936.565,-32.715,-255.371,-91.309,-49.316,0.000
1727575936.569,-62.012,-250.488,-84.473,-37.109,0.000
1727575936.573,-39.062,-237.793,-80.566,-13.184,0.000
1727575936.577,-17.578,-231.445,-92.773,-28.320,0.000
1727575936.581,-5.859,-243.164,-92.285,-45.410,0.000
1727575936.585,-41.016,-264.648,-89.844,-67.383,0.000
1727575936.588,-68.848,-250.000,-85.938,-66.406,0.000
1727575936.592,-39.551,-225.098,-71.777,-27.344,0.000
1727575936.596,-24.902,-216.309,-66.895,-23.926,0.000
1727575936.600,-14.648,-222.168,-71.777,-35.156,0.000
1727575936.604,-40.527,-229.004,-76.172,-40.039,0.000
1727575936.608,-92.773,-201.660,-67.871,-41.504,0.000
1727575936.612,-77.637,-174.805,-58.594,-10.254,0.000
1727575936.616,-60.547,-188.477,-61.523,-21.484,0.000
1727575936.620,-43.457,-192.383,-67.383,-43.945,0.000
1727575936.624,-44.434,-194.336,-73.730,-51.758,0.000
1727575936.628,-75.195,-191.406,-60.059,-51.758,0.000
1727575936.632,-62.012,-166.504,-52.246,-22.949,0.000
1727575936.635,-38.574,-169.434,-57.617,-20.020,0.000
1727575936.639,-13.672,-182.129,-58.594,-31.738,0.000
1727575936.643,-32.227,-174.316,-70.312,-53.223,0.000
1727575936.647,-72.266,-157.227,-67.383,-47.852,0.000
1727575936.651,-55.176,-113.281,-52.734,-10.742,0.000
1727575936.655,-45.410,-79.102,-53.711,-20.996,0.000
1727575936.659,-30.273,-77.148,-55.176,-42.480,0.000
1727575936.663,-13.672,-74.219,-62.012,-42.969,0.000
1727575936.667,-54.199,-69.336,-71.777,-69.336,0.000
1727575936.671,-55.664,-78.613,-69.824,-51.270,0.000
1727575936.675,-42.969,-72.266,-72.266,-29.297,0.000
1727575936.678,-45.410,-54.688,-65.430,-46.387,0.000
1727575936.682,-30.762,-54.199,-60.547,-53.711,0.000
1727575936.686,-49.805,-56.641,-71.777,-69.336,0.000
1727575936.690,-61.035,-47.852,-67.871,-38.574,0.000
1727575936.694,-37.598,-41.504,-50.293,-2.930,0.000
1727575936.698,-14.160,-37.109,-50.781,-19.531,0.000
1727575936.702,-2.930,-52.246,-58.105,-30.273,0.000
1727575936.706,-26.855,-78.125,-58.594,-48.340,0.000
1727575936.710,-33.691,-61.035,-60.547,-34.668,0.000
1727575936.714,-14.160,-42.480,-66.895,-10.254,0.000
1727575936.717,5.371,-47.852,-62.500,-21.973,0.000
1727575936.721,13.184,-62.500,-50.781,-35.645,0.000
1727575936.725,-31.738,-68.848,-54.199,-56.152,0.000
1727575936.729,-56.152,-70.312,-55.664,-41.016,0.000
1727575936.733,-25.879,-75.195,-52.734,-7.812,0.000
1727575936.737,-20.996,-90.332,-60.547,-18.066,0.000
1727575936.741,-10.254,-77.148,-55.664,-28.809,0.000
1727575936.745,-23.438,-67.871,-42.480,-42.969,0.000
1727575936.749,-58.594,-84.961,-41.016,-37.109,0.000
1727575936.753,-41.504,-74.707,-41.016,-1.953,0.000
1727575936.756,-24.902,-64.941,-35.156,-26.367,0.000
1727575936.760,-8.301,-83.496,-38.574,-43.945,0.000
1727575936.764,-20.508,-94.727,-57.617,-50.293,0.000
1727575936.768,-56.641,-84.961,-50.293,-52.246,0.000
1727575936.772,-45.898,-74.707,-36.133,-19.531,0.000
1727575936.776,-28.320,-82.031,-45.410,-29.297,0.000
1727575936.780,-18.066,-93.262,-43.457,-43.945,0.000
1727575936.784,-30.762,-99.609,-40.527,-42.480,0.000
1727575936.788,-70.312,-97.168,-41.504,-55.176,0.000
1727575936.792,-55.176,-97.656,-39.062,-22.461,0.000
1727575936.795,-35.645,-85.938,-46.875,-12.207,0.000
1727575936.799,-23.926,-74.219,-49.316,-34.668,0.000
1727575936.803,-18.555,-90.820,-43.945,-45.410,0.000
1727575936.807,-60.547,-109.375,-53.711,-58.594,0.000
1727575936.811,-59.082,-92.773,-53.711,-29.785,0.000
1727575936.815,-24.414,-75.684,-42.480,-8.301,0.000
1727575936.819,-10.254,-83.008,-44.922,-23.926,0.000
1727575936.823,-8.789,-86.914,-43.945,-26.855,0.000
1727575936.827,-43.945,-101.074,-43.945,-37.109,0.000
1727575936.830,-44.434,-83.008,-47.852,-27.344,0.000
1727575936.834,-17.090,-61.035,-43.945,-20.508,0.000
1727575936.838,-15.137,-58.105,-49.805,-35.645,0.000
1727575936.842,-10.254,-44.922,-42.969,-39.551,0.000
1727575936.846,-42.480,-50.293,-38.574,-49.316,0.000
1727575936.850,-43.945,-57.617,-33.203,-21.484,0.000
1727575936.854,-14.648,-57.129,-28.320,11.230,0.000
1727575936.857,-5.371,-65.918,-33.203,-5.859,0.000
1727575936.861,12.695,-69.824,-38.574,-25.879,0.000
1727575936.865,-22.949,-68.359,-46.875,-44.922,0.000
1727575936.869,-41.992,-65.430,-44.434,-22.949,0.000
1727575936.873,-26.367,-62.012,-36.133,5.371,0.000
1727575936.877,-24.902,-58.594,-41.992,-18.066,0.000
1727575936.881,0.488,-67.871,-43.457,-27.344,0.000
1727575936.885,-19.043,-82.031,-46.875,-33.203,0.000
1727575936.889,-57.617,-86.914,-44.922,-35.156,0.000
1727575936.893,-34.180,-73.242,-32.227,-2.441,0.000
1727575936.897,-16.113,-62.500,-31.738,-3.906,0.000
1727575936.901,-2.441,-67.871,-37.109,-32.227,0.000
1727575936.905,-12.207,-74.707,-37.109,-53.223,0.000
1727575936.909,-56.641,-70.312,-40.039,-41.504,0.000
1727575936.912,-48.828,-70.312,-48.340,-10.254,0.000
1727575936.916,-35.156,-74.707,-47.852,-27.344,0.000
1727575936.920,-19.531,-63.477,-39.062,-42.480,0.000
1727575936.924,-31.250,-81.055,-43.945,-53.711,0.000
1727575936.928,-66.406,-93.750,-46.387,-56.641,0.000
1727575936.932,-48.340,-90.820,-38.086,-12.695,0.000
1727575936.936,-35.645,-92.285,-48.340,-17.090,0.000
1727575936.940,-19.531,-79.102,-61.035,-46.387,0.000
1727575936.944,-31.250,-89.355,-57.617,-60.547,0.000
1727575936.948,-74.707,-105.957,-48.828,-59.570,0.000
1727575936.952,-55.176,-87.891,-43.945,-28.320,0.000
1727575936.956,-25.879,-86.426,-49.805,-5.859,0.000
1727575936.960,-21.484,-80.566,-51.758,-13.184,0.000
1727575936.963,-25.879,-75.684,-48.828,-36.133,0.000
1727575936.967,-56.641,-71.289,-45.898,-46.875,0.000
1727575936.971,-50.293,-59.082,-49.316,-19.531,0.000
1727575936.975,-22.949,-87.402,-47.852,10.742,0.000
1727575936.979,-0.488,-97.656,-41.016,7.812,0.000
1727575936.983,9.766,-78.125,-38.574,-25.391,0.000
1727575936.987,-45.898,-79.590,-40.527,-60.547,0.000
1727575936.991,-64.941,-59.082,-45.410,-28.809,0.000
1727575936.995,-28.320,-39.062,-41.992,2.930,0.000
1727575936.999,-6.836,-53.711,-44.434,-17.578,0.000
1727575937.003,7.324,-53.223,-36.621,-20.508,0.000
1727575937.007,-16.113,-65.918,-31.738,-20.508,0.000
1727575937.010,-29.785,-59.082,-38.574,-11.230,0.000
1727575937.014,-19.531,-48.828,-41.016,0.488,0.000
1727575937.018,-13.184,-56.152,-39.551,-20.508,0.000
1727575937.022,11.230,-54.688,-34.668,-26.367,0.000
1727575937.026,-18.066,-50.781,-37.109,-37.109,0.000
1727575937.030,-39.551,-45.410,-35.645,-35.645,0.000
1727575937.034,-20.508,-52.734,-30.762,-9.277,0.000
1727575937.038,-15.137,-57.617,-30.762,-16.602,0.000
1727575937.042,3.906,-67.871,-33.691,-30.762,0.000
1727575937.046,-25.391,-83.008,-40.039,-36.133,0.000
1727575937.050,-57.129,-57.129,-40.039,-22.949,0.000
1727575937.053,-41.504,-37.598,-40.527,-3.906,0.000
1727575937.057,-32.715,-47.852,-44.922,-24.902,0.000
1727575937.061,-11.230,-56.641,-51.758,-44.434,0.000
1727575937.065,-16.602,-63.965,-56.152,-48.340,0.000
1727575937.069,-37.109,-66.895,-48.340,-46.875,0.000
1727575937.073,-28.320,-61.523,-37.109,-24.414,0.000
1727575937.077,-40.039,-59.082,-40.527,-35.645,0.000
1727575937.081,-32.715,-72.754,-51.270,-55.176,0.000
1727575937.085,-40.039,-81.543,-47.852,-62.500,0.000
1727575937.088,-75.684,-67.871,-46.875,-66.406,0.000
1727575937.092,-64.453,-65.918,-49.316,-47.852,0.000
1727575937.096,-50.781,-66.406,-46.387,-38.574,0.000
1727575937.100,-34.668,-62.012,-41.016,-52.734,0.000
1727575937.104,-30.273,-64.941,-36.621,-74.219,0.000
1727575937.108,-66.406,-68.848,-33.691,-69.824,0.000
1727575937.112,-59.082,-69.336,-33.691,-29.785,0.000
1727575937.116,-35.645,-59.570,-41.504,-28.809,0.000
1727575937.120,-32.227,-45.410,-45.410,-52.246,0.000
1727575937.124,-26.367,-46.875,-41.992,-59.082,0.000
1727575937.128,-48.340,-66.406,-46.875,-65.918,0.000
1727575937.131,-51.270,-61.523,-40.527,-32.227,0.000
1727575937.135,-30.762,-35.645,-37.598,0.000,0.000
1727575937.139,-7.324,-39.062,-39.551,-10.742,0.000
1727575937.143,-2.930,-46.875,-39.062,-27.832,0.000
1727575937.147,-40.039,-46.875,-34.180,-40.527,0.000
1727575937.151,-35.645,-43.457,-24.414,-8.789,0.000
1727575937.155,-20.020,-41.992,-30.273,12.695,0.000
1727575937.159,3.906,-31.738,-24.902,-0.488,0.000
1727575937.163,19.531,-21.973,-20.508,-18.066,0.000
1727575937.166,-25.391,-45.410,-33.691,-37.598,0.000
1727575937.170,-41.016,-44.922,-38.086,-28.320,0.000
1727575937.174,-21.484,-38.574,-26.855,-20.996,0.000
1727575937.178,-4.395,-49.316,-30.273,-30.762,0.000
1727575937.182,23.926,-54.199,-36.621,-18.066,0.000
1727575937.186,-7.324,-60.547,-31.738,-34.668,0.000
1727575937.190,-43.945,-52.734,-36.133,-27.832,0.000
1727575937.194,-33.203,-30.273,-35.645,1.953,0.000
1727575937.198,-31.250,-33.691,-39.551,-27.344,0.000
1727575937.201,-16.113,-59.082,-52.734,-43.457,0.000
1727575937.205,-44.434,-56.641,-49.805,-61.523,0.000
1727575937.209,-65.430,-45.898,-38.574,-66.406,0.000
1727575937.213,-33.203,-46.875,-43.457,-31.250,0.000
1727575937.217,-26.855,-41.504,-52.734,-41.504,0.000
1727575937.221,-16.113,-41.016,-49.805,-55.176,0.000
1727575937.225,-33.203,-53.223,-42.480,-56.641,0.000
1727575937.228,-68.848,-52.734,-38.574,-50.293,0.000
1727575937.232,-45.898,-49.805,-35.156,-29.785,0.000
1727575937.236,-36.621,-70.801,-30.762,-42.969,0.000
1727575937.240,-41.992,-74.707,-41.504,-49.316,0.000
1727575937.244,-41.504,-61.523,-48.828,-42.480,0.000
1727575937.248,-69.336,-59.570,-41.504,-49.316,0.000
1727575937.252,-62.988,-43.945,-42.969,-36.621,0.000
1727575937.256,-58.594,-55.664,-54.199,-48.340,0.000
1727575937.260,-39.062,-58.105,-45.898,-60.547,0.000
1727575937.264,-31.738,-34.180,-38.086,-61.035,0.000
1727575937.268,-70.312,-29.785,-37.109,-65.918,0.000
1727575937.272,0.000,-29.297,-35.645,-25.879,0.000
1727575937.276,0.000,-46.387,-41.992,-8.789,0.000
1727575937.280,0.000,-50.781,-42.969,-34.180,0.000
1727575937.283,0.000,-43.945,-32.227,-53.711,0.000
1727575937.287,0.000,-51.758,-34.180,-56.152,0.000
1727575937.291,0.000,-56.152,-39.551,-31.738,0.000
1727575937.295,0.000,-41.504,-27.832,-20.996,0.000
1727575937.299,0.000,-23.438,-23.438,-32.715,0.000
1727575937.303,0.000,-32.715,-33.203,-27.344,0.000
1727575937.307,0.000,-51.758,-40.527,-23.926,0.000
1727575937.311,0.000,-35.156,-21.484,-13.184,0.000
1727575937.315,0.000,-21.973,-2.930,-0.977,0.000
1727575937.319,7.812,-41.016,-9.766,-20.996,0.000
1727575937.323,-8.301,-60.059,-24.414,-35.156,0.000
1727575937.327,-49.805,-53.223,-31.738,-45.410,0.000
1727575937.331,-41.504,-25.879,-16.113,-25.879,0.000
1727575937.335,-10.742,-20.508,-7.324,-2.930,0.000
1727575937.338,-2.930,-28.809,-14.648,-15.137,0.000
1727575937.342,10.742,-21.484,-15.137,-27.832,0.000
1727575937.346,-16.113,-19.531,-9.766,-41.016,0.000
1727575937.350,-28.320,-26.367,-14.160,-20.020,0.000
1727575937.354,-14.160,-30.762,-13.672,3.906,0.000
1727575937.358,-20.020,-16.113,-19.043,-19.043,0.000
1727575937.362,1.465,-21.484,-31.738,-37.109,0.000
1727575937.366,0.000,-44.922,-36.133,-50.781,0.000
1727575937.370,0.000,-42.480,-30.762,-37.598,0.000
1727575937.374,0.000,-26.855,-31.738,-19.043,0.000
1727575937.378,0.000,-25.879,-30.273,-34.180,0.000
1727575937.382,0.000,-34.180,-28.809,-37.109,0.000
1727575937.385,0.000,-42.969,-37.109,-48.828,0.000
1727575937.389,0.000,-44.922,-39.551,-53.223,0.000
1727575937.393,0.000,-24.902,-25.391,-12.207,0.000
1727575937.397,0.000,-41.504,-30.273,-20.996,0.000
1727575937.401,0.000,-48.340,-41.016,-52.246,0.000
1727575937.405,0.000,-43.945,-40.527,-63.477,0.000
1727575937.409,0.000,-59.082,-48.340,-64.941,0.000
1727575937.413,-58.594,-44.922,-44.922,-25.879,0.000
1727575937.417,-37.109,-34.180,-33.203,-19.043,0.000
1727575937.421,-24.414,-43.457,-35.645,-35.645,0.000
1727575937.425,-23.438,-49.316,-42.969,-42.969,0.000
1727575937.428,-56.152,-46.875,-37.109,-50.293,0.000
1727575937.432,-45.898,-40.039,-26.367,-15.137,0.000
1727575937.436,-14.648,-34.668,-27.344,1.465,0.000
1727575937.440,8.301,-40.527,-35.156,-10.742,0.000
1727575937.444,0.977,-46.875,-35.156,-22.461,0.000
1727575937.448,-41.992,-28.809,-31.250,-41.992,0.000
1727575937.452,-42.480,-16.602,-34.180,-23.438,0.000
1727575937.456,-20.996,-26.367,-27.344,2.930,0.000
1727575937.460,-7.324,-16.113,-18.066,-13.184,0.000
1727575937.464,5.371,-0.488,-30.273,-38.086,0.000
1727575937.467,-29.785,-15.137,-31.738,-48.340,0.000
1727575937.471,-36.621,-25.391,-24.902,-22.949,0.000
1727575937.475,-21.484,-18.066,-28.809,-4.883,0.000
1727575937.479,-18.555,-15.625,-26.855,-30.273,0.000
1727575937.483,-0.488,-21.973,-27.832,-39.062,0.000
1727575937.487,-27.344,-40.527,-36.621,-38.574,0.000
1727575937.491,-50.781,-26.367,-31.738,-28.320,0.000
1727575937.495,-32.715,-20.508,-26.855,-7.812,0.000
1727575937.499,-21.973,-31.250,-32.715,-11.719,0.000
1727575937.503,-4.883,-26.367,-35.645,-21.973,0.000
1727575937.506,-39.062,-40.039,-34.668,-41.504,0.000
1727575937.510,-69.336,-51.758,-35.645,-40.527,0.000
1727575937.514,-44.922,-47.852,-41.016,-16.602,0.000
1727575937.518,-23.438,-43.457,-39.062,-19.043,0.000
1727575937.522,-6.836,-40.527,-36.133,-21.484,0.000
1727575937.526,-40.527,-50.781,-41.504,-47.363,0.000
1727575937.530,-74.707,-63.965,-49.805,-62.012,0.000
1727575937.534,-52.246,-53.711,-47.852,-30.273,0.000
1727575937.538,-42.480,-47.852,-45.898,-37.109,0.000
1727575937.542,-9.766,-65.918,-48.828,-54.688,0.000
1727575937.545,-32.227,-64.453,-53.711,-70.312,0.000
1727575937.549,-89.844,-47.363,-46.875,-70.801,0.000
1727575937.553,-65.918,-36.621,-39.062,-28.320,0.000
1727575937.557,-46.875,-47.363,-46.387,-27.344,0.000
1727575937.561,-25.879,-50.781,-47.363,-45.898,0.000
1727575937.565,-29.297,-41.504,-38.574,-53.223,0.000
1727575937.569,-67.871,-56.152,-33.691,-53.711,0.000
1727575937.573,-56.641,-65.430,-34.668,-15.137,0.000
1727575937.576,-33.691,-70.801,-36.621,-7.812,0.000
1727575937.580,-21.973,-38.574,-31.738,-27.832,0.000
1727575937.584,-32.227,-25.879,-34.668,-42.480,0.000
1727575937.588,-67.871,-46.875,-44.434,-49.805,0.000
1727575937.592,-50.781,-32.227,-37.109,-13.672,0.000
1727575937.596,-21.484,-13.672,-20.508,-1.953,0.000
1727575937.600,-5.371,-20.508,-28.809,-25.391,0.000
1727575937.603,-0.977,-30.762,-48.828,-30.273,0.000
1727575937.607,-44.922,-35.645,-39.062,-42.480,0.000
1727575937.611,-42.480,-27.344,-20.508,-24.414,0.000
1727575937.615,-18.066,-21.973,-23.926,-11.719,0.000
1727575937.619,-11.719,-29.297,-32.715,-27.832,0.000
1727575937.623,-4.883,-28.320,-24.902,-22.949,0.000
1727575937.627,-33.203,-23.438,-22.461,-33.691,0.000
1727575937.631,-31.250,-23.926,-25.391,-18.066,0.000
1727575937.635,-21.484,-29.297,-20.996,-1.465,0.000
1727575937.639,-21.484,-29.785,-25.879,-27.344,0.000
1727575937.643,8.789,-32.715,-29.297,-37.109,0.000
1727575937.647,-24.414,-46.387,-32.227,-41.992,0.000
1727575937.651,-57.617,-34.668,-26.367,-27.344,0.000
1727575937.655,-36.621,-26.855,-15.625,-10.742,0.000
1727575937.659,-19.531,-31.250,-22.949,-19.043,0.000
1727575937.662,-10.742,-37.109,-30.762,-20.508,0.000
1727575937.666,-41.992,-51.758,-34.668,-37.109,0.000
1727575937.670,-58.105,-31.250,-35.645,-31.738,0.000
1727575937.674,-29.785,-8.789,-30.762,-0.488,0.000
1727575937.678,-26.367,-34.668,-27.832,-14.160,0.000
1727575937.682,-14.648,-73.730,-26.367,-33.203,0.000
1727575937.686,-39.551,-84.473,-34.668,-71.777,0.000
1727575937.690,-79.590,-53.223,-35.645,-70.312,0.000
1727575937.694,0.000,-29.785,-38.086,-30.762,0.000
1727575937.698,0.000,-34.180,-44.434,-41.504,0.000
1727575937.702,0.000,-41.016,-48.340,-53.223,0.000
1727575937.706,0.000,-67.871,-58.105,-60.547,0.000
1727575937.710,0.000,-62.988,-53.711,-61.035,0.000
1727575937.713,0.000,-32.227,-39.551,-31.738,0.000
1727575937.717,0.000,-36.133,-37.109,-31.738,0.000
1727575937.721,0.000,-41.992,-32.227,-42.969,0.000
1727575937.725,0.000,-58.105,-30.273,-49.316,0.000
1727575937.729,0.000,-59.082,-34.668,-50.781,0.000
1727575937.733,0.000,-32.227,-28.320,-18.066,0.000
1727575937.737,0.000,-37.598,-32.227,-6.348,0.000
1727575937.741,-1.465,-43.945,-36.621,-19.043,0.000
1727575937.745,-0.977,-36.133,-31.250,-35.156,0.000
1727575937.749,-40.527,-40.527,-36.133,-42.480,0.000
1727575937.753,-41.016,-48.340,-35.645,-4.395,0.000
1727575937.757,-15.137,-47.363,-23.926,10.254,0.000
1727575937.760,-2.441,-35.645,-25.391,-16.602,0.000
1727575937.764,-9.766,-29.785,-28.809,-38.086,0.000
1727575937.768,-49.316,-42.480,-33.203,-50.781,0.000
1727575937.772,-47.852,-53.223,-36.621,-20.020,0.000
1727575937.776,-26.855,-44.434,-29.297,-1.465,0.000
1727575937.780,-7.812,-24.902,-31.250,-22.949,0.000
1727575937.784,-0.977,-20.508,-27.344,-27.344,0.000
1727575937.788,-42.969,-36.133,-22.949,-41.016,0.000
1727575937.792,-46.875,-31.250,-16.113,-25.391,0.000
1727575937.796,-30.762,-38.086,-23.438,-11.719,0.000
1727575937.800,-32.227,-44.434,-28.320,-26.855,0.000
1727575937.803,-14.160,-40.039,-26.367,-28.320,0.000
1727575937.807,-38.574,-49.316,-34.668,-51.270,0.000
1727575937.811,-64.453,-44.922,-34.180,-57.129,0.000
1727575937.815,-45.410,-36.621,-38.574,-27.832,0.000
1727575937.819,-30.273,-47.363,-46.387,-31.250,0.000
1727575937.823,-8.789,-46.875,-37.598,-53.711,0.000
1727575937.827,-43.945,-49.805,-40.039,-68.359,0.000
1727575937.831,-81.543,-46.387,-46.387,-50.781,0.000
1727575937.835,-53.711,-42.480,-41.992,-20.996,0.000
1727575937.839,-31.250,-48.828,-25.879,-32.227,0.000
1727575937.842,-11.230,-44.434,-21.484,-38.574,0.000
1727575937.846,-34.668,-51.758,-35.156,-56.152,0.000
1727575937.850,-75.684,-42.969,-43.945,-59.570,0.000
1727575937.854,-58.594,-31.250,-38.086,-36.621,0.000
1727575937.858,-42.969,-36.621,-35.156,-47.363,0.000
1727575937.862,-15.137,-42.480,-40.527,-46.875,0.000
1727575937.866,-36.133,-42.969,-45.410,-54.199,0.000
1727575937.870,-85.449,-56.641,-46.387,-70.312,0.000
1727575937.874,-62.012,-61.523,-34.180,-38.086,0.000
1727575937.878,-28.320,-46.387,-20.996,-20.996,0.000
1727575937.881,0.000,-36.621,-27.344,-30.273,0.000
1727575937.885,0.000,-37.598,-44.434,-44.434,0.000
1727575937.889,0.000,-57.617,-44.922,-54.688,0.000
1727575937.893,0.000,-58.105,-37.109,-21.484,0.000
1727575937.897,0.000,-38.574,-35.156,-9.766,0.000
1727575937.901,0.000,-39.062,-33.203,-24.414,0.000
1727575937.905,0.000,-59.570,-41.992,-29.785,0.000
1727575937.909,0.000,-60.547,-39.551,-32.227,0.000
1727575937.913,0.000,-27.344,-20.020,-4.883,0.000
1727575937.917,0.000,-29.297,-20.508,7.324,0.000
1727575937.920,0.000,-45.410,-34.180,-18.555,0.000
1727575937.924,0.000,-40.039,-40.039,-32.227,0.000
1727575937.928,-33.203,-29.785,-37.598,-45.898,0.000
1727575937.932,-18.555,-19.531,-35.156,-29.297,0.000
1727575937.936,-15.625,-35.156,-31.738,-9.277,0.000
1727575937.940,-20.996,-41.992,-30.762,-29.297,0.000
1727575937.944,0.977,-34.180,-26.367,-38.574,0.000
1727575937.948,-33.203,-48.828,-30.273,-46.875,0.000
1727575937.952,-46.875,-53.711,-33.691,-34.668,0.000
1727575937.955,-31.250,-40.039,-30.273,-10.742,0.000
1727575937.959,-21.973,-22.949,-31.250,-15.137,0.000
1727575937.963,1.465,-33.203,-35.156,-24.902,0.000
1727575937.967,-36.133,-60.547,-49.805,-55.664,0.000
1727575937.971,-60.059,-42.480,-38.086,-43.945,0.000
1727575937.975,-31.250,-22.461,-18.555,-4.395,0.000
1727575937.979,-24.414,-47.363,-23.438,-20.996,0.000
1727575937.982,-14.160,-53.711,-32.715,-38.086,0.000
1727575937.986,-31.250,-47.852,-36.621,-65.918,0.000
1727575937.990,-56.152,-41.992,-40.039,-62.988,0.000
1727575937.994,-51.270,-32.715,-39.551,-23.926,0.000
1727575937.998,-41.992,-44.922,-41.992,-28.320,0.000
1727575938.002,-22.949,-31.250,-43.457,-42.480,0.000
1727575938.006,-41.016,-39.551,-49.316,-48.340,0.000
1727575938.010,-64.453,-62.988,-53.223,-42.969,0.000
1727575938.014,-40.527,-43.457,-50.781,-17.090,0.000
1727575938.018,-37.598,-24.902,-53.711,-30.273,0.000
1727575938.022,-19.043,-41.504,-55.176,-46.875,0.000
1727575938.026,-20.996,-62.012,-47.852,-42.480,0.000
1727575938.030,-60.547,-35.645,-38.086,-39.062,0.000
1727575938.034,-57.129,-15.137,-39.062,-23.438,0.000
1727575938.037,-37.109,-26.855,-37.109,-16.113,0.000
1727575938.041,-10.742,-43.945,-35.645,-17.578,0.000
1727575938.045,-7.324,-49.316,-40.039,-25.879,0.000
1727575938.049,-30.762,-28.809,-27.832,-9.766,0.000
1727575938.053,-23.926,-5.371,-18.555,14.648,0.000
1727575938.057,-7.812,-24.414,-33.203,6.348,0.000
1727575938.061,16.113,-22.461,-41.016,-11.230,0.000
1727575938.065,15.137,-18.555,-39.062,-30.762,0.000
1727575938.069,-37.109,-35.156,-38.574,-47.363,0.000
1727575938.073,-39.062,-25.879,-29.785,-14.648,0.000
1727575938.077,-10.254,-7.324,-21.484,7.812,0.000
1727575938.081,2.441,-13.672,-29.785,-11.230,0.000
1727575938.084,12.207,-33.691,-33.691,-25.879,0.000
1727575938.088,-30.273,-37.109,-29.785,-40.039,0.000
1727575938.092,-44.922,-18.555,-27.344,-29.785,0.000
1727575938.096,-21.484,-4.883,-24.902,-16.113,0.000
1727575938.100,-16.602,-20.508,-32.715,-25.879,0.000
1727575938.104,-13.672,-38.086,-44.434,-43.945,0.000
1727575938.108,-51.270,-33.203,-44.434,-70.312,0.000
1727575938.112,-67.383,-24.902,-47.363,-48.340,0.000
1727575938.116,-41.992,-22.461,-47.852,-19.531,0.000
1727575938.120,-30.273,-23.438,-47.363,-41.016,0.000
1727575938.124,-11.719,-41.504,-53.711,-51.758,0.000
1727575938.128,-36.133,-62.988,-54.688,-57.129,0.000
1727575938.131,-49.316,-38.574,-42.969,-34.668,0.000
1727575938.135,-17.090,-22.949,-36.621,-3.418,0.000
1727575938.139,-25.391,-27.832,-47.363,-22.949,0.000
1727575938.143,-23.438,-28.320,-58.105,-41.992,0.000
1727575938.147,-43.945,-51.758,-65.430,-50.293,0.000
1727575938.151,-69.824,-41.016,-51.270,-40.527,0.000
1727575938.155,-42.969,-38.574,-44.434,-11.719,0.000
1727575938.159,-29.297,-54.199,-50.781,-26.855,0.000
1727575938.163,-7.324,-35.645,-43.945,-39.062,0.000
1727575938.167,-30.273,-40.527,-58.594,-42.480,0.000
1727575938.171,-68.848,-41.504,-59.082,-45.410,0.000
1727575938.174,-35.645,-25.879,-40.039,-22.949,0.000
1727575938.178,-28.320,-24.414,-42.969,-30.762,0.000
1727575938.182,-14.648,-32.715,-47.852,-38.086,0.000
1727575938.186,-9.766,-32.227,-47.852,-40.039,0.000
1727575938.190,-49.805,-36.621,-55.176,-36.133,0.000
1727575938.194,-39.062,-41.992,-51.758,-3.418,0.000
1727575938.198,-14.160,-27.832,-39.062,-18.066,0.000
1727575938.202,2.441,-31.738,-34.668,-31.738,0.000
1727575938.206,0.000,-38.574,-40.527,-26.855,0.000
1727575938.210,0.000,-29.297,-44.922,-34.668,0.000
1727575938.214,0.000,-19.043,-38.574,-4.395,0.000
1727575938.217,0.000,-17.578,-29.297,18.555,0.000
1727575938.221,0.000,-30.762,-40.527,1.465,0.000
1727575938.225,0.000,-45.898,-50.293,-27.344,0.000
1727575938.229,0.000,-41.992,-38.574,-47.852,0.000
1727575938.233,0.000,-23.926,-30.762,-17.090,0.000
1727575938.237,0.000,-37.598,-45.410,-6.836,0.000
1727575938.241,0.000,-50.293,-45.898,-23.926,0.000
1727575938.245,0.000,-47.852,-44.922,-39.062,0.000
1727575938.249,0.000,-46.875,-48.340,-58.594,0.000
1727575938.253,0.000,-41.992,-38.574,-41.016,0.000
1727575938.256,-34.180,-36.621,-40.039,-27.832,0.000
1727575938.260,-31.250,-33.203,-42.480,-36.133,0.000
1727575938.264,-8.789,-47.363,-44.922,-37.598,0.000
1727575938.268,-45.898,-52.246,-46.875,-54.688,0.000
1727575938.272,-65.918,-35.645,-39.062,-41.504,0.000
1727575938.276,-40.527,-41.504,-43.457,-28.320,0.000
1727575938.280,-38.086,-52.246,-58.594,-51.270,0.000
1727575938.284,-27.832,-58.105,-58.594,-55.176,0.000
1727575938.288,-52.246,-56.152,-51.270,-66.895,0.000
1727575938.291,-76.172,-55.664,-46.387,-48.340,0.000
1727575938.295,-52.734,-47.852,-38.574,-16.602,0.000
1727575938.299,-38.086,-40.039,-32.227,-29.785,0.000
1727575938.303,-15.625,-38.086,0.000,-41.504,0.000
1727575938.307,-32.227,-47.852,0.000,-57.617,0.000
1727575938.311,-58.105,-51.758,0.000,-46.387,0.000
1727575938.315,-43.457,-45.898,0.000,-9.277,0.000
1727575938.319,-31.250,-42.969,0.000,-17.578,0.000
1727575938.323,4.395,-41.504,0.000,-20.996,0.000
1727575938.326,-15.137,-62.988,0.000,-24.902,0.000
1727575938.330,-56.152,-53.223,0.000,-22.461,0.000
1727575938.334,-27.344,-21.484,0.000,-8.301,0.000
1727575938.338,-20.020,-21.484,0.000,-20.508,0.000
1727575938.342,-15.137,-27.344,0.000,-25.879,0.000
1727575938.346,-16.602,-42.969,0.000,-35.645,0.000
1727575938.350,-50.781,-50.293,-44.922,-46.875,0.000
1727575938.353,-43.457,-43.457,-39.062,-13.184,0.000
1727575938.357,-21.973,-41.016,-34.668,-8.301,0.000
1727575938.361,-1.465,-28.809,-28.320,-23.438,0.000
1727575938.365,6.836,-16.602,-26.367,-29.785,0.000
1727575938.369,-30.762,-30.762,-30.273,-32.715,0.000
1727575938.373,-37.598,-29.785,-25.391,13.184,0.000
1727575938.377,-24.902,-13.672,-27.832,7.812,0.000
1727575938.381,-9.277,-24.902,-34.668,-27.832,0.000
1727575938.385,-10.742,-41.016,-41.504,-32.715,0.000
1727575938.389,-50.781,-51.270,-46.875,-54.199,0.000
1727575938.393,-39.551,-45.410,-33.691,-36.621,0.000
1727575938.397,-14.160,-40.039,-21.484,-13.672,0.000
1727575938.401,-10.254,-48.828,-37.598,-28.320,0.000
1727575938.405,-11.719,-43.457,-41.504,-29.297,0.000
1727575938.409,-52.734,-47.852,-39.551,-46.875,0.000
1727575938.412,-75.195,-57.617,-40.039,-41.016,0.000
1727575938.416,-47.363,-54.199,-25.879,-1.465,0.000
1727575938.420,-23.438,-51.758,-34.180,-16.113,0.000
1727575938.424,-24.902,-58.594,-43.945,-45.898,0.000
1727575938.428,-59.082,-59.082,-41.992,-59.082,0.000
1727575938.432,-72.754,-47.852,-40.527,-36.621,0.000
1727575938.436,-54.688,-41.016,-32.227,-8.301,0.000
1727575938.440,-45.898,-55.664,-34.668,-25.391,0.000
1727575938.444,-20.996,-64.941,-42.480,-41.504,0.000
1727575938.448,-38.086,-80.078,-43.945,-54.688,0.000
1727575938.452,-58.105,-65.430,-32.715,-42.969,0.000
1727575938.456,-35.645,-29.785,-30.762,-6.348,0.000
1727575938.460,-20.508,-28.809,-36.621,-17.578,0.000
1727575938.463,1.465,-26.855,-34.668,-30.762,0.000
1727575938.467,-14.160,-27.344,-33.203,-26.367,0.000
1727575938.471,-35.645,-33.203,-31.738,-21.484,0.000
1727575938.475,-18.066,-36.621,-34.180,-4.395,0.000
1727575938.479,-9.277,-38.574,-39.551,-2.441,0.000
1727575938.483,9.766,-21.484,-28.320,-15.625,0.000
1727575938.487,-0.488,-25.391,-25.879,-34.668,0.000
1727575938.491,-37.109,-33.203,-34.180,-42.969,0.000
1727575938.495,-29.297,-41.016,-34.180,-12.207,0.000
1727575938.499,-26.367,-45.898,-35.156,-5.371,0.000
1727575938.503,-10.254,-36.621,-33.203,-12.207,0.000
1727575938.507,-13.672,-33.203,-39.062,-29.785,0.000
1727575938.510,-49.316,-33.203,-40.527,-34.668,0.000
1727575938.514,-39.551,-12.695,-25.879,5.371,0.000
1727575938.518,-17.090,-15.625,-26.367,-0.977,0.000
1727575938.522,1.953,-45.898,-41.016,-21.484,0.000
1727575938.526,-18.066,-41.504,-35.645,-38.574,0.000
1727575938.530,-61.523,-27.832,-29.785,-49.805,0.000
1727575938.534,-43.945,-32.715,-37.109,-18.066,0.000
1727575938.538,-21.484,-30.762,-40.527,-6.836,0.000
1727575938.542,-14.160,-27.344,-44.434,-21.973,0.000
1727575938.546,-8.789,-34.180,-54.688,-34.180,0.000
1727575938.550,-44.434,-34.180,-54.199,-44.922,0.000
1727575938.553,-46.875,-25.391,-37.598,-22.461,0.000
1727575938.557,-32.227,-26.367,-40.039,-22.949,0.000
1727575938.561,-29.297,-35.156,-45.410,-46.387,0.000
1727575938.565,-26.855,-38.574,-48.340,-50.781,0.000
1727575938.569,-52.246,-42.480,-51.758,-53.223,0.000
1727575938.573,-45.410,-29.297,-39.062,-32.227,0.000
1727575938.577,-40.527,-36.133,-42.969,-19.043,0.000
1727575938.581,-39.062,-45.410,-54.199,-48.340,0.000
1727575938.585,-8.301,-46.875,-48.340,-61.523,0.000
1727575938.589,-47.852,-56.152,-51.270,-70.801,0.000
1727575938.592,-84.473,-46.875,-47.363,-48.340,0.000
1727575938.596,-58.105,-33.691,-40.039,-13.672,0.000
1727575938.600,-38.086,-25.879,-46.387,-28.320,0.000
1727575938.604,-24.902,-29.785,-46.875,-40.039,0.000
1727575938.608,-44.922,-49.316,-45.410,-55.176,0.000
1727575938.612,-59.570,-47.852,-37.109,-31.738,0.000
1727575938.616,-27.832,-24.902,-24.902,11.719,0.000
1727575938.620,-10.742,-21.973,-31.738,-14.160,0.000
1727575938.624,0.977,-29.297,-42.480,-35.156,0.000
1727575938.628,-13.672,-41.504,-49.805,-36.133,0.000
1727575938.631,-45.410,-31.250,-49.805,-26.367,0.000
1727575938.635,-31.250,-25.879,-41.504,6.348,0.000
1727575938.639,-14.648,-36.621,-31.738,14.160,0.000
1727575938.643,2.930,-31.738,-28.809,-5.371,0.000
1727575938.647,-0.977,-32.227,-43.945,-25.879,0.000
1727575938.651,-46.875,-33.691,-45.898,-26.855,0.000
1727575938.655,-35.645,-29.297,-32.227,9.277,0.000
1727575938.659,-18.066,-33.691,-41.992,4.883,0.000
1727575938.663,-7.324,-34.668,-42.969,-20.996,0.000
1727575938.666,-15.137,-49.316,-39.551,-30.273,0.000
1727575938.670,-46.875,-50.293,-48.340,-41.504,0.000
1727575938.674,-38.574,-29.297,-48.828,-23.438,0.000
1727575938.678,-33.691,-18.555,-47.363,-18.066,0.000
1727575938.682,-21.484,-19.531,-43.457,-30.273,0.000
1727575938.686,-19.531,-32.227,-42.969,-31.250,0.000
1727575938.690,-56.641,-28.809,-39.551,-40.039,0.000
1727575938.694,-55.664,-24.902,-33.691,-27.344,0.000
1727575938.698,-31.738,-47.852,-42.480,-14.648,0.000
1727575938.701,-7.812,-46.875,-41.504,-23.438,0.000
1727575938.705,-0.488,-28.809,-39.062,-39.062,0.000
1727575938.709,-52.246,-42.480,-47.363,-62.500,0.000
1727575938.713,-61.523,-43.945,-42.480,-39.551,0.000
1727575938.717,-22.949,-50.293,-46.387,-14.648,0.000
1727575938.721,-15.625,-38.086,-50.293,-32.715,0.000
1727575938.725,-24.414,-37.109,-47.363,-46.875,0.000
1727575938.728,-50.293,-59.570,-55.176,-52.246,0.000
1727575938.732,-55.176,-49.805,-58.594,-33.203,0.000
1727575938.736,-44.434,-36.621,-60.059,-19.043,0.000
1727575938.740,-25.879,-39.062,-58.594,-34.668,0.000
1727575938.744,-7.324,-62.988,-57.617,-42.969,0.000
1727575938.748,-44.434,-77.148,-55.664,-48.828,0.000
1727575938.752,-53.223,-41.504,-35.645,-34.668,0.000
1727575938.756,-22.949,-28.809,-27.344,-0.977,0.000
1727575938.760,-20.508,-54.688,-45.410,-20.020,0.000
1727575938.764,-18.066,-53.711,-54.199,-44.434,0.000
1727575938.767,-37.598,-52.734,-48.340,-50.781,0.000
1727575938.772,-63.965,-49.316,-51.758,-49.805,0.000
1727575938.776,-45.410,-39.062,-51.758,-22.949,0.000
1727575938.780,-23.438,-36.621,-42.480,-19.531,0.000
1727575938.783,2.930,-27.832,-41.992,-27.832,0.000
1727575938.787,-20.020,-25.879,-45.410,-41.016,0.000
1727575938.791,-52.246,-35.156,-37.598,-41.016,0.000
1727575938.795,-26.855,-19.531,-20.020,-9.277,0.000
1727575938.799,-17.090,-13.184,-19.043,-7.812,0.000
1727575938.803,1.953,-23.926,-29.785,-12.695,0.000
1727575938.807,-13.672,-37.109,-40.527,-27.344,0.000
1727575938.811,-57.129,-26.367,-39.551,-44.434,0.000
1727575938.815,-35.156,-8.301,-31.738,-9.277,0.000
1727575938.819,-20.020,-18.555,-35.645,-3.906,0.000
1727575938.823,-13.184,-38.574,-49.316,-25.391,0.000
1727575938.827,-17.090,-42.969,-56.641,-46.387,0.000
1727575938.831,-55.176,-38.086,-51.758,-62.988,0.000
1727575938.835,-47.852,-30.273,-39.062,-31.250,0.000
1727575938.838,-29.297,-24.902,-37.109,-11.719,0.000
1727575938.842,-13.184,-27.344,-43.945,-32.715,0.000
1727575938.846,-23.438,-38.086,-43.457,-60.547,0.000
1727575938.850,-60.059,-44.434,-42.969,-59.570,0.000
1727575938.854,-56.152,-48.828,-43.457,-18.066,0.000
1727575938.858,-49.805,-52.246,-37.598,-20.020,0.000
1727575938.862,-40.039,-44.434,-37.109,-37.598,0.000
1727575938.866,-41.992,-54.199,-52.734,-53.711,0.000
1727575938.870,-80.078,-70.312,-63.965,-88.379,0.000
1727575938.874,-70.801,-54.199,-53.223,-62.500,0.000
1727575938.878,-61.523,-55.664,-42.969,-41.992,0.000
1727575938.882,-45.410,-52.246,-49.316,-59.082,0.000
1727575938.885,-29.297,-40.039,-50.293,-62.012,0.000
1727575938.889,-73.242,-47.852,-44.922,-79.590,0.000
1727575938.893,-73.242,-46.387,-36.133,-52.246,0.000
1727575938.897,-45.898,-43.945,-36.621,-6.836,0.000
1727575938.901,-37.598,-32.227,-37.109,-21.973,0.000
1727575938.905,-21.484,-25.391,-26.855,-30.273,0.000
1727575938.909,-47.363,-55.176,-30.273,-25.879,0.000
1727575938.913,-56.641,-50.781,-33.203,-20.020,0.000
1727575938.917,-31.250,-25.391,-23.926,-3.418,0.000
1727575938.921,-6.836,-33.203,-21.484,-7.812,0.000
1727575938.924,22.461,-39.062,-23.926,-15.137,0.000
1727575938.928,-14.648,-37.109,-34.180,-38.086,0.000
1727575938.932,-44.922,-23.926,-32.227,-26.367,0.000
1727575938.936,-8.789,-5.859,-10.254,19.531,0.000
1727575938.940,5.859,-20.508,-15.137,5.859,0.000
1727575938.944,12.695,-51.270,-32.227,-10.254,0.000
1727575938.948,-22.949,-55.176,-28.809,-24.902,0.000
1727575938.952,-50.781,-35.645,-12.695,-35.156,0.000
1727575938.956,-23.926,-28.809,-12.207,-5.859,0.000
1727575938.960,-17.090,-27.344,-20.020,-0.977,0.000
1727575938.964,2.441,-19.043,-23.438,-14.160,0.000
1727575938.967,-1.953,-21.484,-27.832,-31.250,0.000
1727575938.971,-48.828,-26.855,-31.250,-37.598,0.000
1727575938.975,-30.762,-22.949,-27.344,-7.324,0.000
1727575938.979,-3.906,-40.527,-26.367,-4.395,0.000
1727575938.983,-1.465,-52.246,-27.344,-20.996,0.000
1727575938.987,-14.648,-64.453,-38.574,-38.086,0.000
1727575938.991,-60.547,-49.805,-38.086,-61.035,0.000
1727575938.995,-59.570,-22.949,-29.785,-30.273,0.000
1727575938.999,-37.598,-23.438,-34.668,-9.766,0.000
1727575939.003,-23.926,-28.320,-45.410,-39.551,0.000
1727575939.006,-24.902,-34.668,-52.734,-61.035,0.000
1727575939.010,-53.711,-43.457,-47.852,-59.570,0.000
1727575939.014,-44.434,-43.457,-37.109,-24.414,0.000
1727575939.018,-26.367,-46.875,-41.016,-23.438,0.000
1727575939.022,-20.996,-39.551,-49.316,-40.527,0.000
1727575939.026,-11.719,-36.621,-45.410,-41.992,0.000
1727575939.030,-56.641,-61.523,-52.734,-66.406,0.000
1727575939.034,-81.055,-67.871,-58.105,-44.922,0.000
1727575939.038,-58.594,-50.781,-47.363,-26.855,0.000
1727575939.042,-31.738,-42.480,-41.992,-36.133,0.000
1727575939.045,-8.789,-56.641,-49.316,-41.992,0.000
1727575939.049,-46.875,-68.359,-55.176,-61.523,0.000
1727575939.053,-60.059,-51.270,-46.387,-45.410,0.000
1727575939.057,-37.109,-39.551,-42.969,-29.785,0.000
1727575939.061,-12.695,-36.621,-33.691,-31.250,0.000
1727575939.065,11.719,-27.344,-18.066,-17.090,0.000
1727575939.069,-35.156,-46.387,-24.414,-44.434,0.000
1727575939.073,-58.105,-50.781,-33.203,-43.945,0.000
1727575939.077,-26.855,-43.457,-28.809,5.371,0.000
1727575939.080,-29.297,-39.062,-24.414,-7.812,0.000
1727575939.084,-22.461,-32.715,-28.320,-32.715,0.000
1727575939.088,-42.480,-40.039,-38.086,-53.711,0.000
1727575939.092,-56.152,-36.133,-37.109,-45.898,0.000
1727575939.096,-29.297,-21.484,-22.949,-5.371,0.000
1727575939.100,-29.297,-30.273,-19.531,-10.254,0.000
1727575939.104,-11.719,-46.387,-24.902,-28.320,0.000
1727575939.107,-21.973,-49.316,-31.250,-40.527,0.000
1727575939.111,-46.387,-34.180,-27.344,-35.645,0.000
1727575939.115,-20.020,-25.879,-25.391,-18.555,0.000
1727575939.119,-30.273,-47.852,-35.645,-28.320,0.000
1727575939.123,-18.555,-60.059,-32.715,-27.344,0.000
1727575939.127,-18.066,-46.387,-39.551,-42.480,0.000
1727575939.131,-65.430,-34.668,-44.922,-49.316,0.000
1727575939.135,-57.617,-35.156,-41.016,-16.113,0.000
1727575939.139,-42.480,-39.551,-49.316,-39.062,0.000
1727575939.143,-32.227,-27.832,-38.086,-54.199,0.000
1727575939.147,-27.344,-41.992,-35.645,-45.410,0.000
1727575939.151,-58.594,-58.594,-47.363,-59.570,0.000
1727575939.155,-50.781,-36.621,-38.574,-26.367,0.000
1727575939.159,-30.273,-16.113,-31.250,-3.418,0.000
1727575939.163,-17.578,-23.926,-42.969,-35.645,0.000
1727575939.166,-11.719,-50.781,-50.781,-44.434,0.000
1727575939.170,-54.688,-59.570,-52.246,-44.434,0.000
1727575939.174,-59.570,-44.922,-46.387,-25.391,0.000
1727575939.178,-45.410,-42.480,-38.574,-13.672,0.000
1727575939.182,-30.273,-58.105,-37.598,-26.855,0.000
1727575939.186,-19.043,-49.805,-39.062,-42.480,0.000
1727575939.190,-58.105,-56.152,-42.969,-56.641,0.000
1727575939.194,-61.035,-60.059,-40.527,-30.273,0.000
1727575939.198,-33.203,-46.387,-40.039,-11.230,0.000
1727575939.202,-21.484,-46.875,-49.805,-32.227,0.000
1727575939.206,-2.441,-41.016,-50.781,-41.992,0.000
1727575939.210,-32.715,-41.992,-42.480,-51.270,0.000
1727575939.214,-61.523,-39.551,-34.180,-39.551,0.000
1727575939.217,-40.527,-27.832,-30.273,-10.254,0.000
1727575939.221,-15.625,-29.297,-35.156,-12.695,0.000
1727575939.225,9.277,-47.852,-36.133,-22.461,0.000
1727575939.229,-13.184,-65.430,-35.645,-35.645,0.000
1727575939.233,-40.039,-44.922,-37.598,-20.996,0.000
1727575939.237,-1.465,-29.297,-32.227,15.137,0.000
1727575939.241,18.555,-25.391,-22.949,-0.488,0.000
1727575939.245,2.441,-30.762,-28.320,-21.484,0.000
1727575939.249,-25.879,-37.109,-36.133,-34.668,0.000
1727575939.253,-43.945,-36.621,-28.320,-31.250,0.000
1727575939.257,-20.508,-53.223,-23.926,-4.883,0.000
1727575939.261,-9.277,-59.082,-24.902,-8.301,0.000
1727575939.264,-2.441,-41.504,-28.809,-21.973,0.000
1727575939.268,-17.578,-48.340,-43.945,-39.551,0.000
1727575939.272,-48.340,-59.082,-41.016,-23.926,0.000
1727575939.276,-34.180,-34.180,-27.832,23.926,0.000
1727575939.280,-12.695,-42.969,-25.391,5.371,0.000
1727575939.284,-2.441,-44.434,-35.645,-29.297,0.000
1727575939.288,-20.508,-31.250,-42.480,-46.387,0.000
1727575939.292,-55.176,-34.180,-46.387,-55.664,0.000
1727575939.296,-53.223,-29.785,-46.387,-24.902,0.000
1727575939.300,-38.086,-37.598,-48.340,-26.855,0.000
1727575939.304,-22.949,-45.898,-55.176,-38.086,0.000
1727575939.307,-25.391,-61.035,-50.781,-44.434,0.000
1727575939.311,-57.129,-71.777,-52.734,-73.242,0.000
1727575939.315,-45.898,-59.570,-54.199,-52.734,0.000
1727575939.319,-30.273,-52.246,-43.945,-25.391,0.000
1727575939.323,-25.391,-40.527,-37.598,-41.504,0.000
1727575939.327,-27.832,-52.246,-46.875,-52.734,0.000
1727575939.331,-53.711,-66.895,-44.434,-57.129,0.000
1727575939.335,-47.363,-40.527,-29.297,-23.926,0.000
1727575939.339,-39.551,-28.809,-34.668,-9.277,0.000
1727575939.343,-28.320,-48.340,-42.480,-32.715,0.000
1727575939.346,-24.902,-63.477,-42.969,-43.457,0.000
1727575939.350,-61.523,-72.754,-43.457,-55.664,0.000
1727575939.354,-61.035,-65.918,-35.645,-30.273,0.000
1727575939.358,-39.551,-60.547,-33.691,-4.883,0.000
1727575939.362,-25.391,-65.430,-32.227,-23.926,0.000
1727575939.366,-9.277,-57.129,-27.832,-31.250,0.000
1727575939.370,-30.762,-45.898,-22.949,-35.645,0.000
1727575939.374,-52.246,-18.555,-18.066,-26.367,0.000
1727575939.378,-35.156,-11.230,-23.438,-6.836,0.000
1727575939.381,-24.902,-24.902,-28.320,-23.438,0.000
1727575939.385,-5.371,-29.785,-26.367,-36.133,0.000
1727575939.389,-18.555,-44.922,-29.297,-49.316,0.000
1727575939.393,-31.250,-52.734,-26.855,-30.762,0.000
1727575939.397,-20.020,-45.898,-21.973,-3.418,0.000
1727575939.401,-26.367,-48.340,-30.762,-20.996,0.000
1727575939.405,1.465,-43.945,-35.645,-27.832,0.000
1727575939.409,-12.695,-30.273,-37.598,-30.273,0.000
1727575939.413,-54.688,-11.719,-30.273,-35.156,0.000
1727575939.417,-34.180,-12.695,-24.902,-17.578,0.000
1727575939.421,-16.113,-38.574,-30.762,-33.203,0.000
1727575939.424,-14.648,-60.059,-36.621,-46.875,0.000
1727575939.428,-33.691,-53.711,-37.109,-52.246,0.000
1727575939.432,-68.359,-38.086,-32.715,-62.988,0.000
1727575939.436,-61.035,-32.715,-36.621,-28.809,0.000
1727575939.440,-48.340,-27.832,-45.410,-26.367,0.000
1727575939.444,-27.344,-32.715,-43.457,-48.828,0.000
1727575939.448,-33.203,-59.082,-48.828,-64.453,0.000
1727575939.452,-76.172,-77.148,-58.105,-72.754,0.000
1727575939.455,-54.688,-62.500,-37.109,-35.156,0.000
1727575939.459,-38.086,-40.527,-28.320,-24.902,0.000
1727575939.463,-42.480,-38.574,-49.805,-44.922,0.000
1727575939.467,-46.875,-46.875,-56.641,-54.199,0.000
1727575939.471,-80.078,-39.551,-48.340,-65.430,0.000
1727575939.475,-77.148,-22.949,-44.922,-33.203,0.000
1727575939.479,-58.105,-22.949,-48.828,-21.973,0.000
1727575939.482,-42.969,-40.039,-47.852,-50.293,0.000
1727575939.486,-28.809,-49.316,-41.992,-48.828,0.000
1727575939.490,-48.340,-40.039,-36.621,-48.828,0.000
1727575939.494,-57.129,-41.504,-35.645,-20.020,0.000
1727575939.498,-47.852,-46.875,-34.668,3.418,0.000
1727575939.502,-29.785,-33.203,-34.668,-20.996,0.000
1727575939.506,-20.020,-36.133,-40.527,-36.621,0.000
1727575939.510,-43.945,-45.410,-44.922,-39.551,0.000
1727575939.514,-46.875,-39.062,-36.133,-22.949,0.000
1727575939.518,-35.156,-22.949,-32.715,-11.230,0.000
1727575939.522,-19.531,-21.484,-38.574,-21.484,0.000
1727575939.526,0.977,-33.203,-37.598,-27.832,0.000
1727575939.530,-29.297,-42.480,-36.133,-41.992,0.000
1727575939.534,-49.316,-37.109,-32.227,-41.016,0.000
1727575939.537,-28.320,-26.855,-33.691,-15.625,0.000
1727575939.541,-1.953,-29.785,-35.156,-12.207,0.000
1727575939.545,4.395,-27.344,-32.715,-23.438,0.000
1727575939.549,-39.551,-41.016,-39.551,-40.527,0.000
1727575939.553,-61.035,-54.199,-39.551,-40.527,0.000
1727575939.557,-31.738,-63.965,-39.062,-9.277,0.000
1727575939.561,-17.578,-48.340,-40.039,-4.395,0.000
1727575939.565,0.488,-22.461,-36.621,-15.137,0.000
1727575939.569,-14.648,-36.133,-41.016,-46.875,0.000
1727575939.573,-48.828,-47.363,-46.387,-58.105,0.000
1727575939.577,-39.551,-28.320,-41.504,-25.879,0.000
1727575939.581,-31.250,-36.133,-41.992,-33.691,0.000
1727575939.585,-6.348,-54.199,-44.922,-47.363,0.000
1727575939.588,-12.695,-54.199,-49.316,-54.199,0.000
1727575939.592,-61.035,-60.059,-47.852,-57.129,0.000
1727575939.596,-50.781,-44.922,-43.457,-34.668,0.000
1727575939.600,-36.621,-47.852,-48.340,-30.762,0.000
1727575939.604,-19.043,-52.246,-41.016,-27.344,0.000
1727575939.608,-23.438,-33.691,-38.574,-53.711,0.000
1727575939.612,-64.941,-38.574,-38.574,-71.289,0.000
1727575939.616,-49.805,-44.434,-33.691,-28.809,0.000
1727575939.620,-36.133,-48.340,-49.805,-20.020,0.000
1727575939.624,-25.879,-44.922,-52.734,-48.828,0.000
1727575939.628,-21.484,-47.363,-46.875,-61.523,0.000
1727575939.632,-61.035,-59.082,-48.340,-60.547,0.000
1727575939.636,-49.805,-48.340,-42.969,-29.785,0.000
1727575939.639,-6.836,-34.180,-44.434,-12.695,0.000
1727575939.643,2.441,-41.016,-43.457,-30.762,0.000
1727575939.647,-4.395,-51.758,-35.645,-25.879,0.000
1727575939.651,-31.738,-48.828,-28.809,-28.809,0.000
1727575939.655,-33.691,-29.785,-20.508,-10.742,0.000
1727575939.659,-13.672,-32.227,-26.367,16.602,0.000
1727575939.663,0.488,-61.035,-34.180,5.371,0.000
1727575939.667,8.301,-49.316,-27.344,-13.672,0.000
1727575939.671,-22.461,-31.738,-24.414,-24.902,0.000
1727575939.675,-27.832,-20.020,-20.996,-1.953,0.000
1727575939.679,-4.883,-18.555,-21.484,8.789,0.000
1727575939.682,4.883,-32.227,-28.809,-19.531,0.000
1727575939.686,12.695,-38.086,-40.527,-26.367,0.000
1727575939.690,-23.438,-46.387,-45.410,-27.832,0.000
1727575939.694,-44.434,-36.133,-34.180,-20.020,0.000
1727575939.698,-33.691,-6.836,-21.973,-8.789,0.000
1727575939.702,-27.832,-20.508,-28.320,-26.855,0.000
1727575939.706,-2.930,-34.668,-39.062,-29.785,0.000
1727575939.710,-37.598,-34.668,-45.898,-48.828,0.000
1727575939.714,-83.008,-28.809,-42.480,-48.340,0.000
1727575939.718,-62.500,-36.621,-40.039,-18.066,0.000
1727575939.721,-36.621,-48.828,-42.969,-29.297,0.000
1727575939.725,-14.160,-41.992,-44.434,-50.781,0.000
1727575939.729,-30.762,-51.758,-49.316,-68.848,0.000
1727575939.733,-69.336,-53.223,-50.781,-67.871,0.000
1727575939.737,-53.223,-43.457,-45.898,-30.273,0.000
1727575939.741,-32.227,-33.203,-43.457,-20.508,0.000
1727575939.745,-18.555,-25.879,-37.109,-30.762,0.000
1727575939.749,-29.785,-34.668,-45.410,-46.387,0.000
1727575939.753,-67.871,-34.668,-50.781,-52.246,0.000
1727575939.756,-52.734,-36.133,-41.504,-21.484,0.000
1727575939.760,-35.156,-60.059,-43.945,-16.602,0.000
1727575939.764,-13.672,-45.410,-43.457,-22.461,0.000
1727575939.768,-12.695,-27.344,-42.480,-35.645,0.000
1727575939.772,-52.734,-33.691,-43.457,-53.223,0.000
1727575939.776,-47.852,-42.480,-43.945,-22.461,0.000
1727575939.780,-34.180,-53.711,-46.387,-9.277,0.000
1727575939.784,-6.348,-49.316,-45.898,-21.973,0.000
1727575939.788,-3.906,-30.273,-37.598,-31.250,0.000
1727575939.792,-49.805,-29.297,-33.203,-32.227,0.000
1727575939.796,-37.598,-31.250,-30.762,-5.371,0.000
1727575939.799,-16.602,-29.297,-24.414,4.883,0.000
1727575939.803,0.000,-23.926,-20.508,-0.488,0.000
1727575939.807,0.000,-20.996,-28.809,-5.859,0.000
1727575939.811,0.000,-33.691,-37.109,-20.020,0.000
1727575939.815,0.000,-41.992,-34.180,-11.719,0.000
1727575939.819,0.000,-44.922,-31.738,2.441,0.000
1727575939.823,0.000,-45.410,-34.668,-6.348,0.000
1727575939.827,0.000,-53.711,-43.945,-26.855,0.000
1727575939.831,0.000,-58.105,-40.527,-48.340,0.000
1727575939.834,0.000,-46.387,-30.762,-26.367,0.000
1727575939.838,0.000,-36.621,-31.738,1.953,0.000
1727575939.842,0.000,-28.809,-34.180,-18.555,0.000
1727575939.846,0.000,-28.809,-34.668,-35.645,0.000
1727575939.850,-44.434,-37.109,-38.086,-52.246,0.000
1727575939.854,-59.082,-41.016,-36.133,-47.852,0.000
1727575939.858,-34.668,-46.875,-34.180,-14.648,0.000
1727575939.861,-32.227,-52.734,-41.504,-30.762,0.000
1727575939.865,-8.789,-41.992,-44.434,-50.293,0.000
1727575939.869,-12.207,-55.664,-48.828,-57.617,0.000
1727575939.873,-51.270,-78.125,-45.898,-43.457,0.000
1727575939.877,-50.293,-49.805,-36.621,-13.672,0.000
1727575939.881,-42.480,-28.320,-42.480,-23.926,0.000
1727575939.885,-8.789,-35.156,-41.992,-32.227,0.000
1727575939.889,-25.879,-41.016,-40.527,-35.156,0.000
1727575939.893,-71.289,-44.434,-47.852,-45.410,0.000
1727575939.897,-29.297,-91.309,0.000,-14.648,0.000
1727575939.901,-6.348,-98.633,0.000,3.906,0.000
1727575939.905,15.625,-35.156,0.000,-0.488,0.000
1727575939.909,13.184,-72.754,0.000,-17.578,0.000
1727575939.913,-45.410,-108.887,0.000,-27.832,0.000
1727575939.916,-24.902,-85.449,0.000,23.438,0.000
1727575939.920,44.434,-144.043,0.000,39.551,0.000
1727575939.924,90.820,-143.066,0.000,64.453,0.000
1727575939.928,86.426,-120.605,0.000,87.402,0.000
1727575939.932,91.797,-200.684,0.000,108.887,0.000
1727575939.936,130.859,-72.754,0.000,157.715,0.000
1727575939.940,-1.465,-7.324,0.000,15.625,0.000
1727575939.942,-57.129,29.785,-51.270,-76.172,0.000
1727575939.946,19.531,-17.578,-43.945,-23.926,0.000
1727575939.950,70.801,-281.250,-21.973,48.340,0.000
1727575939.954,139.160,41.016,-18.066,144.531,0.000
1727575939.958,83.008,239.258,-46.387,92.773,0.000
1727575939.962,-117.188,255.859,-21.484,-105.957,0.000
1727575939.966,-188.965,237.305,-20.508,-205.078,0.000
1727575939.969,-100.586,192.383,-26.367,-119.629,0.000
1727575939.973,14.648,209.473,9.277,6.348,0.000
1727575939.977,112.793,163.574,-32.227,101.562,0.000
1727575939.981,75.684,130.371,-20.020,48.340,0.000
1727575939.985,-38.086,540.039,-9.766,-40.039,0.000
1727575939.989,0.000,843.262,13.672,-88.379,0.000
1727575939.993,0.000,722.168,35.645,-84.961,0.000
1727575939.997,0.000,755.859,-27.344,-18.066,0.000
1727575940.001,0.000,901.367,13.184,-68.359,0.000
1727575940.005,0.000,962.891,134.277,-119.629,0.000
1727575940.009,0.000,965.332,125.977,-96.680,0.000
1727575940.013,0.000,965.332,112.793,-43.945,0.000
1727575940.017,0.000,967.285,116.211,5.371,0.000
1727575940.020,0.000,966.797,96.680,5.859,0.000
1727575940.024,0.000,966.797,103.516,3.418,0.000
1727575940.028,0.000,966.797,120.605,1.465,0.000
1727575940.032,0.000,966.797,139.648,25.879,0.000
1727575940.036,10.254,966.797,147.949,55.176,0.000
1727575940.040,20.996,966.797,152.832,39.551,0.000
1727575940.044,43.945,966.797,164.062,31.250,0.000
1727575940.048,33.691,966.797,163.574,29.785,0.000
1727575940.052,-0.488,966.797,162.598,34.668,0.000
1727575940.056,26.855,966.797,168.457,68.848,0.000
1727575940.060,43.457,966.797,163.574,55.664,0.000
1727575940.063,52.246,966.797,153.320,35.645,0.000
1727575940.067,56.152,965.820,146.973,28.320,0.000
1727575940.071,16.113,965.820,146.973,9.766,0.000
1727575940.075,6.836,967.773,138.672,40.039,0.000
1727575940.079,14.160,919.922,126.465,58.105,0.000
1727575940.083,25.391,844.727,121.094,38.086,0.000
1727575940.087,28.320,792.480,106.445,10.254,0.000
1727575940.091,-4.883,733.887,82.031,-12.695,0.000
1727575940.095,-9.277,666.992,71.777,15.137,0.000
1727575940.099,0.488,594.727,62.500,24.414,0.000
1727575940.103,17.090,518.555,49.316,-0.977,0.000
1727575940.106,12.207,441.895,32.227,-18.555,0.000
1727575940.110,-43.945,357.910,9.766,-19.043,0.000
1727575940.114,-44.922,303.223,6.348,6.836,0.000
1727575940.118,-24.414,239.258,-2.930,8.301,0.000
1727575940.122,-28.320,146.973,-27.344,-14.648,0.000
1727575940.126,-32.227,61.035,-52.246,-25.391,0.000
1727575940.130,0.000,-1.465,-75.684,-38.574,0.000
1727575940.134,0.000,-54.688,-81.543,-26.855,0.000
1727575940.138,0.000,-117.188,-91.797,-15.137,0.000
1727575940.142,0.000,-157.715,-105.469,-31.738,0.000
1727575940.145,0.000,-190.430,-119.629,-41.016,0.000
1727575940.149,0.000,-236.328,-141.113,-65.430,0.000
1727575940.153,0.000,-275.879,-149.902,-63.965,0.000
1727575940.157,0.000,-302.246,-150.879,-30.762,0.000
1727575940.161,0.000,-322.266,-147.461,-53.711,0.000
1727575940.165,0.000,-360.840,-150.879,-74.707,0.000
1727575940.169,0.000,-406.250,-145.996,-74.707,0.000
1727575940.173,0.000,-418.457,-132.324,-71.289,0.000
1727575940.177,-78.613,-422.363,-125.977,-55.176,0.000
1727575940.180,-59.082,-436.035,-123.047,-57.617,0.000
1727575940.184,-44.434,-449.707,-121.094,-60.547,0.000
1727575940.188,-58.105,-461.914,-122.559,-74.219,0.000
1727575940.192,-86.914,-464.355,-119.629,-73.242,0.000
1727575940.196,-66.895,-467.285,-112.793,-43.945,0.000
1727575940.200,-42.969,-497.070,-112.793,-42.480,0.000
1727575940.204,-34.180,-501.953,-105.957,-59.570,0.000
1727575940.208,-52.246,-492.676,-103.027,-76.172,0.000
1727575940.212,-79.590,-495.605,-105.957,-64.941,0.000
1727575940.216,-62.988,-477.539,-102.539,-31.738,0.000
1727575940.220,-43.945,-473.145,-98.633,-34.668,0.000
1727575940.223,-27.832,-458.496,-92.285,-46.875,0.000
1727575940.227,-22.949,-432.617,-106.445,-47.852,0.000
1727575940.231,-72.754,-443.359,-121.582,-63.477,0.000
1727575940.235,-73.242,-442.383,-111.816,-55.664,0.000
1727575940.239,-51.270,-441.895,-111.328,-57.617,0.000
1727575940.243,-23.438,-456.055,-115.234,-71.289,0.000
1727575940.247,-14.160,-444.824,-114.746,-69.336,0.000
1727575940.251,-65.918,-413.574,-111.328,-75.684,0.000
1727575940.254,-62.988,-391.113,-110.352,-41.504,0.000
1727575940.258,-31.738,-377.930,-107.910,-15.137,0.000
1727575940.262,-24.414,-376.953,-110.840,-38.574,0.000
1727575940.266,-21.484,-391.602,-114.258,-46.387,0.000
1727575940.270,-54.688,-416.504,-118.164,-46.387,0.000
1727575940.274,-62.012,-419.922,-106.445,-28.320,0.000
1727575940.278,-51.270,-402.832,-102.539,-19.531,0.000
1727575940.282,-42.969,-386.230,-102.539,-41.016,0.000
1727575940.286,-12.207,-382.812,-88.867,-42.969,0.000
1727575940.290,-43.457,-380.859,-92.773,-50.293,0.000
1727575940.294,-65.918,-350.586,-95.703,-48.828,0.000
1727575940.298,-41.992,-337.891,-90.332,-46.387,0.000
1727575940.302,-44.922,-322.266,-92.285,-64.941,0.000
1727575940.306,-30.273,-310.547,-88.379,-62.988,0.000
1727575940.310,-44.434,-315.430,-77.148,-67.871,0.000
1727575940.313,-72.266,-319.336,-73.730,-59.570,0.000
1727575940.318,-56.152,-327.637,-76.172,-35.156,0.000
1727575940.322,-42.969,-337.402,-75.684,-45.898,0.000
1727575940.325,-39.551,-335.449,-74.707,-52.734,0.000
1727575940.329,-52.734,-332.031,-77.637,-60.059,0.000
1727575940.333,-63.477,-331.543,-71.777,-52.246,0.000
1727575940.337,-52.246,-322.266,-66.895,-6.348,0.000
1727575940.341,-35.645,-305.664,-70.801,-19.531,0.000
1727575940.345,-3.906,-295.898,-71.289,-48.828,0.000
1727575940.349,-29.297,-296.387,-73.242,-53.223,0.000
1727575940.353,-63.477,-292.969,-66.895,-43.457,0.000
1727575940.357,-37.598,-253.418,-55.664,-20.508,0.000
1727575940.361,-21.484,-263.672,-64.941,-27.344,0.000
1727575940.365,-5.371,-286.133,-75.684,-43.945,0.000
1727575940.369,-12.207,-265.137,-71.289,-55.664,0.000
1727575940.373,-43.945,-250.488,-63.965,-61.035,0.000
1727575940.376,-36.133,-209.961,-62.012,-38.086,0.000
1727575940.380,-28.809,-189.453,-73.242,-36.621,0.000
1727575940.384,-9.766,-185.059,-80.078,-52.246,0.000
1727575940.388,-10.742,-171.387,-69.824,-61.523,0.000
1727575940.392,-68.359,-168.457,-65.430,-72.754,0.000
1727575940.396,-63.965,-168.457,-70.312,-34.668,0.000
1727575940.400,-31.738,-157.227,-69.824,-9.766,0.000
1727575940.404,-7.812,-152.344,-57.129,-15.137,0.000
1727575940.408,0.000,-150.879,-58.105,-23.438,0.000
1727575940.412,-48.340,-148.438,-55.176,-52.734,0.000
1727575940.416,-50.293,-139.160,-43.945,-25.391,0.000
1727575940.420,-24.414,-146.484,-42.480,-3.418,0.000
1727575940.423,-10.254,-165.039,-44.434,-24.902,0.000
1727575940.427,3.418,-166.504,-41.016,-40.527,0.000
1727575940.431,-46.387,-176.758,-41.504,-61.035,0.000
1727575940.435,-68.359,-166.504,-40.039,-40.527,0.000
1727575940.439,-32.227,-148.926,-36.133,-21.973,0.000
1727575940.443,-19.043,-159.180,-35.156,-32.227,0.000
1727575940.447,-18.555,-128.418,-38.086,-31.738,0.000
1727575940.451,-54.688,-101.074,-43.457,-41.016,0.000
1727575940.455,-68.848,-95.703,-39.551,-30.762,0.000
1727575940.459,-47.852,-95.215,-37.109,-22.949,0.000
1727575940.462,-37.109,-102.051,-35.645,-34.668,0.000
1727575940.466,-19.043,-94.727,-35.645,-52.734,0.000
1727575940.470,-38.086,-100.586,-44.922,-72.754,0.000
1727575940.474,-61.035,-100.098,-46.875,-60.547,0.000
1727575940.478,-43.945,-86.426,-42.480,-34.180,0.000
1727575940.482,-20.996,-86.914,-36.621,-40.039,0.000
1727575940.486,4.395,-114.746,-35.156,-39.062,0.000
1727575940.490,-31.250,-122.559,-42.969,-44.434,0.000
1727575940.494,-58.594,-96.680,-36.621,-37.598,0.000
1727575940.498,-33.203,-86.914,-31.250,-11.719,0.000
1727575940.502,-28.320,-104.980,-40.039,-21.973,0.000
1727575940.505,-3.418,-101.562,-33.691,-26.367,0.000
1727575940.509,-17.090,-97.656,-40.039,-34.668,0.000
1727575940.513,-50.293,-90.820,-43.457,-27.344,0.000
1727575940.517,-27.832,-75.195,-25.879,12.695,0.000
1727575940.521,-11.230,-90.332,-23.438,-7.324,0.000
1727575940.525,-0.977,-98.633,-33.691,-30.762,0.000
1727575940.529,-16.602,-94.238,-40.527,-40.527,0.000
1727575940.533,-50.781,-97.168,-35.156,-39.062,0.000
1727575940.537,-40.527,-57.617,-25.879,-18.555,0.000
1727575940.541,-28.809,-55.176,-33.203,-26.855,0.000
1727575940.544,-11.719,-87.891,-34.180,-40.039,0.000
1727575940.548,-0.488,-85.449,-29.297,-52.734,0.000
1727575940.552,-37.598,-90.332,0.000,-60.547,0.000
1727575940.556,-42.969,-78.613,0.000,-25.879,0.000
1727575940.560,-35.156,-77.637,0.000,-24.414,0.000
1727575940.564,-16.113,-72.266,0.000,-46.875,0.000
1727575940.568,-3.418,-69.336,0.000,-40.039,0.000
1727575940.572,-43.945,-92.285,0.000,-47.363,0.000
1727575940.576,-41.016,-90.332,0.000,-16.113,0.000
1727575940.579,-20.996,-78.613,0.000,3.418,0.000
1727575940.583,-27.344,-86.914,0.000,-36.621,0.000
1727575940.587,-18.066,-103.027,0.000,-52.734,0.000
1727575940.591,-55.176,-109.863,0.000,-63.965,0.000
1727575940.595,-70.801,-100.098,0.000,-43.457,0.000
1727575940.599,-50.293,-89.844,-36.621,-21.484,0.000
1727575940.603,-36.133,-104.004,-41.992,-35.156,0.000
1727575940.606,-18.555,-123.047,-37.109,-43.945,0.000
1727575940.610,-57.617,-114.746,-38.086,-69.336,0.000
1727575940.614,-83.008,-91.797,-34.180,-56.641,0.000
1727575940.618,-66.895,-89.355,-34.180,-35.645,0.000
1727575940.622,-49.316,-99.609,-40.039,-44.434,0.000
1727575940.626,-27.832,-85.449,-41.016,-55.176,0.000
1727575940.630,-56.641,-96.680,-46.387,-83.984,0.000
1727575940.634,-78.125,-109.863,-44.922,-77.148,0.000
1727575940.638,-47.363,-94.727,-37.598,-44.434,0.000
1727575940.642,-35.156,-86.914,-33.203,-45.410,0.000
1727575940.646,-16.602,-75.195,-38.574,-53.223,0.000
1727575940.650,-9.766,-65.918,-42.480,-47.852,0.000
1727575940.654,-36.133,-59.082,-28.809,-25.391,0.000
1727575940.658,-23.438,-42.969,-26.367,-1.465,0.000
1727575940.661,-3.906,-44.434,-33.203,-1.953,0.000
1727575940.665,16.602,-68.359,-32.227,-4.883,0.000
1727575940.669,2.441,-81.055,-31.738,-20.508,0.000
1727575940.673,-41.016,-79.590,-33.691,-24.902,0.000
1727575940.677,-32.715,-68.848,-35.156,-6.348,0.000
1727575940.681,-13.672,-66.406,-46.387,-7.812,0.000
1727575940.685,1.953,-56.641,-49.805,-27.344,0.000
1727575940.689,-11.230,-43.457,-39.551,-46.875,0.000
1727575940.693,-50.781,-51.758,-37.598,-47.852,0.000
1727575940.697,-42.480,-55.664,-38.574,-21.484,0.000
1727575940.701,-23.926,-49.316,-35.156,-13.672,0.000
1727575940.705,-2.930,-38.574,-34.180,-17.578,0.000
1727575940.709,-1.465,-34.180,-42.969,-36.133,0.000
1727575940.713,-33.203,-41.504,-39.062,-49.805,0.000
1727575940.716,-37.109,-32.715,-26.855,-23.438,0.000
1727575940.720,-34.180,-33.203,-28.809,-13.672,0.000
1727575940.724,-4.883,-52.246,-23.926,-20.996,0.000
1727575940.728,9.766,-56.641,-26.367,-27.832,0.000
1727575940.732,-51.270,-44.434,-37.109,-45.898,0.000
1727575940.736,-59.082,-34.668,-29.785,-33.203,0.000
1727575940.740,-39.551,-39.551,-27.832,-28.320,0.000
1727575940.744,-37.109,-48.340,-27.344,-38.574,0.000
1727575940.748,-16.602,-52.246,-28.809,-43.457,0.000
1727575940.752,-42.480,-65.918,-43.457,-63.965,0.000
1727575940.756,-64.453,-70.801,-46.387,-48.340,0.000
1727575940.760,-53.711,-57.129,-45.410,-31.250,0.000
1727575940.763,-35.645,-38.574,-41.504,-41.992,0.000
1727575940.767,-13.672,-41.016,-40.527,-50.781,0.000
1727575940.771,-43.457,-80.078,-44.434,-71.289,0.000
1727575940.775,-62.988,-69.824,-40.039,-62.988,0.000
1727575940.779,-39.551,-32.715,-38.086,-33.203,0.000
1727575940.783,-35.645,-40.039,-41.016,-34.668,0.000
1727575940.787,-11.719,-36.133,-30.762,-41.504,0.000
1727575940.791,-28.320,-19.043,-27.344,-46.875,0.000
1727575940.795,-55.176,-13.672,-26.367,-31.250,0.000
1727575940.799,-23.438,-6.836,-18.555,-0.488,0.000
1727575940.803,1.953,-20.020,-31.738,-10.254,0.000
1727575940.806,3.906,-37.109,-40.527,-33.691,0.000
1727575940.810,-21.973,-49.805,-31.738,-47.363,0.000
1727575940.814,-59.082,-42.480,-28.320,-37.109,0.000
1727575940.818,-31.738,-18.066,-19.531,7.812,0.000
1727575940.822,0.488,0.977,-2.441,12.207,0.000
1727575940.826,15.625,19.531,-3.906,-6.348,0.000
1727575940.830,0.977,13.184,-27.344,-29.297,0.000
1727575940.834,0.000,4.395,-24.414,-38.086,0.000
1727575940.838,0.000,18.555,-6.836,-3.418,0.000
1727575940.842,0.000,9.277,-15.625,3.418,0.000
1727575940.846,0.000,-9.766,-27.344,-11.230,0.000
1727575940.849,0.000,-12.695,-24.902,-19.531,0.000
1727575940.853,0.000,-16.113,-23.438,-28.809,0.000
1727575940.857,0.000,-5.371,-21.973,-5.371,0.000
1727575940.861,0.000,-4.395,-29.297,13.184,0.000
1727575940.865,0.000,0.488,-33.203,-11.230,0.000
1727575940.869,0.000,-5.859,-28.809,-28.320,0.000
1727575940.873,0.000,-31.738,-38.086,-33.691,0.000
1727575940.877,0.000,-32.227,-41.992,-24.414,0.000
1727575940.881,-12.207,-16.602,-21.484,-11.230,0.000
1727575940.885,-17.578,-19.043,-15.625,-25.879,0.000
1727575940.888,-28.320,-48.828,-40.527,-49.805,0.000
1727575940.892,-65.918,-53.711,-46.875,-64.453,0.000
1727575940.896,-67.871,-26.367,-36.621,-46.875,0.000
1727575940.900,-38.086,-25.879,-32.715,-19.043,0.000
1727575940.904,-19.531,-36.621,-31.738,-24.902,0.000
1727575940.908,-11.719,-43.457,-39.551,-49.316,0.000
1727575940.912,-50.293,-49.316,-49.316,-82.031,0.000
1727575940.916,-73.242,-38.574,-51.758,-54.199,0.000
1727575940.920,-60.059,-20.020,-49.316,-10.254,0.000
1727575940.924,-48.828,-39.062,-45.898,-23.438,0.000
1727575940.927,-24.414,-51.758,-41.016,-40.527,0.000
1727575940.931,-46.387,-33.203,-46.387,-61.035,0.000
1727575940.935,-63.477,-26.367,-40.527,-58.594,0.000
1727575940.939,-34.180,-31.738,-31.250,-36.621,0.000
1727575940.943,-37.598,-41.504,-38.086,-44.922,0.000
1727575940.947,-15.137,-43.945,-38.574,-50.781,0.000
1727575940.951,-38.086,-63.477,-46.875,-67.871,0.000
1727575940.955,-73.730,-69.824,-44.922,-65.430,0.000
1727575940.959,-51.270,-39.062,-38.574,-22.461,0.000
1727575940.962,-40.039,-41.992,-40.527,-25.879,0.000
1727575940.966,-11.719,-55.176,-32.227,-34.180,0.000
1727575940.970,-27.832,-52.734,-34.180,-36.621,0.000
1727575940.974,-70.312,-48.828,-41.016,-34.180,0.000
1727575940.978,-41.504,-55.176,-39.551,-1.953,0.000
1727575940.982,-12.207,-62.500,-29.785,-0.488,0.000
1727575940.986,3.906,-64.941,-26.367,-18.555,0.000
1727575940.990,-5.371,-64.453,-29.297,-35.156,0.000
1727575940.993,-40.039,-67.871,-27.344,-35.156,0.000
1727575940.997,-26.855,-68.848,-23.438,0.977,0.000
1727575941.001,-3.906,-57.617,-23.438,7.324,0.000
1727575941.005,3.906,-65.430,-29.297,-9.277,0.000
1727575941.009,-7.324,-74.219,-34.668,-32.715,0.000
1727575941.013,-35.645,-59.082,-30.273,-39.551,0.000
1727575941.017,-26.367,-38.086,-25.391,-8.301,0.000
1727575941.020,0.000,-47.852,-29.785,-14.648,0.000
1727575941.024,0.000,-52.734,-35.156,-31.250,0.000
1727575941.028,0.000,-50.293,-36.621,-43.457,0.000
1727575941.032,0.000,-61.523,-31.250,-41.504,0.000
1727575941.036,0.000,-64.453,-25.391,1.953,0.000
1727575941.040,0.000,-56.641,-23.926,7.812,0.000
1727575941.044,0.000,-33.691,-26.855,-25.879,0.000
1727575941.048,0.000,-18.555,-34.180,-42.969,0.000
1727575941.052,0.000,-31.250,-39.062,-56.152,0.000
1727575941.056,0.000,-47.363,-37.598,-30.762,0.000
1727575941.060,0.000,-27.832,-36.621,-15.625,0.000
1727575941.063,0.000,-16.113,-35.645,-41.016,0.000
1727575941.068,-16.602,-36.133,-37.598,-53.223,0.000
1727575941.072,-48.828,-54.688,-43.945,-60.547,0.000
1727575941.075,-74.219,-38.086,-41.016,-43.945,0.000
1727575941.079,-58.105,-31.738,-40.527,-25.879,0.000
1727575941.083,-41.992,-33.203,-36.133,-28.320,0.000
1727575941.087,-27.832,-30.273,-41.016,-29.785,0.000
1727575941.091,-63.477,-31.738,-52.246,-54.199,0.000
1727575941.095,-74.219,-26.855,-43.945,-42.969,0.000
1727575941.099,-39.062,-20.508,-35.645,-10.254,0.000
1727575941.103,-29.297,-33.691,-41.504,-28.809,0.000
1727575941.107,-4.883,-39.551,-42.969,-45.898,0.000
1727575941.111,-11.230,-42.969,-46.387,-46.875,0.000
1727575941.115,-40.039,-45.410,-41.504,-32.715,0.000
1727575941.119,-32.227,-25.879,-36.133,-1.465,0.000
1727575941.123,-27.832,-13.672,-42.969,-9.277,0.000
1727575941.126,-10.742,-19.043,-44.434,-29.297,0.000
1727575941.130,-21.484,-27.832,-46.387,-42.480,0.000
1727575941.134,-37.598,-36.621,-39.062,-31.738,0.000
1727575941.138,-15.137,-30.762,-22.949,0.000,0.000
1727575941.142,-13.184,-25.391,-30.273,-10.742,0.000
1727575941.146,-3.906,-33.691,-37.598,-10.254,0.000
1727575941.150,-9.766,-30.762,-32.715,-11.230,0.000
1727575941.154,-45.410,-17.090,-33.691,-28.809,0.000
1727575941.158,-22.949,-10.254,-27.832,5.859,0.000
1727575941.162,2.441,-22.461,-16.602,24.902,0.000
1727575941.166,10.742,-22.949,-22.461,-6.348,0.000
1727575941.169,1.465,-31.250,-36.133,-28.809,0.000
1727575941.173,-36.133,-45.898,-39.062,-41.016,0.000
1727575941.177,-31.738,-40.527,-35.645,-20.996,0.000
1727575941.181,-23.438,-38.086,-36.133,-18.555,0.000
1727575941.185,-9.277,-31.250,-32.227,-37.598,0.000
1727575941.189,5.371,-35.156,-29.785,-41.016,0.000
1727575941.193,-29.297,-48.340,-33.691,-43.457,0.000
1727575941.197,-42.969,-29.785,-30.762,-20.996,0.000
1727575941.201,-32.227,-31.738,-32.227,-14.160,0.000
1727575941.205,-18.066,-41.992,-32.227,-27.832,0.000
1727575941.209,-5.859,-39.062,-30.762,-29.785,0.000
1727575941.212,-50.293,-53.223,-35.645,-46.875,0.000
1727575941.216,-61.523,-60.059,-34.180,-37.109,0.000
1727575941.220,-37.109,-59.082,-41.016,-17.578,0.000
1727575941.224,-29.297,-62.012,-45.898,-34.180,0.000
1727575941.228,-25.879,-70.801,-49.805,-51.758,0.000
1727575941.232,-62.012,-63.477,-54.688,-73.242,0.000
1727575941.236,-78.613,-53.223,-40.527,-50.781,0.000
1727575941.240,-54.688,-45.898,-32.227,-16.113,0.000
1727575941.244,-40.039,-37.109,-38.574,-33.203,0.000
1727575941.248,-24.902,-37.598,-45.410,-49.316,0.000
1727575941.252,-48.340,-51.270,-49.805,-55.176,0.000
1727575941.255,-73.242,-41.992,-41.992,-46.387,0.000
1727575941.259,-41.992,-29.297,-37.109,-23.926,0.000
1727575941.263,-17.090,-35.156,-40.527,-24.414,0.000
1727575941.267,3.906,-24.902,-40.039,-36.133,0.000
1727575941.271,-9.766,-20.508,-41.016,-49.316,0.000
1727575941.275,-27.832,-33.691,-36.133,-34.180,0.000
1727575941.279,-2.930,-27.832,-28.809,4.395,0.000
1727575941.283,8.789,-16.602,-30.273,3.418,0.000
1727575941.287,20.508,6.836,-23.926,-11.719,0.000
1727575941.291,5.859,0.488,-30.273,-30.762,0.000
1727575941.294,-13.672,-15.137,-32.715,-23.438,0.000
1727575941.298,0.000,9.766,-14.648,18.555,0.000
1727575941.302,0.488,16.602,-7.324,15.625,0.000
1727575941.306,13.184,-2.441,-16.602,-5.371,0.000
1727575941.310,5.859,-23.438,-22.949,-20.020,0.000
1727575941.314,-33.691,-30.273,-27.344,-35.645,0.000
1727575941.318,-32.715,-16.113,-31.738,-13.184,0.000
1727575941.322,-18.066,-24.414,-29.297,-0.977,0.000
1727575941.326,6.348,-38.086,-26.367,-10.254,0.000
1727575941.329,1.465,-22.949,-22.949,-27.344,0.000
1727575941.333,-47.363,-24.902,-25.879,-48.828,0.000
1727575941.337,-46.875,-35.156,-29.297,-29.785,0.000
1727575941.341,-33.203,-39.551,-26.367,-11.230,0.000
1727575941.345,-20.020,-38.086,-27.344,-28.809,0.000
1727575941.349,-15.625,-36.621,-25.879,-41.016,0.000
1727575941.353,-68.848,-55.176,-37.598,-54.199,0.000
1727575941.357,-73.242,-54.688,-41.016,-39.551,0.000
1727575941.360,-40.527,-37.109,-30.762,-24.902,0.000
1727575941.364,-28.320,-42.480,-33.203,-40.039,0.000
1727575941.368,-24.902,-69.824,-48.340,-63.477,0.000
1727575941.372,-68.359,-91.797,-52.246,-76.660,0.000
1727575941.376,-84.473,-54.688,-44.434,-53.223,0.000
1727575941.380,-58.105,-33.203,-43.945,-34.668,0.000
1727575941.384,-40.527,-44.922,-52.734,-53.711,0.000
1727575941.388,-34.180,-38.574,-54.688,-70.312,0.000
1727575941.392,-65.918,-36.621,-58.105,-83.496,0.000
1727575941.396,-76.172,-37.109,-60.059,-59.570,0.000
1727575941.400,-50.293,-42.969,-54.688,-24.414,0.000
1727575941.404,-38.086,-40.039,-48.828,-29.785,0.000
1727575941.408,-15.625,-33.691,-51.270,-37.109,0.000
1727575941.412,-29.785,-44.922,-52.734,-51.758,0.000
1727575941.416,-53.223,-51.270,-46.387,-39.062,0.000
1727575941.419,-36.133,-37.598,-41.016,1.465,0.000
1727575941.423,-29.297,-28.809,-34.668,-5.371,0.000
1727575941.427,-8.301,-39.062,-31.250,-17.578,0.000
1727575941.431,-20.996,-53.711,-36.621,-26.855,0.000
1727575941.435,-43.945,-40.527,-36.133,-21.484,0.000
1727575941.439,-27.344,-30.762,-27.832,11.719,0.000
1727575941.443,-15.625,-52.734,-25.391,4.395,0.000
1727575941.447,9.766,-62.500,-29.297,-7.812,0.000
1727575941.451,5.859,-57.617,-37.598,-14.648,0.000
1727575941.455,-36.133,-59.570,-40.039,-23.926,0.000
1727575941.459,-30.273,-48.340,-34.180,2.930,0.000
1727575941.463,-5.371,-43.457,-27.344,10.254,0.000
1727575941.467,2.441,-37.598,-32.715,-10.742,0.000
1727575941.470,-17.090,-46.387,-41.504,-30.762,0.000
1727575941.474,-41.992,-68.359,-52.734,-46.875,0.000
1727575941.478,-28.320,-52.246,-51.758,-7.812,0.000
1727575941.482,-25.879,-29.785,-34.180,7.812,0.000
1727575941.486,-29.785,-44.434,-36.133,-25.879,0.000
1727575941.490,0.000,-58.594,-42.969,-42.969,0.000
1727575941.494,0.000,-53.711,-42.480,-49.805,0.000
1727575941.498,0.000,-35.645,-34.668,-20.020,0.000
1727575941.502,0.000,-45.410,-33.203,-9.766,0.000
1727575941.506,0.000,-64.453,-38.086,-32.227,0.000
1727575941.510,0.000,-79.590,-44.922,-35.645,0.000
1727575941.514,0.000,-91.797,-51.270,-46.387,0.000
1727575941.518,0.000,-69.824,-49.805,-40.039,0.000
1727575941.521,0.000,-63.965,-56.641,-26.367,0.000
1727575941.525,0.000,-63.477,-52.734,-32.227,0.000
1727575941.529,0.000,-61.035,-47.363,-56.152,0.000
1727575941.533,0.000,-77.148,-51.758,-82.520,0.000
1727575941.537,-59.082,-66.406,-46.387,-58.594,0.000
1727575941.541,-45.410,-57.129,-42.480,-22.461,0.000
1727575941.545,-44.922,-58.594,-41.992,-38.086,0.000
1727575941.549,-25.391,-58.594,-43.457,-49.316,0.000
1727575941.553,-57.617,-72.266,-47.852,-54.199,0.000
1727575941.557,-73.730,-66.406,-44.922,-47.852,0.000
1727575941.561,-49.805,-51.758,-36.621,-25.391,0.000
1727575941.564,-40.039,-53.711,-39.062,-21.484,0.000
1727575941.568,-17.090,-67.871,-47.852,-17.090,0.000
1727575941.572,-25.391,-58.594,-37.598,-33.691,0.000
1727575941.576,-49.805,-38.574,-30.273,-35.156,0.000
1727575941.580,-26.855,-39.551,-31.738,-0.488,0.000
1727575941.584,3.906,-36.133,-35.156,4.883,0.000
1727575941.588,16.113,-34.668,-35.645,-19.043,0.000
1727575941.592,-9.766,-55.664,-36.621,-41.504,0.000
1727575941.596,-39.062,-60.059,-34.668,-40.039,0.000
1727575941.600,-15.625,-32.227,-22.949,-11.230,0.000
1727575941.603,-2.441,-22.949,-21.973,-1.465,0.000
1727575941.607,12.695,-23.926,-23.926,-2.930,0.000
1727575941.611,5.371,-27.344,-27.832,-12.695,0.000
1727575941.615,-24.902,-21.973,-23.926,-22.949,0.000
1727575941.619,-9.766,-2.930,-18.066,0.000,0.000
1727575941.623,-4.395,0.977,-23.926,4.395,0.000
1727575941.627,3.906,-6.836,-29.297,-9.766,0.000
1727575941.631,0.000,-12.207,-31.250,-29.297,0.000
1727575941.635,0.000,-3.906,-27.344,-47.363,0.000
1727575941.639,0.000,-9.766,-20.508,-10.254,0.000
1727575941.642,0.000,-31.250,-14.160,10.742,0.000
1727575941.646,0.000,-31.250,-17.090,-9.277,0.000
1727575941.650,0.000,-34.668,-33.203,-23.438,0.000
1727575941.654,0.000,-30.273,-29.297,-20.996,0.000
1727575941.658,0.000,-24.414,-30.762,0.977,0.000
1727575941.662,0.000,-25.879,-38.086,-16.602,0.000
1727575941.666,0.000,-25.879,-25.391,-28.320,0.000
1727575941.670,0.000,-30.273,-24.414,-31.250,0.000
1727575941.674,0.000,-39.551,-32.715,-65.430,0.000
1727575941.677,-59.082,-29.297,-39.062,-53.711,0.000
1727575941.681,-56.152,-27.832,-47.363,-29.297,0.000
1727575941.685,-50.781,-42.480,-51.758,-51.758,0.000
1727575941.689,-29.297,-53.223,-56.152,-58.105,0.000
1727575941.693,-53.711,-57.129,-62.012,-62.500,0.000
1727575941.697,-63.965,-53.711,-47.852,-41.992,0.000
1727575941.701,-38.574,-53.223,-40.039,-14.648,0.000
1727575941.705,-44.434,-39.551,-47.852,-47.852,0.000
1727575941.709,-49.316,-30.273,-58.105,-71.777,0.000
1727575941.713,-75.195,-50.293,-72.754,-84.473,0.000
1727575941.717,-91.797,-43.945,-56.152,-58.594,0.000
1727575941.720,-68.848,-24.902,-44.434,-26.367,0.000
1727575941.724,-53.223,-36.133,-53.711,-51.270,0.000
1727575941.728,-16.113,-52.734,-51.270,-58.594,0.000
1727575941.732,-27.344,-63.477,-50.781,-58.594,0.000
1727575941.736,-61.523,-52.246,-49.805,-44.434,0.000
1727575941.740,-33.691,-35.645,-42.480,-14.648,0.000
1727575941.744,-9.766,-50.293,-51.270,-25.879,0.000
1727575941.747,9.766,-52.246,-57.129,-34.180,0.000
1727575941.751,-7.812,-31.738,-41.504,-40.527,0.000
1727575941.755,-38.574,-26.855,-32.715,-24.414,0.000
1727575941.759,-12.207,-28.320,-30.273,18.555,0.000
1727575941.763,-1.953,-35.645,-26.367,-1.465,0.000
1727575941.767,13.672,-43.945,-30.273,-21.973,0.000
1727575941.771,2.441,-52.734,-34.180,-27.832,0.000
1727575941.774,-47.852,-62.500,-34.180,-37.109,0.000
1727575941.778,-34.180,-55.176,-28.320,-14.648,0.000
1727575941.782,-18.555,-51.758,-30.273,-19.043,0.000
1727575941.786,-2.930,-49.805,-41.504,-32.227,0.000
1727575941.790,-2.441,-53.223,-49.316,-27.832,0.000
1727575941.794,-49.805,-46.875,-45.410,-39.062,0.000
1727575941.798,-52.734,-27.832,-38.086,-19.043,0.000
1727575941.802,-33.203,-33.691,-39.551,-1.465,0.000
1727575941.806,-6.836,-52.246,-36.133,-8.301,0.000
1727575941.810,3.418,-41.016,-35.645,-21.484,0.000
1727575941.814,-40.527,-46.875,-32.227,-38.086,0.000
1727575941.818,-40.039,-62.012,-34.180,-20.020,0.000
1727575941.822,-27.832,-43.945,-48.340,-16.113,0.000
1727575941.826,-42.480,-36.133,-44.922,-41.016,0.000
1727575941.829,-42.480,-51.758,-45.410,-60.547,0.000
1727575941.833,-72.754,-61.035,-49.805,-74.219,0.000
1727575941.837,-76.660,-55.664,-52.246,-54.199,0.000
1727575941.841,-57.129,-46.387,-54.688,-38.086,0.000
1727575941.845,-46.387,-42.480,-52.246,-53.711,0.000
1727575941.849,-32.227,-51.270,-51.758,-61.523,0.000
1727575941.853,-61.523,-57.129,-47.363,-74.707,0.000
1727575941.857,-77.148,-44.434,-41.016,-65.430,0.000
1727575941.861,-45.898,-41.504,-43.945,-35.156,0.000
1727575941.865,0.000,-49.316,-48.828,-36.133,0.000
1727575941.869,0.000,-54.688,-43.457,-34.668,0.000
1727575941.873,0.000,-60.059,-43.457,-39.062,0.000
1727575941.877,0.000,-53.223,-35.645,-22.949,0.000
1727575941.880,0.000,-48.828,-28.320,9.277,0.000
1727575941.884,0.000,-62.500,-28.809,-1.465,0.000
1727575941.888,0.000,-58.105,-23.438,-16.602,0.000
1727575941.892,0.000,-50.781,-25.879,-29.297,0.000
1727575941.896,0.000,-65.430,-31.250,-21.484,0.000
1727575941.900,0.000,-44.434,-19.043,20.020,0.000
1727575941.904,0.000,-32.715,-14.648,21.484,0.000
1727575941.908,0.000,-42.480,-22.949,1.465,0.000
1727575941.912,-2.930,-41.992,-18.555,-22.461,0.000
1727575941.916,-37.109,-44.434,-13.672,-32.227,0.000
1727575941.920,-17.090,-45.410,-15.625,5.859,0.000
1727575941.923,-7.324,-43.945,-23.926,15.625,0.000
1727575941.927,4.883,-42.969,-27.832,-5.859,0.000
1727575941.931,-1.465,-52.734,-27.832,-20.508,0.000
1727575941.935,-48.828,-61.523,-18.066,-26.855,0.000
1727575941.939,-33.691,-54.199,-3.418,13.184,0.000
1727575941.943,-7.812,-56.641,-11.230,31.738,0.000
1727575941.947,-0.977,-43.945,-21.484,-4.395,0.000
1727575941.951,-13.672,-37.109,-25.391,-29.785,0.000
1727575941.955,-52.734,-53.223,-32.227,-31.738,0.000
1727575941.959,-44.434,-47.852,-28.809,4.395,0.000
1727575941.963,-25.879,-43.945,-21.973,15.625,0.000
1727575941.966,-24.902,-53.223,-23.438,-17.578,0.000
1727575941.970,-20.020,-61.035,-23.926,-29.785,0.000
1727575941.974,-56.152,-73.730,-22.461,-24.414,0.000
1727575941.978,-61.523,-64.941,-26.367,-6.836,0.000
1727575941.982,-38.574,-56.152,-34.668,-7.812,0.000
1727575941.986,-27.832,-83.496,-45.410,-30.762,0.000
1727575941.990,-17.090,-87.891,-48.828,-42.969,0.000
1727575941.994,-51.270,-65.918,-52.734,-72.754,0.000
1727575941.998,-63.477,-53.711,-51.270,-53.711,0.000
1727575942.002,-42.480,-56.152,-52.246,-27.832,0.000
1727575942.005,-23.926,-55.664,-49.316,-55.664,0.000
1727575942.009,4.395,-40.527,-38.574,-62.988,0.000
1727575942.013,-26.855,-41.016,-49.805,-67.871,0.000
1727575942.017,-58.594,-39.062,-48.340,-52.734,0.000
1727575942.021,-44.922,-32.715,-37.109,-24.902,0.000
1727575942.025,-35.156,-41.016,-43.457,-37.598,0.000
1727575942.029,-14.648,-39.062,-44.922,-42.969,0.000
1727575942.033,-34.180,-38.574,-43.457,-38.574,0.000
1727575942.037,-66.406,-31.250,-39.551,-32.715,0.000
1727575942.041,-45.410,-25.879,-37.109,-9.277,0.000
1727575942.045,-26.855,-28.809,-41.016,-12.207,0.000
1727575942.048,-11.230,-31.250,-44.434,-20.020,0.000
1727575942.052,-25.879,-30.762,0.000,-38.086,0.000
1727575942.056,-47.852,-32.227,0.000,-43.945,0.000
1727575942.060,-22.949,-40.039,0.000,-12.695,0.000
1727575942.064,-12.207,-41.016,0.000,-18.066,0.000
1727575942.068,-5.371,-20.508,0.000,-27.832,0.000
1727575942.072,-19.531,-25.391,0.000,-45.898,0.000
1727575942.076,-59.570,-39.551,0.000,-67.871,0.000
1727575942.079,-48.828,-29.785,0.000,-40.039,0.000
1727575942.083,-31.250,-27.344,0.000,-29.785,0.000
1727575942.087,-6.836,-28.809,0.000,-30.762,0.000
1727575942.091,-8.301,-29.785,0.000,-30.762,0.000
1727575942.095,-54.688,-41.992,0.000,-47.852,0.000
1727575942.099,-37.598,-33.691,-48.828,-25.391,0.000
1727575942.103,-25.391,-30.762,-40.039,-9.766,0.000
1727575942.107,-21.973,-33.203,-44.922,-26.367,0.000
1727575942.110,-19.043,-43.457,-45.898,-44.434,0.000
1727575942.114,-62.500,-58.594,-41.016,-57.617,0.000
1727575942.118,-50.293,-52.246,-40.039,-14.648,0.000
1727575942.122,-14.160,-63.477,-43.457,4.883,0.000
1727575942.126,-5.859,-64.453,-43.945,-18.066,0.000
1727575942.130,-10.254,-60.059,-44.922,-33.691,0.000
1727575942.134,-57.617,-66.406,-49.805,-51.758,0.000
1727575942.138,-62.012,-55.664,-47.852,-33.691,0.000
1727575942.142,-41.016,-54.688,-41.016,-21.973,0.000
1727575942.145,-28.809,-64.453,-34.668,-33.691,0.000
1727575942.149,-14.648,-78.125,-35.156,-37.598,0.000
1727575942.153,-47.852,-76.660,-41.016,-57.129,0.000
1727575942.157,-61.523,-63.477,-37.109,-42.969,0.000
1727575942.161,-46.875,-66.895,-33.691,-12.207,0.000
1727575942.165,-46.387,-70.312,-40.527,-31.250,0.000
1727575942.169,-36.133,-58.594,-48.340,-48.340,0.000
1727575942.173,-55.664,-59.082,-45.410,-66.406,0.000
1727575942.177,-63.477,-61.035,-35.645,-46.875,0.000
1727575942.180,-34.668,-53.223,-38.574,-5.859,0.000
1727575942.184,-27.344,-23.926,-40.039,-29.785,0.000
1727575942.188,-2.930,-11.230,-40.527,-43.457,0.000
1727575942.192,0.000,-21.484,-46.387,-46.875,0.000
1727575942.196,0.000,-9.277,-41.016,-40.527,0.000
1727575942.200,0.000,-2.441,-37.109,-6.348,0.000
1727575942.204,0.000,-10.254,-36.621,-10.254,0.000
1727575942.208,0.000,-17.090,-30.762,-20.020,0.000
1727575942.212,0.000,-25.879,-36.621,-31.250,0.000
1727575942.216,0.000,-18.066,-38.574,-41.992,0.000
1727575942.220,0.000,-8.789,-28.809,-19.531,0.000
1727575942.224,0.000,-14.160,-35.645,-15.625,0.000
1727575942.228,0.000,-16.113,-45.410,-29.297,0.000
1727575942.232,0.000,-13.184,-33.203,-43.457,0.000
1727575942.235,0.000,-20.508,-25.879,-46.387,0.000
1727575942.240,-21.484,-21.484,-22.461,-4.395,0.000
1727575942.243,0.488,-11.230,-20.508,7.812,0.000
1727575942.247,11.230,4.395,-34.668,-15.137,0.000
1727575942.251,-5.859,-1.465,-46.875,-31.250,0.000
1727575942.255,-54.688,-23.438,-43.945,-37.109,0.000
1727575942.259,-33.691,-15.137,-36.621,0.977,0.000
1727575942.263,-17.578,-3.906,-38.086,4.395,0.000
1727575942.267,-15.625,-16.113,-34.668,-24.902,0.000
1727575942.271,-6.836,-35.156,-44.922,-33.691,0.000
1727575942.275,-52.246,-45.898,-51.270,-46.875,0.000
1727575942.279,-57.617,-26.855,-35.645,-28.809,0.000
1727575942.283,-29.785,-23.926,-36.133,-13.184,0.000
1727575942.287,-23.438,-37.598,-47.363,-47.852,0.000
1727575942.291,-16.113,-50.781,-50.293,-57.129,0.000
1727575942.295,-58.105,-53.711,-53.223,-56.641,0.000
1727575942.299,-74.219,-41.992,-47.363,-41.992,0.000
1727575942.303,-42.969,-31.738,-28.809,-20.996,0.000
1727575942.307,-41.016,-46.875,-30.762,-36.133,0.000
1727575942.311,-25.391,-57.129,-42.480,-58.105,0.000
1727575942.315,-51.758,-62.500,-42.969,-79.590,0.000
1727575942.318,-81.543,-73.242,-42.969,-50.781,0.000
1727575942.322,-60.059,-52.734,-37.598,-17.090,0.000
1727575942.326,-45.410,-41.504,-38.574,-33.203,0.000
1727575942.330,-27.344,-45.898,-43.457,-39.551,0.000
1727575942.334,-40.527,-49.805,-38.574,-39.062,0.000
1727575942.338,-58.594,-43.457,-27.832,-29.297,0.000
1727575942.342,-39.062,-17.090,-25.879,-7.324,0.000
1727575942.346,-24.414,-13.184,-40.039,-18.555,0.000
1727575942.350,-0.488,-12.695,-42.480,-27.832,0.000
1727575942.354,-23.926,-22.461,-36.133,-40.527,0.000
1727575942.357,-46.875,-27.344,-33.203,-44.434,0.000
1727575942.361,-20.020,-12.207,-30.273,-17.090,0.000
1727575942.365,-21.973,-6.836,-34.180,-22.949,0.000
1727575942.369,-6.836,-15.137,-37.109,-33.691,0.000
1727575942.373,-12.207,-23.438,-41.016,-41.992,0.000
1727575942.377,-44.434,-25.879,-38.574,-35.645,0.000
1727575942.381,-40.039,-14.160,-35.645,-6.348,0.000
1727575942.385,-33.691,-19.531,-43.457,-20.996,0.000
1727575942.389,-17.090,-37.598,-44.922,-33.691,0.000
1727575942.392,-20.508,-45.898,-45.898,-41.016,0.000
1727575942.396,-63.477,-35.156,-45.898,-55.176,0.000
1727575942.400,-52.734,-30.762,-39.062,-19.531,0.000
1727575942.404,-33.203,-41.992,-37.598,-6.348,0.000
1727575942.408,-16.113,-57.617,-39.551,-21.973,0.000
1727575942.412,-24.414,-46.875,-41.504,-50.781,0.000
1727575942.416,-71.289,-34.180,-42.480,-70.312,0.000
1727575942.420,-47.363,-26.367,-36.621,-19.043,0.000
1727575942.424,-27.344,-26.367,-34.180,0.000,0.000
1727575942.427,-23.926,-22.461,-37.109,-32.715,0.000
1727575942.431,-16.113,-33.203,-37.598,-41.504,0.000
1727575942.435,-44.434,-54.688,-40.039,-53.711,0.000
1727575942.439,-46.387,-58.594,-41.992,-39.551,0.000
1727575942.443,-24.414,-55.176,-32.715,-13.672,0.000
1727575942.447,-7.324,-56.152,-23.926,-20.508,0.000
1727575942.451,2.930,-62.500,-27.344,-31.738,0.000
1727575942.455,-45.898,-59.082,-32.227,-54.688,0.000
1727575942.459,-60.547,-46.387,-28.809,-36.621,0.000
1727575942.463,-36.133,-56.152,-29.785,-17.090,0.000
1727575942.467,-33.203,-59.082,-43.945,-34.180,0.000
1727575942.470,-22.461,-51.758,-45.410,-38.574,0.000
1727575942.474,-56.152,-62.988,-44.922,-58.105,0.000
1727575942.478,-66.406,-60.547,-40.039,-39.551,0.000
1727575942.482,-36.133,-48.340,-38.086,-9.277,0.000
1727575942.486,-21.484,-50.293,-39.551,-27.832,0.000
1727575942.490,-0.488,-44.434,-38.086,-40.039,0.000
1727575942.494,-32.715,-58.594,-45.898,-55.176,0.000
1727575942.497,-66.895,-61.523,-40.527,-40.039,0.000
1727575942.501,-43.945,-17.090,-30.273,-4.395,0.000
1727575942.505,-28.809,-16.602,-33.691,-16.113,0.000
1727575942.509,-4.395,-38.574,-34.180,-23.438,0.000
1727575942.513,-18.555,-41.504,-34.668,-39.551,0.000
1727575942.517,-53.223,-48.340,-39.551,-49.316,0.000
1727575942.521,-30.273,-41.016,-37.109,-21.484,0.000
1727575942.525,-13.672,-38.574,-39.062,-21.484,0.000
1727575942.529,-5.859,-44.922,-41.992,-30.273,0.000
1727575942.533,-12.207,-49.316,-44.434,-43.457,0.000
1727575942.537,-41.016,-38.086,-36.621,-48.828,0.000
1727575942.541,-23.438,-30.762,-27.832,-12.695,0.000
1727575942.545,-8.789,-46.387,-30.762,-12.695,0.000
1727575942.549,-0.977,-49.316,-32.715,-35.645,0.000
1727575942.553,-10.742,-50.293,-30.762,-42.969,0.000
1727575942.556,-54.199,-51.758,-30.273,-39.551,0.000
1727575942.560,-44.922,-33.691,-29.785,-14.160,0.000
1727575942.564,-35.645,-36.133,-37.109,-23.926,0.000
1727575942.568,-27.832,-41.016,-41.992,-39.062,0.000
1727575942.572,-19.531,-33.203,-43.945,-46.875,0.000
1727575942.576,-58.105,-37.109,-46.387,-67.383,0.000
1727575942.580,-54.688,-35.645,-41.016,-40.527,0.000
1727575942.584,-24.414,-33.203,-39.062,-23.438,0.000
1727575942.588,-1.953,-36.621,-39.062,-37.109,0.000
1727575942.592,-0.488,-45.410,-44.434,-47.852,0.000
1727575942.596,-38.086,-50.293,-41.016,-58.105,0.000
1727575942.600,-28.809,-40.527,-34.180,-17.090,0.000
1727575942.604,-1.953,-41.992,-40.039,4.883,0.000
1727575942.607,-12.207,-38.574,-42.480,-33.691,0.000
1727575942.611,-6.348,-34.668,-40.039,-51.758,0.000
1727575942.615,0.000,-39.551,-38.086,-50.781,0.000
1727575942.619,0.000,-44.434,-37.109,-32.715,0.000
1727575942.623,0.000,-43.457,-41.016,-16.602,0.000
1727575942.627,0.000,-32.227,-45.410,-28.320,0.000
1727575942.631,0.000,-40.527,-42.480,-33.203,0.000
1727575942.635,0.000,-53.223,-41.504,-36.133,0.000
1727575942.639,0.000,-37.109,-41.504,-31.250,0.000
1727575942.643,0.000,-20.508,-41.016,-13.184,0.000
1727575942.647,0.000,-34.668,-44.922,-11.230,0.000
1727575942.651,0.000,-28.809,-39.551,-18.066,0.000
1727575942.655,0.000,-23.926,-38.086,-53.223,0.000
1727575942.658,0.000,-36.133,-48.340,-50.293,0.000
1727575942.662,-30.273,-24.414,-46.875,-6.348,0.000
1727575942.666,-14.160,-20.508,-37.109,-3.906,0.000
1727575942.670,0.000,-29.297,-33.691,-20.020,0.000
1727575942.674,-13.672,-42.969,-40.527,-46.387,0.000
1727575942.678,-47.852,-37.598,-37.598,-50.781,0.000
1727575942.682,-40.527,-20.996,-32.715,-10.254,0.000
1727575942.686,-30.762,-27.344,-41.016,-12.207,0.000
1727575942.690,-13.672,-37.109,-42.480,-30.762,0.000
1727575942.694,-20.020,-46.875,-46.387,-39.551,0.000
1727575942.698,-52.246,-30.762,-38.086,-47.852,0.000
1727575942.701,-31.250,-14.160,-30.762,-12.207,0.000
1727575942.705,-25.879,-32.715,-39.062,-4.883,0.000
1727575942.709,0.000,-37.109,-38.574,-23.926,0.000
1727575942.713,0.000,-36.621,-37.109,-36.621,0.000
1727575942.717,0.000,-56.152,-42.480,-57.129,0.000
1727575942.721,0.000,-51.758,-38.086,-35.156,0.000
1727575942.725,0.000,-35.156,-32.227,-22.949,0.000
1727575942.729,0.000,-36.133,-36.133,-38.086,0.000
1727575942.733,0.000,-42.480,-39.062,-43.457,0.000
1727575942.737,0.000,-57.129,-35.645,-45.410,0.000
1727575942.740,0.000,-42.969,-31.738,-20.020,0.000
1727575942.744,0.000,-28.320,-40.039,-19.043,0.000
1727575942.748,0.000,-28.809,-41.992,-36.133,0.000
1727575942.752,0.000,-31.738,-35.645,-34.180,0.000
1727575942.756,-48.340,-41.992,-46.875,-44.434,0.000
1727575942.760,-55.176,-27.832,-37.598,-26.855,0.000
1727575942.764,-35.645,-15.625,-27.344,-13.184,0.000
1727575942.768,-18.066,-26.367,-32.227,-27.832,0.000
1727575942.772,-0.488,-25.879,-33.691,-33.203,0.000
1727575942.776,-35.156,-34.180,-39.062,-45.410,0.000
1727575942.779,-40.039,-32.715,-38.086,-30.762,0.000
1727575942.783,-10.742,-28.809,-39.551,6.348,0.000
1727575942.787,-12.695,-14.160,-37.598,-9.277,0.000
1727575942.791,-0.488,-6.836,-35.156,-32.715,0.000
1727575942.795,-24.902,-27.832,-37.109,-44.922,0.000
1727575942.799,-51.270,-32.715,-38.574,-35.156,0.000
1727575942.803,-25.879,-17.578,-36.133,0.000,0.000
1727575942.807,-16.602,-25.391,-38.086,-14.160,0.000
1727575942.810,-5.371,-34.668,-42.480,-29.785,0.000
1727575942.814,-15.137,-32.715,-38.574,-37.598,0.000
1727575942.818,-39.551,-37.598,-34.180,-26.855,0.000
1727575942.822,-33.203,-35.645,-31.738,7.812,0.000
1727575942.826,-22.949,-32.715,-30.762,6.836,0.000
1727575942.830,0.977,-23.926,-35.156,-2.930,0.000
1727575942.834,-5.371,-31.250,-35.645,-18.555,0.000
1727575942.838,-37.598,-40.039,-40.039,-20.508,0.000
1727575942.842,-28.809,-19.531,-33.203,7.324,0.000
1727575942.846,-23.438,-17.090,-24.902,-2.930,0.000
1727575942.850,-7.324,-18.555,-23.926,-22.949,0.000
1727575942.854,-12.695,-27.344,-25.879,-25.391,0.000
1727575942.858,-55.176,-37.109,-33.203,-26.855,0.000
1727575942.862,-46.875,-19.531,-30.762,2.930,0.000
1727575942.866,-36.133,-21.973,-37.598,-4.883,0.000
1727575942.869,-14.648,-40.039,-42.480,-25.879,0.000
1727575942.873,0.000,-39.551,-39.551,-19.043,0.000
1727575942.877,-48.828,-19.531,-34.668,-32.227,0.000
1727575942.881,-49.316,-20.020,-36.133,-20.020,0.000
1727575942.885,-27.344,-33.203,-40.039,-19.043,0.000
1727575942.889,-11.719,-34.668,-39.551,-33.691,0.000
1727575942.893,-9.277,-36.133,-34.668,-38.574,0.000
1727575942.896,-57.129,-43.945,-44.922,-59.082,0.000
1727575942.900,-62.500,-49.316,-44.434,-41.504,0.000
1727575942.904,-32.715,-32.715,-34.180,-20.508,0.000
1727575942.908,-22.461,-17.090,-37.598,-32.715,0.000
1727575942.912,-26.855,-31.738,-47.363,-45.898,0.000
1727575942.916,-62.988,-52.734,-56.152,-55.664,0.000
1727575942.920,-74.219,-47.363,-45.898,-33.203,0.000
1727575942.924,-46.387,-39.062,-31.738,-10.254,0.000
1727575942.928,-25.391,-37.109,-34.180,-14.648,0.000
1727575942.932,-8.301,-39.551,-41.992,-20.996,0.000
1727575942.935,-47.363,-36.621,-46.387,-49.316,0.000
1727575942.939,-62.988,-25.391,-42.969,-39.551,0.000
1727575942.944,0.000,-23.926,-46.875,-20.508,0.000
1727575942.947,0.000,-29.297,-49.316,-35.645,0.000
1727575942.951,0.000,-31.738,-40.527,-34.668,0.000
1727575942.955,0.000,-47.363,-45.410,-51.758,0.000
1727575942.959,0.000,-43.457,-47.363,-51.758,0.000
1727575942.963,0.000,-27.344,-41.016,-18.066,0.000
1727575942.967,0.000,-29.297,-43.945,-27.344,0.000
1727575942.971,0.000,-26.367,-43.457,-48.828,0.000
1727575942.975,0.000,-36.133,-47.363,-60.059,0.000
1727575942.979,0.000,-40.039,-44.434,-41.016,0.000
1727575942.983,0.000,-25.879,-35.156,-6.836,0.000
1727575942.987,0.000,-35.156,-41.992,-16.602,0.000
1727575942.989,-39.551,-39.062,-45.410,-35.645,0.000
1727575942.993,-20.020,-29.297,-38.574,-58.105,0.000
1727575942.996,-2.930,-24.902,-36.621,-67.383,0.000
1727575943.000,-32.715,-21.484,-37.598,-41.016,0.000
1727575943.004,-51.758,-37.598,-37.109,-33.691,0.000
1727575943.008,-38.574,-40.039,-32.715,-38.086,0.000
1727575943.012,-30.273,-24.414,-39.062,-39.062,0.000
1727575943.016,-15.625,-21.973,-38.086,-46.387,0.000
1727575943.020,-31.738,-32.715,-34.180,-27.344,0.000
1727575943.024,-59.082,-29.785,-36.621,-20.020,0.000
1727575943.028,-39.062,-19.043,-33.203,-30.762,0.000
1727575943.032,-27.832,-33.203,-41.016,-48.828,0.000
1727575943.036,-62.988,-39.551,-51.758,-71.777,0.000
1727575943.040,-59.082,-25.391,-45.898,-42.480,0.000
1727575943.043,-34.180,-18.555,-41.504,-25.391,0.000
1727575943.047,-7.812,-19.043,-40.039,-35.156,0.000
1727575943.051,5.859,-27.344,-36.621,-41.992,0.000
1727575943.055,-39.062,-41.504,-31.738,-48.340,0.000
1727575943.059,-46.387,-32.227,-31.250,-25.879,0.000
1727575943.063,-20.508,-35.645,-41.504,0.488,0.000
1727575943.067,-2.441,-51.270,-44.434,-1.465,0.000
1727575943.071,7.324,-41.504,-31.738,-28.320,0.000
1727575943.075,-31.738,-35.156,-28.809,-54.199,0.000
1727575943.079,-40.039,-27.832,-32.715,-22.949,0.000
1727575943.083,0.000,-27.344,-30.273,5.859,0.000
1727575943.086,0.000,-30.273,-34.668,-18.066,0.000
1727575943.090,0.000,-32.715,-41.016,-29.297,0.000
1727575943.094,0.000,-42.480,-43.457,-43.945,0.000
1727575943.098,0.000,-45.898,-40.527,-32.715,0.000
1727575943.102,0.000,-35.156,-31.738,-5.371,0.000
1727575943.106,0.000,-29.297,-31.250,-19.043,0.000
1727575943.110,0.000,-39.062,-31.738,-23.926,0.000
1727575943.114,0.000,-43.457,-29.297,-31.250,0.000
1727575943.118,0.000,-26.855,-20.508,-23.926,0.000
1727575943.122,0.000,-18.555,-17.090,10.254,0.000
1727575943.126,0.000,-31.738,-23.438,0.000,0.000
1727575943.129,3.906,-31.250,-26.855,-21.484,0.000
1727575943.133,-15.625,-40.527,-27.344,-31.738,0.000
1727575943.137,-31.738,-38.086,-20.996,-18.555,0.000
1727575943.141,-15.625,-22.461,-28.320,4.395,0.000
1727575943.145,-8.301,-29.297,-36.621,-12.695,0.000
1727575943.149,1.465,-36.133,-34.180,-29.785,0.000
1727575943.153,-14.648,-50.293,-38.574,-38.574,0.000
1727575943.157,-51.270,-53.711,-39.551,-37.598,0.000
1727575943.161,-23.438,-22.461,-32.715,-16.113,0.000
1727575943.165,-1.953,-18.555,-34.668,-13.184,0.000
1727575943.168,2.930,-35.645,-36.133,-12.695,0.000
1727575943.172,-11.230,-37.598,-44.922,-30.762,0.000
1727575943.176,-60.547,-39.551,-44.434,-53.711,0.000
1727575943.180,-48.340,-35.156,-34.180,-24.902,0.000
1727575943.184,-25.391,-33.691,-34.180,-17.090,0.000
1727575943.188,-25.391,-31.738,-31.250,-35.156,0.000
1727575943.192,-19.531,-39.062,-30.273,-41.992,0.000
1727575943.196,-55.664,-51.758,-34.668,-59.082,0.000
1727575943.200,-64.453,-55.664,-40.527,-29.785,0.000
1727575943.204,-34.180,-39.062,-42.480,-3.418,0.000
1727575943.207,-18.555,-31.738,-40.039,-26.367,0.000
1727575943.211,-14.160,-43.457,-34.180,-28.320,0.000
1727575943.215,-45.410,-45.410,-35.156,-29.297,0.000
1727575943.219,-59.570,-31.250,-35.156,-12.207,0.000
1727575943.223,-38.574,-27.344,-37.598,-1.953,0.000
1727575943.227,-23.438,-38.086,-42.969,-25.391,0.000
1727575943.231,-15.625,-41.016,-45.898,-35.156,0.000
1727575943.235,-35.156,-39.551,-49.316,-40.039,0.000
1727575943.238,-43.945,-29.297,-38.574,-7.324,0.000
1727575943.242,-11.719,-36.133,-39.551,18.555,0.000
1727575943.246,12.695,-41.016,-56.152,2.930,0.000
1727575943.250,5.859,-16.602,-45.898,-9.766,0.000
1727575943.254,-28.809,-22.949,-44.434,-31.738,0.000
1727575943.258,-42.969,-37.598,-51.758,-20.020,0.000
1727575943.262,-20.996,-25.879,-45.410,0.488,0.000
1727575943.266,-10.742,-19.043,-41.016,-19.043,0.000
1727575943.270,6.348,-8.789,-35.645,-14.160,0.000
1727575943.274,-12.695,-15.137,-47.852,-22.461,0.000
1727575943.278,-38.086,-26.367,-48.828,-37.598,0.000
1727575943.282,-26.367,-20.020,-30.273,-3.906,0.000
1727575943.286,-22.461,-28.809,-34.180,-1.953,0.000
1727575943.290,-6.348,-47.363,-41.016,-22.461,0.000
1727575943.294,-21.484,-41.992,-37.598,-43.945,0.000
1727575943.297,-53.223,-37.598,-35.156,-44.434,0.000
1727575943.301,-28.809,-36.133,-28.320,-8.301,0.000
1727575943.305,-13.672,-41.016,-24.414,0.000,0.000
1727575943.309,-6.836,-35.156,-26.367,-31.250,0.000
1727575943.313,-13.672,-35.156,-34.180,-56.641,0.000
1727575943.317,-60.059,-52.734,-41.504,-49.805,0.000
1727575943.321,-56.152,-46.387,-42.480,-20.508,0.000
1727575943.325,-32.227,-38.574,-45.898,-25.391,0.000
1727575943.329,-12.695,-35.156,-49.316,-36.133,0.000
1727575943.333,-4.883,-51.270,-51.758,-39.062,0.000
1727575943.337,-51.758,-63.477,-43.457,-51.270,0.000
1727575943.341,-71.289,-46.387,-34.668,-33.203,0.000
1727575943.345,-48.828,-42.480,-37.598,-24.414,0.000
1727575943.349,-22.949,-55.176,-37.109,-21.484,0.000
1727575943.352,-17.578,-66.895,-47.363,-24.902,0.000
1727575943.356,-56.152,-56.152,-54.199,-48.828,0.000
1727575943.360,-47.363,-31.250,-43.457,-22.461,0.000
1727575943.364,-31.250,-28.320,-45.410,-15.625,0.000
1727575943.368,-27.344,-30.762,-44.922,-41.016,0.000
1727575943.372,-13.672,-35.645,-41.504,-47.363,0.000
1727575943.376,-50.781,-52.734,-47.852,-59.082,0.000
1727575943.380,-50.781,-46.875,-42.969,-33.691,0.000
1727575943.384,-17.090,-27.344,-33.691,-0.977,0.000
1727575943.388,-7.324,-24.902,-34.668,-12.207,0.000
1727575943.392,8.789,-16.602,-34.668,-17.090,0.000
1727575943.396,-8.789,-25.391,-32.715,-29.297,0.000
