timestamps,TP9,AF7,AF8,TP10,Right AUX
1727576028.481,-45.898,-39.062,-22.461,-3.418,0.000
1727576028.485,-29.785,-28.320,-28.809,-20.508,0.000
1727576028.489,-4.395,-30.273,-38.086,-28.809,0.000
1727576028.492,-42.480,-44.434,-38.086,-46.387,0.000
1727576028.496,-62.500,-34.668,-31.250,-33.203,0.000
1727576028.500,-30.762,-36.133,-22.461,-5.859,0.000
1727576028.504,-6.348,-51.270,-27.344,-13.672,0.000
1727576028.508,2.930,-58.105,-39.062,-28.809,0.000
1727576028.512,-51.270,-46.875,-41.992,-48.340,0.000
1727576028.516,-49.316,-27.344,-30.273,-29.297,0.000
1727576028.520,-20.508,-20.020,-30.273,-11.719,0.000
1727576028.524,-33.691,-25.879,-38.574,-29.785,0.000
1727576028.527,0.488,-29.785,-34.180,-29.785,0.000
1727576028.531,-17.578,-31.738,-39.551,-45.410,0.000
1727576028.535,-62.988,-26.367,-45.898,-44.434,0.000
1727576028.539,-44.434,-18.066,-35.156,-13.184,0.000
1727576028.543,-27.832,-28.320,-35.156,-25.879,0.000
1727576028.547,2.930,-35.156,-43.457,-41.504,0.000
1727576028.551,-31.738,-44.922,-44.434,-40.039,0.000
1727576028.555,-67.383,-44.434,-37.109,-30.762,0.000
1727576028.559,-36.133,-17.090,-28.320,-13.672,0.000
1727576028.563,-13.672,-29.297,-28.320,-10.742,0.000
1727576028.566,11.719,-47.852,-31.738,-25.879,0.000
1727576028.570,-27.344,-47.363,-30.273,-39.551,0.000
1727576028.574,-53.711,-38.086,-22.461,-29.297,0.000
1727576028.578,-22.461,-31.250,-14.648,-8.301,0.000
1727576028.582,-22.461,-43.457,-20.508,-1.953,0.000
1727576028.586,-17.090,-39.062,-26.367,-18.555,0.000
1727576028.590,-32.715,-45.410,-26.855,-43.945,0.000
1727576028.594,-62.012,-49.316,-33.691,-43.945,0.000
1727576028.597,-34.180,-43.945,-38.574,-16.113,0.000
1727576028.601,-22.461,-39.551,-32.227,-12.207,0.000
1727576028.605,-2.930,-21.973,-33.691,-18.555,0.000
1727576028.609,2.930,-14.160,-36.133,-32.227,0.000
1727576028.613,-27.344,-19.043,-23.438,-29.785,0.000
1727576028.617,-34.668,-24.902,-17.578,-1.465,0.000
1727576028.621,-22.461,-26.367,-23.438,-13.672,0.000
1727576028.624,4.883,-24.902,-25.879,-27.832,0.000
1727576028.628,-5.371,-42.480,-33.691,-43.945,0.000
1727576028.632,-51.758,-50.781,-39.062,-61.035,0.000
1727576028.636,-42.480,-30.762,-24.414,-28.809,0.000
1727576028.640,-24.902,-35.645,-29.785,-3.906,0.000
1727576028.644,-4.883,-36.621,-40.527,-26.855,0.000
1727576028.648,3.906,-29.785,-36.621,-39.551,0.000
1727576028.652,-47.363,-39.062,-34.180,-43.945,0.000
1727576028.656,-48.828,-40.527,-30.762,-21.973,0.000
1727576028.660,-20.020,-21.484,-34.668,-2.930,0.000
1727576028.664,-16.113,-20.508,-40.039,-20.996,0.000
1727576028.668,-16.602,-31.738,-42.480,-30.762,0.000
1727576028.672,-47.852,-40.527,-42.480,-35.645,0.000
1727576028.676,-52.734,-30.762,-35.156,-26.855,0.000
1727576028.680,-41.504,-24.902,-39.551,-25.391,0.000
1727576028.683,-37.109,-35.645,-49.805,-37.109,0.000
1727576028.687,-18.555,-37.109,-45.410,-30.273,0.000
1727576028.691,-47.852,-45.410,-39.551,-47.852,0.000
1727576028.695,-57.617,-43.945,-34.180,-49.316,0.000
1727576028.699,-40.527,-41.504,-37.109,-25.391,0.000
1727576028.703,-33.203,-45.898,-46.875,-30.273,0.000
1727576028.707,-11.230,-24.902,-38.574,-33.691,0.000
1727576028.711,-32.715,-28.809,-36.133,-43.945,0.000
1727576028.715,-58.105,-33.203,-36.133,-51.270,0.000
1727576028.719,-32.227,-14.648,-28.809,-35.156,0.000
1727576028.723,-24.902,-25.879,-31.738,-43.457,0.000
1727576028.727,-20.508,-38.574,-35.156,-49.805,0.000
1727576028.731,-33.203,-39.551,-38.574,-53.223,0.000
1727576028.734,-61.523,-41.016,-37.598,-57.129,0.000
1727576028.738,-48.828,-42.480,-28.809,-39.062,0.000
1727576028.742,-25.879,-39.062,-30.762,-29.297,0.000
1727576028.746,4.883,-25.879,-35.645,-22.949,0.000
1727576028.750,-11.719,-26.367,-39.551,-29.297,0.000
1727576028.754,-54.688,-24.902,-34.180,-42.969,0.000
1727576028.758,-41.016,-23.926,-22.949,-16.602,0.000
1727576028.762,-27.344,-27.344,-29.297,-12.695,0.000
1727576028.766,-16.113,-26.855,-38.086,-31.250,0.000
1727576028.770,-19.043,-41.992,-44.922,-55.176,0.000
1727576028.774,-53.711,-55.664,-50.781,-57.617,0.000
1727576028.778,-51.758,-42.480,-40.039,-20.020,0.000
1727576028.782,-34.668,-35.645,-34.180,-12.207,0.000
1727576028.785,-11.719,-26.367,-33.203,-29.297,0.000
1727576028.789,2.441,-22.461,-36.621,-31.738,0.000
1727576028.793,-27.832,-45.898,-42.480,-34.668,0.000
1727576028.797,-27.832,-34.180,-30.273,-25.391,0.000
1727576028.801,-9.766,-24.414,-29.785,-20.508,0.000
1727576028.805,-0.488,-27.344,-36.133,-37.598,0.000
1727576028.809,-4.883,-32.715,-32.227,-41.016,0.000
1727576028.813,-62.012,-41.016,-35.645,-35.645,0.000
1727576028.817,-70.312,-37.109,-36.133,-26.367,0.000
1727576028.821,-34.668,-37.598,-39.062,-22.949,0.000
1727576028.825,-7.812,-34.180,-37.109,-39.551,0.000
1727576028.828,2.441,-42.969,-36.133,-54.688,0.000
1727576028.832,-41.992,-57.129,-34.180,-54.688,0.000
1727576028.836,-54.199,-50.781,-31.738,-31.738,0.000
1727576028.840,-19.531,-33.691,-29.297,-15.625,0.000
1727576028.844,8.301,-19.043,-24.414,-29.297,0.000
1727576028.848,-4.395,-32.715,-39.062,-38.574,0.000
1727576028.852,-57.129,-54.199,-49.316,-48.828,0.000
1727576028.856,-59.082,-40.527,-29.785,-27.344,0.000
1727576028.860,-32.227,-31.738,-24.414,-0.977,0.000
1727576028.864,-29.785,-47.363,-41.016,-29.785,0.000
1727576028.867,-12.695,-52.734,-43.945,-43.457,0.000
1727576028.871,-34.180,-43.945,-39.551,-48.828,0.000
1727576028.875,-63.965,-31.738,-38.086,-46.387,0.000
1727576028.879,-37.598,-35.645,-36.621,-23.438,0.000
1727576028.883,-20.508,-56.152,-42.480,-23.438,0.000
1727576028.887,-16.602,-51.758,-41.504,-22.461,0.000
1727576028.891,-45.898,-51.270,-43.457,-38.086,0.000
1727576028.895,-68.848,-45.898,-44.922,-45.410,0.000
1727576028.899,-42.480,-29.785,-34.180,-26.367,0.000
1727576028.902,-22.949,-29.297,-36.621,-30.762,0.000
1727576028.906,-9.277,-41.992,-48.340,-37.109,0.000
1727576028.910,-40.527,-56.641,-56.152,-55.176,0.000
1727576028.914,-59.570,-49.316,-51.758,-53.223,0.000
1727576028.918,-46.875,-39.551,-38.086,-17.578,0.000
1727576028.922,-41.016,-43.457,-36.133,-14.160,0.000
1727576028.926,-10.742,-54.688,-41.504,-23.926,0.000
1727576028.930,-17.578,-62.012,-42.480,-35.156,0.000
1727576028.934,-61.035,-43.945,-37.598,-48.828,0.000
1727576028.938,-48.828,-35.645,-38.086,-15.625,0.000
1727576028.942,-21.484,-41.504,-41.016,-3.418,0.000
1727576028.945,-11.230,-41.016,-44.434,-21.973,0.000
1727576028.949,-23.438,-46.387,-45.410,-33.203,0.000
1727576028.953,-53.711,-55.176,-49.805,-42.969,0.000
1727576028.957,-44.922,-49.805,-45.898,-18.555,0.000
1727576028.961,-40.039,-43.457,-36.133,-3.906,0.000
1727576028.965,-30.762,-46.875,-35.645,-13.672,0.000
1727576028.969,-23.926,-55.664,-44.434,-43.457,0.000
1727576028.972,-58.105,-50.781,-46.875,-55.176,0.000
1727576028.976,-48.340,-20.508,-30.762,-27.344,0.000
1727576028.980,-25.879,-21.973,-28.320,-25.391,0.000
1727576028.984,-11.230,-41.504,-35.156,-28.320,0.000
1727576028.988,-0.488,-33.203,-39.551,-26.855,0.000
1727576028.992,-41.992,-30.762,-44.922,-47.852,0.000
1727576028.996,-54.688,-27.832,-37.598,-33.691,0.000
1727576028.999,-31.738,-21.484,-38.086,-7.812,0.000
1727576029.003,-5.371,-21.484,-44.922,-28.320,0.000
1727576029.007,14.648,-26.855,-39.551,-47.363,0.000
1727576029.011,-33.203,-34.180,-39.062,-49.316,0.000
1727576029.015,-51.270,-31.738,-37.109,-26.367,0.000
1727576029.019,-34.180,-33.691,-35.156,-11.230,0.000
1727576029.023,-20.996,-34.180,-34.668,-23.926,0.000
1727576029.027,0.488,-43.457,-37.109,-36.621,0.000
1727576029.031,-30.762,-52.734,-46.387,-49.316,0.000
1727576029.035,-54.688,-37.598,-38.574,-35.645,0.000
1727576029.039,-44.922,-26.855,-33.203,-13.184,0.000
1727576029.043,-24.414,-30.762,-40.039,-9.766,0.000
1727576029.047,0.000,-38.574,-40.527,-27.832,0.000
1727576029.051,-32.715,-41.504,-44.922,-56.641,0.000
1727576029.055,-49.316,-34.668,-40.527,-47.852,0.000
1727576029.059,-20.020,-32.715,-34.668,-16.113,0.000
1727576029.062,-10.254,-39.062,-34.668,-11.230,0.000
1727576029.066,2.441,-36.133,-32.715,-19.043,0.000
1727576029.070,-31.250,-42.480,-34.668,-32.715,0.000
1727576029.074,-67.871,-44.434,-38.086,-37.598,0.000
1727576029.078,-48.828,-45.898,-39.551,-19.043,0.000
1727576029.082,-35.156,-31.738,-36.621,-13.672,0.000
1727576029.086,-12.207,-17.578,-39.551,-29.297,0.000
1727576029.090,-13.184,-37.109,-44.434,-53.711,0.000
1727576029.094,-56.152,-49.316,-36.133,-50.781,0.000
1727576029.098,-59.570,-25.879,-28.320,-20.020,0.000
1727576029.102,-28.809,-18.066,-34.668,-13.672,0.000
1727576029.106,-5.859,-27.344,-42.480,-16.113,0.000
1727576029.110,-35.645,-40.527,-46.875,-35.156,0.000
1727576029.113,-80.078,-35.156,-40.527,-50.293,0.000
1727576029.117,-50.293,-12.207,-27.832,-20.996,0.000
1727576029.121,-32.227,-26.855,-34.180,-16.602,0.000
1727576029.125,-25.879,-47.852,-44.922,-36.621,0.000
1727576029.129,-22.461,-41.504,-50.781,-50.781,0.000
1727576029.133,-51.270,-54.199,-48.828,-55.176,0.000
1727576029.137,0.000,-53.711,-45.410,-31.738,0.000
1727576029.141,0.000,-27.344,-41.992,-16.113,0.000
1727576029.145,0.000,-21.484,-32.715,-27.344,0.000
1727576029.149,0.000,-34.668,-38.574,-33.691,0.000
1727576029.153,0.000,-62.012,-44.434,-40.527,0.000
1727576029.157,0.000,-53.711,-33.691,-22.949,0.000
1727576029.161,0.000,-44.434,-33.691,-17.090,0.000
1727576029.164,0.000,-64.453,-31.250,-27.832,0.000
1727576029.168,0.000,-98.633,-34.668,-17.578,0.000
1727576029.172,0.000,-63.477,-39.062,-27.832,0.000
1727576029.176,0.000,-20.508,-32.715,-10.742,0.000
1727576029.180,0.000,-42.969,-48.340,7.324,0.000
1727576029.184,-17.090,-38.086,-47.363,-13.184,0.000
1727576029.188,0.977,-32.227,-48.340,-31.250,0.000
1727576029.192,-28.320,-106.934,-70.801,-46.387,0.000
1727576029.196,-36.621,-151.855,-74.707,-23.438,0.000
1727576029.200,43.457,-65.918,-109.863,63.965,0.000
1727576029.204,85.938,17.090,-81.543,71.289,0.000
1727576029.207,39.062,-47.363,2.930,-15.625,0.000
1727576029.211,-43.945,-95.703,14.648,-67.871,0.000
1727576029.215,47.852,-116.211,-24.902,73.242,0.000
1727576029.219,231.445,-198.242,-150.879,260.742,0.000
1727576029.223,199.219,-110.840,-95.215,206.543,0.000
1727576029.227,100.586,112.305,-61.523,87.402,0.000
1727576029.231,135.742,264.648,-109.863,131.348,0.000
1727576029.235,3.906,242.676,64.941,37.598,0.000
1727576029.239,-296.387,-9.277,35.156,-283.691,0.000
1727576029.243,-278.809,-126.465,-103.516,-296.387,0.000
1727576029.246,-141.113,-148.438,-32.227,-175.293,0.000
1727576029.250,-102.539,-162.109,25.879,-130.859,0.000
1727576029.254,-102.539,103.516,-9.277,-56.152,0.000
1727576029.258,-76.660,209.473,-59.570,-6.348,0.000
1727576029.262,-14.648,251.953,-34.180,20.996,0.000
1727576029.266,31.250,338.867,90.820,20.508,0.000
1727576029.270,-22.461,299.805,147.949,-35.645,0.000
1727576029.274,-78.613,298.828,151.367,-57.617,0.000
1727576029.277,-29.297,342.773,197.266,-8.301,0.000
1727576029.281,1.465,355.957,255.859,19.531,0.000
1727576029.285,23.926,374.512,294.922,29.785,0.000
1727576029.289,23.926,381.836,325.684,31.738,0.000
1727576029.293,-14.160,367.188,358.887,27.344,0.000
1727576029.297,4.395,374.023,411.621,76.172,0.000
1727576029.301,39.062,394.531,452.148,100.098,0.000
1727576029.305,57.129,409.180,449.219,80.566,0.000
1727576029.309,55.176,421.875,433.105,61.035,0.000
1727576029.313,9.766,426.758,414.062,41.992,0.000
1727576029.317,16.602,428.711,421.387,65.918,0.000
1727576029.320,63.965,435.059,445.312,78.613,0.000
1727576029.324,61.035,423.828,439.941,60.547,0.000
1727576029.328,48.828,390.137,419.922,50.293,0.000
1727576029.332,28.809,352.051,407.227,43.945,0.000
1727576029.336,14.160,330.078,391.602,61.035,0.000
1727576029.340,26.855,308.594,357.910,70.801,0.000
1727576029.344,38.574,264.160,304.199,51.270,0.000
1727576029.348,45.410,212.891,253.418,35.645,0.000
1727576029.351,-3.906,184.570,218.262,7.812,0.000
1727576029.355,-21.484,171.875,193.848,4.395,0.000
1727576029.359,2.930,137.695,150.391,11.230,0.000
1727576029.363,-3.418,105.957,102.539,-13.672,0.000
1727576029.367,0.977,87.402,74.707,-22.949,0.000
1727576029.371,-30.762,54.199,58.105,-38.086,0.000
1727576029.374,-52.734,41.016,43.457,-43.457,0.000
1727576029.378,-41.992,42.480,23.438,-13.184,0.000
1727576029.382,-38.574,27.832,2.441,-16.113,0.000
1727576029.386,-18.066,2.441,-15.625,-40.039,0.000
1727576029.390,-40.527,-39.551,-41.992,-66.406,0.000
1727576029.394,-80.566,-59.570,-71.777,-64.453,0.000
1727576029.398,-62.012,-61.035,-96.680,-33.203,0.000
1727576029.402,-40.039,-101.562,-122.070,-39.551,0.000
1727576029.406,-25.391,-131.348,-140.625,-45.410,0.000
1727576029.410,-49.316,-143.066,-156.250,-55.176,0.000
1727576029.414,-80.078,-151.855,-162.598,-57.617,0.000
1727576029.418,-53.223,-155.273,-164.062,-34.668,0.000
1727576029.422,-27.832,-163.574,-161.621,-22.949,0.000
1727576029.426,-7.324,-167.969,-160.645,-13.672,0.000
1727576029.430,-26.367,-195.801,-177.246,-46.387,0.000
1727576029.433,-68.848,-230.469,-177.246,-73.242,0.000
1727576029.437,-62.012,-223.633,-179.199,-43.457,0.000
1727576029.441,-43.457,-209.961,-189.453,-47.363,0.000
1727576029.445,-26.855,-209.473,-182.129,-49.805,0.000
1727576029.449,-49.805,-211.426,-189.941,-60.059,0.000
1727576029.453,-85.938,-211.914,-202.637,-85.449,0.000
1727576029.457,-63.965,-187.500,-206.543,-63.477,0.000
1727576029.461,-46.875,-183.594,-217.285,-56.641,0.000
1727576029.465,-32.227,-188.965,-219.238,-69.336,0.000
1727576029.469,-34.180,-187.500,-219.238,-78.125,0.000
1727576029.473,-66.895,-177.734,-217.773,-86.426,0.000
1727576029.477,-53.711,-173.828,-227.539,-71.289,0.000
1727576029.481,-57.129,-187.500,-258.789,-76.660,0.000
1727576029.484,-52.734,-169.434,-258.789,-88.867,0.000
1727576029.488,-40.039,-169.922,-234.863,-87.891,0.000
1727576029.492,-77.637,-187.500,-225.098,-104.492,0.000
1727576029.496,-58.105,-181.641,-219.727,-81.543,0.000
1727576029.500,-41.992,-175.293,-217.773,-42.480,0.000
1727576029.504,-48.828,-169.434,-223.633,-65.430,0.000
1727576029.508,-22.461,-166.016,-224.121,-77.637,0.000
1727576029.512,-55.176,-170.410,-216.309,-77.148,0.000
1727576029.516,-63.477,-168.457,-207.520,-64.941,0.000
1727576029.520,-40.039,-170.410,-190.430,-59.082,0.000
1727576029.524,-34.668,-147.461,-186.523,-62.988,0.000
1727576029.528,-23.438,-126.953,-188.965,-64.941,0.000
1727576029.532,-61.523,-135.254,-179.688,-76.172,0.000
1727576029.535,-77.148,-126.953,-156.250,-55.176,0.000
1727576029.539,-63.477,-133.301,-147.949,-38.574,0.000
1727576029.543,-48.828,-154.297,-157.715,-46.387,0.000
1727576029.547,-22.461,-146.973,-162.598,-69.824,0.000
1727576029.551,-59.570,-139.648,-158.203,-101.562,0.000
1727576029.555,-69.336,-120.117,-143.066,-74.219,0.000
1727576029.559,0.000,-98.633,-145.508,-32.715,0.000
1727576029.563,0.000,-105.469,-157.227,-58.594,0.000
1727576029.567,0.000,-122.070,-155.273,-79.590,0.000
1727576029.571,0.000,-134.766,-155.762,-84.473,0.000
1727576029.575,0.000,-133.301,-147.949,-76.660,0.000
1727576029.578,0.000,-116.699,-131.348,-53.223,0.000
1727576029.582,0.000,-100.098,-126.465,-56.641,0.000
1727576029.586,0.000,-102.539,-125.488,-57.617,0.000
1727576029.590,0.000,-109.375,-125.488,-67.383,0.000
1727576029.594,0.000,-82.031,-112.793,-70.801,0.000
1727576029.598,0.000,-67.871,-100.586,-47.852,0.000
1727576029.602,0.000,-77.637,-108.398,-47.363,0.000
1727576029.606,-39.062,-77.148,-111.328,-57.129,0.000
1727576029.610,-34.180,-68.359,-103.516,-62.012,0.000
1727576029.614,-62.012,-72.266,-107.422,-67.383,0.000
1727576029.617,-53.223,-84.961,-100.098,-47.852,0.000
1727576029.621,-33.203,-96.680,-98.633,-39.551,0.000
1727576029.625,-7.812,-89.844,-105.469,-39.062,0.000
1727576029.629,6.836,-75.195,-90.820,-35.645,0.000
1727576029.633,-47.852,-82.520,-92.773,-53.711,0.000
1727576029.637,-76.660,-72.754,-93.262,-49.316,0.000
1727576029.641,-57.617,-66.895,-84.473,-36.133,0.000
1727576029.645,-30.273,-76.660,-85.449,-39.551,0.000
1727576029.649,-32.227,-84.961,-89.355,-43.457,0.000
1727576029.652,-62.500,-93.262,-85.938,-47.852,0.000
1727576029.656,-50.293,-92.285,-73.730,-27.344,0.000
1727576029.660,-35.645,-93.262,-71.289,-20.508,0.000
1727576029.664,-28.809,-85.449,-75.684,-37.109,0.000
1727576029.668,-18.555,-77.148,-80.078,-43.945,0.000
1727576029.672,-44.434,-76.660,-82.031,-50.781,0.000
1727576029.676,-52.734,-75.684,-81.543,-35.156,0.000
1727576029.680,-41.504,-87.891,-87.402,-20.996,0.000
1727576029.684,-25.391,-85.449,-84.473,-31.250,0.000
1727576029.688,-5.371,-81.543,-79.102,-29.785,0.000
1727576029.691,-41.992,-86.914,-71.777,-42.480,0.000
1727576029.695,-54.199,-83.984,-58.105,-45.898,0.000
1727576029.699,-20.508,-93.750,-58.105,-36.133,0.000
1727576029.703,-5.859,-88.379,-68.359,-37.109,0.000
1727576029.707,18.555,-69.824,-63.477,-29.785,0.000
1727576029.711,-16.113,-62.988,-55.664,-44.922,0.000
1727576029.715,-59.570,-62.012,-59.082,-44.922,0.000
1727576029.719,-42.969,-71.777,-66.406,-33.203,0.000
1727576029.722,-30.762,-91.797,-67.871,-33.203,0.000
1727576029.726,-13.672,-96.191,-60.547,-39.062,0.000
1727576029.730,-38.574,-104.492,-66.406,-62.012,0.000
1727576029.734,-55.664,-104.980,-68.359,-44.434,0.000
1727576029.738,-18.555,-83.008,-57.617,-19.043,0.000
1727576029.742,-23.438,-64.453,-59.570,-30.762,0.000
1727576029.746,-19.531,-66.895,-65.918,-31.738,0.000
1727576029.749,-35.156,-87.891,-69.336,-46.387,0.000
1727576029.753,-54.199,-94.238,-67.871,-65.918,0.000
1727576029.757,-39.551,-83.008,-62.500,-39.062,0.000
1727576029.761,-37.109,-86.426,-62.988,-36.621,0.000
1727576029.765,-6.348,-102.051,-67.383,-37.109,0.000
1727576029.769,-14.648,-103.027,-67.383,-36.621,0.000
1727576029.773,-65.918,-84.961,-74.219,-55.176,0.000
1727576029.777,-61.523,-84.961,-68.848,-33.691,0.000
1727576029.781,-33.691,-87.891,-55.664,-29.297,0.000
1727576029.785,-3.906,-68.359,-64.453,-41.992,0.000
1727576029.789,-6.348,-70.801,-60.547,-53.711,0.000
1727576029.793,-47.363,-75.684,-47.852,-61.035,0.000
1727576029.797,-55.176,-73.242,-46.387,-32.715,0.000
1727576029.801,-42.480,-64.941,-47.363,-19.531,0.000
1727576029.805,-18.555,-60.059,-48.828,-27.344,0.000
1727576029.809,-11.719,-67.383,-53.711,-30.762,0.000
1727576029.812,-48.828,-71.289,-59.082,-36.621,0.000
1727576029.816,-40.527,-66.895,-54.199,-13.184,0.000
1727576029.820,-21.973,-54.199,-52.734,-0.488,0.000
1727576029.824,-9.277,-42.480,-63.965,-16.602,0.000
1727576029.828,-1.465,-55.176,-69.336,-14.648,0.000
1727576029.832,-46.387,-49.805,-70.801,-48.828,0.000
1727576029.836,-59.082,-42.480,-63.477,-48.828,0.000
1727576029.840,-41.504,-51.270,-61.523,-10.254,0.000
1727576029.844,-33.203,-49.316,-64.941,-32.227,0.000
1727576029.848,-24.902,-61.523,-67.383,-57.617,0.000
1727576029.852,-50.293,-62.988,-67.871,-53.711,0.000
1727576029.856,-58.594,-33.203,-52.246,-24.902,0.000
1727576029.860,-32.227,-20.996,-56.641,-12.695,0.000
1727576029.863,-15.625,-22.949,-71.289,-36.133,0.000
1727576029.867,-14.648,-29.297,-63.965,-41.992,0.000
1727576029.871,-41.992,-45.410,-59.082,-41.016,0.000
1727576029.875,-57.617,-27.832,-54.199,-14.648,0.000
1727576029.879,-48.828,-7.324,-50.781,6.348,0.000
1727576029.883,-42.969,-28.320,-54.688,-19.043,0.000
1727576029.887,-11.719,-39.551,-56.641,-35.156,0.000
1727576029.891,-32.715,-33.691,-57.129,-40.039,0.000
1727576029.895,-46.875,-15.137,-43.945,-22.461,0.000
1727576029.899,-33.203,-4.395,-39.062,-1.465,0.000
1727576029.903,-32.715,-32.715,-49.805,-1.953,0.000
1727576029.907,-0.977,-41.504,-58.105,-6.348,0.000
1727576029.910,-21.484,-33.691,-53.223,-34.180,0.000
1727576029.914,-57.129,-48.828,-44.922,-44.922,0.000
1727576029.918,-31.250,-51.270,-45.410,-21.484,0.000
1727576029.922,-25.391,-31.738,-47.363,-26.367,0.000
1727576029.926,-5.859,-27.832,-52.734,-32.227,0.000
1727576029.930,-15.625,-51.270,-60.547,-40.039,0.000
1727576029.934,-45.410,-70.312,-60.059,-43.945,0.000
1727576029.938,-37.598,-60.059,-51.270,-14.160,0.000
1727576029.942,-32.227,-51.758,-43.457,-7.812,0.000
1727576029.946,-5.859,-48.828,-37.598,-21.973,0.000
1727576029.949,-10.742,-35.156,-38.574,-29.297,0.000
1727576029.953,-48.828,-33.203,-49.805,-36.133,0.000
1727576029.957,-46.875,-41.504,-49.805,-26.855,0.000
1727576029.961,-35.645,-63.965,-44.434,-15.625,0.000
1727576029.965,-11.719,-61.035,-42.480,-23.438,0.000
1727576029.969,-20.508,-53.223,-42.480,-42.969,0.000
1727576029.973,-68.848,-62.988,-46.875,-42.480,0.000
1727576029.977,-56.641,-45.410,-34.668,-17.578,0.000
1727576029.981,-15.625,-28.809,-28.320,-18.555,0.000
1727576029.985,5.859,-38.086,-37.109,-30.762,0.000
1727576029.988,-18.555,-60.059,-46.387,-43.457,0.000
1727576029.992,-51.270,-60.059,-40.039,-44.922,0.000
1727576029.996,-31.250,-46.875,-26.367,-16.113,0.000
1727576030.000,-29.297,-50.293,-30.273,-7.812,0.000
1727576030.004,-28.320,-57.617,-37.109,-25.879,0.000
1727576030.008,-13.672,-69.824,-43.457,-27.832,0.000
1727576030.012,-58.594,-61.523,-45.410,-41.504,0.000
1727576030.016,-54.199,-57.129,-37.598,-29.785,0.000
1727576030.020,-13.672,-62.012,-36.621,-7.324,0.000
1727576030.024,-17.090,-56.641,-43.457,-18.555,0.000
1727576030.027,-25.391,-62.012,-44.922,-39.551,0.000
1727576030.031,-59.570,-73.730,-53.223,-71.289,0.000
1727576030.035,-68.359,-64.453,-51.758,-62.988,0.000
1727576030.039,-50.293,-53.711,-42.480,-35.645,0.000
1727576030.043,-35.645,-45.410,-39.551,-35.645,0.000
1727576030.047,-16.602,-45.898,-46.875,-41.992,0.000
1727576030.051,-40.527,-61.523,-62.988,-54.688,0.000
1727576030.055,-58.105,-56.152,-55.664,-45.898,0.000
1727576030.059,-25.391,-41.016,-37.109,-15.625,0.000
1727576030.062,-17.090,-49.316,-38.086,-6.836,0.000
1727576030.066,-7.324,-62.500,-44.434,-14.648,0.000
1727576030.070,-31.738,-53.711,-48.340,-42.480,0.000
1727576030.074,-69.336,-36.621,-43.945,-52.734,0.000
1727576030.078,-57.617,-40.527,-49.316,-30.762,0.000
1727576030.082,-44.434,-50.293,-54.688,-24.902,0.000
1727576030.086,-27.832,-52.246,-50.293,-19.043,0.000
1727576030.090,-41.016,-56.641,-55.176,-44.922,0.000
1727576030.093,-66.895,-51.270,-54.688,-58.594,0.000
1727576030.097,-38.574,-40.527,-49.805,-15.625,0.000
1727576030.101,-19.043,-31.738,-43.457,-10.742,0.000
1727576030.105,-1.953,-31.738,-45.898,-30.273,0.000
1727576030.109,-6.348,-37.109,-52.734,-39.551,0.000
1727576030.113,-56.152,-36.133,-52.734,-47.363,0.000
1727576030.117,-57.617,-32.227,-48.340,-30.273,0.000
1727576030.120,-34.180,-33.203,-46.875,-32.715,0.000
1727576030.124,-6.836,-36.133,-49.316,-41.504,0.000
1727576030.128,-4.395,-54.199,-52.734,-43.945,0.000
1727576030.132,-49.805,-52.246,-47.363,-50.293,0.000
1727576030.136,-47.852,-26.367,-37.598,-28.809,0.000
1727576030.140,-26.855,-31.250,-42.969,-19.043,0.000
1727576030.144,-14.160,-39.062,-56.641,-30.273,0.000
1727576030.148,-14.648,-42.969,-57.617,-44.922,0.000
1727576030.152,-43.945,-51.270,-53.711,-61.035,0.000
1727576030.156,-43.945,-37.598,-50.781,-25.879,0.000
1727576030.160,-25.391,-30.273,-45.898,-1.465,0.000
1727576030.163,-2.441,-40.527,-42.480,-16.113,0.000
1727576030.168,-0.488,-44.434,-46.387,-32.715,0.000
1727576030.172,-53.711,-30.273,-51.758,-55.664,0.000
1727576030.176,-62.012,-17.578,-50.781,-37.598,0.000
1727576030.179,-43.945,-19.043,-50.781,-26.367,0.000
1727576030.183,-17.578,-20.508,-54.688,-30.762,0.000
1727576030.187,11.230,-31.250,-54.199,-33.691,0.000
1727576030.191,-47.363,-38.086,-59.570,-50.781,0.000
1727576030.195,-59.570,-21.973,-55.176,-36.621,0.000
1727576030.199,-28.320,-20.508,-50.293,-25.879,0.000
1727576030.203,-22.949,-36.133,-57.129,-23.438,0.000
1727576030.207,-12.207,-20.020,-53.223,-27.344,0.000
1727576030.211,-50.781,-16.602,-52.246,-53.711,0.000
1727576030.215,-67.383,-24.414,-47.852,-43.945,0.000
1727576030.219,-45.898,-23.438,-43.457,-24.902,0.000
1727576030.223,-25.391,-30.273,-40.039,-33.203,0.000
1727576030.227,11.719,-35.156,-41.504,-33.691,0.000
1727576030.231,-30.273,-41.016,-61.035,-51.758,0.000
1727576030.234,-71.777,-39.062,-66.895,-46.875,0.000
1727576030.238,-39.062,-33.691,-41.504,2.441,0.000
1727576030.242,-29.785,-34.180,-29.785,3.418,0.000
1727576030.246,-4.395,-36.133,-45.898,-30.273,0.000
1727576030.250,-15.625,-39.551,-51.758,-41.504,0.000
1727576030.254,-62.012,-30.273,-35.645,-34.180,0.000
1727576030.258,-46.875,-30.273,-33.203,-13.184,0.000
1727576030.262,-10.742,-40.039,-33.691,-16.113,0.000
1727576030.266,2.930,-26.367,-33.691,-22.949,0.000
1727576030.270,-25.391,-20.020,-48.828,-40.039,0.000
1727576030.274,-67.871,-24.414,-48.828,-45.410,0.000
1727576030.278,-54.688,-38.574,-50.781,-23.438,0.000
1727576030.282,-28.320,-41.016,-58.105,-19.531,0.000
1727576030.285,-2.441,-25.879,-52.734,-30.273,0.000
1727576030.289,-9.277,-36.621,-49.316,-50.293,0.000
1727576030.293,-42.969,-47.852,-48.828,-43.945,0.000
1727576030.297,-29.297,-30.273,-41.504,-4.883,0.000
1727576030.301,-18.555,-22.461,-36.621,-9.766,0.000
1727576030.305,-8.301,-19.531,-38.086,-28.320,0.000
1727576030.309,0.000,-20.508,-43.457,-36.621,0.000
1727576030.313,0.000,-25.879,-39.551,-42.969,0.000
1727576030.317,0.000,-33.691,-31.738,-20.508,0.000
1727576030.321,0.000,-29.785,-33.203,-14.160,0.000
1727576030.325,0.000,-13.672,-35.156,-24.902,0.000
1727576030.328,0.000,-26.855,-51.758,-37.109,0.000
1727576030.332,0.000,-40.039,-52.734,-48.340,0.000
1727576030.336,0.000,-36.133,-39.062,-25.879,0.000
1727576030.340,0.000,-39.062,-35.156,-11.230,0.000
1727576030.344,0.000,-30.762,-25.391,-20.508,0.000
1727576030.348,0.000,-39.551,-31.738,-28.809,0.000
1727576030.352,0.000,-63.965,-44.434,-43.457,0.000
1727576030.356,-60.547,-54.199,-40.527,-38.574,0.000
1727576030.360,-44.434,-43.945,-45.898,-34.180,0.000
1727576030.364,-23.926,-52.734,-51.758,-38.574,0.000
1727576030.367,3.418,-51.270,-51.758,-37.109,0.000
1727576030.371,-51.758,-58.105,-52.734,-51.758,0.000
1727576030.375,-66.406,-60.547,-38.574,-27.832,0.000
1727576030.379,-17.578,-43.457,-40.039,-10.254,0.000
1727576030.383,-15.625,-41.504,-44.922,-26.855,0.000
1727576030.387,-0.488,-33.691,-29.297,-34.668,0.000
1727576030.391,-30.273,-47.363,-36.133,-60.059,0.000
1727576030.395,-70.801,-60.547,-44.922,-51.758,0.000
1727576030.399,-50.293,-48.828,-39.551,-13.672,0.000
1727576030.402,-33.691,-39.551,-42.969,-28.809,0.000
1727576030.406,-1.465,-34.668,-45.410,-31.738,0.000
1727576030.410,-26.855,-47.852,-43.457,-20.020,0.000
1727576030.414,-63.965,-31.738,-32.227,-17.578,0.000
1727576030.418,-34.180,-24.414,-29.785,-9.277,0.000
1727576030.422,-28.809,-58.105,-42.480,-15.137,0.000
1727576030.426,-9.766,-59.570,-47.852,-10.254,0.000
1727576030.430,-7.324,-56.152,-45.410,-20.996,0.000
1727576030.434,-43.945,-46.875,-43.945,-37.598,0.000
1727576030.438,-48.340,-40.527,-40.039,-16.602,0.000
1727576030.442,-45.898,-41.992,-30.762,-10.254,0.000
1727576030.445,-25.391,-34.668,-27.344,-26.855,0.000
1727576030.449,-28.320,-42.969,-27.832,-52.246,0.000
1727576030.453,-61.523,-59.082,-34.180,-63.477,0.000
1727576030.457,-53.223,-46.875,-37.598,-25.879,0.000
1727576030.461,-34.180,-32.227,-37.109,-17.090,0.000
1727576030.465,-10.254,-48.340,-43.945,-32.715,0.000
1727576030.469,-20.020,-63.965,-48.828,-27.832,0.000
1727576030.473,-60.547,-71.777,-38.086,-36.133,0.000
1727576030.476,-35.156,-51.270,-15.137,-17.578,0.000
1727576030.480,-23.438,-37.109,-20.508,-5.859,0.000
1727576030.484,-21.973,-51.758,-38.086,-17.090,0.000
1727576030.488,-9.766,-48.340,-35.645,-28.320,0.000
1727576030.492,-52.734,-45.410,-33.203,-50.781,0.000
1727576030.496,-48.828,-46.387,-30.762,-27.832,0.000
1727576030.500,-31.738,-52.734,-33.691,-16.602,0.000
1727576030.503,-16.113,-63.965,-39.062,-35.156,0.000
1727576030.507,1.953,-66.406,-37.109,-36.133,0.000
1727576030.511,-41.504,-57.617,-38.574,-44.434,0.000
1727576030.515,-49.316,-48.828,-35.156,-26.367,0.000
1727576030.519,-22.949,-41.504,-29.785,0.000,0.000
1727576030.523,-20.508,-35.645,-32.715,-19.043,0.000
1727576030.527,-5.371,-49.805,-37.109,-32.715,0.000
1727576030.531,-40.039,-65.918,-46.387,-40.527,0.000
1727576030.535,-62.500,-40.527,-49.805,-34.668,0.000
1727576030.539,-31.738,-15.137,-33.691,-11.230,0.000
1727576030.543,-14.648,-19.043,-22.949,-18.555,0.000
1727576030.547,2.930,-16.602,-24.902,-22.949,0.000
1727576030.551,-37.109,-32.715,-29.785,-38.086,0.000
1727576030.555,-58.594,-39.551,-30.762,-36.133,0.000
1727576030.559,-35.156,-33.691,-27.832,0.977,0.000
1727576030.562,-19.043,-42.480,-35.645,11.230,0.000
1727576030.566,0.000,-38.086,-48.340,-18.066,0.000
1727576030.570,-28.809,-41.016,-47.852,-50.781,0.000
1727576030.574,-46.875,-43.457,-47.852,-44.434,0.000
1727576030.578,-34.180,-42.969,-46.875,-20.996,0.000
1727576030.582,-29.785,-32.715,-38.086,-31.250,0.000
1727576030.586,-9.766,-25.879,-41.016,-35.156,0.000
1727576030.590,-27.344,-55.176,-51.758,-46.875,0.000
1727576030.594,-45.410,-57.617,-43.945,-53.711,0.000
1727576030.598,-24.414,-23.926,-31.250,-23.438,0.000
1727576030.602,-12.695,-26.855,-30.273,-5.371,0.000
1727576030.606,25.879,-35.156,-28.809,-13.184,0.000
1727576030.610,0.977,-30.273,-33.203,-44.922,0.000
1727576030.614,-56.152,-34.180,-41.504,-39.551,0.000
1727576030.617,-41.992,-27.832,-37.109,-9.277,0.000
1727576030.621,-18.555,-25.879,-39.062,-16.602,0.000
1727576030.625,11.230,-31.250,-41.992,-15.137,0.000
1727576030.629,-13.184,-28.809,-46.387,-40.039,0.000
1727576030.633,-59.570,-41.504,-47.363,-64.453,0.000
1727576030.637,-44.434,-41.016,-36.133,-31.738,0.000
1727576030.641,-21.484,-29.297,-36.621,-19.531,0.000
1727576030.645,-8.301,-32.227,-34.668,-28.320,0.000
1727576030.649,-19.531,-40.039,-29.785,-30.762,0.000
1727576030.653,-56.641,-35.156,-28.320,-41.504,0.000
1727576030.657,-40.039,-23.926,-25.879,-22.949,0.000
1727576030.661,-32.227,-27.832,-35.156,-16.602,0.000
1727576030.664,-21.484,-28.320,-41.504,-33.203,0.000
1727576030.668,-12.207,-46.875,-40.039,-30.273,0.000
1727576030.672,-62.012,-48.340,-32.227,-35.645,0.000
1727576030.676,-55.176,-32.715,-27.832,-24.902,0.000
1727576030.680,-31.738,-40.039,-29.785,-8.301,0.000
1727576030.684,-24.414,-40.039,-24.902,-25.391,0.000
1727576030.688,-15.137,-40.039,-24.902,-39.062,0.000
1727576030.692,-56.152,-49.805,-32.227,-52.246,0.000
1727576030.696,-62.500,-32.227,-33.203,-35.156,0.000
1727576030.700,-33.203,-20.020,-27.832,-11.719,0.000
1727576030.704,-6.836,-31.738,-25.391,-16.113,0.000
1727576030.707,17.578,-30.762,-34.668,-27.832,0.000
1727576030.711,-31.738,-32.715,-37.598,-39.062,0.000
1727576030.715,-55.664,-36.133,-34.668,-21.484,0.000
1727576030.719,-28.320,-29.297,-26.367,-5.859,0.000
1727576030.723,-17.090,-26.855,-24.902,-14.160,0.000
1727576030.727,6.348,-30.762,-30.273,-25.391,0.000
1727576030.731,-19.531,-39.062,-38.086,-48.340,0.000
1727576030.735,-51.270,-29.785,-41.016,-43.945,0.000
1727576030.739,-40.039,-27.344,-42.480,-26.367,0.000
1727576030.743,-22.949,-32.227,-47.363,-34.180,0.000
1727576030.746,4.395,-21.484,-51.270,-38.574,0.000
1727576030.750,-20.996,-33.691,-56.152,-54.688,0.000
1727576030.754,-65.918,-45.898,-48.828,-50.781,0.000
1727576030.758,-41.992,-33.203,-38.574,-9.766,0.000
1727576030.762,-22.461,-19.043,-29.785,-17.090,0.000
1727576030.766,-5.859,-27.832,-33.691,-29.785,0.000
1727576030.770,-25.391,-43.945,-36.621,-43.457,0.000
1727576030.774,-68.848,-51.270,-30.762,-38.574,0.000
1727576030.778,-52.734,-38.574,-26.367,-20.996,0.000
1727576030.781,-40.039,-31.250,-30.762,-33.691,0.000
1727576030.785,-16.602,-41.992,-34.180,-31.250,0.000
1727576030.789,-21.973,-40.039,-34.180,-32.715,0.000
1727576030.793,-67.383,-41.016,-33.203,-43.945,0.000
1727576030.797,-61.523,-43.457,-37.109,-30.273,0.000
1727576030.801,-38.086,-45.898,-42.480,-32.227,0.000
1727576030.805,-3.418,-56.641,-43.945,-40.039,0.000
1727576030.809,-14.648,-49.316,-44.434,-57.617,0.000
1727576030.813,-69.336,-50.781,-42.480,-72.266,0.000
1727576030.817,-53.711,-51.270,-43.457,-35.645,0.000
1727576030.820,-18.066,-41.504,-45.410,-17.578,0.000
1727576030.824,3.418,-34.180,-40.039,-25.879,0.000
1727576030.828,-6.348,-44.434,-41.016,-34.668,0.000
1727576030.832,-56.641,-51.758,-44.434,-41.992,0.000
1727576030.836,-49.805,-37.598,-43.945,-23.926,0.000
1727576030.840,-36.133,-41.016,-48.340,-25.391,0.000
1727576030.844,-23.926,-38.574,-39.062,-28.809,0.000
1727576030.848,-13.184,-40.039,-37.598,-28.809,0.000
1727576030.851,-50.781,-34.668,-47.363,-48.828,0.000
1727576030.855,-52.734,-18.555,-41.504,-25.879,0.000
1727576030.859,-38.574,-28.809,-40.527,-14.648,0.000
1727576030.863,-23.438,-35.645,-40.527,-36.133,0.000
1727576030.867,-5.371,-31.250,-46.387,-44.922,0.000
1727576030.871,-48.340,-37.598,-46.875,-56.152,0.000
1727576030.875,-58.105,-36.621,-31.250,-33.691,0.000
1727576030.878,-29.297,-37.598,-29.297,-11.719,0.000
1727576030.882,-17.578,-47.852,-34.668,-21.484,0.000
1727576030.886,-1.465,-46.387,-34.180,-27.832,0.000
1727576030.890,-31.250,-51.270,-35.645,-33.203,0.000
1727576030.894,-62.012,-43.457,-27.344,-28.320,0.000
1727576030.898,-53.711,-32.715,-20.996,-25.879,0.000
1727576030.902,-36.621,-45.410,-25.391,-24.414,0.000
1727576030.906,2.441,-43.457,-28.809,-17.090,0.000
1727576030.910,-37.598,-42.969,-26.855,-27.832,0.000
1727576030.914,-71.289,-37.598,-24.902,-36.621,0.000
1727576030.918,-53.223,-40.039,-31.738,-33.203,0.000
1727576030.922,-56.152,-56.152,-37.109,-40.039,0.000
1727576030.926,-28.320,-49.805,-34.180,-34.180,0.000
1727576030.930,-47.852,-57.129,-41.504,-51.270,0.000
1727576030.934,-80.566,-61.035,-39.551,-55.664,0.000
1727576030.937,-45.898,-45.898,-33.203,-28.809,0.000
1727576030.941,-27.344,-51.270,-40.527,-34.668,0.000
1727576030.945,-4.883,-55.176,-36.133,-36.621,0.000
1727576030.949,0.977,-52.246,-38.086,-36.133,0.000
1727576030.953,-52.246,-53.711,-41.504,-24.414,0.000
1727576030.957,-54.199,-26.855,-24.902,0.000,0.000
1727576030.961,-33.691,-17.090,-33.203,-15.137,0.000
1727576030.965,-17.578,-30.762,-48.340,-35.645,0.000
1727576030.969,-29.785,-43.457,-44.434,-48.340,0.000
1727576030.973,-64.941,-39.551,-34.668,-42.480,0.000
1727576030.977,-41.016,-21.973,-26.367,-18.555,0.000
1727576030.981,-17.578,-31.250,-33.691,-19.531,0.000
1727576030.985,8.789,-32.715,-38.086,-22.949,0.000
1727576030.988,-5.371,-18.555,-36.621,-30.273,0.000
1727576030.992,-56.641,-23.926,-39.551,-37.109,0.000
1727576030.996,-41.504,-33.203,-44.922,-18.555,0.000
1727576031.000,-25.391,-33.203,-41.504,-15.625,0.000
1727576031.004,-18.066,-23.438,-30.273,-30.273,0.000
1727576031.008,-14.160,-20.020,-29.785,-35.156,0.000
1727576031.012,-53.223,-27.344,-29.297,-41.504,0.000
1727576031.016,-54.199,-20.996,-22.461,-23.926,0.000
1727576031.020,-26.367,-20.508,-19.531,3.906,0.000
1727576031.024,-11.230,-10.742,-24.902,-3.418,0.000
1727576031.028,-11.230,-1.465,-27.832,-30.273,0.000
1727576031.032,-50.781,-15.625,-26.367,-41.992,0.000
1727576031.036,-64.941,-14.160,-32.715,-36.133,0.000
1727576031.039,-46.875,-8.301,-34.668,-25.879,0.000
1727576031.043,-18.066,-24.414,-37.109,-26.855,0.000
1727576031.047,-5.859,-24.902,-38.086,-32.715,0.000
1727576031.051,-53.223,-19.531,-34.180,-45.898,0.000
1727576031.055,-65.430,-20.996,-34.668,-32.227,0.000
1727576031.059,-36.133,-25.391,-30.273,-4.883,0.000
1727576031.063,-34.668,-20.020,-36.621,-16.602,0.000
1727576031.067,-12.695,-17.578,-45.898,-37.598,0.000
1727576031.071,-32.227,-31.738,-37.598,-45.410,0.000
1727576031.075,-62.988,-36.133,-25.391,-27.344,0.000
1727576031.079,-42.969,-27.832,-30.273,-21.484,0.000
1727576031.082,-18.066,-18.066,-41.016,-21.484,0.000
1727576031.086,10.742,-19.531,-41.504,-14.160,0.000
1727576031.090,-29.785,-30.762,-43.457,-32.715,0.000
1727576031.094,-62.012,-21.973,-39.062,-45.898,0.000
1727576031.098,-24.414,-7.324,-35.645,-9.766,0.000
1727576031.102,-21.973,-19.531,-41.504,-5.371,0.000
1727576031.106,-5.859,-18.555,-40.527,-15.137,0.000
1727576031.110,-17.578,-19.531,-47.363,-28.809,0.000
1727576031.114,-53.223,-22.461,-48.340,-45.410,0.000
1727576031.118,-23.926,-12.695,-36.133,-18.066,0.000
1727576031.121,-14.648,-7.812,-26.855,-10.742,0.000
1727576031.125,-17.090,-18.555,-31.250,-29.297,0.000
1727576031.129,-26.367,-32.715,-39.062,-43.457,0.000
1727576031.133,-57.129,-41.504,-40.527,-41.504,0.000
1727576031.137,-51.270,-24.414,-31.250,-20.020,0.000
1727576031.141,-34.180,-11.719,-26.367,-17.090,0.000
1727576031.145,-17.090,-25.879,-31.738,-30.273,0.000
1727576031.149,-28.320,-42.969,-36.133,-43.945,0.000
1727576031.153,-60.547,-40.039,-35.645,-42.969,0.000
1727576031.156,-49.316,-24.902,-32.227,-15.625,0.000
1727576031.160,-36.621,-34.180,-39.551,-21.973,0.000
1727576031.164,-17.090,-42.969,-43.945,-35.156,0.000
1727576031.168,-14.160,-42.480,-40.039,-41.016,0.000
1727576031.172,-64.941,-42.480,-38.086,-64.453,0.000
1727576031.176,-57.129,-28.320,-37.598,-40.039,0.000
1727576031.180,-21.973,-31.738,-43.457,-17.578,0.000
1727576031.184,4.395,-25.879,-40.039,-26.367,0.000
1727576031.188,3.906,-32.715,-39.551,-35.645,0.000
1727576031.192,-52.734,-52.734,-46.387,-48.828,0.000
1727576031.195,-56.641,-34.180,-42.969,-23.926,0.000
1727576031.199,-29.297,-13.184,-38.086,-14.648,0.000
1727576031.203,0.977,-11.719,-39.062,-26.367,0.000
1727576031.207,13.184,-21.973,-48.828,-38.086,0.000
1727576031.211,-33.691,-31.738,-49.316,-61.523,0.000
1727576031.215,-29.297,-16.113,-33.691,-31.250,0.000
1727576031.219,-12.207,-16.113,-31.250,-2.930,0.000
1727576031.223,-23.926,-31.738,-36.621,-17.090,0.000
1727576031.226,-10.742,-25.391,-31.738,-19.043,0.000
1727576031.230,-41.016,-26.367,-39.551,-41.016,0.000
1727576031.234,-64.453,-36.621,-42.480,-39.551,0.000
1727576031.238,-39.551,-22.949,-30.273,-7.812,0.000
1727576031.242,-6.836,-7.812,-25.879,-7.812,0.000
1727576031.246,20.020,-8.301,-23.926,-14.160,0.000
1727576031.250,-21.484,-24.414,-21.484,-17.578,0.000
1727576031.253,-61.035,-28.320,-33.203,-24.902,0.000
1727576031.257,-55.176,-23.926,-43.945,-34.180,0.000
1727576031.261,-43.945,-28.809,-33.691,-32.227,0.000
1727576031.265,-15.137,-39.551,-28.320,-20.508,0.000
1727576031.269,-31.738,-63.477,-32.715,-39.551,0.000
1727576031.273,-49.316,-50.781,-20.020,-42.969,0.000
1727576031.277,-20.996,-19.531,-14.160,-8.301,0.000
1727576031.281,-5.859,-36.133,-24.414,-13.672,0.000
1727576031.285,7.324,-41.016,-32.227,-34.180,0.000
1727576031.289,-24.414,-28.809,-37.598,-48.828,0.000
1727576031.293,-63.965,-26.367,-31.250,-33.691,0.000
1727576031.297,-29.785,-19.531,-29.785,-0.488,0.000
1727576031.301,-8.301,-24.902,-32.715,-19.531,0.000
1727576031.305,4.883,-25.879,-33.691,-35.156,0.000
1727576031.309,-8.301,-24.414,-42.480,-41.504,0.000
1727576031.312,-62.500,-26.855,-44.922,-48.340,0.000
1727576031.316,-53.711,-19.531,-39.551,-21.484,0.000
1727576031.320,-28.809,-14.648,-39.551,-8.789,0.000
1727576031.324,2.441,-20.508,-41.016,-19.531,0.000
1727576031.328,0.000,-47.852,-42.480,-22.949,0.000
1727576031.332,-54.688,-40.527,-39.551,-34.180,0.000
1727576031.336,-47.363,-18.555,-27.832,-16.113,0.000
1727576031.340,-24.902,-23.438,-31.738,-12.695,0.000
1727576031.344,-2.441,-22.461,-37.109,-27.344,0.000
1727576031.348,9.277,-21.973,-32.227,-24.902,0.000
1727576031.352,-45.410,-37.598,-34.180,-34.180,0.000
1727576031.356,-64.453,-41.016,-40.039,-26.367,0.000
1727576031.360,-38.574,-29.297,-41.504,-11.719,0.000
1727576031.364,-19.043,-22.461,-37.598,-32.715,0.000
1727576031.367,-14.160,-28.320,-42.969,-54.688,0.000
1727576031.371,-59.570,-46.387,-53.223,-58.594,0.000
1727576031.375,-71.289,-47.363,-42.480,-29.785,0.000
1727576031.379,-47.363,-31.250,-36.133,-15.625,0.000
1727576031.383,-29.297,-26.855,-41.992,-27.344,0.000
1727576031.387,0.000,-36.133,-38.086,-26.367,0.000
1727576031.391,0.000,-45.410,-31.250,-42.969,0.000
1727576031.395,0.000,-32.715,-24.902,-28.320,0.000
1727576031.399,0.000,-29.297,-21.484,-2.930,0.000
1727576031.403,0.000,-29.297,-17.578,-17.578,0.000
1727576031.407,0.000,-37.109,-20.508,-14.160,0.000
1727576031.411,0.000,-49.316,-27.832,-20.508,0.000
1727576031.415,0.000,-32.715,-26.367,-32.715,0.000
1727576031.418,0.000,-28.320,-29.297,-15.625,0.000
1727576031.422,0.000,-28.809,-33.691,-7.324,0.000
1727576031.426,0.000,-25.879,-29.785,-16.602,0.000
1727576031.430,0.000,-39.062,-26.367,-27.832,0.000
1727576031.434,-46.875,-23.438,-14.648,2.441,0.000
1727576031.438,-5.859,8.789,-6.348,30.762,0.000
1727576031.442,22.461,1.465,-12.207,16.602,0.000
1727576031.446,44.922,-9.277,-14.648,20.996,0.000
1727576031.450,37.109,-13.672,-17.578,6.836,0.000
1727576031.454,-13.184,-25.391,-27.344,-21.973,0.000
1727576031.458,-17.578,-24.902,-28.320,-7.812,0.000
1727576031.461,-1.465,-23.438,-24.902,-4.395,0.000
1727576031.465,24.902,-28.320,-20.020,-11.719,0.000
1727576031.469,4.395,-40.527,-26.855,-33.203,0.000
1727576031.473,-52.246,-40.527,-32.715,-45.898,0.000
1727576031.477,-37.109,-28.320,-21.973,-17.578,0.000
1727576031.481,-18.555,-30.273,-19.043,-11.719,0.000
1727576031.485,-10.742,-34.180,-23.438,-28.809,0.000
1727576031.489,-9.766,-43.457,-22.949,-44.922,0.000
1727576031.493,-37.598,-48.340,-28.320,-57.617,0.000
1727576031.496,-42.969,-29.297,-31.738,-26.855,0.000
1727576031.500,-30.273,-34.180,-36.133,-9.766,0.000
1727576031.504,-7.324,-49.316,-38.574,-17.578,0.000
1727576031.508,-7.324,-58.594,-39.062,-27.832,0.000
1727576031.512,-49.805,-49.316,-35.156,-43.945,0.000
1727576031.516,-49.805,-30.273,-27.832,-28.809,0.000
1727576031.520,-34.180,-30.762,-37.109,-22.461,0.000
1727576031.524,-21.484,-28.320,-43.945,-29.297,0.000
1727576031.528,-14.160,-17.090,-40.527,-29.297,0.000
1727576031.531,-47.852,-22.461,-41.504,-42.969,0.000
1727576031.535,-42.480,-31.250,-42.969,-22.461,0.000
1727576031.539,-13.184,-25.391,-38.086,-6.836,0.000
1727576031.543,-12.695,-23.926,-34.180,-22.949,0.000
1727576031.547,-8.301,-35.156,-42.480,-31.738,0.000
1727576031.551,-38.574,-57.129,-53.223,-41.992,0.000
1727576031.555,-42.969,-46.387,-45.410,-25.879,0.000
1727576031.559,-24.414,-11.719,-35.156,-2.930,0.000
1727576031.563,-6.836,-11.719,-40.527,-19.531,0.000
1727576031.567,10.254,-25.879,-48.828,-30.762,0.000
1727576031.571,-31.250,-31.738,-53.711,-37.598,0.000
1727576031.574,-44.922,-19.531,-49.316,-44.922,0.000
1727576031.578,-29.785,-18.066,-44.434,-28.809,0.000
1727576031.582,-30.762,-34.180,-46.387,-35.156,0.000
1727576031.586,-23.926,-35.645,-48.340,-58.105,0.000
1727576031.590,-50.781,-33.203,-50.781,-63.965,0.000
1727576031.594,-74.707,-35.645,-49.316,-53.711,0.000
1727576031.598,-56.152,-29.785,-45.410,-40.527,0.000
1727576031.601,-51.270,-18.066,-47.363,-53.711,0.000
1727576031.605,-27.344,-26.367,-56.152,-65.430,0.000
1727576031.609,-49.316,-48.828,-61.035,-68.848,0.000
1727576031.613,-84.473,-44.922,-53.223,-66.895,0.000
1727576031.617,-51.270,-23.438,-47.363,-39.062,0.000
1727576031.621,-37.109,-20.020,-48.828,-46.387,0.000
1727576031.625,-13.184,-34.668,-47.363,-53.223,0.000
1727576031.628,-16.113,-48.828,-44.922,-52.246,0.000
1727576031.632,-58.105,-52.734,-41.504,-53.711,0.000
1727576031.636,-39.551,-37.109,-37.598,-27.344,0.000
1727576031.640,-25.879,-37.598,-43.457,-23.926,0.000
1727576031.644,-8.301,-42.969,-40.039,-30.762,0.000
1727576031.648,-13.672,-38.086,-43.945,-43.457,0.000
1727576031.652,-63.965,-42.969,-47.852,-45.410,0.000
1727576031.656,-51.270,-35.645,-37.598,-16.602,0.000
1727576031.660,-13.672,-20.508,-36.621,-8.789,0.000
1727576031.664,22.461,-19.531,-36.133,-18.066,0.000
1727576031.668,15.625,-34.668,-32.227,-21.484,0.000
1727576031.672,-20.508,-30.762,-35.156,-17.578,0.000
1727576031.676,-3.418,-9.766,-38.574,0.000,0.000
1727576031.680,8.789,-16.602,-40.039,6.348,0.000
1727576031.684,0.977,-32.227,-52.246,-11.230,0.000
1727576031.688,-6.836,-38.086,-61.035,-30.273,0.000
1727576031.691,-50.781,-33.203,-56.152,-51.758,0.000
1727576031.695,-65.918,-28.320,-50.293,-46.387,0.000
1727576031.699,-44.922,-38.574,-46.387,-25.391,0.000
1727576031.703,-21.484,-53.223,-46.875,-30.273,0.000
1727576031.707,-16.113,-49.805,-49.805,-45.410,0.000
1727576031.711,-71.289,-52.246,-55.176,-69.336,0.000
1727576031.715,-67.383,-46.875,-44.922,-47.363,0.000
1727576031.719,-35.156,-42.969,-34.668,-18.066,0.000
1727576031.723,-44.434,-42.480,-31.738,-27.344,0.000
1727576031.727,-27.832,-36.133,-28.320,-34.180,0.000
1727576031.731,-62.500,-65.430,-39.551,-51.270,0.000
1727576031.735,-79.590,-69.824,-40.039,-42.969,0.000
1727576031.739,-45.898,-46.387,-31.738,-24.414,0.000
1727576031.742,-29.785,-50.781,-37.109,-26.855,0.000
1727576031.746,-11.719,-68.359,-40.527,-36.133,0.000
1727576031.750,-42.480,-68.848,-41.992,-57.617,0.000
1727576031.754,-38.574,-38.574,-34.180,-55.176,0.000
1727576031.758,18.066,-27.832,-27.832,-13.184,0.000
1727576031.762,8.301,-29.297,-30.762,-10.254,0.000
1727576031.766,-5.859,-39.551,-37.109,-22.461,0.000
1727576031.770,-27.832,-51.270,-44.922,-35.156,0.000
1727576031.774,-55.664,-47.852,-45.898,-44.434,0.000
1727576031.778,-30.762,-45.410,-41.992,-20.020,0.000
1727576031.782,-17.090,-45.898,-45.898,-21.973,0.000
1727576031.786,-11.230,-39.062,-48.828,-29.297,0.000
1727576031.789,-34.180,-48.340,-45.410,-38.086,0.000
1727576031.793,-55.664,-54.199,-40.527,-33.691,0.000
1727576031.797,-40.527,-21.484,-31.250,-8.301,0.000
1727576031.801,-30.273,-4.883,-33.691,-14.160,0.000
1727576031.805,-1.953,-13.184,-40.527,-20.020,0.000
1727576031.809,0.000,-11.230,-44.922,-37.598,0.000
1727576031.813,0.000,-5.859,-51.270,-61.523,0.000
1727576031.817,0.000,-5.371,-51.758,-40.039,0.000
1727576031.821,0.000,-14.160,-52.734,-24.902,0.000
1727576031.825,0.000,-18.555,-41.504,-24.902,0.000
1727576031.829,0.000,-18.555,-41.016,-31.250,0.000
1727576031.833,0.000,-17.090,-47.363,-45.410,0.000
1727576031.836,0.000,-13.184,-39.062,-20.996,0.000
1727576031.840,0.000,-13.184,-39.062,-6.348,0.000
1727576031.844,0.000,3.906,-36.621,-22.461,0.000
1727576031.848,0.000,-4.883,-45.898,-47.363,0.000
1727576031.852,0.000,-36.621,-53.711,-53.223,0.000
1727576031.856,-59.570,-26.855,-45.410,-17.578,0.000
1727576031.860,-27.832,-17.090,-44.922,-16.113,0.000
1727576031.864,-15.625,-19.531,-47.363,-37.109,0.000
1727576031.868,-14.160,-30.762,-42.969,-40.527,0.000
1727576031.872,-49.805,-41.016,-32.227,-44.922,0.000
1727576031.875,-44.434,-22.949,-21.484,-17.578,0.000
1727576031.879,-22.461,-18.555,-22.461,1.465,0.000
1727576031.883,-10.742,-28.320,-21.484,-1.465,0.000
1727576031.887,5.859,-26.855,-30.762,-5.859,0.000
1727576031.891,-36.621,-34.180,-44.922,-38.086,0.000
1727576031.895,-62.988,-38.086,-38.086,-36.133,0.000
1727576031.899,-35.645,-39.551,-31.738,-7.324,0.000
1727576031.903,-12.695,-32.715,-34.180,-11.719,0.000
1727576031.907,-1.953,-39.062,-41.992,-16.602,0.000
1727576031.910,-31.250,-43.457,-44.434,-29.785,0.000
1727576031.914,-41.992,-26.367,-34.668,-24.902,0.000
1727576031.918,-38.574,-34.180,-32.715,-9.277,0.000
1727576031.922,-36.133,-46.875,-41.016,-24.414,0.000
1727576031.926,-20.996,-39.062,-46.875,-44.922,0.000
1727576031.930,-54.199,-44.922,-52.246,-51.758,0.000
1727576031.934,-72.754,-30.762,-43.457,-44.434,0.000
1727576031.938,-43.945,-23.926,-42.480,-32.227,0.000
1727576031.942,-36.133,-36.133,-50.781,-38.574,0.000
1727576031.946,-13.184,-32.715,-57.617,-49.316,0.000
1727576031.949,-37.109,-30.762,-58.105,-61.035,0.000
1727576031.953,-69.336,-22.461,-48.828,-49.805,0.000
1727576031.957,-40.039,-31.250,-47.363,-26.855,0.000
1727576031.961,-29.785,-32.227,-41.016,-34.180,0.000
1727576031.965,-1.953,-15.625,-36.133,-36.621,0.000
1727576031.969,-23.438,-29.297,-46.875,-43.945,0.000
1727576031.973,-77.637,-59.082,-54.199,-49.805,0.000
1727576031.977,-50.781,-44.922,-44.922,-30.273,0.000
1727576031.980,-28.320,-28.320,-35.645,-22.949,0.000
1727576031.984,-8.301,-45.410,-35.645,-19.531,0.000
1727576031.988,-13.672,-59.570,-40.527,-32.227,0.000
1727576031.992,-60.059,-54.688,-39.551,-55.176,0.000
1727576031.996,-49.805,-37.109,-36.621,-39.551,0.000
1727576032.000,-37.109,-39.551,-40.039,-27.832,0.000
1727576032.003,-29.785,-52.246,-41.504,-26.367,0.000
1727576032.007,-18.066,-59.082,-44.434,-34.668,0.000
1727576032.011,-48.340,-51.758,-42.969,-51.758,0.000
1727576032.015,-44.922,-47.363,-30.762,-17.578,0.000
1727576032.019,-27.832,-52.246,-28.809,8.789,0.000
1727576032.023,-21.973,-34.180,-29.297,-3.906,0.000
1727576032.027,-16.113,-42.480,-32.227,-29.297,0.000
1727576032.031,-46.387,-65.430,-42.969,-51.270,0.000
1727576032.035,-34.668,-43.945,-42.480,-35.645,0.000
1727576032.039,-19.531,-27.344,-36.133,-26.367,0.000
1727576032.043,-17.578,-37.598,-43.457,-41.504,0.000
1727576032.047,-5.859,-52.246,-50.293,-46.875,0.000
1727576032.051,-47.363,-56.152,-51.270,-44.922,0.000
1727576032.055,-53.711,-41.016,-44.434,-25.391,0.000
1727576032.059,-22.949,-27.344,-43.945,-14.160,0.000
1727576032.062,-8.301,-34.668,-51.758,-23.438,0.000
1727576032.066,6.348,-31.250,-48.828,-36.621,0.000
1727576032.070,-23.438,-36.133,-56.152,-60.059,0.000
1727576032.074,-51.270,-46.387,-61.035,-52.246,0.000
1727576032.078,-31.250,-46.387,-57.617,-32.715,0.000
1727576032.082,-6.348,-29.785,-54.688,-39.551,0.000
1727576032.086,6.348,-19.043,-59.082,-41.992,0.000
1727576032.090,-38.086,-36.621,-62.012,-60.547,0.000
1727576032.094,-63.477,-40.039,-48.828,-50.293,0.000
1727576032.098,-37.109,-26.367,-41.504,-16.602,0.000
1727576032.102,-28.809,-25.879,-41.992,-22.461,0.000
1727576032.106,-4.395,-32.715,-38.086,-39.062,0.000
1727576032.110,-32.227,-51.270,-36.621,-47.852,0.000
1727576032.113,-77.148,-49.805,-33.203,-38.574,0.000
1727576032.117,-48.828,-29.785,-30.273,-20.996,0.000
1727576032.121,-22.461,-41.504,-33.691,-28.320,0.000
1727576032.125,-6.348,-41.016,-35.156,-28.809,0.000
1727576032.129,-30.762,-30.762,-28.809,-41.016,0.000
1727576032.133,-56.641,-35.156,-28.809,-48.340,0.000
1727576032.137,-24.414,-26.855,-30.273,-18.555,0.000
1727576032.141,-17.090,-25.879,-30.762,-16.602,0.000
1727576032.145,-0.977,-23.926,-31.250,-27.344,0.000
1727576032.149,-10.742,-23.926,-31.738,-29.785,0.000
1727576032.153,-47.363,-31.250,-30.273,-24.414,0.000
1727576032.157,-7.324,-25.391,-18.066,2.930,0.000
1727576032.161,10.254,-17.090,-11.719,7.324,0.000
1727576032.164,0.000,-25.391,-16.602,-0.488,0.000
1727576032.168,-13.184,-57.617,-34.668,-10.742,0.000
1727576032.172,-56.152,-54.688,-38.574,-23.438,0.000
1727576032.176,-42.969,-31.250,-27.344,-0.977,0.000
1727576032.180,-12.695,-38.574,-34.180,-10.742,0.000
1727576032.184,-6.836,-33.203,-38.086,-28.809,0.000
1727576032.188,-23.926,-34.668,-39.551,-34.180,0.000
1727576032.192,-66.895,-46.875,-39.551,-48.340,0.000
1727576032.196,-57.617,-30.762,-29.785,-25.391,0.000
1727576032.200,-28.809,-20.020,-30.273,-9.277,0.000
1727576032.204,-18.066,-41.016,-51.270,-33.691,0.000
1727576032.208,-24.414,-63.965,-58.594,-61.035,0.000
1727576032.211,-71.777,-72.266,-54.199,-72.754,0.000
1727576032.215,-77.637,-50.293,-56.152,-49.316,0.000
1727576032.219,-51.758,-23.926,-50.293,-39.062,0.000
1727576032.223,-35.645,-22.949,-47.363,-42.969,0.000
1727576032.227,-15.137,-31.738,-48.340,-47.363,0.000
1727576032.231,0.000,-43.457,-51.758,-68.359,0.000
1727576032.235,0.000,-35.156,-44.922,-40.039,0.000
1727576032.239,0.000,-29.297,-39.062,-6.348,0.000
1727576032.243,0.000,-35.645,-48.340,-28.809,0.000
1727576032.247,0.000,-43.945,-49.316,-41.016,0.000
1727576032.250,0.000,-48.340,-43.945,-46.875,0.000
1727576032.254,0.000,-36.133,-39.062,-35.645,0.000
1727576032.258,0.000,-31.250,-38.086,-17.578,0.000
1727576032.262,0.000,-25.391,-34.668,-17.578,0.000
1727576032.266,0.000,-25.391,-32.227,-8.301,0.000
1727576032.270,0.000,-40.527,-40.527,-29.785,0.000
1727576032.274,0.000,-47.363,-39.551,-32.715,0.000
1727576032.278,-37.598,-34.668,-25.879,-10.742,0.000
1727576032.281,-34.180,-28.320,-21.484,-17.578,0.000
1727576032.285,-5.859,-38.086,-26.855,-23.926,0.000
1727576032.289,-27.832,-46.387,-35.156,-40.039,0.000
1727576032.293,-73.730,-41.504,-36.133,-43.457,0.000
1727576032.297,-46.387,-37.598,-28.320,-21.973,0.000
1727576032.301,-27.344,-42.969,-34.180,-18.066,0.000
1727576032.305,2.441,-43.945,-37.109,-14.648,0.000
1727576032.309,-15.625,-39.062,-32.227,-26.855,0.000
1727576032.313,-59.082,-44.922,-36.621,-32.227,0.000
1727576032.317,-33.203,-49.316,-38.574,-10.254,0.000
1727576032.321,-27.344,-35.156,-43.457,-20.508,0.000
1727576032.324,-12.695,-20.508,-45.898,-27.832,0.000
1727576032.328,-18.555,-37.109,-51.758,-36.621,0.000
1727576032.332,-67.871,-56.152,-54.688,-51.270,0.000
1727576032.336,-55.176,-34.180,-44.434,-21.484,0.000
1727576032.340,-36.133,-21.973,-52.246,-17.090,0.000
1727576032.344,-24.414,-35.156,-52.246,-33.203,0.000
1727576032.348,-37.598,-55.176,-50.293,-39.062,0.000
1727576032.352,-90.820,-43.457,-54.199,-64.453,0.000
1727576032.355,-79.102,-25.879,-40.039,-39.062,0.000
1727576032.359,-26.367,-34.668,-39.551,-22.461,0.000
1727576032.363,-9.766,-43.945,-47.852,-34.180,0.000
1727576032.367,-32.227,-47.363,-41.504,-35.645,0.000
1727576032.371,-67.871,-49.316,-40.039,-47.363,0.000
1727576032.375,-56.641,-36.621,-41.992,-30.273,0.000
1727576032.379,-36.133,-26.855,-41.504,-13.672,0.000
1727576032.382,-20.020,-28.809,-40.527,-26.367,0.000
1727576032.386,-9.766,-45.410,-36.133,-33.203,0.000
1727576032.390,-39.551,-58.594,-38.574,-35.645,0.000
1727576032.394,-35.156,-41.016,-41.992,-15.625,0.000
1727576032.398,-15.137,-21.484,-32.715,5.859,0.000
1727576032.402,-6.348,-26.855,-29.785,-1.465,0.000
1727576032.406,-1.465,-38.086,-38.574,-15.625,0.000
1727576032.410,-40.527,-51.270,-49.805,-41.504,0.000
1727576032.414,-54.199,-47.852,-41.016,-34.180,0.000
1727576032.418,-23.926,-31.738,-31.738,-3.906,0.000
1727576032.422,-8.789,-36.133,-36.621,-14.648,0.000
1727576032.426,6.836,-36.133,-31.738,-11.230,0.000
1727576032.430,-26.367,-41.016,-31.250,-23.438,0.000
1727576032.434,-50.293,-40.039,-35.645,-36.621,0.000
1727576032.438,-18.066,-27.832,-33.203,-0.977,0.000
1727576032.441,4.395,-19.043,-26.367,-2.441,0.000
1727576032.445,31.250,-24.414,-24.902,-20.996,0.000
1727576032.449,-8.301,-47.363,-36.621,-40.039,0.000
1727576032.453,-48.340,-38.574,-37.598,-34.180,0.000
1727576032.457,-32.715,-8.301,-34.180,-10.254,0.000
1727576032.461,-23.438,-16.602,-36.133,-11.719,0.000
1727576032.465,-4.395,-38.086,-41.504,-27.344,0.000
1727576032.469,-30.273,-49.316,-42.969,-42.480,0.000
1727576032.473,-64.941,-42.969,-38.574,-47.852,0.000
1727576032.477,-47.363,-29.785,-43.945,-26.367,0.000
1727576032.481,-34.180,-34.668,-55.664,-37.109,0.000
1727576032.485,-13.184,-35.645,-58.594,-54.688,0.000
1727576032.489,-25.391,-41.504,-57.129,-59.570,0.000
1727576032.492,-73.242,-37.598,-53.223,-68.359,0.000
1727576032.496,-66.406,-34.668,-44.434,-44.434,0.000
1727576032.500,-41.016,-47.363,-36.133,-29.785,0.000
1727576032.504,-13.672,-42.480,-28.320,-41.504,0.000
1727576032.508,-22.461,-44.434,-28.320,-47.363,0.000
1727576032.512,-69.824,-47.852,-31.250,-47.363,0.000
1727576032.516,-67.383,-37.109,-34.668,-33.203,0.000
1727576032.520,-41.992,-40.039,-31.250,-35.645,0.000
1727576032.524,-8.789,-40.527,-33.203,-43.457,0.000
1727576032.528,-14.648,-46.387,-46.875,-41.016,0.000
1727576032.532,-66.895,-64.941,-41.016,-46.875,0.000
1727576032.536,-44.434,-52.246,-21.973,-28.320,0.000
1727576032.540,-31.250,-38.574,-21.973,-17.578,0.000
1727576032.543,-27.344,-52.734,-37.109,-22.949,0.000
1727576032.547,-20.996,-45.898,-45.898,-40.527,0.000
1727576032.551,-68.848,-35.156,-45.410,-62.012,0.000
1727576032.555,-59.570,-42.480,-31.738,-38.574,0.000
1727576032.559,-35.645,-40.039,-34.180,-24.414,0.000
1727576032.563,-27.344,-25.391,-35.156,-37.598,0.000
1727576032.567,-14.160,-31.250,-39.551,-40.527,0.000
1727576032.571,-62.500,-49.805,-45.410,-59.082,0.000
1727576032.575,-62.012,-38.086,-30.762,-47.852,0.000
1727576032.579,-33.691,-36.133,-33.203,-29.297,0.000
1727576032.583,-16.602,-39.551,-40.527,-41.504,0.000
1727576032.586,2.441,-43.945,-39.062,-35.645,0.000
1727576032.590,-38.574,-57.129,-39.551,-46.387,0.000
1727576032.594,-43.945,-40.527,-28.809,-40.527,0.000
1727576032.598,-13.672,-42.480,-24.902,-10.742,0.000
1727576032.602,-12.207,-62.500,-31.738,-14.648,0.000
1727576032.606,0.000,-55.176,-36.133,-17.578,0.000
1727576032.610,0.000,-45.898,-41.016,-30.762,0.000
1727576032.614,0.000,-31.738,-35.645,-36.133,0.000
1727576032.618,0.000,-29.297,-35.156,-31.738,0.000
1727576032.622,0.000,-37.598,-35.156,-30.273,0.000
1727576032.625,0.000,-32.715,-30.762,-28.809,0.000
1727576032.629,0.000,-41.992,-44.434,-48.340,0.000
1727576032.633,0.000,-60.059,-51.270,-48.828,0.000
1727576032.637,0.000,-41.016,-36.621,-30.762,0.000
1727576032.641,0.000,-30.762,-35.156,-40.527,0.000
1727576032.645,0.000,-33.691,-41.016,-32.715,0.000
1727576032.649,0.000,-38.574,-39.062,-43.457,0.000
1727576032.653,-72.754,-38.086,-32.715,-54.688,0.000
1727576032.656,-40.527,-35.156,-30.762,-21.484,0.000
1727576032.660,-29.297,-35.156,-32.715,-14.648,0.000
1727576032.664,-10.742,-29.785,-33.203,-25.391,0.000
1727576032.668,-10.254,-41.016,-41.016,-37.598,0.000
1727576032.672,-42.480,-45.410,-48.340,-40.039,0.000
1727576032.676,-25.879,-30.273,-42.969,-3.906,0.000
1727576032.680,-19.043,-27.832,-33.203,7.324,0.000
1727576032.684,0.488,-38.086,-25.391,-6.348,0.000
1727576032.688,-2.930,-56.152,-30.273,-19.531,0.000
1727576032.692,-49.805,-53.711,-37.598,-29.785,0.000
1727576032.696,-41.992,-41.016,-30.762,-17.090,0.000
1727576032.699,-20.996,-37.109,-22.949,-11.719,0.000
1727576032.703,-3.418,-48.828,-24.414,-13.672,0.000
1727576032.707,-4.883,-58.594,-38.086,-29.297,0.000
1727576032.711,-43.945,-50.781,-42.480,-62.500,0.000
1727576032.715,-45.898,-33.691,-36.621,-34.668,0.000
1727576032.719,-31.250,-37.109,-37.109,-28.320,0.000
1727576032.723,-14.160,-58.594,-36.133,-41.016,0.000
1727576032.727,-9.766,-44.434,-34.180,-41.992,0.000
1727576032.730,-51.270,-36.621,-32.715,-58.105,0.000
1727576032.734,-63.965,-43.457,-28.320,-27.832,0.000
1727576032.738,-46.875,-45.410,-26.367,-10.742,0.000
1727576032.742,-31.738,-49.805,-24.414,-27.344,0.000
1727576032.746,-8.789,-45.898,-26.855,-28.809,0.000
1727576032.750,-38.086,-50.781,-29.785,-41.016,0.000
1727576032.754,-48.340,-42.480,-21.484,-22.461,0.000
1727576032.757,-33.691,-28.809,-22.461,-7.812,0.000
1727576032.761,-12.695,-17.578,-30.273,-21.484,0.000
1727576032.765,21.973,-31.738,-28.320,-11.719,0.000
1727576032.769,-22.949,-69.336,-38.574,-25.391,0.000
1727576032.773,-56.152,-64.941,-42.480,-34.180,0.000
1727576032.777,-48.828,-56.641,-44.922,-27.344,0.000
1727576032.781,-41.992,-67.871,-54.199,-44.434,0.000
1727576032.785,-22.461,-64.453,-44.922,-53.711,0.000
1727576032.789,-51.758,-63.965,-38.086,-61.523,0.000
1727576032.793,-70.801,-67.383,-39.062,-52.734,0.000
1727576032.797,-28.809,-61.035,-37.598,-37.598,0.000
1727576032.801,-8.789,-55.176,-39.062,-40.527,0.000
1727576032.805,-0.977,-63.477,-35.645,-41.992,0.000
1727576032.809,-34.180,-84.473,-35.645,-42.480,0.000
1727576032.813,-56.641,-91.309,-35.645,-23.926,0.000
1727576032.817,-35.156,-64.453,-34.180,-15.137,0.000
1727576032.820,-33.203,-47.852,-40.527,-34.180,0.000
1727576032.824,-6.836,-59.570,-45.898,-35.645,0.000
1727576032.828,-12.695,-65.430,-43.945,-39.062,0.000
1727576032.832,-49.805,-51.270,-42.969,-39.551,0.000
1727576032.836,-34.668,-38.574,-42.969,-19.043,0.000
1727576032.840,-10.742,-31.250,-38.086,-12.695,0.000
1727576032.844,16.113,-28.320,-37.598,-9.277,0.000
1727576032.848,2.930,-39.551,-42.480,-31.738,0.000
1727576032.852,-56.152,-44.922,-35.645,-49.805,0.000
1727576032.856,-49.316,-43.457,-28.320,-23.926,0.000
1727576032.860,-32.715,-42.480,-34.668,-18.555,0.000
1727576032.864,-11.719,-35.645,-37.598,-27.832,0.000
1727576032.868,-7.812,-46.387,-33.691,-35.156,0.000
1727576032.871,-46.875,-58.594,-30.762,-38.574,0.000
1727576032.875,-40.039,-48.340,-24.902,-9.766,0.000
1727576032.879,-28.320,-34.668,-24.414,-5.859,0.000
1727576032.883,0.977,-34.180,-30.762,-24.902,0.000
1727576032.887,19.531,-54.199,-32.227,-29.785,0.000
1727576032.891,-38.574,-68.848,-32.715,-23.926,0.000
1727576032.895,-51.758,-47.363,-34.668,2.930,0.000
1727576032.899,-25.391,-44.434,-34.180,3.418,0.000
1727576032.903,-6.836,-63.965,-35.156,-13.184,0.000
1727576032.907,2.441,-55.176,-30.762,-22.461,0.000
1727576032.911,-36.621,-47.852,-32.227,-31.738,0.000
1727576032.915,-35.645,-42.480,-33.691,-9.277,0.000
1727576032.918,-13.184,-51.758,-34.668,0.977,0.000
1727576032.922,-10.742,-57.617,-38.574,-17.578,0.000
1727576032.926,-8.789,-56.641,-40.527,-27.832,0.000
1727576032.930,-39.551,-66.406,-44.922,-42.969,0.000
1727576032.934,0.000,-62.012,-48.340,-38.086,0.000
1727576032.938,0.000,-50.293,-32.715,-15.137,0.000
1727576032.942,0.000,-49.805,-22.949,-19.531,0.000
1727576032.946,0.000,-59.082,-27.832,-32.227,0.000
1727576032.950,0.000,-69.824,-34.668,-54.688,0.000
1727576032.954,0.000,-64.941,-42.969,-57.129,0.000
1727576032.958,0.000,-52.734,-39.062,-29.297,0.000
1727576032.962,0.000,-55.664,-29.785,-41.016,0.000
1727576032.965,0.000,-64.453,-34.668,-39.551,0.000
1727576032.969,0.000,-59.082,-37.598,-44.922,0.000
1727576032.973,0.000,-49.316,-30.273,-47.363,0.000
1727576032.977,0.000,-38.574,-26.855,-14.160,0.000
1727576032.979,-39.551,-38.086,-32.227,-12.207,0.000
1727576032.983,-27.832,-41.504,-36.621,-25.391,0.000
1727576032.986,-24.902,-57.617,-46.387,-34.668,0.000
1727576032.990,-18.066,-51.270,-46.875,-31.738,0.000
1727576032.994,-51.758,-42.969,-30.273,-7.812,0.000
1727576032.998,-74.707,-54.199,-30.762,-6.348,0.000
1727576033.002,-42.480,-47.852,-41.504,-32.715,0.000
1727576033.006,-19.531,-48.340,-44.434,-42.480,0.000
1727576033.010,-16.602,-37.109,-37.598,-41.016,0.000
1727576033.014,-47.363,-24.414,-33.203,-21.973,0.000
1727576033.018,-69.336,-28.320,-31.738,-8.301,0.000
1727576033.022,-38.086,-25.879,-31.250,-15.137,0.000
1727576033.025,-1.465,-36.133,-38.086,-34.180,0.000
1727576033.029,-51.270,-49.805,-41.016,-37.598,0.000
1727576033.033,-40.039,-42.480,-28.320,-5.859,0.000
1727576033.037,-24.414,-34.180,-28.320,-4.395,0.000
1727576033.041,-10.254,-32.715,-42.480,-29.297,0.000
1727576033.045,-3.418,-35.645,-43.945,-38.086,0.000
1727576033.049,-65.430,-50.293,-43.457,-52.734,0.000
1727576033.053,-65.430,-47.363,-39.062,-29.785,0.000
1727576033.057,-23.926,-12.207,-30.762,-11.719,0.000
1727576033.061,-22.461,-22.949,-32.227,-28.809,0.000
1727576033.064,-29.785,-57.129,-40.039,-40.039,0.000
1727576033.068,-63.477,-49.805,-41.992,-51.758,0.000
1727576033.072,-56.641,-21.484,-33.203,-32.715,0.000
1727576033.076,-35.645,-26.367,-36.621,-16.113,0.000
1727576033.080,-26.367,-42.480,-43.945,-28.809,0.000
1727576033.084,-20.996,-39.062,-42.969,-46.387,0.000
1727576033.088,-58.105,-40.039,-46.387,-75.195,0.000
1727576033.092,-60.547,-39.551,-47.363,-56.152,0.000
1727576033.096,-37.109,-37.109,-42.969,-28.320,0.000
1727576033.099,-16.113,-33.203,-45.898,-35.645,0.000
1727576033.103,-16.113,-41.016,-43.945,-40.039,0.000
1727576033.107,-64.941,-50.293,-45.410,-66.895,0.000
1727576033.111,-79.102,-42.480,-40.527,-50.293,0.000
1727576033.115,-52.734,-23.438,-24.902,-8.301,0.000
1727576033.119,-36.621,-24.902,-34.180,-26.367,0.000
1727576033.123,-21.973,-42.480,-49.316,-46.387,0.000
1727576033.127,-61.523,-50.781,-44.922,-67.871,0.000
1727576033.131,-74.707,-39.062,-43.945,-62.012,0.000
1727576033.134,-41.504,-32.715,-47.852,-43.457,0.000
1727576033.138,-29.785,-40.039,-45.410,-40.527,0.000
1727576033.142,-18.555,-41.992,-43.945,-31.738,0.000
1727576033.146,-53.711,-46.387,-55.664,-53.711,0.000
1727576033.150,-84.961,-46.875,-47.363,-49.316,0.000
1727576033.154,-50.781,-42.480,-28.809,-11.719,0.000
1727576033.158,-30.273,-44.922,-39.551,-10.254,0.000
1727576033.162,-0.488,-40.039,-36.621,-9.766,0.000
1727576033.166,-3.418,-42.969,-26.855,-22.949,0.000
1727576033.170,-29.785,-43.945,-39.062,-34.180,0.000
1727576033.174,-24.902,-41.016,-42.480,-11.719,0.000
1727576033.178,-22.461,-46.387,-40.527,-15.625,0.000
1727576033.182,-4.883,-40.039,-41.504,-20.996,0.000
1727576033.186,-15.137,-45.898,-43.945,-26.855,0.000
1727576033.190,-52.734,-43.457,-41.016,-40.527,0.000
1727576033.194,-49.316,-31.250,-32.227,-27.832,0.000
1727576033.197,-27.832,-37.109,-39.551,-24.902,0.000
1727576033.201,-6.836,-37.598,-43.945,-22.949,0.000
1727576033.205,-19.531,-40.039,-44.922,-32.715,0.000
1727576033.209,-63.965,-43.945,-48.340,-55.176,0.000
1727576033.213,-50.781,-30.762,-41.992,-39.551,0.000
1727576033.217,-27.832,-39.062,-45.898,-26.855,0.000
1727576033.221,-11.230,-31.738,-43.945,-32.715,0.000
1727576033.225,-6.348,-31.738,-42.480,-37.598,0.000
1727576033.229,-52.734,-45.410,-44.434,-52.734,0.000
1727576033.233,-57.129,-24.902,-32.227,-30.762,0.000
1727576033.237,-30.273,-24.414,-31.250,-15.137,0.000
1727576033.241,-17.578,-32.715,-40.039,-39.062,0.000
1727576033.245,-19.043,-41.016,-45.410,-44.434,0.000
1727576033.249,-55.176,-60.059,-45.898,-52.734,0.000
1727576033.252,-61.523,-34.668,-37.109,-35.156,0.000
1727576033.256,-44.434,-20.996,-39.551,-13.672,0.000
1727576033.261,-22.461,-32.715,-52.246,-44.434,0.000
1727576033.264,-14.648,-39.551,-56.641,-59.570,0.000
1727576033.268,-71.289,-52.246,-49.805,-65.430,0.000
1727576033.272,-68.848,-50.781,-41.504,-41.504,0.000
1727576033.276,-35.156,-43.457,-42.969,-13.184,0.000
1727576033.280,-26.855,-37.109,-51.758,-19.531,0.000
1727576033.284,-5.371,-35.156,-44.922,-22.461,0.000
1727576033.288,-37.109,-35.645,-40.527,-34.180,0.000
1727576033.292,-43.945,-40.039,-40.039,-10.742,0.000
1727576033.296,-9.766,-32.715,-31.738,18.555,0.000
1727576033.300,3.418,-26.855,-27.344,-2.441,0.000
1727576033.304,11.719,-25.391,-32.715,-19.043,0.000
1727576033.308,0.000,-31.250,-39.551,-33.691,0.000
1727576033.311,0.000,-27.344,-38.574,-27.344,0.000
1727576033.315,0.000,-18.555,-36.621,1.465,0.000
1727576033.319,0.000,-29.785,-41.016,-9.766,0.000
1727576033.323,0.000,-35.156,-40.527,-20.996,0.000
1727576033.327,0.000,-52.734,-38.574,-27.344,0.000
1727576033.331,0.000,-43.457,-31.738,-30.762,0.000
1727576033.335,0.000,-16.113,-22.461,-5.371,0.000
1727576033.339,0.000,-18.066,-30.762,-0.488,0.000
1727576033.343,0.000,-19.531,-38.574,-20.996,0.000
1727576033.347,0.000,-30.273,-42.969,-49.805,0.000
1727576033.351,0.000,-39.551,-41.504,-48.828,0.000
1727576033.355,-46.875,-31.250,-40.039,-16.602,0.000
1727576033.358,-17.090,-29.297,-39.551,-19.043,0.000
1727576033.362,23.438,-38.086,-41.504,-36.133,0.000
1727576033.366,12.695,-48.340,-44.922,-43.457,0.000
1727576033.370,-54.688,-41.504,-40.039,-55.664,0.000
1727576033.374,-58.594,-34.180,-35.645,-39.062,0.000
1727576033.378,-34.180,-45.898,-35.156,-20.020,0.000
1727576033.382,-21.484,-55.176,-40.527,-24.902,0.000
1727576033.386,-36.621,-52.246,-43.457,-43.945,0.000
1727576033.390,-80.566,-52.246,-44.434,-52.734,0.000
1727576033.394,-68.848,-43.945,-34.668,-28.320,0.000
1727576033.397,-39.551,-36.133,-35.156,-20.996,0.000
1727576033.401,-12.207,-41.504,-51.270,-41.504,0.000
1727576033.405,-21.973,-53.223,-52.734,-51.270,0.000
1727576033.409,-70.801,-55.176,-51.758,-57.129,0.000
1727576033.413,-61.523,-41.992,-50.293,-28.320,0.000
1727576033.417,-41.016,-33.203,-51.270,-10.254,0.000
1727576033.421,-20.020,-31.250,-47.852,-22.949,0.000
1727576033.425,-14.160,-41.016,-47.852,-26.855,0.000
1727576033.429,-57.129,-45.898,-51.270,-36.621,0.000
1727576033.433,-62.012,-25.879,-45.410,-26.367,0.000
1727576033.436,-31.738,-28.320,-41.016,-10.254,0.000
1727576033.440,0.000,-35.645,-38.086,-19.043,0.000
1727576033.444,-1.953,-32.715,-33.691,-25.879,0.000
1727576033.448,-49.805,-42.969,-41.016,-39.062,0.000
1727576033.452,-53.711,-31.738,-43.457,-28.809,0.000
1727576033.456,-22.949,-25.391,-41.992,-7.324,0.000
1727576033.460,-15.625,-29.297,-40.527,-15.625,0.000
1727576033.464,6.836,-25.879,-36.621,-12.695,0.000
1727576033.468,-17.090,-44.434,-38.086,-29.297,0.000
1727576033.471,-54.688,-55.176,-40.039,-30.273,0.000
1727576033.475,-28.809,-31.738,-35.156,-5.371,0.000
1727576033.479,-5.859,-21.973,-41.992,-10.742,0.000
1727576033.483,10.742,-30.762,-40.039,-16.602,0.000
1727576033.487,-16.602,-47.852,-31.250,-30.273,0.000
1727576033.491,-54.688,-53.711,-36.621,-43.945,0.000
1727576033.495,-41.992,-36.133,-44.434,-21.973,0.000
1727576033.499,-36.621,-27.344,-50.293,-18.555,0.000
1727576033.502,-22.949,-30.273,-45.898,-40.527,0.000
1727576033.506,-23.926,-34.668,-42.480,-61.035,0.000
1727576033.510,-53.711,-31.738,-43.457,-60.547,0.000
1727576033.514,-60.547,-40.039,-37.109,-29.297,0.000
1727576033.518,-42.480,-37.598,-26.855,-17.090,0.000
1727576033.522,-18.066,-23.926,-28.809,-25.391,0.000
1727576033.526,-35.156,-44.434,-39.551,-40.527,0.000
1727576033.530,-71.289,-59.570,-41.504,-55.176,0.000
1727576033.534,-66.406,-39.551,-35.156,-37.598,0.000
1727576033.538,-45.898,-31.250,-34.668,-26.367,0.000
1727576033.542,-14.160,-42.969,-36.133,-33.203,0.000
1727576033.546,-22.949,-61.523,-40.039,-50.781,0.000
1727576033.550,-52.734,-54.199,-39.551,-60.059,0.000
1727576033.554,-35.156,-34.180,-35.156,-32.715,0.000
1727576033.558,-33.691,-41.504,-36.133,-20.996,0.000
1727576033.561,-12.695,-50.781,-38.086,-20.020,0.000
1727576033.565,-12.695,-40.527,-41.504,-32.715,0.000
1727576033.569,-64.453,-29.785,-38.086,-52.734,0.000
1727576033.573,-52.246,-24.414,-27.832,-33.203,0.000
1727576033.577,-20.020,-27.832,-26.367,-13.184,0.000
1727576033.581,-7.812,-20.996,-26.367,-17.578,0.000
1727576033.585,-2.441,-28.320,-31.738,-31.250,0.000
1727576033.589,-47.852,-60.059,-43.945,-49.805,0.000
1727576033.593,-60.059,-56.641,-37.109,-22.949,0.000
1727576033.597,-14.648,-20.996,-20.020,7.324,0.000
1727576033.601,-0.977,-13.672,-26.367,-3.418,0.000
1727576033.605,-0.977,-34.180,-39.551,-4.883,0.000
1727576033.609,-29.785,-47.363,-43.457,-15.137,0.000
1727576033.613,-41.992,-38.086,-37.109,-9.277,0.000
1727576033.616,-1.465,-37.598,-31.250,7.812,0.000
1727576033.620,27.344,-60.059,-33.203,3.906,0.000
1727576033.624,16.602,-62.012,-36.133,5.859,0.000
1727576033.628,-43.457,-49.316,-35.156,-19.043,0.000
1727576033.632,-68.848,-26.367,-30.273,-29.297,0.000
1727576033.636,-46.387,-10.254,-35.645,-15.137,0.000
1727576033.640,-8.789,-49.805,-39.062,-32.715,0.000
1727576033.644,29.297,-89.355,-35.645,-26.367,0.000
1727576033.648,-22.949,-63.965,-46.875,-20.020,0.000
1727576033.652,-66.406,-37.109,-44.434,-24.902,0.000
1727576033.656,-57.129,1.465,-41.992,-23.438,0.000
1727576033.660,-62.012,15.137,-53.711,-44.434,0.000
1727576033.664,-31.738,-11.719,-48.340,-47.852,0.000
1727576033.667,-27.832,-71.289,-47.852,-28.809,0.000
1727576033.671,-55.664,-107.910,-44.922,-36.621,0.000
1727576033.675,-27.832,-131.348,-36.621,-30.273,0.000
1727576033.679,-21.973,-76.660,-20.508,-22.461,0.000
1727576033.683,1.465,-52.246,-23.926,-15.137,0.000
1727576033.687,32.227,-104.492,-26.855,1.465,0.000
1727576033.691,-20.996,-71.289,-35.156,-14.648,0.000
1727576033.695,-59.082,-8.301,-51.758,-17.578,0.000
1727576033.699,-43.945,-58.105,-61.035,-27.832,0.000
1727576033.703,30.762,-135.254,-66.406,-27.344,0.000
1727576033.707,62.012,-86.426,-28.320,7.324,0.000
1727576033.710,80.078,-156.738,37.598,90.820,0.000
1727576033.714,80.566,-81.543,30.762,118.652,0.000
1727576033.718,-56.152,108.398,-50.293,-57.129,0.000
1727576033.722,-12.207,-2.441,-129.395,-67.871,0.000
1727576033.726,163.086,-48.828,-7.812,114.258,0.000
1727576033.730,81.543,103.027,101.562,96.191,0.000
1727576033.734,-88.379,223.633,-16.113,-43.457,0.000
1727576033.738,-100.586,-59.082,-84.961,-98.145,0.000
1727576033.742,17.090,-5.859,-19.531,-25.879,0.000
1727576033.746,62.500,249.512,-11.719,36.133,0.000
1727576033.749,47.852,137.695,-99.609,61.523,0.000
1727576033.753,-2.441,299.805,34.668,1.953,0.000
1727576033.757,-79.590,300.781,113.281,-90.820,0.000
1727576033.761,-31.738,434.082,110.840,-77.637,0.000
1727576033.765,-42.480,553.223,73.730,-101.562,0.000
1727576033.769,-93.262,527.344,-4.883,-134.766,0.000
1727576033.773,-58.594,589.355,12.695,-83.496,0.000
1727576033.777,1.465,619.141,59.082,-30.273,0.000
1727576033.781,32.227,639.160,75.195,-26.367,0.000
1727576033.784,42.969,636.719,81.543,-24.414,0.000
1727576033.788,11.719,640.137,83.496,-50.781,0.000
1727576033.792,8.789,647.461,88.867,-35.156,0.000
1727576033.796,34.668,653.809,94.727,-2.441,0.000
1727576033.800,30.762,660.645,84.473,-39.551,0.000
1727576033.804,41.992,660.156,75.195,-42.480,0.000
1727576033.808,7.324,664.551,76.660,-52.246,0.000
1727576033.812,-22.461,674.316,74.219,-52.246,0.000
1727576033.816,13.672,671.387,72.754,-23.438,0.000
1727576033.820,35.645,653.320,68.359,-27.344,0.000
1727576033.823,39.551,633.789,63.965,-33.691,0.000
1727576033.827,4.883,600.586,58.594,-45.410,0.000
1727576033.831,-22.461,578.125,57.129,-40.039,0.000
1727576033.835,-11.230,564.941,60.547,-13.672,0.000
1727576033.839,11.230,530.273,55.664,-20.020,0.000
1727576033.843,34.180,488.770,45.410,-34.668,0.000
1727576033.847,-3.418,436.035,32.227,-47.852,0.000
1727576033.851,-34.180,399.902,34.180,-53.223,0.000
1727576033.855,-5.859,375.488,40.527,-35.645,0.000
1727576033.859,6.348,326.660,33.691,-41.504,0.000
1727576033.862,25.391,278.320,23.926,-53.223,0.000
1727576033.866,9.277,229.004,13.184,-50.781,0.000
1727576033.870,-35.645,173.828,-1.953,-52.734,0.000
1727576033.874,-25.879,116.699,-6.836,-50.781,0.000
1727576033.878,-16.113,49.805,-5.859,-38.086,0.000
1727576033.882,-1.465,-5.371,-16.602,-44.922,0.000
1727576033.886,-6.348,-52.734,-23.438,-72.266,0.000
1727576033.889,-46.875,-98.145,-29.297,-81.055,0.000
1727576033.893,-37.598,-116.211,-33.691,-47.363,0.000
1727576033.897,-25.391,-124.023,-34.180,-38.574,0.000
1727576033.901,-21.973,-150.391,-39.062,-49.805,0.000
1727576033.905,-23.438,-188.477,-46.387,-58.105,0.000
1727576033.909,-70.801,-210.449,-63.477,-71.289,0.000
1727576033.913,-66.895,-209.473,-68.848,-51.270,0.000
1727576033.917,-33.203,-236.816,-73.730,-47.852,0.000
1727576033.921,-23.926,-258.301,-79.590,-58.594,0.000
1727576033.925,-38.574,-252.441,-70.312,-64.941,0.000
1727576033.929,-83.984,-262.207,-67.383,-70.312,0.000
1727576033.933,-87.402,-278.320,-65.430,-32.227,0.000
1727576033.937,-59.082,-286.133,-76.172,-29.297,0.000
1727576033.941,-50.781,-293.945,-83.496,-58.105,0.000
1727576033.945,-39.551,-307.617,-79.102,-64.941,0.000
1727576033.949,-73.242,-332.031,-83.496,-82.520,0.000
1727576033.952,-85.449,-358.398,-81.543,-62.012,0.000
1727576033.956,-69.824,-350.586,-77.637,-39.062,0.000
1727576033.960,-60.547,-340.820,-77.637,-48.340,0.000
1727576033.964,-34.668,-341.797,-74.219,-57.617,0.000
1727576033.968,-74.219,-350.586,-76.660,-71.289,0.000
1727576033.972,-95.703,-350.586,-70.312,-51.758,0.000
1727576033.976,-67.383,-333.496,-71.289,-35.645,0.000
1727576033.980,-45.898,-320.801,-84.961,-45.410,0.000
1727576033.984,-39.062,-317.871,-81.543,-49.805,0.000
1727576033.988,-72.754,-325.684,-73.242,-74.707,0.000
1727576033.992,-96.191,-312.012,-68.359,-64.453,0.000
1727576033.996,-75.195,-304.199,-61.035,-30.273,0.000
1727576034.000,-51.270,-318.359,-60.059,-44.922,0.000
1727576034.003,-29.297,-297.363,-64.941,-55.664,0.000
1727576034.007,-71.289,-296.387,-66.895,-65.918,0.000
1727576034.012,-93.262,-299.805,-47.363,-62.012,0.000
1727576034.015,-61.035,-273.926,-30.762,-20.508,0.000
1727576034.019,-38.086,-262.207,-29.785,-16.602,0.000
1727576034.023,-12.695,-256.836,-33.691,-34.668,0.000
1727576034.027,-46.387,-258.301,-46.875,-45.410,0.000
1727576034.031,-82.031,-241.211,-46.387,-47.852,0.000
1727576034.035,-51.758,-208.984,-29.297,-26.367,0.000
1727576034.039,-35.156,-215.332,-22.949,-24.902,0.000
1727576034.043,-22.461,-238.770,-34.668,-32.227,0.000
1727576034.047,-37.598,-240.723,-46.387,-42.480,0.000
1727576034.051,-74.707,-224.121,-39.551,-46.387,0.000
1727576034.055,-49.805,-202.148,-25.391,-5.371,0.000
1727576034.059,0.000,-216.797,-27.832,2.441,0.000
1727576034.062,0.000,-216.797,-38.574,-21.973,0.000
1727576034.066,0.000,-211.426,-47.852,-37.598,0.000
1727576034.070,0.000,-214.355,-42.480,-46.387,0.000
1727576034.074,0.000,-188.477,-24.414,-22.949,0.000
1727576034.078,0.000,-206.055,-18.555,-26.367,0.000
1727576034.082,0.000,-242.676,-21.484,-46.875,0.000
1727576034.086,0.000,-267.578,-34.668,-47.363,0.000
1727576034.090,0.000,-262.695,-43.457,-46.875,0.000
1727576034.094,0.000,-194.336,-32.715,-28.809,0.000
1727576034.098,0.000,-161.621,-42.480,-29.297,0.000
1727576034.101,0.000,-157.227,-49.316,-26.855,0.000
1727576034.105,-30.273,-144.531,-39.062,-28.809,0.000
1727576034.109,-52.734,-142.578,-32.715,-30.273,0.000
1727576034.113,-52.734,-132.324,-34.668,-21.973,0.000
1727576034.117,-50.781,-117.188,-42.969,-25.879,0.000
1727576034.121,-41.992,-103.516,-50.781,-35.156,0.000
1727576034.125,-26.367,-100.586,-51.270,-41.992,0.000
1727576034.129,-61.035,-120.605,-49.805,-47.852,0.000
1727576034.133,-60.059,-127.930,-40.527,-20.996,0.000
1727576034.137,-29.297,-106.934,-36.621,-20.508,0.000
1727576034.140,-13.672,-93.750,-39.062,-36.133,0.000
1727576034.144,-12.207,-89.844,-39.062,-38.086,0.000
1727576034.148,-46.387,-98.145,-41.016,-64.453,0.000
1727576034.152,-51.758,-99.121,-33.691,-60.059,0.000
1727576034.156,-37.109,-88.867,-20.020,-29.297,0.000
1727576034.160,-34.180,-95.703,-23.926,-18.555,0.000
1727576034.164,-25.879,-90.820,-34.180,-20.020,0.000
1727576034.168,-57.129,-87.402,-38.574,-62.012,0.000
1727576034.172,-67.383,-93.262,-34.180,-61.035,0.000
1727576034.175,-45.410,-84.473,-29.785,-27.832,0.000
1727576034.179,-26.367,-83.984,-33.203,-24.414,0.000
1727576034.183,-0.977,-67.383,-29.785,-20.020,0.000
1727576034.187,-32.227,-57.129,-29.785,-28.809,0.000
1727576034.191,-64.941,-61.523,-34.180,-46.387,0.000
1727576034.195,-30.762,-60.547,-26.855,-24.902,0.000
1727576034.199,-5.371,-70.312,-20.020,-4.395,0.000
1727576034.203,1.953,-59.082,-18.555,4.395,0.000
1727576034.206,-19.043,-53.711,-26.855,-16.113,0.000
1727576034.210,-43.945,-35.156,-27.344,-37.109,0.000
1727576034.214,-23.438,-14.648,-14.160,-15.137,0.000
1727576034.218,-14.160,-30.762,-19.531,-8.789,0.000
1727576034.222,9.766,-49.805,-34.180,-14.648,0.000
1727576034.226,-8.301,-62.012,-42.480,-39.062,0.000
1727576034.230,-60.547,-71.289,-35.645,-57.617,0.000
1727576034.234,-46.875,-69.824,-24.902,-27.344,0.000
1727576034.238,-25.879,-67.383,-33.691,-18.066,0.000
1727576034.242,-6.348,-59.082,-39.062,-33.203,0.000
1727576034.245,-7.324,-47.852,-34.668,-38.086,0.000
1727576034.249,-47.363,-48.340,-35.156,-46.875,0.000
1727576034.253,-45.410,-30.273,-29.297,-26.367,0.000
1727576034.257,-29.785,-23.926,-28.809,-16.113,0.000
1727576034.261,-5.371,-40.527,-36.133,-28.809,0.000
1727576034.265,-6.836,-62.500,-39.551,-27.832,0.000
1727576034.269,-62.012,-76.172,-43.457,-36.133,0.000
1727576034.273,-56.641,-52.246,-37.109,-26.367,0.000
1727576034.276,-32.227,-29.785,-37.109,-20.020,0.000
1727576034.280,-12.207,-35.156,-43.945,-31.250,0.000
1727576034.284,0.488,-39.062,-41.504,-41.016,0.000
1727576034.288,-62.500,-45.410,-38.086,-56.152,0.000
1727576034.293,-72.266,-54.688,-34.180,-36.133,0.000
1727576034.296,-22.461,-50.781,-34.180,-8.789,0.000
1727576034.300,-12.207,-51.758,-41.504,-32.227,0.000
1727576034.304,-20.508,-61.035,-48.340,-46.387,0.000
1727576034.308,-45.410,-72.754,-49.316,-48.828,0.000
1727576034.312,-41.992,-64.453,-42.969,-22.949,0.000
1727576034.316,-30.762,-52.734,-39.551,0.488,0.000
1727576034.320,-20.996,-45.898,-35.156,-14.648,0.000
1727576034.324,12.207,-44.922,-27.832,-16.113,0.000
1727576034.328,-12.207,-65.430,-34.180,-21.484,0.000
1727576034.332,-30.762,-48.828,-29.297,-21.973,0.000
1727576034.335,-6.348,-33.691,-22.461,-5.859,0.000
1727576034.340,-7.812,-48.828,-29.297,-14.160,0.000
1727576034.344,6.836,-54.199,-24.902,-16.113,0.000
1727576034.347,-6.348,-51.758,-22.461,-34.668,0.000
1727576034.351,-32.227,-44.434,-19.531,-32.227,0.000
1727576034.355,-20.508,-49.316,-15.137,2.441,0.000
1727576034.359,-0.977,-58.594,-20.996,6.348,0.000
1727576034.363,16.113,-49.316,-24.902,-6.836,0.000
1727576034.367,-27.344,-63.965,-33.691,-27.344,0.000
1727576034.371,-59.570,-64.453,-33.691,-30.273,0.000
1727576034.375,-28.809,-55.664,-34.180,-7.812,0.000
1727576034.379,-16.113,-56.641,-42.969,-17.090,0.000
1727576034.383,8.301,-67.383,-36.133,-15.625,0.000
1727576034.387,-12.207,-68.848,-26.855,-12.207,0.000
1727576034.391,-63.477,-46.875,-21.973,-29.297,0.000
1727576034.395,-53.711,-48.340,-20.996,-10.254,0.000
1727576034.398,-38.574,-62.012,-30.273,-4.395,0.000
1727576034.402,-18.555,-59.570,-35.645,-18.066,0.000
1727576034.406,-24.902,-64.941,-33.203,-31.738,0.000
1727576034.410,-62.500,-64.941,-29.785,-50.293,0.000
1727576034.414,-56.152,-59.082,-23.926,-28.320,0.000
1727576034.418,-28.809,-75.684,-27.344,-0.488,0.000
1727576034.422,-3.906,-84.961,-28.320,-19.531,0.000
1727576034.426,-14.648,-90.820,-32.227,-51.270,0.000
1727576034.430,-72.266,-94.727,-41.992,-59.082,0.000
1727576034.434,-79.102,-75.195,-35.645,-30.762,0.000
1727576034.438,-60.059,-63.965,-30.273,-17.090,0.000
1727576034.442,-42.480,-69.824,-34.668,-41.016,0.000
1727576034.445,-17.090,-76.172,-41.992,-48.340,0.000
1727576034.449,-41.504,-83.496,-41.992,-52.246,0.000
1727576034.453,-64.941,-76.660,-36.133,-30.273,0.000
1727576034.457,-62.988,-72.266,-36.133,-16.602,0.000
1727576034.461,-24.902,-90.820,-38.086,-28.320,0.000
1727576034.465,-2.930,-89.355,-36.621,-28.320,0.000
1727576034.469,-68.848,-85.938,-38.574,-48.828,0.000
1727576034.473,-86.426,-88.867,-45.410,-36.133,0.000
1727576034.477,-55.176,-90.820,-43.457,-12.207,0.000
1727576034.481,0.000,-83.496,-32.715,-19.043,0.000
1727576034.484,0.000,-66.406,-40.527,-39.551,0.000
1727576034.488,0.000,-73.242,-53.711,-65.430,0.000
1727576034.492,0.000,-57.129,-48.340,-39.551,0.000
1727576034.496,0.000,-34.668,-40.527,-13.184,0.000
1727576034.500,0.000,-50.781,-40.039,-28.809,0.000
1727576034.504,0.000,-57.617,-46.875,-38.086,0.000
1727576034.508,0.000,-61.035,-55.176,-58.105,0.000
1727576034.512,0.000,-47.363,-43.457,-50.781,0.000
1727576034.516,0.000,-36.133,-32.715,-19.043,0.000
1727576034.520,0.000,-33.691,-37.109,-17.578,0.000
1727576034.524,0.000,-39.062,-50.781,-37.598,0.000
1727576034.527,-61.523,-68.359,-59.082,-63.965,0.000
1727576034.531,-65.918,-47.852,-43.945,-53.223,0.000
1727576034.535,-40.527,-8.789,-33.203,-17.090,0.000
1727576034.539,-34.180,-19.531,-40.039,-20.020,0.000
1727576034.543,-4.395,-18.555,-41.504,-23.438,0.000
1727576034.547,-29.785,-17.578,-43.457,-32.227,0.000
1727576034.551,-84.961,-33.203,-50.781,-43.457,0.000
1727576034.555,-70.312,-41.992,-50.781,-16.113,0.000
1727576034.558,-44.922,-27.344,-45.898,-15.625,0.000
1727576034.562,-13.184,-34.668,-48.340,-27.344,0.000
1727576034.566,-31.738,-65.918,-60.059,-37.598,0.000
1727576034.570,-72.754,-69.824,-49.805,-42.480,0.000
1727576034.574,-57.129,-47.363,-33.691,-8.301,0.000
1727576034.578,-44.434,-39.551,-35.645,-10.254,0.000
1727576034.582,-20.508,-55.176,-40.527,-29.785,0.000
1727576034.586,-12.695,-59.570,-45.898,-40.039,0.000
1727576034.589,-61.523,-49.805,-42.969,-43.457,0.000
1727576034.593,-54.199,-44.434,-34.668,-13.672,0.000
1727576034.597,-25.879,-56.641,-41.016,-2.930,0.000
1727576034.601,-15.137,-51.758,-41.016,-25.879,0.000
1727576034.605,-20.508,-51.270,-43.457,-40.527,0.000
1727576034.609,-68.359,-73.730,-49.805,-48.828,0.000
1727576034.613,-56.641,-63.965,-42.969,-27.344,0.000
1727576034.617,-25.879,-55.664,-35.156,-8.301,0.000
1727576034.620,0.000,-58.105,-30.762,-13.184,0.000
1727576034.624,0.000,-54.688,-31.250,-25.879,0.000
1727576034.628,0.000,-56.641,-35.156,-36.621,0.000
1727576034.632,0.000,-46.387,-43.945,-20.020,0.000
1727576034.636,0.000,-45.410,-48.828,-21.973,0.000
1727576034.640,0.000,-53.711,-45.410,-31.738,0.000
1727576034.644,0.000,-62.012,-42.969,-27.832,0.000
1727576034.648,0.000,-60.547,-41.504,-46.387,0.000
1727576034.652,0.000,-51.270,-34.668,-32.227,0.000
1727576034.656,0.000,-54.688,-40.039,-7.812,0.000
1727576034.659,0.000,-50.781,-43.457,-30.273,0.000
1727576034.663,0.000,-46.387,-39.551,-50.781,0.000
1727576034.668,-47.852,-62.988,-40.527,-44.922,0.000
1727576034.672,-73.730,-55.176,-36.621,-32.227,0.000
1727576034.676,-40.527,-23.438,-41.992,-30.762,0.000
1727576034.679,-31.250,-11.719,-38.086,-43.457,0.000
1727576034.683,-27.832,-32.227,-27.832,-34.180,0.000
1727576034.687,-60.059,-64.453,-38.086,-46.387,0.000
1727576034.691,-74.219,-52.246,-34.668,-45.410,0.000
1727576034.695,-50.293,-28.809,-24.902,-13.672,0.000
1727576034.699,-45.898,-44.434,-33.203,-15.137,0.000
1727576034.703,-13.184,-72.266,-36.133,-17.578,0.000
1727576034.707,-32.715,-64.941,-31.738,-44.922,0.000
1727576034.711,-77.637,-40.039,-32.227,-56.641,0.000
1727576034.715,-42.480,-28.320,-33.691,-26.367,0.000
1727576034.719,-25.879,-37.109,-37.109,-30.273,0.000
1727576034.723,-15.137,-42.480,-33.691,-29.297,0.000
1727576034.727,-25.391,-48.340,-31.250,-23.438,0.000
1727576034.730,-63.965,-50.781,-31.738,-38.574,0.000
1727576034.734,-43.457,-42.969,-29.297,-21.973,0.000
1727576034.738,-20.996,-43.945,-30.762,-16.602,0.000
1727576034.742,-0.977,-41.016,-40.039,-27.832,0.000
1727576034.746,1.465,-45.410,-46.875,-27.344,0.000
1727576034.750,-40.039,-57.617,-43.457,-21.973,0.000
1727576034.754,-40.527,-41.016,-32.227,-9.277,0.000
1727576034.758,-17.578,-35.645,-37.109,-18.066,0.000
1727576034.762,0.488,-49.316,0.000,-32.227,0.000
1727576034.766,-11.719,-51.270,0.000,-39.062,0.000
1727576034.770,-48.828,-46.875,0.000,-44.434,0.000
1727576034.774,-39.551,-42.480,0.000,-10.742,0.000
1727576034.778,-10.742,-50.781,0.000,11.230,0.000
1727576034.781,15.137,-57.617,0.000,-7.812,0.000
1727576034.785,-3.906,-57.129,0.000,-29.785,0.000
1727576034.789,-37.598,-56.152,0.000,-40.039,0.000
1727576034.793,-28.809,-56.152,0.000,-4.883,0.000
1727576034.797,-23.926,-36.621,0.000,11.719,0.000
1727576034.801,-7.324,-41.504,0.000,-9.766,0.000
1727576034.805,-3.418,-67.871,0.000,-22.461,0.000
1727576034.809,-48.340,-69.824,-48.828,-46.387,0.000
1727576034.813,-51.758,-48.340,-45.898,-32.227,0.000
1727576034.817,-34.180,-49.805,-42.969,-17.578,0.000
1727576034.821,-17.090,-68.848,-41.504,-36.621,0.000
1727576034.824,8.789,-67.383,-33.203,-41.992,0.000
1727576034.828,-24.902,-66.406,-30.273,-37.598,0.000
1727576034.832,-54.199,-53.223,-27.832,-19.531,0.000
1727576034.836,-37.598,-55.664,-27.344,-18.066,0.000
1727576034.840,-22.949,-72.754,-41.016,-39.551,0.000
1727576034.844,-15.137,-60.059,-50.781,-54.688,0.000
1727576034.848,-34.668,-56.152,-43.945,-58.594,0.000
1727576034.852,-56.641,-63.965,-35.156,-36.621,0.000
1727576034.856,-54.199,-71.777,-35.645,-27.344,0.000
1727576034.860,-41.504,-73.730,-40.527,-51.270,0.000
1727576034.864,-15.625,-83.008,-46.387,-55.176,0.000
1727576034.867,-28.809,-99.609,-54.688,-65.430,0.000
1727576034.871,-48.340,-93.750,-48.828,-59.570,0.000
1727576034.875,-32.227,-86.426,-41.992,-34.668,0.000
1727576034.879,-21.484,-81.055,-42.969,-33.203,0.000
1727576034.883,-10.254,-81.055,-49.316,-21.484,0.000
1727576034.887,-23.926,-78.613,-51.758,-41.992,0.000
1727576034.891,-48.828,-64.453,-44.434,-41.016,0.000
1727576034.895,-37.109,-61.523,-38.086,-5.859,0.000
1727576034.899,-22.461,-67.383,-40.039,-26.367,0.000
1727576034.902,13.672,-53.711,-33.203,-39.062,0.000
1727576034.906,10.254,-55.176,-32.227,-40.527,0.000
1727576034.910,-44.922,-52.246,-38.574,-38.574,0.000
1727576034.914,-30.273,-27.344,-30.762,-15.625,0.000
1727576034.918,-0.977,-30.273,-32.227,-8.789,0.000
1727576034.922,10.742,-41.016,-46.875,-13.184,0.000
1727576034.926,-3.418,-46.387,-52.734,-34.180,0.000
1727576034.930,-41.992,-50.293,-46.387,-34.668,0.000
1727576034.934,-44.434,-31.738,-30.273,2.441,0.000
1727576034.938,-35.645,-37.109,-26.367,-9.277,0.000
1727576034.941,-16.113,-44.922,-26.855,-37.109,0.000
1727576034.945,-7.324,-53.711,-24.902,-33.691,0.000
1727576034.949,-55.176,-59.082,-21.973,-41.016,0.000
1727576034.953,-60.547,-49.805,-18.555,-23.926,0.000
1727576034.957,-27.832,-55.664,-30.762,-11.230,0.000
1727576034.961,-14.160,-62.012,-32.227,-23.926,0.000
1727576034.965,-13.672,-77.637,-20.996,-39.062,0.000
1727576034.969,-41.992,-83.008,-16.602,-42.969,0.000
1727576034.972,-32.715,-67.383,-20.508,-29.297,0.000
1727576034.976,-24.414,-56.641,-26.855,-23.438,0.000
1727576034.980,-12.207,-56.641,-32.227,-33.691,0.000
1727576034.984,-11.230,-76.172,-44.434,-46.875,0.000
1727576034.988,-67.383,-69.824,-49.805,-52.734,0.000
1727576034.992,-65.918,-54.688,-36.133,-29.785,0.000
1727576034.996,-38.574,-62.012,-38.086,-30.273,0.000
1727576034.999,-29.785,-51.758,-42.480,-47.852,0.000
1727576035.003,-23.926,-52.734,-44.922,-48.340,0.000
1727576035.007,-75.684,-71.289,-57.617,-62.500,0.000
1727576035.011,-85.449,-56.641,-51.758,-56.152,0.000
1727576035.015,-51.758,-51.758,-38.086,-28.809,0.000
1727576035.019,-35.645,-63.477,-38.086,-28.320,0.000
1727576035.023,-3.906,-51.758,-35.645,-36.133,0.000
1727576035.027,-29.785,-61.035,-40.039,-48.828,0.000
1727576035.031,-67.871,-62.500,-37.598,-41.992,0.000
1727576035.035,-45.410,-39.551,-32.227,-22.461,0.000
1727576035.039,-23.438,-30.273,-42.969,-29.785,0.000
1727576035.043,5.859,-40.527,-43.945,-20.996,0.000
1727576035.047,-5.371,-57.617,-45.898,-34.668,0.000
1727576035.051,-53.711,-48.340,-42.969,-34.668,0.000
1727576035.055,-41.016,-33.203,-32.227,3.906,0.000
1727576035.059,-14.160,-33.691,-27.344,-6.348,0.000
1727576035.062,2.441,-54.199,-37.598,-25.879,0.000
1727576035.066,-14.160,-62.500,-46.875,-35.645,0.000
1727576035.070,-40.039,-26.855,-24.902,-32.715,0.000
1727576035.074,-14.160,-30.273,-9.277,4.883,0.000
1727576035.078,-7.324,-42.480,-25.879,4.883,0.000
1727576035.082,-9.766,-16.113,-38.574,-27.832,0.000
1727576035.086,-20.020,-30.762,-43.945,-47.363,0.000
1727576035.090,-50.781,-44.922,-38.574,-47.852,0.000
1727576035.094,-45.410,-34.180,-32.227,-27.832,0.000
1727576035.098,-33.691,-33.691,-34.668,-25.391,0.000
1727576035.102,-16.113,-37.109,-30.762,-30.273,0.000
1727576035.106,-24.414,-48.828,-35.645,-43.457,0.000
1727576035.110,-63.965,-49.805,-32.715,-46.387,0.000
1727576035.113,-42.480,-44.434,-18.066,-14.648,0.000
1727576035.117,-21.484,-41.016,-22.461,-19.531,0.000
1727576035.121,-15.137,-42.969,-37.109,-30.273,0.000
1727576035.125,-7.324,-58.594,-43.945,-33.691,0.000
1727576035.129,-66.406,-54.199,-39.551,-57.617,0.000
1727576035.133,-63.477,-43.457,-27.832,-31.738,0.000
1727576035.137,-24.414,-42.480,-25.879,-1.953,0.000
1727576035.141,-13.184,-41.504,-35.645,-24.414,0.000
1727576035.145,-5.859,-44.434,-41.992,-41.016,0.000
1727576035.149,-52.246,-50.293,-46.875,-50.293,0.000
1727576035.153,-59.570,-44.434,-49.805,-36.133,0.000
1727576035.157,-23.926,-49.805,-52.734,-17.578,0.000
1727576035.161,-7.812,-48.828,-55.176,-28.320,0.000
1727576035.164,-5.371,-34.668,-64.453,-41.016,0.000
1727576035.168,-54.199,-48.340,-68.848,-51.270,0.000
1727576035.172,-65.918,-46.875,-52.246,-40.527,0.000
1727576035.176,-39.551,-39.062,-47.363,-24.902,0.000
1727576035.180,-23.926,-46.875,-48.828,-40.527,0.000
1727576035.184,0.000,-56.641,-48.828,-41.016,0.000
1727576035.188,0.000,-65.430,-50.781,-35.645,0.000
1727576035.192,0.000,-63.965,-45.898,-31.738,0.000
1727576035.196,0.000,-43.945,-39.062,-14.160,0.000
1727576035.200,0.000,-32.715,-38.086,-14.648,0.000
1727576035.204,0.000,-41.992,-39.062,-11.719,0.000
1727576035.207,0.000,-45.898,-39.551,-21.973,0.000
1727576035.211,0.000,-49.316,-35.645,-19.531,0.000
1727576035.215,0.000,-57.129,-35.645,1.953,0.000
1727576035.219,0.000,-47.363,-33.691,-12.207,0.000
1727576035.223,0.000,-51.758,-37.109,-21.973,0.000
1727576035.227,0.000,-67.383,-44.434,-48.828,0.000
1727576035.231,-64.941,-49.316,-37.109,-36.133,0.000
1727576035.235,-39.062,-40.039,-26.855,9.766,0.000
1727576035.239,-40.527,-56.641,-30.273,-12.695,0.000
1727576035.243,-26.367,-54.199,-40.039,-37.109,0.000
1727576035.246,-34.668,-44.434,-42.480,-48.828,0.000
1727576035.250,-68.848,-46.387,-32.715,-49.316,0.000
1727576035.254,-45.898,-38.086,-19.043,-26.855,0.000
1727576035.258,-15.625,-34.668,-22.461,-23.438,0.000
1727576035.262,7.324,-36.133,-32.715,-35.156,0.000
1727576035.266,-24.902,-46.875,-43.945,-45.410,0.000
1727576035.270,-75.195,-44.922,-53.223,-56.152,0.000
1727576035.274,-44.434,-26.367,-44.922,-31.250,0.000
1727576035.278,-28.320,-27.832,-40.527,-20.508,0.000
1727576035.281,-30.762,-34.668,-48.828,-37.598,0.000
1727576035.285,-34.180,-48.828,-49.805,-46.875,0.000
1727576035.289,-68.848,-54.199,-49.316,-67.871,0.000
1727576035.293,-53.711,-37.109,-42.969,-57.617,0.000
1727576035.297,-30.762,-27.344,-38.574,-40.527,0.000
1727576035.301,-7.324,-31.738,-42.969,-39.062,0.000
1727576035.305,-2.441,-62.500,-54.688,-52.734,0.000
1727576035.309,-49.316,-57.129,-47.363,-69.336,0.000
1727576035.313,-48.828,-22.461,-32.715,-40.039,0.000
1727576035.317,-36.621,-17.578,-38.086,-16.602,0.000
1727576035.321,-28.809,-24.902,-43.457,-21.973,0.000
1727576035.324,-29.297,-41.992,-43.945,-39.551,0.000
1727576035.328,-71.777,-53.223,-45.898,-51.270,0.000
1727576035.332,-73.242,-39.062,-39.551,-33.691,0.000
1727576035.336,-38.086,-16.602,-37.598,-19.043,0.000
1727576035.340,-8.301,-29.785,-46.387,-26.855,0.000
1727576035.344,-3.418,-44.434,-49.316,-23.438,0.000
1727576035.348,-56.152,-40.039,-40.527,-32.227,0.000
1727576035.352,-64.453,-28.809,-35.156,-28.809,0.000
1727576035.355,-31.738,-22.461,-28.320,-12.695,0.000
1727576035.359,-17.578,-40.039,-22.949,-19.043,0.000
1727576035.363,7.324,-37.109,-18.066,-18.555,0.000
1727576035.367,-23.926,-24.414,-20.508,-28.320,0.000
1727576035.371,-44.434,-9.277,-26.367,-23.438,0.000
1727576035.375,-9.766,-3.906,-32.227,0.000,0.000
1727576035.379,-0.977,-20.996,-38.574,-15.625,0.000
1727576035.382,-15.137,-34.668,-40.527,-33.203,0.000
1727576035.386,-51.270,-43.945,-38.086,-37.109,0.000
1727576035.390,-62.988,-48.828,-33.203,-25.391,0.000
1727576035.394,-38.574,-47.363,-33.691,-11.719,0.000
1727576035.398,-29.297,-36.621,-28.320,-18.066,0.000
1727576035.402,-5.859,-35.645,-24.902,-23.926,0.000
1727576035.406,-27.832,-42.969,-30.762,-49.316,0.000
1727576035.410,-60.547,-30.762,-37.598,-70.801,0.000
1727576035.414,-51.758,-25.391,-41.992,-46.387,0.000
1727576035.418,0.000,-38.086,-44.922,-53.223,0.000
1727576035.422,0.000,-40.527,-41.016,-53.711,0.000
1727576035.426,0.000,-40.039,-38.086,-53.223,0.000
1727576035.430,0.000,-34.668,-37.109,-62.012,0.000
1727576035.434,0.000,-34.668,-31.738,-30.762,0.000
1727576035.438,0.000,-49.316,-42.480,-25.879,0.000
1727576035.441,0.000,-43.457,-51.758,-36.621,0.000
1727576035.445,0.000,-27.344,-50.293,-54.688,0.000
1727576035.449,0.000,-30.762,-47.363,-57.617,0.000
1727576035.453,0.000,-37.598,-46.387,-21.973,0.000
1727576035.457,0.000,-27.832,-47.363,-18.066,0.000
1727576035.461,0.000,-37.109,-42.480,-22.949,0.000
1727576035.465,-33.203,-63.477,-44.922,-41.504,0.000
1727576035.469,-72.754,-54.199,-40.039,-60.059,0.000
1727576035.473,-43.457,-40.527,-30.273,-32.715,0.000
1727576035.477,-26.855,-33.691,-32.715,-20.020,0.000
1727576035.481,-24.902,-32.715,-34.180,-31.738,0.000
1727576035.485,-19.531,-50.293,-35.645,-31.738,0.000
1727576035.489,-63.477,-48.340,-34.668,-34.668,0.000
1727576035.492,-63.965,-23.926,-20.508,-21.484,0.000
1727576035.496,-21.973,-22.949,-20.020,-11.719,0.000
1727576035.500,10.254,-45.898,-35.156,-25.879,0.000
1727576035.504,3.906,-41.992,-39.062,-39.551,0.000
1727576035.508,-52.734,-45.898,-39.062,-53.711,0.000
1727576035.512,-53.223,-47.852,-32.227,-39.551,0.000
1727576035.516,-25.391,-37.598,-25.391,-21.973,0.000
1727576035.520,-24.414,-42.480,-33.691,-29.785,0.000
1727576035.524,-20.508,-47.852,-41.504,-40.039,0.000
1727576035.528,-55.176,-58.105,-38.574,-55.176,0.000
1727576035.532,-63.965,-50.293,-31.738,-38.086,0.000
1727576035.536,-33.203,-38.086,-28.320,1.465,0.000
1727576035.539,-9.277,-47.852,-36.133,-9.766,0.000
1727576035.543,4.395,-74.219,-39.551,-21.973,0.000
1727576035.547,-37.109,-70.801,-41.504,-40.039,0.000
1727576035.551,-59.570,-41.016,-41.016,-42.480,0.000
1727576035.555,-44.922,-39.062,-42.480,-11.230,0.000
1727576035.559,0.000,-45.410,-44.922,-20.020,0.000
1727576035.563,0.000,-49.316,-41.016,-33.203,0.000
1727576035.567,0.000,-55.176,-45.898,-41.016,0.000
1727576035.571,0.000,-43.945,-56.152,-39.551,0.000
1727576035.575,0.000,-38.086,-49.316,-15.625,0.000
1727576035.579,0.000,-39.551,-39.062,-25.391,0.000
1727576035.583,0.000,-42.969,-35.156,-33.203,0.000
1727576035.586,0.000,-50.781,-37.109,-39.551,0.000
1727576035.590,0.000,-53.711,-36.621,-28.320,0.000
1727576035.594,0.000,-28.809,-28.320,2.930,0.000
1727576035.598,0.000,-33.691,-36.621,-2.930,0.000
1727576035.602,0.000,-52.734,-38.086,-11.719,0.000
1727576035.604,-34.180,-43.945,-36.621,-20.996,0.000
1727576035.607,-4.395,-38.574,-45.410,-35.645,0.000
1727576035.611,-35.645,-49.316,-44.434,-22.461,0.000
1727576035.615,-79.102,-57.129,-42.480,-18.066,0.000
1727576035.619,-43.457,-39.062,-43.945,-27.832,0.000
1727576035.623,-22.949,-32.715,-49.316,-32.227,0.000
1727576035.627,-9.277,-35.645,-41.992,-37.109,0.000
1727576035.631,-28.320,-39.062,-32.227,-14.160,0.000
1727576035.635,-64.941,-38.086,-34.180,-8.789,0.000
1727576035.639,-45.410,-29.297,-34.668,-13.184,0.000
1727576035.643,-16.113,-40.527,-41.992,-17.578,0.000
1727576035.647,4.883,-47.852,-37.109,-15.625,0.000
1727576035.650,-41.992,-35.645,-26.855,5.859,0.000
1727576035.654,-20.508,-38.574,-33.203,-7.324,0.000
1727576035.658,-1.953,-42.969,-45.410,-27.832,0.000
1727576035.662,-8.789,-38.574,-43.945,-36.621,0.000
1727576035.666,-55.176,-43.457,-37.598,-50.781,0.000
1727576035.670,-45.898,-37.109,-38.086,-28.809,0.000
1727576035.674,-16.602,-35.645,-39.062,-9.277,0.000
1727576035.678,-1.465,-39.551,-34.180,-20.996,0.000
1727576035.682,-2.930,-33.691,-37.109,-33.691,0.000
1727576035.686,-42.969,-41.992,-44.922,-48.828,0.000
1727576035.689,-41.016,-49.805,-42.969,-24.414,0.000
1727576035.693,-7.812,-57.617,-41.992,0.488,0.000
1727576035.697,-5.859,-30.273,-40.039,-4.883,0.000
1727576035.701,-1.953,-18.555,-41.016,-17.578,0.000
1727576035.705,-45.898,-38.086,-47.852,-59.570,0.000
1727576035.709,-53.223,-33.203,-39.062,-48.828,0.000
1727576035.713,-24.902,-26.855,-34.668,-22.949,0.000
1727576035.717,-20.508,-31.250,-42.480,-31.738,0.000
1727576035.721,8.789,-38.086,-48.340,-33.691,0.000
1727576035.725,-30.273,-41.016,-50.781,-56.641,0.000
1727576035.728,-53.711,-27.832,-42.969,-45.410,0.000
1727576035.732,-35.156,-25.391,-39.062,-10.254,0.000
1727576035.736,-27.344,-36.133,-45.898,-22.461,0.000
1727576035.740,6.836,-36.621,-40.039,-25.391,0.000
1727576035.744,-18.555,-48.828,-39.062,-37.109,0.000
1727576035.748,-60.547,-52.246,-39.551,-38.086,0.000
1727576035.752,-41.992,-28.809,-35.156,-16.113,0.000
1727576035.755,-20.508,-19.043,-35.156,-18.066,0.000
1727576035.759,8.789,-24.902,-28.809,-17.090,0.000
1727576035.763,-7.812,-43.945,-27.344,-15.625,0.000
1727576035.767,-52.246,-50.293,-37.109,-26.367,0.000
1727576035.771,-38.086,-19.531,-25.391,-8.301,0.000
1727576035.775,-13.672,-20.996,-22.461,-6.348,0.000
1727576035.779,15.625,-38.574,-35.645,-26.367,0.000
1727576035.783,1.465,-35.645,-41.016,-37.109,0.000
1727576035.787,-49.805,-32.227,-35.156,-36.621,0.000
1727576035.791,-43.945,-35.645,-28.320,-13.184,0.000
1727576035.795,-21.484,-40.039,-37.598,-11.230,0.000
1727576035.799,2.441,-29.297,-41.992,-23.438,0.000
1727576035.803,-7.324,-36.133,-37.109,-32.715,0.000
1727576035.807,-52.734,-41.016,-41.992,-33.203,0.000
1727576035.811,-20.508,-33.691,-37.598,-20.020,0.000
1727576035.815,-11.230,-43.945,-35.645,-23.926,0.000
1727576035.818,-14.160,-31.738,-39.551,-27.832,0.000
1727576035.822,-11.719,-29.297,-41.016,-30.762,0.000
1727576035.826,-50.293,-47.852,-44.434,-34.668,0.000
1727576035.830,-38.086,-29.785,-33.203,-8.301,0.000
1727576035.834,-14.160,-25.391,-25.391,-3.906,0.000
1727576035.838,-1.465,-39.062,-36.133,-20.508,0.000
1727576035.842,1.953,-47.363,-44.434,-24.414,0.000
1727576035.846,-39.062,-44.434,-42.480,-46.875,0.000
1727576035.850,-47.363,-33.203,-39.062,-38.574,0.000
1727576035.854,-38.574,-39.062,-46.387,-17.090,0.000
1727576035.858,-24.902,-39.551,-55.664,-25.391,0.000
1727576035.862,4.883,-27.832,-46.387,-41.992,0.000
1727576035.866,-51.758,-34.180,-41.504,-46.875,0.000
1727576035.870,-72.754,-47.363,-41.504,-24.414,0.000
1727576035.874,-39.551,-52.246,-46.387,-6.348,0.000
1727576035.877,-26.367,-38.574,-41.504,-23.438,0.000
1727576035.881,-3.906,-35.645,-35.156,-25.879,0.000
1727576035.885,-35.156,-53.711,-47.852,-41.504,0.000
1727576035.889,-54.688,-37.598,-44.922,-41.504,0.000
1727576035.893,-39.062,-19.531,-33.691,-11.230,0.000
1727576035.897,-31.738,-20.996,-36.621,-17.578,0.000
1727576035.901,-11.230,-32.227,-41.992,-39.551,0.000
1727576035.905,-41.992,-43.457,-44.922,-65.430,0.000
1727576035.909,-64.453,-35.645,-41.504,-61.035,0.000
1727576035.913,-41.016,-28.320,-27.832,-26.367,0.000
1727576035.917,-30.273,-44.922,-31.738,-23.926,0.000
1727576035.921,-11.230,-42.480,-37.598,-31.738,0.000
1727576035.925,-25.879,-31.250,-35.645,-38.574,0.000
1727576035.928,-58.105,-42.480,-42.969,-37.598,0.000
1727576035.933,-59.570,-42.480,-45.898,-23.438,0.000
1727576035.936,-45.410,-35.645,-42.480,-25.879,0.000
1727576035.940,-17.578,-44.922,-43.457,-32.227,0.000
1727576035.944,-30.273,-60.059,-46.875,-39.551,0.000
1727576035.948,-53.711,-54.199,-51.270,-32.227,0.000
1727576035.952,-49.316,-48.340,-51.758,-15.137,0.000
1727576035.956,-40.039,-56.641,-38.574,-31.250,0.000
1727576035.960,-5.371,-53.223,-32.227,-36.621,0.000
1727576035.964,-12.695,-56.152,-42.969,-44.922,0.000
1727576035.968,-63.965,-44.922,-43.457,-51.270,0.000
1727576035.972,-47.363,-30.762,-38.574,-22.949,0.000
1727576035.975,-21.484,-40.527,-43.945,-24.414,0.000
1727576035.979,-7.812,-44.434,-59.570,-38.574,0.000
1727576035.983,-16.113,-51.270,-62.012,-48.340,0.000
1727576035.987,-54.688,-66.895,-49.316,-46.387,0.000
1727576035.991,-42.969,-63.477,-48.340,-27.832,0.000
1727576035.995,-11.719,-38.086,-51.758,-23.926,0.000
1727576035.999,-3.906,-30.762,-49.805,-27.832,0.000
1727576036.003,-19.043,-41.016,-47.852,-35.645,0.000
1727576036.007,-55.176,-44.922,-48.340,-41.016,0.000
1727576036.011,-53.711,-26.855,-40.527,-21.973,0.000
1727576036.015,-27.344,-11.230,-37.598,-16.602,0.000
1727576036.018,-5.371,-6.348,-35.156,-19.531,0.000
1727576036.022,-5.859,-15.625,-35.645,-25.391,0.000
1727576036.026,-49.805,-28.320,-35.645,-44.434,0.000
1727576036.030,-51.758,-22.949,-17.090,-19.531,0.000
1727576036.034,-13.184,-24.414,-13.184,1.953,0.000
1727576036.038,7.812,-28.809,-30.762,-27.344,0.000
1727576036.042,-9.277,-25.879,-34.668,-39.551,0.000
1727576036.046,-45.898,-26.367,-34.180,-51.270,0.000
1727576036.050,-55.176,-25.391,-29.297,-31.250,0.000
1727576036.054,-42.480,-35.156,-32.227,0.977,0.000
1727576036.057,-24.902,-28.809,-28.320,-15.137,0.000
1727576036.061,-2.930,-25.391,-28.809,-29.785,0.000
1727576036.065,-40.039,-49.805,-42.480,-47.363,0.000
1727576036.069,-66.895,-50.781,-35.645,-45.898,0.000
1727576036.073,-47.852,-43.457,-28.809,-21.973,0.000
1727576036.077,-26.367,-35.156,-33.691,-25.391,0.000
1727576036.081,12.695,-33.203,-38.574,-38.574,0.000
1727576036.085,-31.738,-45.410,-45.898,-66.895,0.000
1727576036.089,-76.172,-42.480,-47.363,-61.523,0.000
1727576036.092,-42.969,-43.945,-46.387,-32.227,0.000
1727576036.096,-19.531,-51.758,-48.828,-31.738,0.000
1727576036.100,5.371,-45.410,-50.293,-35.156,0.000
1727576036.104,-31.250,-41.504,-44.922,-36.621,0.000
1727576036.108,-67.383,-41.504,-36.133,-25.391,0.000
1727576036.112,-35.156,-39.062,-35.645,-18.555,0.000
1727576036.116,-26.855,-34.180,-35.645,-31.250,0.000
1727576036.120,-11.230,-23.926,-34.668,-26.367,0.000
1727576036.123,-29.785,-45.898,-42.480,-37.598,0.000
1727576036.127,-67.871,-55.664,-42.480,-45.410,0.000
1727576036.131,-52.246,-32.227,-37.109,-21.484,0.000
1727576036.135,-47.852,-31.738,-40.527,-14.160,0.000
1727576036.139,-13.184,-55.176,-38.574,-9.766,0.000
1727576036.143,-9.277,-72.266,-38.086,-19.043,0.000
1727576036.147,-53.223,-50.781,-37.598,-40.527,0.000
1727576036.151,-45.410,-31.250,-36.621,-18.066,0.000
1727576036.155,-25.879,-40.527,-41.016,-1.465,0.000
1727576036.159,2.930,-44.922,-44.434,-16.602,0.000
1727576036.162,-5.371,-46.875,-48.828,-32.227,0.000
1727576036.166,-56.152,-44.922,-46.387,-39.551,0.000
1727576036.170,-43.457,-37.109,-40.039,-23.926,0.000
1727576036.174,-28.320,-38.574,-43.945,-21.973,0.000
1727576036.178,-15.137,-47.363,-44.434,-24.902,0.000
1727576036.182,-13.184,-60.059,-49.316,-32.227,0.000
1727576036.186,-64.941,-65.430,-55.176,-50.781,0.000
1727576036.189,-64.453,-53.711,-43.457,-32.715,0.000
1727576036.193,-35.645,-41.992,-41.992,-13.184,0.000
1727576036.197,-17.578,-42.969,-49.805,-15.625,0.000
1727576036.201,-23.438,-55.176,-51.758,-26.367,0.000
1727576036.205,-68.359,-47.852,-43.457,-43.945,0.000
1727576036.209,-51.758,-36.621,-36.621,-35.156,0.000
1727576036.213,-31.250,-49.316,-35.645,-19.531,0.000
1727576036.217,-25.391,-53.223,-43.457,-32.715,0.000
1727576036.221,-5.859,-45.898,-48.340,-43.945,0.000
1727576036.225,-43.457,-42.969,-46.875,-58.594,0.000
1727576036.229,-57.129,-35.645,-40.527,-45.898,0.000
1727576036.233,-28.320,-24.414,-32.227,-24.414,0.000
1727576036.237,-5.371,-20.020,-30.762,-30.273,0.000
1727576036.241,13.184,-25.879,-37.109,-34.180,0.000
1727576036.245,-31.738,-50.781,-49.316,-31.738,0.000
1727576036.248,-63.965,-45.898,-42.480,-12.695,0.000
1727576036.252,-37.598,-26.855,-33.691,-2.930,0.000
1727576036.256,-12.695,-26.855,-41.992,-21.484,0.000
1727576036.260,1.953,-32.227,-41.992,-31.250,0.000
1727576036.264,-24.414,-37.109,-38.574,-38.086,0.000
1727576036.268,-60.547,-31.738,-37.598,-35.645,0.000
1727576036.272,-48.828,-13.672,-33.691,-16.113,0.000
1727576036.276,-30.273,-25.391,-34.180,-12.695,0.000
1727576036.280,-5.371,-33.203,-35.645,-27.832,0.000
1727576036.284,-34.668,-32.715,-43.457,-50.781,0.000
1727576036.288,-82.520,-38.086,-47.852,-47.852,0.000
1727576036.292,-57.129,-37.109,-43.945,-17.578,0.000
1727576036.296,-29.785,-28.809,-39.062,-20.020,0.000
1727576036.299,0.488,-17.090,-31.250,-25.879,0.000
1727576036.303,-20.996,-29.785,-37.109,-29.785,0.000
1727576036.307,-49.316,-37.109,-42.480,-43.945,0.000
1727576036.311,-31.250,-27.832,-37.598,-26.855,0.000
1727576036.315,-26.855,-32.227,-46.387,-31.250,0.000
1727576036.319,-6.836,-31.250,-44.922,-29.297,0.000
1727576036.323,-11.230,-43.457,-45.410,-37.598,0.000
1727576036.327,-59.570,-53.711,-48.828,-52.246,0.000
1727576036.331,-45.410,-24.902,-37.109,-35.156,0.000
1727576036.335,-20.020,-20.508,-36.133,-25.879,0.000
1727576036.339,-11.230,-38.086,-41.016,-20.020,0.000
1727576036.343,-8.301,-25.879,-31.738,-29.785,0.000
1727576036.346,-52.246,-23.438,-24.902,-48.340,0.000
1727576036.350,-64.941,-32.227,-25.879,-24.902,0.000
1727576036.354,-52.246,-39.551,-32.715,-18.555,0.000
1727576036.358,-30.273,-37.109,-38.574,-36.133,0.000
1727576036.362,-17.578,-39.062,-40.039,-39.551,0.000
1727576036.366,-55.176,-50.781,-45.410,-54.199,0.000
1727576036.370,-40.039,-38.086,-36.621,-37.598,0.000
1727576036.374,-10.742,-28.320,-24.902,-13.672,0.000
1727576036.378,0.488,-27.344,-27.344,-16.113,0.000
1727576036.382,-2.930,-34.668,-36.621,-18.066,0.000
1727576036.386,-52.734,-44.922,-35.156,-31.738,0.000
1727576036.389,-56.641,-40.039,-23.926,-22.461,0.000
1727576036.393,-29.785,-31.250,-24.902,-2.930,0.000
1727576036.397,-14.648,-38.086,-36.133,-13.184,0.000
1727576036.401,3.906,-41.992,-34.180,-24.902,0.000
1727576036.405,-40.527,-35.645,-33.691,-35.156,0.000
1727576036.409,-62.500,-31.250,-40.527,-35.645,0.000
1727576036.413,-34.668,-25.879,-40.039,-18.066,0.000
1727576036.417,-18.066,-18.555,-39.551,-21.484,0.000
1727576036.421,-0.977,-32.227,-39.062,-23.438,0.000
1727576036.425,-24.902,-48.340,-42.969,-30.273,0.000
1727576036.428,-28.320,-40.039,-38.574,-18.555,0.000
1727576036.432,-22.461,-16.602,-34.668,-3.906,0.000
1727576036.436,-20.996,-13.184,-37.598,-9.277,0.000
1727576036.440,-3.418,-27.344,-41.992,-18.066,0.000
1727576036.444,-34.668,-42.480,-46.387,-46.875,0.000
1727576036.448,-52.734,-31.738,-34.180,-50.781,0.000
1727576036.452,-35.156,-20.508,-26.367,-28.809,0.000
1727576036.456,-27.344,-38.574,-38.574,-28.320,0.000
1727576036.459,-8.301,-41.016,-41.504,-37.109,0.000
1727576036.463,-27.832,-42.969,-41.504,-49.316,0.000
1727576036.467,-66.895,-52.734,-43.945,-47.363,0.000
1727576036.471,-53.711,-54.199,-39.551,-14.648,0.000
1727576036.475,-33.203,-42.969,-29.297,-8.301,0.000
1727576036.479,3.418,-34.668,-30.762,-23.438,0.000
1727576036.483,-5.859,-58.594,-39.062,-34.180,0.000
1727576036.487,-54.688,-55.176,-36.133,-41.016,0.000
1727576036.491,-47.363,-28.320,-29.785,-24.902,0.000
1727576036.494,-34.668,-34.180,-32.227,-23.926,0.000
1727576036.498,-13.184,-48.828,-35.645,-33.691,0.000
1727576036.502,-19.531,-62.012,-38.086,-52.734,0.000
1727576036.506,-61.523,-61.035,-36.621,-59.570,0.000
1727576036.510,-46.875,-53.711,-31.738,-25.391,0.000
1727576036.514,-21.973,-52.246,-35.156,-13.672,0.000
1727576036.518,-7.324,-55.176,-39.551,-22.461,0.000
1727576036.522,5.371,-50.781,-40.039,-23.438,0.000
1727576036.526,-27.832,-46.387,-32.227,-38.086,0.000
1727576036.530,-42.969,-64.941,-39.062,-26.367,0.000
1727576036.533,-26.855,-61.035,-43.457,-13.672,0.000
1727576036.537,-7.812,-38.086,-35.645,-24.414,0.000
1727576036.541,0.000,-40.039,-41.992,-34.180,0.000
1727576036.545,0.000,-52.246,-48.828,-39.551,0.000
1727576036.549,0.000,-48.340,-39.062,-30.762,0.000
1727576036.553,0.000,-40.039,-32.715,-25.391,0.000
1727576036.557,0.000,-46.387,-34.668,-28.320,0.000
1727576036.560,0.000,-60.059,-35.645,-28.809,0.000
1727576036.564,0.000,-60.547,-40.527,-52.734,0.000
1727576036.568,0.000,-39.062,-40.527,-47.363,0.000
1727576036.572,0.000,-34.668,-38.086,-17.578,0.000
1727576036.576,0.000,-40.527,-40.527,-19.043,0.000
1727576036.580,0.000,-33.203,-38.574,-27.344,0.000
1727576036.584,0.000,-50.293,-40.527,-41.992,0.000
1727576036.588,-62.988,-52.246,-34.668,-27.832,0.000
1727576036.592,-30.762,-35.645,-23.438,1.953,0.000
1727576036.596,-24.902,-40.039,-31.250,-8.301,0.000
1727576036.600,-4.883,-42.480,-41.504,-23.926,0.000
1727576036.604,-35.156,-53.711,-48.828,-35.156,0.000
1727576036.608,-62.012,-58.105,-45.898,-21.484,0.000
1727576036.612,-28.320,-52.734,-31.738,6.348,0.000
1727576036.615,-4.395,-46.387,-29.297,-4.395,0.000
1727576036.619,0.977,-47.363,-40.039,-19.531,0.000
1727576036.623,-40.039,-70.312,-45.410,-36.133,0.000
1727576036.627,-67.383,-65.430,-37.109,-45.410,0.000
1727576036.631,-41.992,-47.852,-34.668,-28.320,0.000
1727576036.635,-18.555,-46.875,-37.109,-26.367,0.000
1727576036.639,5.859,-45.410,-34.180,-31.250,0.000
1727576036.643,-15.137,-58.594,-35.645,-45.898,0.000
1727576036.647,-64.453,-56.641,-40.039,-44.434,0.000
1727576036.651,-43.457,-51.758,-45.898,-25.879,0.000
1727576036.655,-9.766,-69.824,-43.945,-31.738,0.000
1727576036.659,-5.371,-58.105,-33.203,-29.297,0.000
1727576036.663,-19.043,-48.340,-41.504,-33.203,0.000
1727576036.667,-58.594,-69.336,-39.551,-40.039,0.000
1727576036.670,-46.387,-50.293,-23.438,-15.625,0.000
1727576036.674,-23.438,-38.086,-28.809,-13.184,0.000
1727576036.678,-3.418,-50.781,-29.297,-26.855,0.000
1727576036.682,-10.254,-52.246,-25.391,-28.809,0.000
1727576036.686,-58.594,-50.781,-30.273,-46.875,0.000
1727576036.690,-49.805,-48.828,-30.762,-34.668,0.000
1727576036.694,-28.320,-54.199,-34.668,-29.785,0.000
1727576036.698,-17.578,-57.129,-40.039,-36.133,0.000
1727576036.702,-11.230,-58.594,-40.527,-35.156,0.000
1727576036.706,-47.363,-58.594,-42.480,-49.316,0.000
1727576036.710,-62.012,-55.176,-43.457,-40.039,0.000
1727576036.714,-45.410,-54.199,-38.574,-23.926,0.000
1727576036.717,-12.207,-33.691,-29.297,-28.320,0.000
1727576036.721,10.254,-36.621,-34.668,-37.598,0.000
1727576036.725,-46.387,-50.781,-35.645,-44.922,0.000
1727576036.729,0.000,-33.691,-32.715,-30.762,0.000
1727576036.733,0.000,-27.832,-35.645,-16.602,0.000
1727576036.737,0.000,-27.832,-35.645,-29.785,0.000
1727576036.741,0.000,-32.715,-41.504,-37.109,0.000
1727576036.745,0.000,-44.434,-50.781,-37.109,0.000
1727576036.749,0.000,-48.828,-55.176,-37.598,0.000
1727576036.753,0.000,-41.992,-52.734,-28.809,0.000
1727576036.757,0.000,-27.832,-44.922,-25.879,0.000
1727576036.760,0.000,-24.902,-38.086,-28.320,0.000
1727576036.764,0.000,-30.762,-38.086,-39.062,0.000
1727576036.768,0.000,-23.926,-41.504,-41.504,0.000
1727576036.772,0.000,-16.602,-43.457,-27.832,0.000
1727576036.776,-29.297,-15.137,-41.504,-32.227,0.000
1727576036.780,1.953,-22.949,-37.598,-41.992,0.000
1727576036.784,-36.621,-39.062,-44.434,-52.246,0.000
1727576036.788,-74.219,-34.668,-45.898,-43.945,0.000
1727576036.792,-49.805,-24.902,-43.945,-12.207,0.000
1727576036.796,-34.668,-23.926,-44.434,-12.695,0.000
1727576036.799,-5.371,-29.297,-38.086,-19.043,0.000
1727576036.803,-28.320,-46.875,-43.457,-29.297,0.000
1727576036.807,-67.383,-28.809,-41.016,-49.316,0.000
1727576036.811,-48.828,-8.301,-34.180,-21.973,0.000
1727576036.815,-32.715,-24.414,-33.691,-12.207,0.000
1727576036.819,7.324,-18.555,-31.250,-29.785,0.000
1727576036.823,-10.742,-17.090,-41.016,-41.504,0.000
1727576036.827,-48.828,-34.180,-43.945,-45.410,0.000
1727576036.831,-26.367,-30.762,-37.109,-17.578,0.000
1727576036.834,-20.996,-20.996,-33.203,-6.836,0.000
1727576036.838,10.742,-9.766,-36.133,-17.090,0.000
1727576036.842,-6.348,-22.461,-47.852,-34.180,0.000
1727576036.846,-60.547,-45.898,-50.781,-39.062,0.000
1727576036.850,-38.086,-32.227,-46.387,-5.371,0.000
1727576036.854,-28.320,-26.367,-44.434,-16.113,0.000
1727576036.858,-12.695,-40.039,-42.480,-37.598,0.000
1727576036.862,-1.465,-39.551,-39.551,-32.715,0.000
1727576036.866,-54.199,-31.738,-34.668,-48.340,0.000
1727576036.869,-49.805,-27.344,-28.809,-36.133,0.000
1727576036.873,-28.809,-29.785,-33.203,-15.625,0.000
1727576036.877,-16.113,-34.668,-42.480,-25.391,0.000
1727576036.881,-16.113,-34.180,-48.340,-45.898,0.000
1727576036.885,-63.965,-45.410,-46.875,-60.547,0.000
1727576036.889,-61.035,-51.758,-44.922,-41.016,0.000
1727576036.893,-36.621,-46.875,-49.316,-7.812,0.000
1727576036.897,-19.531,-26.855,-45.898,-23.926,0.000
1727576036.901,-0.488,-27.832,-40.527,-42.969,0.000
1727576036.905,-36.133,-39.551,-41.016,-49.316,0.000
1727576036.908,-43.945,-27.832,-37.109,-23.438,0.000
1727576036.912,-36.133,-24.902,-41.016,-8.789,0.000
1727576036.917,0.000,-37.109,-45.410,-35.156,0.000
1727576036.921,0.000,-44.922,-41.992,-40.527,0.000
1727576036.925,0.000,-42.480,-40.039,-43.945,0.000
1727576036.928,0.000,-35.645,-36.621,-32.227,0.000
1727576036.932,0.000,-34.180,-36.133,-14.160,0.000
1727576036.936,0.000,-42.969,-39.062,-28.320,0.000
1727576036.940,0.000,-30.762,-37.598,-30.273,0.000
1727576036.944,0.000,-24.414,-38.574,-35.645,0.000
1727576036.948,0.000,-35.645,-35.156,-44.434,0.000
1727576036.952,0.000,-34.180,-29.785,-16.602,0.000
1727576036.956,0.000,-26.367,-34.668,-20.996,0.000
1727576036.960,0.000,-32.715,-41.016,-43.457,0.000
1727576036.964,-32.715,-50.293,-37.598,-55.176,0.000
1727576036.968,-67.871,-52.246,-36.133,-54.688,0.000
1727576036.972,-53.223,-43.457,-40.039,-32.227,0.000
1727576036.976,-34.668,-51.270,-43.457,-34.180,0.000
1727576036.980,-14.648,-54.688,-41.504,-31.250,0.000
1727576036.983,-28.320,-58.594,-42.480,-37.598,0.000
1727576036.987,-45.410,-48.340,-41.504,-42.969,0.000
1727576036.991,-49.805,-39.062,-43.457,-17.578,0.000
1727576036.995,-36.133,-53.711,-44.434,-4.883,0.000
1727576036.999,27.344,-47.363,-29.785,-3.906,0.000
1727576037.003,4.883,-35.156,-26.367,-20.996,0.000
1727576037.007,-68.359,-55.664,-34.668,-38.574,0.000
1727576037.011,0.000,-57.617,-37.598,-12.207,0.000
1727576037.015,0.000,-51.758,-31.738,-8.789,0.000
1727576037.019,0.000,-45.898,-33.691,-31.250,0.000
1727576037.023,0.000,-42.969,-43.945,-41.992,0.000
1727576037.027,0.000,-52.734,-40.039,-42.480,0.000
1727576037.031,0.000,-41.992,-31.738,-20.020,0.000
1727576037.034,0.000,-32.227,-29.297,-18.066,0.000
1727576037.038,0.000,-44.922,-35.156,-17.578,0.000
1727576037.042,0.000,-69.824,-48.340,-16.113,0.000
1727576037.046,0.000,-67.871,-42.480,-43.945,0.000
1727576037.050,0.000,-44.434,-36.621,-32.715,0.000
1727576037.054,0.000,-48.828,-42.480,-15.137,0.000
1727576037.058,-26.367,-55.176,-43.945,-29.297,0.000
1727576037.062,-15.625,-51.758,-46.875,-35.156,0.000
1727576037.066,-57.129,-51.758,-44.434,-33.691,0.000
1727576037.070,-59.570,-41.016,-40.527,-11.230,0.000
1727576037.074,-32.227,-35.156,-40.039,-3.418,0.000
1727576037.078,-12.207,-42.480,-37.109,-26.855,0.000
1727576037.081,3.906,-51.270,-47.852,-52.734,0.000
1727576037.085,-35.645,-62.988,-54.688,-65.430,0.000
1727576037.089,-48.828,-50.293,-41.016,-29.785,0.000
1727576037.093,-31.738,-20.508,-28.809,-17.578,0.000
1727576037.097,-29.785,-24.902,-34.180,-36.621,0.000
1727576037.101,-24.902,-45.410,-41.992,-45.410,0.000
1727576037.105,-60.059,-50.293,-38.574,-55.176,0.000
1727576037.109,-67.871,-43.457,-30.273,-30.762,0.000
1727576037.113,-35.156,-42.969,-35.645,-15.625,0.000
1727576037.117,-17.578,-43.457,-46.875,-43.945,0.000
1727576037.121,0.977,-46.387,-42.480,-41.992,0.000
1727576037.124,-28.809,-48.828,-37.109,-47.852,0.000
1727576037.128,-52.246,-45.410,-35.645,-36.621,0.000
1727576037.132,-26.367,-49.805,-31.738,-6.836,0.000
1727576037.136,-24.414,-42.969,-27.832,-24.902,0.000
1727576037.140,0.000,-43.457,-24.414,-35.645,0.000
1727576037.144,-18.066,-48.340,-25.391,-40.527,0.000
1727576037.148,-56.641,-38.086,-36.133,-41.016,0.000
1727576037.152,-32.715,-29.297,-45.898,-21.973,0.000
1727576037.156,-12.695,-34.668,-51.270,-19.531,0.000
1727576037.159,-1.953,-37.109,-47.363,-22.949,0.000
1727576037.163,-39.551,-40.527,-49.805,-43.457,0.000
1727576037.167,-73.730,-31.250,-52.734,-46.875,0.000
1727576037.171,-37.109,-23.926,-45.898,-27.344,0.000
1727576037.175,-27.344,-41.016,-41.992,-23.926,0.000
1727576037.179,0.977,-45.898,-31.738,-22.949,0.000
1727576037.183,-6.836,-29.785,-33.203,-41.504,0.000
1727576037.187,-70.801,-32.715,-51.758,-57.617,0.000
1727576037.191,-59.082,-32.715,-45.898,-31.250,0.000
1727576037.195,-36.621,-25.391,-38.574,-26.855,0.000
1727576037.198,-19.531,-26.367,-37.598,-34.180,0.000
1727576037.202,-19.043,-42.480,-42.480,-38.086,0.000
1727576037.206,-57.129,-50.293,-45.898,-40.527,0.000
1727576037.210,-52.246,-29.297,-32.715,-21.484,0.000
1727576037.214,-34.668,-29.785,-30.762,-16.113,0.000
1727576037.218,-5.859,-36.133,-34.668,-25.391,0.000
1727576037.222,-1.465,-37.109,-42.480,-47.363,0.000
1727576037.226,-48.340,-42.480,-40.527,-57.617,0.000
1727576037.230,-39.062,-35.645,-27.344,-20.508,0.000
1727576037.233,-2.930,-26.855,-30.273,-12.695,0.000
1727576037.237,-9.277,-16.113,-35.156,-30.762,0.000
1727576037.241,-20.020,-22.461,-35.156,-37.598,0.000
1727576037.245,0.000,-28.320,-41.016,-42.969,0.000
1727576037.249,0.000,-15.625,-39.062,-21.484,0.000
1727576037.253,0.000,-19.043,-33.691,-11.230,0.000
1727576037.257,0.000,-17.578,-34.668,-30.762,0.000
1727576037.261,0.000,-18.555,-38.086,-39.062,0.000
1727576037.264,0.000,-37.109,-47.852,-48.340,0.000
1727576037.268,0.000,-41.504,-51.758,-31.250,0.000
1727576037.272,0.000,-23.438,-47.363,-19.531,0.000
1727576037.276,0.000,-11.719,-41.504,-25.391,0.000
1727576037.280,0.000,-26.855,-41.504,-23.438,0.000
1727576037.284,0.000,-38.574,-42.480,-55.664,0.000
1727576037.288,0.000,-29.785,-35.156,-49.805,0.000
1727576037.291,-29.297,-25.879,-34.668,-27.344,0.000
1727576037.295,-14.648,-31.250,-35.156,-27.832,0.000
1727576037.299,-2.930,-33.203,-34.668,-30.762,0.000
1727576037.303,-41.016,-36.621,-41.016,-50.293,0.000
1727576037.307,-52.246,-31.738,-40.527,-42.480,0.000
1727576037.311,-10.742,-40.527,-38.086,-20.996,0.000
1727576037.315,-11.230,-48.340,-40.039,-22.461,0.000
1727576037.319,-2.441,-31.738,-35.156,-21.484,0.000
1727576037.323,-21.973,-38.086,-37.109,-43.945,0.000
1727576037.327,-62.012,-53.223,-46.387,-49.805,0.000
1727576037.331,-38.086,-37.109,-46.875,-28.320,0.000
1727576037.334,-13.184,-17.578,-38.086,-23.438,0.000
1727576037.339,-3.906,-24.902,-42.480,-18.555,0.000
1727576037.343,-30.762,-56.641,-48.340,-40.039,0.000
1727576037.346,-67.871,-56.152,-42.480,-54.199,0.000
1727576037.350,-56.152,-24.902,-38.574,-26.855,0.000
1727576037.354,-40.527,-28.809,-46.387,-25.879,0.000
1727576037.358,-11.230,-38.574,-49.316,-23.926,0.000
1727576037.362,-13.672,-25.879,-42.480,-28.320,0.000
1727576037.366,-53.711,-9.766,-35.156,-44.434,0.000
1727576037.370,-47.852,-12.207,-35.645,-22.949,0.000
1727576037.374,-32.715,-30.762,-43.945,-19.531,0.000
1727576037.378,-0.488,-30.762,-34.668,-33.691,0.000
1727576037.382,-8.789,-32.715,-34.668,-43.945,0.000
1727576037.386,-62.012,-47.363,-38.574,-36.621,0.000
1727576037.390,-35.156,-40.527,-32.715,-7.812,0.000
1727576037.394,-2.930,-24.902,-28.809,4.883,0.000
1727576037.397,11.230,-27.344,-32.227,-6.348,0.000
1727576037.401,5.371,-43.457,-44.434,-29.785,0.000
1727576037.405,-44.922,-52.734,-53.711,-38.574,0.000
