timestamps,TP9,AF7,AF8,TP10,Right AUX
1727576125.831,-25.879,-53.711,-38.574,-48.340,0.000
1727576125.835,-40.039,-54.199,-50.781,-60.059,0.000
1727576125.839,-64.941,-50.293,-50.781,-62.012,0.000
1727576125.843,-50.293,-34.668,-40.527,-34.668,0.000
1727576125.847,-45.410,-37.598,-45.410,-27.344,0.000
1727576125.850,-24.414,-41.016,-50.293,-29.785,0.000
1727576125.854,-21.973,-48.340,-55.664,-43.457,0.000
1727576125.858,-59.570,-61.523,-64.941,-55.176,0.000
1727576125.862,-48.340,-47.363,-54.199,-24.902,0.000
1727576125.866,-31.250,-33.203,-42.969,-21.484,0.000
1727576125.870,-14.160,-22.949,-45.410,-39.062,0.000
1727576125.874,-14.160,-36.133,-46.875,-47.852,0.000
1727576125.878,-50.293,-48.340,-41.992,-51.758,0.000
1727576125.882,-40.039,-30.273,-38.086,-20.508,0.000
1727576125.885,-25.391,-40.527,-44.434,-11.230,0.000
1727576125.889,-19.531,-53.711,-46.875,-26.855,0.000
1727576125.893,-12.695,-49.805,-41.992,-43.945,0.000
1727576125.897,-40.527,-55.664,-36.621,-59.570,0.000
1727576125.901,-36.621,-44.434,-26.855,-22.949,0.000
1727576125.905,-14.160,-40.527,-30.762,-3.418,0.000
1727576125.909,-5.859,-44.434,-39.062,-29.297,0.000
1727576125.913,-6.348,-57.129,-36.133,-42.969,0.000
1727576125.917,-41.504,-63.477,-37.109,-52.246,0.000
1727576125.921,-44.434,-48.340,-30.762,-24.414,0.000
1727576125.924,-24.902,-30.273,-16.602,-6.348,0.000
1727576125.928,-19.531,-31.250,-29.785,-24.414,0.000
1727576125.932,-4.395,-40.039,-37.109,-30.273,0.000
1727576125.936,-32.227,-64.941,-28.320,-39.551,0.000
1727576125.940,-57.129,-69.336,-24.414,-27.344,0.000
1727576125.944,-29.297,-42.480,-23.438,-3.906,0.000
1727576125.948,-13.184,-49.316,-35.156,-20.020,0.000
1727576125.952,-11.719,-62.988,-46.387,-33.691,0.000
1727576125.956,-40.039,-46.875,-50.293,-46.387,0.000
1727576125.960,-51.270,-53.711,-45.410,-36.621,0.000
1727576125.963,-28.809,-55.664,-47.852,-16.602,0.000
1727576125.967,-27.344,-50.293,-58.594,-36.621,0.000
1727576125.971,-2.930,-52.246,-45.898,-38.086,0.000
1727576125.975,-9.766,-69.824,-47.363,-41.992,0.000
1727576125.979,-50.781,-76.660,-58.594,-39.062,0.000
1727576125.983,-37.109,-48.340,-41.992,-2.441,0.000
1727576125.987,-25.391,-30.273,-35.645,-8.301,0.000
1727576125.990,-8.789,-51.758,-41.504,-30.273,0.000
1727576125.994,-15.625,-71.289,-43.945,-23.926,0.000
1727576125.998,-61.523,-55.176,-36.133,-36.133,0.000
1727576126.002,-52.246,-35.645,-20.020,-23.438,0.000
1727576126.006,-32.715,-38.086,-22.461,-16.602,0.000
1727576126.010,-35.645,-42.480,-30.762,-41.992,0.000
1727576126.014,-49.316,-43.945,-33.691,-46.387,0.000
1727576126.018,-83.496,-51.270,-36.621,-50.293,0.000
1727576126.022,-72.754,-41.504,-28.320,-30.273,0.000
1727576126.026,-50.781,-37.109,-22.949,-23.438,0.000
1727576126.030,-26.367,-73.242,-27.344,-30.762,0.000
1727576126.034,-5.371,-102.051,-33.691,-21.973,0.000
1727576126.038,-44.434,-83.008,-32.715,-30.273,0.000
1727576126.042,-55.176,-34.668,-38.574,-10.254,0.000
1727576126.046,-45.410,-1.953,-34.668,1.465,0.000
1727576126.050,-47.852,-10.254,-23.926,-33.691,0.000
1727576126.053,-48.828,-29.785,-27.832,-60.547,0.000
1727576126.057,-77.148,-51.270,-37.109,-62.500,0.000
1727576126.061,-72.754,-46.387,-34.180,-40.039,0.000
1727576126.065,-50.781,-34.668,-30.762,-23.926,0.000
1727576126.069,-34.668,-42.969,-27.832,-25.879,0.000
1727576126.073,-15.137,-45.898,-23.438,-22.461,0.000
1727576126.077,-35.156,-48.340,-25.879,-34.668,0.000
1727576126.081,-38.086,-41.016,-25.391,-20.996,0.000
1727576126.085,-19.043,-48.828,-31.250,9.766,0.000
1727576126.089,-16.113,-53.223,-38.574,-10.254,0.000
1727576126.093,4.883,-37.109,-35.156,-24.902,0.000
1727576126.097,-18.066,-55.664,-47.852,-40.527,0.000
1727576126.101,-51.270,-67.871,-55.176,-36.133,0.000
1727576126.105,-43.457,-41.504,-49.316,-22.949,0.000
1727576126.108,-39.062,-28.320,-58.594,-44.922,0.000
1727576126.113,-20.020,-33.203,-61.035,-54.688,0.000
1727576126.116,-38.086,-42.969,-54.688,-63.965,0.000
1727576126.120,-68.848,-46.875,-51.758,-62.012,0.000
1727576126.124,-45.898,-38.086,-40.527,-33.691,0.000
1727576126.128,-38.574,-36.133,-40.039,-37.598,0.000
1727576126.132,-31.738,-36.133,-41.016,-59.570,0.000
1727576126.136,-42.480,-42.480,-35.645,-68.359,0.000
1727576126.140,-75.195,-42.480,-37.598,-63.965,0.000
1727576126.144,-54.199,-34.180,-35.156,-28.809,0.000
1727576126.148,-29.297,-36.621,-31.250,-17.578,0.000
1727576126.152,-18.555,-23.926,-31.738,-36.621,0.000
1727576126.156,-25.879,-33.203,-41.504,-48.828,0.000
1727576126.160,-53.711,-40.039,-42.969,-49.316,0.000
1727576126.163,-46.387,-19.531,-30.273,-29.785,0.000
1727576126.167,-31.250,-19.043,-25.879,-30.762,0.000
1727576126.171,-18.555,-22.461,-30.273,-41.504,0.000
1727576126.175,-23.926,-31.738,-36.133,-52.246,0.000
1727576126.179,-55.176,-47.363,-38.574,-63.477,0.000
1727576126.183,-49.805,-38.574,-31.250,-40.527,0.000
1727576126.187,-43.945,-29.785,-38.086,-30.762,0.000
1727576126.191,-32.715,-51.270,-54.688,-38.086,0.000
1727576126.195,-17.578,-39.551,-44.434,-41.992,0.000
1727576126.199,-47.363,-26.855,-37.598,-43.945,0.000
1727576126.203,-44.922,-32.227,-37.598,-24.902,0.000
1727576126.206,-27.832,-30.762,-30.762,-17.090,0.000
1727576126.210,-22.949,-29.785,-27.832,-28.320,0.000
1727576126.214,-5.371,-27.832,-26.855,-29.785,0.000
1727576126.218,-40.039,-45.898,-30.762,-43.457,0.000
1727576126.222,-51.270,-44.922,-27.832,-27.832,0.000
1727576126.226,-23.438,-37.109,-24.902,-9.277,0.000
1727576126.230,-19.531,-37.109,-29.785,-36.133,0.000
1727576126.234,-16.602,-34.668,-32.715,-48.828,0.000
1727576126.238,-45.898,-46.387,-34.180,-57.617,0.000
1727576126.242,-63.965,-29.297,-32.715,-46.875,0.000
1727576126.245,-45.898,-17.090,-30.762,-15.625,0.000
1727576126.249,-44.434,-19.531,-31.738,-22.461,0.000
1727576126.253,-28.320,-15.137,-38.574,-49.316,0.000
1727576126.257,-39.551,-34.668,-48.340,-68.848,0.000
1727576126.261,-61.523,-33.691,-43.457,-66.406,0.000
1727576126.265,-38.574,-30.273,-36.133,-33.691,0.000
1727576126.269,-29.785,-68.359,-38.086,-32.227,0.000
1727576126.273,-22.461,-65.430,-50.781,-45.898,0.000
1727576126.277,-33.691,-37.598,-55.664,-49.805,0.000
1727576126.280,-64.941,-26.855,-46.875,-42.480,0.000
1727576126.284,-48.340,-10.742,-42.480,-24.414,0.000
1727576126.288,-21.484,-14.648,-42.480,-34.180,0.000
1727576126.292,-3.906,-26.367,-46.875,-36.621,0.000
1727576126.296,-18.555,-38.574,-52.246,-46.875,0.000
1727576126.300,0.000,-51.758,-51.270,-61.035,0.000
1727576126.304,0.000,-41.504,-43.945,-25.879,0.000
1727576126.308,0.000,-29.785,-39.062,-6.836,0.000
1727576126.311,0.000,-23.438,-42.480,-20.996,0.000
1727576126.315,0.000,-37.598,-44.922,-41.504,0.000
1727576126.319,0.000,-39.551,-38.086,-48.828,0.000
1727576126.323,0.000,-25.879,-30.273,-12.207,0.000
1727576126.327,0.000,-20.996,-34.180,10.742,0.000
1727576126.331,0.000,-19.531,-35.156,-10.254,0.000
1727576126.335,0.000,-44.434,-36.621,-39.551,0.000
1727576126.339,0.000,-45.898,-34.668,-48.828,0.000
1727576126.343,0.000,-10.742,-32.715,-20.020,0.000
1727576126.346,-25.391,-13.672,-31.250,-10.254,0.000
1727576126.350,-17.090,-30.762,-36.133,-37.109,0.000
1727576126.354,-10.742,-34.668,-38.574,-51.758,0.000
1727576126.358,-42.480,-35.156,-31.250,-56.641,0.000
1727576126.362,-51.758,-28.320,-34.668,-36.621,0.000
1727576126.366,-24.414,-27.832,-31.738,-12.695,0.000
1727576126.370,0.977,-41.992,-31.250,-10.742,0.000
1727576126.374,14.160,-35.156,-32.227,-19.531,0.000
1727576126.378,-19.531,-25.391,-33.691,-39.551,0.000
1727576126.381,-39.062,-17.090,-32.715,-22.461,0.000
1727576126.385,-19.043,-4.883,-30.273,-0.488,0.000
1727576126.389,-0.977,-10.742,-33.203,-14.648,0.000
1727576126.393,14.648,-21.484,-38.086,-27.832,0.000
1727576126.397,-8.789,-36.621,-47.363,-45.898,0.000
1727576126.401,-28.320,-30.273,-40.527,-46.875,0.000
1727576126.404,-8.789,-15.625,-27.344,-16.113,0.000
1727576126.408,-9.277,-25.879,-32.715,-23.438,0.000
1727576126.412,-3.418,-44.922,-45.410,-40.527,0.000
1727576126.416,-26.855,-57.129,-47.363,-46.387,0.000
1727576126.420,-59.570,-58.594,-40.039,-40.527,0.000
1727576126.424,-38.574,-50.293,-36.621,-13.184,0.000
1727576126.428,-22.461,-45.410,-41.992,-15.625,0.000
1727576126.432,-8.301,-48.828,-40.527,-30.273,0.000
1727576126.436,-29.785,-35.156,-44.922,-48.340,0.000
1727576126.440,-72.266,-28.809,-47.363,-53.711,0.000
1727576126.444,-67.383,-31.250,-37.109,-23.926,0.000
1727576126.448,-52.734,-32.715,-42.969,-23.926,0.000
1727576126.452,-22.461,-44.434,-51.758,-41.504,0.000
1727576126.456,-17.090,-54.199,-48.340,-44.922,0.000
1727576126.460,-55.176,-49.316,-42.480,-41.016,0.000
1727576126.463,-52.734,-26.855,-37.598,-15.137,0.000
1727576126.467,-37.109,-15.625,-34.180,-7.812,0.000
1727576126.471,-25.391,-33.203,-37.109,-30.273,0.000
1727576126.475,-17.090,-47.852,-42.969,-42.480,0.000
1727576126.479,-48.828,-37.109,-43.945,-49.805,0.000
1727576126.483,-43.457,-26.855,-40.039,-22.949,0.000
1727576126.487,-10.742,-30.273,-31.250,-1.465,0.000
1727576126.491,-1.465,-36.621,-26.855,-9.277,0.000
1727576126.495,1.465,-33.691,-22.949,-17.090,0.000
1727576126.499,-28.809,-36.133,-27.344,-27.344,0.000
1727576126.503,-34.668,-45.898,-33.203,-6.348,0.000
1727576126.507,-8.789,-49.805,-30.762,6.348,0.000
1727576126.511,11.230,-33.691,-26.855,-3.418,0.000
1727576126.514,10.742,-16.602,-21.973,-11.230,0.000
1727576126.518,-27.832,-49.316,-36.621,-33.691,0.000
1727576126.522,-48.828,-58.105,-47.363,-26.367,0.000
1727576126.526,-38.086,-7.324,-33.203,-12.695,0.000
1727576126.530,-25.879,-11.230,-29.297,-26.855,0.000
1727576126.534,0.000,-39.551,-38.574,-39.551,0.000
1727576126.538,0.000,-45.898,-35.645,-50.293,0.000
1727576126.542,0.000,-36.621,-27.344,-32.227,0.000
1727576126.546,0.000,-35.645,-24.414,-1.953,0.000
1727576126.550,0.000,-47.363,-34.180,-26.855,0.000
1727576126.554,0.000,-42.969,-36.621,-44.922,0.000
1727576126.558,0.000,-40.039,-30.273,-45.410,0.000
1727576126.561,0.000,-54.199,-39.551,-49.805,0.000
1727576126.565,0.000,-69.336,-50.781,-15.137,0.000
1727576126.569,0.000,-62.012,-52.734,-24.414,0.000
1727576126.573,0.000,-34.668,-51.270,-56.152,0.000
1727576126.577,0.000,-33.691,-59.082,-71.777,0.000
1727576126.581,-67.871,-39.551,-49.316,-66.895,0.000
1727576126.585,-52.246,-32.227,-32.227,-31.250,0.000
1727576126.589,-24.902,-26.855,-34.180,-20.020,0.000
1727576126.593,-6.348,-36.621,-40.527,-18.066,0.000
1727576126.597,-16.602,-47.852,-46.875,-35.156,0.000
1727576126.601,-55.664,-46.387,-44.922,-45.898,0.000
1727576126.604,-53.711,-31.738,-27.832,-20.020,0.000
1727576126.608,-39.062,-31.250,-35.156,-14.160,0.000
1727576126.612,-22.949,-41.992,-54.199,-10.254,0.000
1727576126.616,-25.391,-27.832,-40.527,-28.320,0.000
1727576126.620,-60.547,-23.926,-34.180,-52.734,0.000
1727576126.624,-49.805,-39.062,-31.738,-20.020,0.000
1727576126.628,-23.438,-42.969,-30.762,-12.695,0.000
1727576126.632,-10.254,-32.715,-34.180,-34.668,0.000
1727576126.636,-16.602,-24.902,-29.785,-33.691,0.000
1727576126.639,-62.500,-29.785,-27.344,-42.969,0.000
1727576126.643,-56.641,-24.414,-22.949,-17.090,0.000
1727576126.647,-34.180,-42.480,-37.109,-7.812,0.000
1727576126.651,-25.879,-50.293,-42.969,-26.367,0.000
1727576126.655,1.465,-62.012,-42.969,-20.020,0.000
1727576126.659,-27.344,-60.547,-38.086,-37.109,0.000
1727576126.663,-44.922,-12.695,-33.691,-26.367,0.000
1727576126.667,-21.973,13.184,-28.809,0.977,0.000
1727576126.671,5.859,-9.766,-8.789,2.441,0.000
1727576126.674,20.508,-67.383,-22.461,-8.301,0.000
1727576126.678,-32.715,-47.852,-52.734,-43.457,0.000
1727576126.682,-72.266,-8.789,-48.828,-54.688,0.000
1727576126.686,-53.711,-13.672,-37.109,-36.133,0.000
1727576126.690,-22.461,3.906,-37.598,-35.156,0.000
1727576126.694,9.766,-61.035,-37.598,-36.621,0.000
1727576126.698,-3.906,-126.953,-39.062,-14.160,0.000
1727576126.702,-16.602,-20.508,-18.066,14.648,0.000
1727576126.706,-0.977,-62.012,-51.270,21.484,0.000
1727576126.710,-0.488,-170.410,-122.070,12.695,0.000
1727576126.714,1.953,-30.762,-64.941,-0.488,0.000
1727576126.717,-2.441,-36.133,21.973,-3.418,0.000
1727576126.721,70.312,-260.742,9.277,103.516,0.000
1727576126.725,161.133,-183.105,-48.828,199.219,0.000
1727576126.729,83.008,-32.227,-30.273,107.422,0.000
1727576126.733,64.941,-97.656,0.488,69.824,0.000
1727576126.737,45.898,-169.434,45.410,24.902,0.000
1727576126.741,-26.855,-446.777,1.953,-34.180,0.000
1727576126.744,71.289,-387.695,-143.066,109.375,0.000
1727576126.748,104.004,-324.707,-70.312,124.512,0.000
1727576126.752,210.449,-191.406,6.836,194.824,0.000
1727576126.756,160.645,-51.270,-24.902,151.855,0.000
1727576126.760,-171.387,-213.379,26.855,-164.551,0.000
1727576126.764,-224.609,-235.352,22.461,-211.914,0.000
1727576126.767,-50.781,50.293,-9.766,-45.898,0.000
1727576126.771,-43.457,247.070,-93.750,-41.504,0.000
1727576126.775,-67.871,143.066,-28.809,-101.074,0.000
1727576126.779,-36.621,210.449,130.371,-58.594,0.000
1727576126.783,-13.184,586.426,200.684,-7.324,0.000
1727576126.787,21.973,701.660,84.473,-6.348,0.000
1727576126.791,-59.082,736.328,-32.715,-115.234,0.000
1727576126.795,-88.379,930.664,49.805,-160.645,0.000
1727576126.799,-26.855,975.586,123.047,-104.004,0.000
1727576126.803,-0.977,959.961,122.559,-62.012,0.000
1727576126.807,1.465,967.773,153.809,-62.500,0.000
1727576126.810,20.020,966.797,235.840,-78.125,0.000
1727576126.815,63.965,966.797,300.781,-66.406,0.000
1727576126.819,65.918,966.309,359.863,-58.594,0.000
1727576126.823,62.012,966.797,432.129,-30.762,0.000
1727576126.826,96.680,966.797,481.934,-0.977,0.000
1727576126.830,123.047,966.797,520.996,-4.395,0.000
1727576126.834,136.719,966.797,547.363,-11.719,0.000
1727576126.838,123.047,966.797,563.477,-11.719,0.000
1727576126.842,115.234,966.797,599.121,16.113,0.000
1727576126.846,142.090,966.797,618.652,41.016,0.000
1727576126.850,153.320,966.797,617.676,40.527,0.000
1727576126.854,168.945,966.309,619.141,32.715,0.000
1727576126.858,147.461,966.309,603.027,14.160,0.000
1727576126.862,103.516,966.309,566.895,7.812,0.000
1727576126.866,118.652,966.797,526.855,27.832,0.000
1727576126.870,120.117,966.797,480.469,29.297,0.000
1727576126.874,111.328,966.797,427.246,16.113,0.000
1727576126.877,81.055,966.797,371.094,-11.719,0.000
1727576126.881,39.551,966.797,327.637,-18.066,0.000
1727576126.885,41.504,966.309,290.039,16.602,0.000
1727576126.889,51.758,964.355,253.418,2.441,0.000
1727576126.893,62.988,968.750,216.797,-28.809,0.000
1727576126.897,41.992,914.551,166.016,-53.223,0.000
1727576126.901,-4.883,793.945,126.953,-61.523,0.000
1727576126.905,-6.836,693.359,93.750,-48.828,0.000
1727576126.909,0.000,583.496,52.734,-62.012,0.000
1727576126.913,-2.441,490.234,17.578,-80.566,0.000
1727576126.917,-16.602,388.184,-29.297,-91.797,0.000
1727576126.921,-56.641,263.672,-69.824,-99.121,0.000
1727576126.924,-63.965,170.410,-103.027,-75.195,0.000
1727576126.928,-56.641,80.078,-145.020,-67.871,0.000
1727576126.932,-56.152,1.465,-174.316,-93.750,0.000
1727576126.936,-46.875,-79.102,-204.590,-95.215,0.000
1727576126.940,-66.406,-190.918,-238.770,-90.820,0.000
1727576126.944,-88.867,-273.438,-257.812,-72.266,0.000
1727576126.948,-86.914,-348.633,-282.227,-64.453,0.000
1727576126.952,-74.707,-427.246,-292.969,-83.984,0.000
1727576126.956,-56.152,-477.539,-291.504,-88.379,0.000
1727576126.960,-83.984,-530.762,-291.992,-95.215,0.000
1727576126.964,-105.469,-570.801,-287.109,-89.355,0.000
1727576126.967,-80.078,-582.031,-279.297,-55.664,0.000
1727576126.971,-78.125,-602.051,-275.879,-54.199,0.000
1727576126.975,-87.891,-629.395,-271.973,-64.453,0.000
1727576126.979,-114.746,-638.184,-262.695,-72.754,0.000
1727576126.983,-125.977,-645.996,-259.766,-69.824,0.000
1727576126.987,-102.051,-707.520,-269.531,-47.363,0.000
1727576126.991,-95.703,-744.141,-262.207,-68.359,0.000
1727576126.995,-89.844,-716.797,-255.371,-93.262,0.000
1727576126.999,-110.840,-725.586,-261.230,-107.910,0.000
1727576127.002,-140.137,-739.746,-251.465,-105.957,0.000
1727576127.006,-123.535,-725.098,-237.305,-77.637,0.000
1727576127.010,-104.492,-714.844,-233.398,-78.125,0.000
1727576127.014,-92.773,-708.008,-239.746,-85.938,0.000
1727576127.018,-113.281,-732.910,-252.930,-103.516,0.000
1727576127.022,-145.020,-755.371,-259.766,-113.281,0.000
1727576127.026,-125.000,-734.375,-242.188,-80.566,0.000
1727576127.030,-104.492,-714.844,-229.004,-67.383,0.000
1727576127.034,-89.355,-680.176,-233.887,-75.195,0.000
1727576127.038,-84.473,-643.555,-229.980,-79.590,0.000
1727576127.042,-111.816,-637.207,-220.703,-85.938,0.000
1727576127.045,-106.934,-612.793,-211.914,-63.965,0.000
1727576127.049,-92.285,-604.492,-210.449,-65.918,0.000
1727576127.053,-85.938,-636.719,-204.590,-83.984,0.000
1727576127.057,-79.102,-645.020,-199.219,-87.402,0.000
1727576127.061,-112.793,-641.602,-199.219,-95.703,0.000
1727576127.065,-110.840,-639.648,-189.453,-75.684,0.000
1727576127.069,-90.820,-628.906,-184.082,-63.965,0.000
1727576127.073,-83.008,-612.305,-184.082,-75.195,0.000
1727576127.077,-73.730,-618.164,-175.781,-64.941,0.000
1727576127.080,-101.074,-598.633,-166.016,-66.895,0.000
1727576127.084,-97.168,-560.547,-155.273,-41.016,0.000
1727576127.088,-63.477,-533.203,-144.531,-9.277,0.000
1727576127.092,-39.551,-492.188,-128.906,-8.301,0.000
1727576127.096,-39.062,-468.262,-125.000,-13.672,0.000
1727576127.100,-83.496,-466.797,-134.277,-41.016,0.000
1727576127.104,-88.379,-434.082,-134.766,-39.551,0.000
1727576127.107,-63.965,-402.344,-126.465,-22.461,0.000
1727576127.111,-49.316,-410.645,-117.188,-35.645,0.000
1727576127.115,-21.973,-419.922,-125.488,-33.203,0.000
1727576127.119,-51.758,-420.898,-130.371,-44.434,0.000
1727576127.123,-79.590,-391.602,-105.957,-39.551,0.000
1727576127.127,-54.199,-371.582,-101.562,-11.230,0.000
1727576127.131,-42.480,-354.492,-110.352,-29.785,0.000
1727576127.135,-32.715,-317.383,-110.840,-50.781,0.000
1727576127.139,-56.641,-304.199,-112.305,-69.824,0.000
1727576127.142,-85.449,-284.668,-111.816,-62.988,0.000
1727576127.146,-56.641,-259.766,-105.469,-36.133,0.000
1727576127.150,-41.016,-244.141,-102.051,-41.016,0.000
1727576127.154,-48.340,-234.863,-111.328,-51.758,0.000
1727576127.158,-72.754,-246.582,-123.535,-74.707,0.000
1727576127.162,-104.980,-267.578,-124.023,-84.961,0.000
1727576127.166,-84.961,-244.141,-110.352,-46.875,0.000
1727576127.170,-63.477,-207.031,-101.074,-42.480,0.000
1727576127.173,-38.086,-194.824,-98.633,-56.641,0.000
1727576127.177,-40.039,-200.195,-100.586,-62.500,0.000
1727576127.181,-74.219,-195.312,-103.516,-71.777,0.000
1727576127.185,-58.105,-179.688,-96.191,-33.691,0.000
1727576127.190,-31.250,-192.383,-96.680,-15.137,0.000
1727576127.193,-12.207,-195.801,-96.680,-35.156,0.000
1727576127.197,-14.160,-178.223,-81.055,-41.992,0.000
1727576127.201,-51.758,-184.082,-76.172,-43.945,0.000
1727576127.205,-56.152,-188.477,-74.219,-21.973,0.000
1727576127.209,-42.969,-182.617,-73.730,-20.508,0.000
1727576127.213,-29.785,-183.105,-76.172,-38.574,0.000
1727576127.217,-31.738,-183.594,-70.801,-45.410,0.000
1727576127.221,-68.359,-172.363,-69.336,-55.176,0.000
1727576127.225,-70.801,-152.344,-66.406,-26.367,0.000
1727576127.229,-50.293,-129.883,-61.523,-8.789,0.000
1727576127.233,-41.992,-122.559,-63.965,-29.785,0.000
1727576127.237,-31.250,-121.582,-65.430,-36.621,0.000
1727576127.241,-43.945,-117.188,-63.965,-37.598,0.000
1727576127.245,-41.992,-104.980,-41.992,-4.883,0.000
1727576127.248,-36.133,-108.398,-40.039,8.301,0.000
1727576127.252,-28.320,-120.117,-50.293,-20.996,0.000
1727576127.256,0.000,-119.629,-47.363,-30.762,0.000
1727576127.260,-31.250,-145.020,-46.875,-44.922,0.000
1727576127.264,-57.129,-140.137,-43.945,-33.203,0.000
1727576127.268,-34.180,-95.215,-44.922,-3.418,0.000
1727576127.272,-11.719,-72.754,-45.898,-3.906,0.000
1727576127.276,6.836,-62.012,-56.152,-19.531,0.000
1727576127.280,-33.203,-63.477,-73.242,-50.293,0.000
1727576127.284,-60.059,-54.688,-70.312,-50.781,0.000
1727576127.288,-37.598,-41.992,-53.223,-20.020,0.000
1727576127.292,-29.785,-62.012,-59.570,-20.996,0.000
1727576127.295,-16.113,-105.957,-71.289,-38.574,0.000
1727576127.299,-37.109,-153.809,-69.824,-61.523,0.000
1727576127.303,-71.289,-175.293,-62.500,-58.105,0.000
1727576127.307,-58.105,-161.621,-55.176,-19.531,0.000
1727576127.311,-32.227,-175.781,-57.129,-24.414,0.000
1727576127.315,-6.836,-213.867,-65.430,-30.762,0.000
1727576127.319,-27.832,-217.773,-62.012,-46.875,0.000
1727576127.323,-65.918,-205.566,-62.012,-60.547,0.000
1727576127.327,-41.504,-217.773,-70.312,-16.113,0.000
1727576127.331,-23.438,-234.375,-64.941,0.000,0.000
1727576127.335,-12.207,-207.520,-70.801,-20.996,0.000
1727576127.338,-12.695,-193.359,-87.402,-38.086,0.000
1727576127.342,-55.176,-206.055,-78.125,-55.664,0.000
1727576127.346,-57.617,-196.289,-73.242,-36.621,0.000
1727576127.350,-38.574,-204.590,-79.102,-26.367,0.000
1727576127.354,-17.090,-208.496,-65.918,-41.992,0.000
1727576127.358,-3.906,-212.891,-59.082,-43.945,0.000
1727576127.362,-41.016,-223.145,-68.359,-45.898,0.000
1727576127.366,-48.340,-220.215,-70.312,-32.715,0.000
1727576127.370,-30.273,-224.121,-65.430,-19.531,0.000
1727576127.374,-9.766,-233.887,-61.523,-24.902,0.000
1727576127.377,-3.418,-237.793,0.000,-32.227,0.000
1727576127.381,-39.062,-225.098,0.000,-40.527,0.000
1727576127.385,-47.363,-194.824,0.000,-16.113,0.000
1727576127.389,-26.367,-165.527,0.000,6.836,0.000
1727576127.393,-18.555,-142.090,0.000,-13.672,0.000
1727576127.397,-1.953,-140.625,0.000,-26.367,0.000
1727576127.401,-14.160,-161.621,0.000,-36.133,0.000
1727576127.405,-17.090,-155.273,0.000,-15.625,0.000
1727576127.409,-15.625,-118.164,0.000,15.137,0.000
1727576127.413,-25.879,-106.445,0.000,3.418,0.000
1727576127.417,0.488,-107.422,0.000,-7.324,0.000
1727576127.420,-20.020,-111.328,0.000,-19.531,0.000
1727576127.424,-47.852,-121.094,-39.551,-15.137,0.000
1727576127.428,-30.762,-105.469,-41.504,7.812,0.000
1727576127.432,-24.902,-72.754,-34.668,-3.418,0.000
1727576127.436,-14.648,-75.684,-37.109,-20.508,0.000
1727576127.440,-25.879,-111.328,-43.945,-32.715,0.000
1727576127.444,-46.875,-115.723,-42.969,-22.949,0.000
1727576127.448,-29.785,-94.238,-41.504,5.371,0.000
1727576127.451,-25.391,-95.215,-51.758,2.930,0.000
1727576127.455,-8.789,-69.336,-46.387,-7.812,0.000
1727576127.459,-21.973,-68.359,-48.340,-33.691,0.000
1727576127.463,-59.570,-96.191,-54.688,-47.852,0.000
1727576127.467,-31.250,-86.426,-41.016,-21.973,0.000
1727576127.471,-16.113,-73.730,-43.945,-27.344,0.000
1727576127.475,-10.742,-76.660,-50.293,-43.945,0.000
1727576127.479,-18.555,-83.496,-46.875,-52.734,0.000
1727576127.482,-53.711,-83.008,-42.480,-54.199,0.000
1727576127.486,-42.969,-70.312,-36.133,-22.461,0.000
1727576127.490,-29.785,-71.777,-38.086,-16.602,0.000
1727576127.494,-19.531,-83.496,-42.480,-27.832,0.000
1727576127.498,-18.555,-74.707,-35.645,-38.574,0.000
1727576127.502,-51.270,-62.988,-27.344,-41.992,0.000
1727576127.506,-44.434,-57.617,-22.461,-12.695,0.000
1727576127.510,-27.832,-46.875,-27.832,-11.719,0.000
1727576127.514,-27.344,-50.781,-33.691,-38.574,0.000
1727576127.517,-29.785,-64.941,-41.992,-53.223,0.000
1727576127.521,-62.988,-69.336,-37.109,-53.711,0.000
1727576127.525,-53.711,-69.824,-22.949,-25.879,0.000
1727576127.529,-23.926,-77.637,-26.855,-18.066,0.000
1727576127.533,-20.020,-66.406,-27.344,-30.273,0.000
1727576127.537,-7.812,-65.918,-30.762,-31.250,0.000
1727576127.541,-41.504,-83.496,-37.598,-45.410,0.000
1727576127.545,-62.988,-65.918,-37.598,-31.738,0.000
1727576127.548,-32.227,-61.035,-36.133,-4.395,0.000
1727576127.552,-14.160,-74.707,-28.809,-27.832,0.000
1727576127.556,-2.441,-79.590,-28.320,-33.203,0.000
1727576127.560,-26.367,-74.707,-34.668,-34.668,0.000
1727576127.564,0.000,-59.082,-29.297,-22.461,0.000
1727576127.568,0.000,-66.895,-21.484,1.953,0.000
1727576127.572,0.000,-80.566,-23.926,-10.742,0.000
1727576127.576,0.000,-63.477,-29.785,-15.625,0.000
1727576127.580,0.000,-54.688,-32.227,-37.109,0.000
1727576127.584,0.000,-58.594,-34.180,-46.387,0.000
1727576127.588,0.000,-58.105,-30.762,-13.184,0.000
1727576127.592,0.000,-51.758,-31.250,-12.207,0.000
1727576127.596,0.000,-59.082,-40.039,-31.250,0.000
1727576127.600,0.000,-88.867,-45.898,-39.062,0.000
1727576127.604,0.000,-75.195,-33.203,-38.574,0.000
1727576127.607,0.000,-62.012,-34.180,-5.859,0.000
1727576127.612,-23.926,-68.848,-41.992,-4.883,0.000
1727576127.615,-16.113,-52.734,-33.203,-31.250,0.000
1727576127.619,-23.926,-54.688,-28.809,-47.363,0.000
1727576127.623,-70.312,-72.266,-33.691,-56.152,0.000
1727576127.627,-51.758,-69.824,-30.273,-28.320,0.000
1727576127.631,-23.926,-72.266,-30.273,-16.113,0.000
1727576127.635,-27.344,-78.613,-32.715,-36.621,0.000
1727576127.639,-35.156,-70.801,-31.738,-51.270,0.000
1727576127.643,-57.617,-67.383,-32.227,-45.410,0.000
1727576127.647,-54.199,-70.312,-28.809,-8.789,0.000
1727576127.651,-47.852,-56.152,-25.391,-8.789,0.000
1727576127.655,-35.645,-51.758,-30.762,-33.203,0.000
1727576127.659,-21.484,-67.383,-43.457,-38.086,0.000
1727576127.662,-49.316,-45.898,-37.598,-40.039,0.000
1727576127.666,-47.363,-15.137,-22.949,-13.672,0.000
1727576127.670,-15.625,-15.625,-15.137,8.301,0.000
1727576127.674,6.836,-19.531,-16.113,-10.254,0.000
1727576127.678,16.113,-24.902,-23.926,-22.461,0.000
1727576127.682,-16.602,-24.414,-27.832,-33.203,0.000
1727576127.686,-31.250,-23.438,-23.926,-20.020,0.000
1727576127.690,-17.090,-34.180,-27.344,6.348,0.000
1727576127.694,-16.113,-35.645,-32.227,-10.254,0.000
1727576127.698,0.000,-21.973,-27.832,-18.555,0.000
1727576127.702,-19.043,-33.691,-28.320,-36.133,0.000
1727576127.705,-39.551,-33.691,-30.273,-36.133,0.000
1727576127.709,-10.254,-9.277,-26.855,1.465,0.000
1727576127.713,4.395,-16.113,-29.785,-0.977,0.000
1727576127.717,11.719,-15.137,-41.016,-16.113,0.000
1727576127.721,-30.762,-0.488,-41.504,-41.504,0.000
1727576127.725,-67.383,-6.836,-42.969,-52.734,0.000
1727576127.729,-38.086,-7.324,-35.645,-21.973,0.000
1727576127.733,-23.438,-7.812,-24.414,-19.043,0.000
1727576127.737,-4.395,-26.855,-36.621,-38.574,0.000
1727576127.741,-21.973,-28.809,-45.410,-54.688,0.000
1727576127.744,-62.988,-27.832,-28.320,-46.875,0.000
1727576127.748,-54.199,-26.367,-27.344,-21.973,0.000
1727576127.752,-41.504,-21.973,-39.551,-22.461,0.000
1727576127.756,-23.926,-14.160,-42.969,-30.762,0.000
1727576127.760,-26.367,-20.020,-36.621,-38.086,0.000
1727576127.764,-58.105,-28.809,-31.250,-44.922,0.000
1727576127.768,-48.340,-24.414,-39.551,-22.949,0.000
1727576127.772,-31.250,-24.902,-42.969,-21.973,0.000
1727576127.776,-18.066,-13.672,-41.016,-31.250,0.000
1727576127.780,-20.996,-10.742,-43.457,-32.715,0.000
1727576127.783,-65.918,-7.812,-43.457,-49.316,0.000
1727576127.787,-70.312,3.418,-39.062,-30.273,0.000
1727576127.791,-47.852,3.418,-36.133,-29.297,0.000
1727576127.795,-22.949,-6.348,-38.574,-50.781,0.000
1727576127.799,0.000,-15.625,-41.504,-52.734,0.000
1727576127.803,0.000,-24.902,-45.898,-55.176,0.000
1727576127.807,0.000,-26.855,-35.156,-26.855,0.000
1727576127.811,0.000,-21.973,-20.508,0.000,0.000
1727576127.815,0.000,-20.508,-20.996,-3.906,0.000
1727576127.818,0.000,-32.715,-26.855,-19.043,0.000
1727576127.822,0.000,-33.203,-28.809,-34.180,0.000
1727576127.826,0.000,-21.973,-24.414,-25.391,0.000
1727576127.830,0.000,-7.324,-21.973,-9.277,0.000
1727576127.834,0.000,-11.230,-26.855,-17.090,0.000
1727576127.838,0.000,-24.902,-27.832,-28.809,0.000
1727576127.842,0.000,-31.738,-25.391,-46.875,0.000
1727576127.846,-35.645,-14.648,-17.578,-36.621,0.000
1727576127.849,-8.789,1.953,-16.113,0.000,0.000
1727576127.853,-7.324,-8.301,-23.438,-18.066,0.000
1727576127.857,-1.465,-21.973,-18.066,-45.898,0.000
1727576127.861,-23.926,-35.645,-17.090,-52.246,0.000
1727576127.865,-45.410,-33.691,-28.809,-35.156,0.000
1727576127.869,-31.250,-37.598,-35.156,-3.906,0.000
1727576127.873,-33.203,-41.016,-39.062,-15.625,0.000
1727576127.877,-13.184,-34.180,-43.945,-39.551,0.000
1727576127.881,-23.438,-51.758,-41.992,-57.129,0.000
1727576127.885,-66.406,-51.758,-38.574,-60.547,0.000
1727576127.889,-45.898,-28.320,-30.273,-22.949,0.000
1727576127.892,-19.043,-22.949,-31.738,-7.812,0.000
1727576127.896,-5.859,-30.273,-37.109,-24.414,0.000
1727576127.900,-13.672,-40.039,-37.109,-47.852,0.000
1727576127.904,-43.457,-25.391,-33.203,-54.199,0.000
1727576127.908,-49.316,-8.789,-29.297,-25.391,0.000
1727576127.912,-45.898,-28.809,-34.668,-14.160,0.000
1727576127.915,-21.973,-41.992,-38.086,-24.902,0.000
1727576127.919,-18.555,-35.645,-39.551,-43.945,0.000
1727576127.923,-55.664,-35.645,-42.969,-57.129,0.000
1727576127.927,-56.152,-34.668,-47.852,-31.250,0.000
1727576127.931,-41.504,-36.621,-46.875,-19.043,0.000
1727576127.935,-27.832,-38.086,-37.598,-26.367,0.000
1727576127.939,-14.160,-48.828,-35.156,-38.086,0.000
1727576127.943,-39.551,-72.754,-37.598,-52.734,0.000
1727576127.947,-36.133,-51.758,-35.156,-28.320,0.000
1727576127.951,-24.414,-26.855,-41.016,-11.230,0.000
1727576127.955,-9.766,-30.273,-39.062,-16.113,0.000
1727576127.959,-2.930,-45.410,-39.551,-30.762,0.000
1727576127.963,-42.480,-41.016,-43.457,-40.527,0.000
1727576127.967,-47.852,-22.949,-38.086,-18.066,0.000
1727576127.971,-14.648,-25.391,-39.062,-1.953,0.000
1727576127.974,7.812,-28.809,-38.574,-5.859,0.000
1727576127.978,0.977,-33.691,-34.668,-26.367,0.000
1727576127.982,-27.832,-48.340,-30.273,-49.805,0.000
1727576127.987,0.000,-30.762,-30.273,-30.762,0.000
1727576127.990,0.000,-12.207,-40.039,-18.555,0.000
1727576127.994,0.000,-14.160,-42.969,-38.574,0.000
1727576127.998,0.000,-25.391,-38.574,-37.109,0.000
1727576128.002,0.000,-41.504,-41.504,-43.457,0.000
1727576128.006,0.000,-33.691,-31.738,-32.227,0.000
1727576128.010,0.000,-28.809,-26.367,-3.418,0.000
1727576128.014,0.000,-43.945,-35.156,-25.879,0.000
1727576128.018,0.000,-54.199,-37.598,-46.875,0.000
1727576128.022,0.000,-71.289,-43.457,-42.969,0.000
1727576128.026,0.000,-55.176,-37.109,-25.391,0.000
1727576128.030,0.000,-47.363,-27.344,0.000,0.000
1727576128.034,-12.695,-62.500,-30.273,-7.324,0.000
1727576128.037,9.277,-62.012,-31.738,-21.973,0.000
1727576128.041,-3.906,-63.965,-35.156,-35.645,0.000
1727576128.045,-45.898,-67.871,-41.992,-41.992,0.000
1727576128.049,-38.086,-64.453,-41.992,-14.648,0.000
1727576128.053,-21.973,-70.312,-45.898,-12.207,0.000
1727576128.057,-11.230,-70.312,-47.363,-23.438,0.000
1727576128.061,-18.066,-74.707,-41.504,-36.133,0.000
1727576128.065,-58.594,-93.750,-43.457,-38.574,0.000
1727576128.069,-57.129,-81.055,-43.945,-20.996,0.000
1727576128.073,-36.621,-65.918,-41.992,-35.156,0.000
1727576128.077,-27.832,-82.031,-45.410,-54.199,0.000
1727576128.080,-24.414,-101.562,-46.387,-49.805,0.000
1727576128.084,-53.711,-90.332,-40.039,-49.805,0.000
1727576128.088,-44.922,-74.219,-35.645,-31.738,0.000
1727576128.092,-17.090,-79.590,-38.086,-19.531,0.000
1727576128.096,-20.996,-83.496,-32.227,-14.160,0.000
1727576128.100,-33.691,-89.355,-28.320,-27.832,0.000
1727576128.104,-78.613,-95.215,-31.738,-58.105,0.000
1727576128.108,-71.777,-88.379,-32.227,-34.668,0.000
1727576128.112,-36.621,-88.379,-33.203,-11.230,0.000
1727576128.116,-41.016,-72.266,-37.109,-25.879,0.000
1727576128.119,-31.250,-66.406,-42.969,-33.691,0.000
1727576128.123,-50.293,-71.777,-44.922,-46.875,0.000
1727576128.127,-59.082,-63.477,-43.457,-27.344,0.000
1727576128.131,-37.109,-58.105,-37.598,-3.906,0.000
1727576128.135,-23.926,-49.805,-35.645,-21.973,0.000
1727576128.139,-18.066,-68.359,-43.945,-44.922,0.000
1727576128.143,-45.410,-89.844,-40.527,-50.293,0.000
1727576128.147,-57.129,-65.430,-40.527,-32.715,0.000
1727576128.151,-39.062,-45.410,-44.434,-13.184,0.000
1727576128.155,-25.391,-59.082,-44.434,-14.648,0.000
1727576128.158,-13.184,-61.035,-44.922,-33.691,0.000
1727576128.162,-34.668,-59.082,-47.363,-56.152,0.000
1727576128.166,-62.012,-61.523,-42.480,-36.621,0.000
1727576128.170,-49.316,-60.059,-40.039,-10.742,0.000
1727576128.175,0.000,-70.312,-45.898,-19.531,0.000
1727576128.179,0.000,-72.754,-55.176,-27.832,0.000
1727576128.183,0.000,-72.266,-51.758,-42.969,0.000
1727576128.187,0.000,-74.219,-39.551,-41.016,0.000
1727576128.190,0.000,-64.453,-32.227,-2.441,0.000
1727576128.194,0.000,-73.730,-32.715,3.906,0.000
1727576128.198,0.000,-79.590,-29.785,-5.859,0.000
1727576128.202,0.000,-71.289,-20.996,-18.555,0.000
1727576128.206,0.000,-54.688,-23.926,-47.852,0.000
1727576128.210,0.000,-48.340,-31.250,-35.156,0.000
1727576128.214,0.000,-48.828,-29.785,-18.555,0.000
1727576128.218,0.000,-46.875,-24.902,-21.973,0.000
1727576128.221,-28.320,-61.035,-40.527,-39.062,0.000
1727576128.225,-68.848,-75.195,-47.852,-54.199,0.000
1727576128.229,-43.945,-66.406,-27.832,-20.020,0.000
1727576128.233,-29.785,-46.387,-15.137,-8.301,0.000
1727576128.237,-26.367,-43.457,-27.832,-29.297,0.000
1727576128.241,-8.789,-51.758,-30.273,-38.086,0.000
1727576128.245,-41.504,-62.988,-36.133,-56.152,0.000
1727576128.249,-55.176,-54.199,-40.039,-41.992,0.000
1727576128.253,-35.645,-41.504,-42.969,-23.926,0.000
1727576128.257,-19.043,-41.504,-47.363,-37.598,0.000
1727576128.260,-9.277,-61.523,-44.434,-38.086,0.000
1727576128.264,-38.086,-56.641,-44.922,-43.457,0.000
1727576128.268,-29.785,-28.809,-35.645,-16.602,0.000
1727576128.272,-3.906,-29.297,-27.344,9.766,0.000
1727576128.276,-4.883,-20.020,-31.738,-14.160,0.000
1727576128.280,-0.977,-10.742,-31.738,-24.414,0.000
1727576128.283,-31.738,-25.391,-30.273,-41.016,0.000
1727576128.287,-45.898,-39.551,-29.785,-27.344,0.000
1727576128.291,-19.043,-36.133,-23.926,6.836,0.000
1727576128.295,-7.324,-8.789,-24.902,-11.719,0.000
1727576128.299,-1.465,-9.277,-31.738,-24.414,0.000
1727576128.303,-29.297,-41.016,-37.598,-37.598,0.000
1727576128.307,-52.734,-26.855,-37.109,-39.551,0.000
1727576128.311,-41.504,-15.137,-36.133,-15.137,0.000
1727576128.315,-29.785,-25.391,0.000,-13.672,0.000
1727576128.319,0.977,-34.668,0.000,-20.508,0.000
1727576128.323,-15.137,-34.668,0.000,-44.434,0.000
1727576128.327,-56.152,-20.020,0.000,-53.711,0.000
1727576128.331,-29.785,-22.461,0.000,-23.926,0.000
1727576128.335,-16.602,-49.316,0.000,-21.484,0.000
1727576128.338,-18.066,-33.203,0.000,-36.621,0.000
1727576128.342,-27.832,-8.789,0.000,-56.641,0.000
1727576128.346,-50.293,-19.043,0.000,-56.152,0.000
1727576128.350,-31.250,-29.785,0.000,-13.184,0.000
1727576128.354,-20.020,-17.578,0.000,-13.672,0.000
1727576128.358,-7.812,-18.555,0.000,-31.250,0.000
1727576128.362,-10.742,-35.645,-56.152,-39.062,0.000
1727576128.366,-44.434,-25.879,-55.176,-47.852,0.000
1727576128.370,-25.879,-0.488,-42.969,-17.090,0.000
1727576128.374,-3.418,-5.371,-53.711,-8.789,0.000
1727576128.378,4.883,-17.578,-47.852,-13.672,0.000
1727576128.382,-4.395,-7.812,-32.227,-15.625,0.000
1727576128.386,-54.199,-3.418,-40.039,-41.504,0.000
1727576128.390,-57.129,5.371,-35.156,-27.344,0.000
1727576128.393,-31.250,6.348,-29.785,-12.207,0.000
1727576128.397,-24.414,-1.953,-33.691,-28.320,0.000
1727576128.401,-25.391,0.977,-34.668,-48.828,0.000
1727576128.405,-55.176,-12.207,-35.156,-61.523,0.000
1727576128.409,-50.781,-19.043,-22.461,-24.902,0.000
1727576128.413,-32.715,-6.348,-25.391,-16.602,0.000
1727576128.417,-20.508,-6.348,-33.203,-36.133,0.000
1727576128.421,-2.441,-18.066,-24.902,-25.391,0.000
1727576128.425,-42.969,-19.531,-33.203,-44.434,0.000
1727576128.429,-48.340,-9.277,-38.574,-36.133,0.000
1727576128.433,-27.344,-11.230,-37.109,-20.020,0.000
1727576128.437,-33.203,-21.484,-38.086,-35.645,0.000
1727576128.440,-14.648,-36.133,-37.109,-27.344,0.000
1727576128.444,-32.227,-55.176,-36.133,-40.527,0.000
1727576128.448,-46.387,-31.738,-27.344,-41.992,0.000
1727576128.452,-19.531,-0.977,-23.438,-2.930,0.000
1727576128.456,-13.672,-7.812,-24.902,-0.488,0.000
1727576128.460,-7.812,-15.625,-35.645,-26.367,0.000
1727576128.464,-31.250,-66.895,-52.246,-59.082,0.000
1727576128.468,-44.434,-70.801,-42.480,-44.922,0.000
1727576128.472,-24.414,3.906,-33.203,-4.883,0.000
1727576128.476,-14.160,14.648,-40.039,-12.695,0.000
1727576128.479,2.930,-13.184,-42.969,-28.809,0.000
1727576128.483,-20.996,-25.879,-48.828,-46.387,0.000
1727576128.487,-57.617,-15.137,-51.270,-45.410,0.000
1727576128.491,-33.203,19.043,-43.457,-14.648,0.000
1727576128.495,-17.090,7.812,-41.504,-21.973,0.000
1727576128.499,-15.625,-16.602,-42.480,-34.668,0.000
1727576128.503,-17.090,-27.344,-43.457,-45.898,0.000
1727576128.507,-45.898,-27.344,-42.969,-48.828,0.000
1727576128.511,-49.805,-19.043,-43.457,-21.973,0.000
1727576128.514,-27.832,-32.227,-53.223,-12.207,0.000
1727576128.518,-9.766,-43.457,-52.734,-30.273,0.000
1727576128.522,-14.160,-40.527,-43.945,-38.574,0.000
1727576128.526,-53.223,-22.461,-42.480,-36.133,0.000
1727576128.530,-51.758,-22.949,-34.668,-7.812,0.000
1727576128.534,-30.273,-23.926,-26.367,0.000,0.000
1727576128.538,-23.926,-30.762,-34.180,-27.832,0.000
1727576128.542,-22.949,-47.852,-33.203,-41.504,0.000
1727576128.546,-52.734,-58.105,-31.250,-45.898,0.000
1727576128.549,-62.500,-40.039,-32.715,-22.461,0.000
1727576128.553,-50.781,-33.203,-29.785,-6.348,0.000
1727576128.557,-29.785,-34.668,-31.250,-21.973,0.000
1727576128.561,-15.625,-36.133,-36.133,-41.992,0.000
1727576128.565,-42.480,-45.410,-45.410,-58.105,0.000
1727576128.569,-44.922,-33.203,-42.969,-40.039,0.000
1727576128.573,-34.180,-25.879,-44.922,-13.672,0.000
1727576128.577,-25.391,-29.785,-49.316,-24.414,0.000
1727576128.581,-15.137,-20.508,-38.574,-39.551,0.000
1727576128.585,-40.039,-31.250,-39.062,-45.898,0.000
1727576128.588,-41.504,-29.297,-39.551,-15.625,0.000
1727576128.592,-18.555,-13.184,-37.109,10.254,0.000
1727576128.596,-19.531,-37.109,-46.875,-20.508,0.000
1727576128.600,-14.648,-45.898,-49.316,-32.227,0.000
1727576128.604,-27.344,-39.551,-44.922,-33.691,0.000
1727576128.608,-38.086,-24.414,-42.969,-22.461,0.000
1727576128.612,-24.414,-8.789,-53.711,-9.766,0.000
1727576128.616,-13.672,-26.367,-58.105,-20.996,0.000
1727576128.619,11.230,-24.902,-48.340,-19.043,0.000
1727576128.623,-9.277,-12.695,-48.340,-39.062,0.000
1727576128.627,-45.898,-18.555,-53.223,-39.551,0.000
1727576128.631,-29.785,-24.414,-51.270,1.953,0.000
1727576128.635,-18.066,-28.320,-46.875,12.695,0.000
1727576128.639,0.488,-23.438,-37.598,-0.488,0.000
1727576128.642,-4.883,-33.691,-41.016,-38.086,0.000
1727576128.646,-50.781,-47.363,-37.109,-53.223,0.000
1727576128.650,-50.293,-40.527,-26.367,-17.090,0.000
1727576128.654,-37.598,-32.715,-32.227,-21.484,0.000
1727576128.658,-27.832,-29.297,-38.086,-35.156,0.000
1727576128.662,-30.273,-46.387,-41.016,-44.922,0.000
1727576128.666,-48.340,-47.852,-33.203,-53.223,0.000
1727576128.670,-37.109,-12.207,-16.113,-19.043,0.000
1727576128.674,-37.598,-7.324,-28.809,-11.719,0.000
1727576128.678,-37.598,-20.020,-46.387,-47.363,0.000
1727576128.682,-32.227,-22.461,-52.734,-75.684,0.000
1727576128.685,-62.988,-19.531,-52.246,-75.684,0.000
1727576128.690,-60.547,-27.344,0.000,-41.992,0.000
1727576128.694,-29.785,-49.316,0.000,-26.367,0.000
1727576128.698,2.930,-32.227,0.000,-27.832,0.000
1727576128.701,6.836,-12.695,0.000,-31.738,0.000
1727576128.705,-38.086,-15.137,0.000,-45.410,0.000
1727576128.709,-42.969,-7.812,0.000,-16.602,0.000
1727576128.713,-28.320,-3.906,0.000,0.000,0.000
1727576128.717,-22.949,-1.953,0.000,-18.066,0.000
1727576128.721,-8.301,-9.766,0.000,-32.715,0.000
1727576128.725,-36.621,-30.762,0.000,-42.480,0.000
1727576128.729,-47.363,-15.625,0.000,-26.855,0.000
1727576128.733,-23.926,3.418,0.000,-11.230,0.000
1727576128.738,-26.367,0.488,-45.898,-21.484,0.000
1727576128.742,-15.625,-6.348,-41.016,-28.809,0.000
1727576128.746,-36.621,-12.695,-50.781,-48.828,0.000
1727576128.749,-50.293,-9.766,-54.199,-31.738,0.000
1727576128.753,-15.137,-6.836,-40.039,3.418,0.000
1727576128.757,7.324,-10.742,-33.203,-17.578,0.000
1727576128.761,17.578,-13.184,-33.691,-30.273,0.000
1727576128.765,-7.324,-23.926,-40.527,-45.898,0.000
1727576128.769,-56.152,-34.180,-42.969,-47.852,0.000
1727576128.773,-55.176,-17.090,-38.574,-10.254,0.000
1727576128.777,-43.945,-4.883,-36.133,-12.207,0.000
1727576128.781,-16.602,-8.789,-41.016,-28.809,0.000
1727576128.785,-20.508,-13.184,-41.992,-40.039,0.000
1727576128.789,-55.664,-5.371,-37.598,-32.715,0.000
1727576128.792,-41.016,12.207,-38.574,-2.930,0.000
1727576128.796,-26.855,6.836,-42.969,-4.883,0.000
1727576128.800,-12.207,-20.020,-38.574,-14.160,0.000
1727576128.804,-14.648,-20.508,-35.645,-27.832,0.000
1727576128.808,-41.504,-4.883,-36.133,-40.039,0.000
1727576128.812,-29.785,-2.930,-33.203,-16.602,0.000
1727576128.816,2.930,-6.836,-37.109,-8.789,0.000
1727576128.820,16.602,-10.742,-39.551,-22.461,0.000
1727576128.824,-17.090,-15.137,-43.945,-40.039,0.000
1727576128.828,-60.059,-43.457,-48.340,-51.758,0.000
1727576128.831,-44.434,-55.664,-37.598,-10.254,0.000
1727576128.835,-33.203,-30.762,-40.039,2.441,0.000
1727576128.839,-28.320,-7.812,-42.969,-27.832,0.000
1727576128.843,-19.043,-6.348,-33.203,-34.180,0.000
1727576128.847,-52.246,-10.254,-30.762,-36.621,0.000
1727576128.851,-51.758,-16.113,-21.484,-18.555,0.000
1727576128.855,-37.109,-24.902,-16.602,-7.812,0.000
1727576128.859,-38.574,-37.109,-27.344,-34.668,0.000
1727576128.863,-28.320,-37.109,-27.344,-52.246,0.000
1727576128.867,-54.688,-20.996,-15.137,-61.035,0.000
1727576128.870,-64.941,-28.809,-18.066,-49.316,0.000
1727576128.874,-42.969,-36.621,-18.555,-32.715,0.000
1727576128.878,-32.715,-33.203,-17.578,-40.039,0.000
1727576128.882,-18.066,-31.250,-20.020,-42.969,0.000
1727576128.886,-43.945,-34.668,-20.996,-45.898,0.000
1727576128.890,-70.801,-38.086,-20.996,-41.992,0.000
1727576128.894,-47.852,-35.156,-18.066,-28.320,0.000
1727576128.898,-22.949,-35.645,-27.832,-38.574,0.000
1727576128.902,-0.488,-39.062,-28.809,-37.598,0.000
1727576128.906,-26.855,-49.805,-23.926,-35.156,0.000
1727576128.909,-59.082,-41.992,-25.879,-50.293,0.000
1727576128.913,-44.434,-29.785,-29.297,-40.039,0.000
1727576128.917,-44.922,-32.227,-31.738,-41.992,0.000
1727576128.921,-28.809,-37.598,-31.250,-44.434,0.000
1727576128.925,0.000,-46.387,-35.156,-47.852,0.000
1727576128.929,0.000,-52.734,-34.180,-47.852,0.000
1727576128.933,0.000,-44.922,-22.461,-11.230,0.000
1727576128.937,0.000,-30.273,-23.926,-8.301,0.000
1727576128.941,0.000,-26.367,-32.715,-24.414,0.000
1727576128.944,0.000,-35.645,-34.668,-44.434,0.000
1727576128.948,0.000,-54.199,-36.621,-57.617,0.000
1727576128.952,0.000,-53.223,-33.691,-14.160,0.000
1727576128.956,0.000,-20.020,-22.949,-3.418,0.000
1727576128.960,0.000,-23.926,-26.855,-28.809,0.000
1727576128.964,0.000,-42.480,-34.668,-39.551,0.000
1727576128.968,0.000,-46.875,-38.086,-43.457,0.000
1727576128.969,-27.344,-39.551,-40.527,-16.602,0.000
1727576128.973,-60.547,-35.645,-37.109,-3.418,0.000
1727576128.977,-49.805,-49.316,-31.250,-19.531,0.000
1727576128.981,-34.668,-47.852,-34.180,-36.621,0.000
1727576128.985,-23.438,-56.152,-42.480,-44.434,0.000
1727576128.989,-27.344,-47.363,-30.762,-14.160,0.000
1727576128.993,-58.105,-38.574,-28.809,-4.883,0.000
1727576128.996,-51.270,-40.039,-35.156,-36.133,0.000
1727576129.000,-41.504,-46.387,-38.574,-54.688,0.000
1727576129.004,-27.832,-51.270,-33.691,-71.289,0.000
1727576129.008,-23.926,-34.180,-24.414,-53.711,0.000
1727576129.012,-59.570,-21.973,-26.367,-23.438,0.000
1727576129.016,-16.602,-21.484,-28.809,-20.020,0.000
1727576129.020,-13.672,-31.738,-28.320,-28.320,0.000
1727576129.023,-40.039,-52.734,-29.785,-45.410,0.000
1727576129.027,-56.152,-49.805,-21.973,-21.484,0.000
1727576129.031,-34.180,-41.016,-22.461,3.906,0.000
1727576129.035,-19.531,-42.480,-25.879,-7.324,0.000
1727576129.039,-10.254,-34.668,-28.809,-28.809,0.000
1727576129.043,-35.156,-18.066,-31.738,-56.152,0.000
1727576129.047,-64.941,-11.230,-34.180,-53.223,0.000
1727576129.051,-42.480,-12.207,-33.691,-28.809,0.000
1727576129.055,-28.320,-18.066,-28.320,-27.832,0.000
1727576129.059,-12.695,-29.785,-26.855,-30.762,0.000
1727576129.063,0.000,-40.527,-33.691,-42.969,0.000
1727576129.067,0.000,-33.691,-32.715,-45.410,0.000
1727576129.071,0.000,-26.367,-29.297,-18.555,0.000
1727576129.075,0.000,-27.344,-29.785,-12.695,0.000
1727576129.079,0.000,-30.762,-27.344,-22.461,0.000
1727576129.083,0.000,-42.969,-33.203,-36.621,0.000
1727576129.086,0.000,-35.156,-33.691,-46.387,0.000
1727576129.090,0.000,-15.625,-25.391,-13.184,0.000
1727576129.094,0.000,-26.855,-35.156,-12.695,0.000
1727576129.098,0.000,-38.086,-49.805,-38.574,0.000
1727576129.102,0.000,-32.715,-43.457,-55.176,0.000
1727576129.106,0.000,-27.344,-30.273,-53.223,0.000
1727576129.108,-29.785,-20.508,-33.691,-18.555,0.000
1727576129.112,-55.176,-24.414,-33.691,-13.672,0.000
1727576129.116,-37.598,-29.785,-27.832,-27.832,0.000
1727576129.120,-25.391,-35.645,-31.738,-30.273,0.000
1727576129.124,0.000,-26.855,-36.133,-33.203,0.000
1727576129.127,-7.812,-9.766,-38.086,-23.438,0.000
1727576129.131,-50.293,-6.836,-39.551,-20.508,0.000
1727576129.135,-36.133,-13.184,-35.156,-28.320,0.000
1727576129.139,-20.996,-37.109,-36.133,-21.484,0.000
1727576129.143,-14.648,-53.711,-40.039,-30.273,0.000
1727576129.147,-24.414,-31.738,-30.762,-24.414,0.000
1727576129.151,-58.594,-19.043,-31.738,-12.207,0.000
1727576129.155,-21.973,-28.809,-41.992,-33.691,0.000
1727576129.159,-2.441,-23.926,-32.227,-46.387,0.000
1727576129.163,-34.668,-18.555,-33.203,-62.012,0.000
1727576129.167,-53.711,-18.066,-41.992,-45.410,0.000
1727576129.171,-32.227,-14.160,-31.738,-8.789,0.000
1727576129.175,-28.809,-16.113,-29.785,-22.461,0.000
1727576129.179,-11.230,-19.531,-32.227,-37.109,0.000
1727576129.182,-28.809,-28.320,-41.016,-52.246,0.000
1727576129.186,-51.758,-39.551,-45.898,-42.480,0.000
1727576129.190,-35.645,-28.320,-33.691,-9.766,0.000
1727576129.194,-30.762,-25.879,-34.668,-20.508,0.000
1727576129.198,-11.719,-32.227,-40.039,-31.250,0.000
1727576129.202,-27.344,-26.855,-42.969,-47.852,0.000
1727576129.206,-59.570,-17.578,-43.945,-45.410,0.000
1727576129.210,-42.480,-11.230,-34.668,-11.230,0.000
1727576129.214,-22.461,-20.020,-32.227,-13.672,0.000
1727576129.218,-3.906,-18.555,-33.691,-17.090,0.000
1727576129.222,-22.461,-22.461,-39.551,-19.531,0.000
1727576129.226,-44.922,-30.273,-46.875,-34.668,0.000
1727576129.230,-23.438,-32.227,-40.527,-23.926,0.000
1727576129.233,-21.973,-41.504,-42.969,-16.602,0.000
1727576129.237,-17.090,-30.762,-51.758,-31.738,0.000
1727576129.241,-29.785,-27.832,-57.129,-45.898,0.000
1727576129.245,-70.312,-36.133,-63.477,-51.758,0.000
1727576129.249,-52.734,-21.484,-48.828,-12.695,0.000
1727576129.253,-30.762,-15.625,-40.039,1.465,0.000
1727576129.257,-30.273,-33.203,-47.363,-18.066,0.000
1727576129.261,-30.762,-45.410,-49.316,-26.855,0.000
1727576129.265,-57.617,-43.945,-47.363,-50.781,0.000
1727576129.269,-48.828,-33.691,-41.504,-19.531,0.000
1727576129.273,-22.949,-26.855,-43.945,-5.371,0.000
1727576129.277,-7.812,-35.156,-50.293,-23.926,0.000
1727576129.280,-7.324,-38.574,-43.457,-20.508,0.000
1727576129.284,-42.480,-46.387,-45.898,-35.156,0.000
1727576129.288,-40.527,-42.480,-51.270,-19.043,0.000
1727576129.292,-26.855,-32.227,-50.781,-2.441,0.000
1727576129.296,-31.250,-32.715,-52.246,-22.461,0.000
1727576129.300,-24.414,-29.785,-45.898,-38.574,0.000
1727576129.304,-58.594,-41.992,-47.852,-63.477,0.000
1727576129.308,-68.359,-53.223,-43.945,-52.246,0.000
1727576129.312,-40.527,-55.664,-36.133,-20.020,0.000
1727576129.316,-25.879,-53.223,-30.273,-27.832,0.000
1727576129.320,-10.742,-43.945,-33.691,-32.715,0.000
1727576129.323,-37.598,-37.598,-50.293,-41.016,0.000
1727576129.327,-55.664,-10.254,-47.363,-36.621,0.000
1727576129.331,-31.250,-12.207,-43.945,-20.020,0.000
1727576129.335,-24.902,-31.250,-49.316,-28.320,0.000
1727576129.339,-14.160,-29.785,-52.734,-40.527,0.000
1727576129.343,-19.531,-32.715,-53.711,-58.105,0.000
1727576129.347,-39.062,-33.203,-46.875,-51.758,0.000
1727576129.351,-24.902,-33.203,-41.992,-13.184,0.000
1727576129.355,-24.902,-41.016,-47.363,-18.555,0.000
1727576129.358,-7.812,-31.738,-45.410,-29.297,0.000
1727576129.362,-15.137,-32.227,-47.363,-36.621,0.000
1727576129.366,-44.922,-38.086,-43.945,-30.762,0.000
1727576129.370,-23.438,-20.508,-27.344,-4.395,0.000
1727576129.374,-1.953,-13.672,-34.180,-21.973,0.000
1727576129.378,10.254,-25.391,-40.527,-28.320,0.000
1727576129.382,-8.301,-43.945,-40.527,-30.273,0.000
1727576129.386,-49.316,-41.016,-37.598,-43.457,0.000
1727576129.389,-41.992,-29.785,-33.203,-27.344,0.000
1727576129.393,-32.715,-38.086,-41.992,-22.461,0.000
1727576129.397,-14.648,-38.086,-41.504,-39.062,0.000
1727576129.401,-17.578,-37.598,-36.133,-53.223,0.000
1727576129.405,-57.617,-42.969,-34.180,-55.664,0.000
1727576129.409,-48.828,-40.527,-31.738,-20.020,0.000
1727576129.413,-25.879,-34.668,-27.344,6.348,0.000
1727576129.417,-9.277,-24.414,-27.832,-6.348,0.000
1727576129.421,-9.277,-31.250,-28.809,-23.926,0.000
1727576129.425,-51.758,-44.434,-33.203,-44.434,0.000
1727576129.429,-48.340,-32.715,-26.367,-23.438,0.000
1727576129.432,-25.391,-32.227,-17.578,1.465,0.000
1727576129.437,-10.742,-56.152,-26.367,-9.766,0.000
1727576129.441,4.883,-61.523,-38.574,-24.902,0.000
1727576129.445,-35.156,-53.711,-33.691,-43.457,0.000
1727576129.449,-52.734,-37.109,-27.344,-24.414,0.000
1727576129.452,-34.668,-28.320,-38.086,-5.859,0.000
1727576129.456,-20.508,-50.293,-41.992,-18.555,0.000
1727576129.460,-2.930,-38.574,-30.273,-25.879,0.000
1727576129.464,-38.086,-32.227,-33.691,-40.039,0.000
1727576129.468,-63.965,-47.852,-41.016,-34.180,0.000
1727576129.472,-36.621,-50.781,-37.109,-8.301,0.000
1727576129.476,-25.391,-42.969,-33.203,-26.855,0.000
1727576129.480,-8.789,-23.438,-31.250,-42.969,0.000
1727576129.484,-25.391,-30.273,-38.086,-43.945,0.000
1727576129.488,-44.434,-33.691,-36.133,-48.340,0.000
1727576129.492,-24.414,-22.949,-29.785,-29.297,0.000
1727576129.496,-22.949,-31.738,-36.621,-26.367,0.000
1727576129.500,-6.836,-42.480,-41.016,-42.969,0.000
1727576129.504,-19.043,-54.688,-37.109,-52.246,0.000
1727576129.508,-54.199,-48.340,-32.227,-50.781,0.000
1727576129.512,-41.016,-24.414,-31.738,-32.227,0.000
1727576129.515,-20.020,-26.855,-28.809,-22.461,0.000
1727576129.519,-6.348,-39.062,-28.320,-20.508,0.000
1727576129.523,-28.320,-43.945,-35.156,-41.992,0.000
1727576129.527,-67.871,-46.387,-39.062,-58.105,0.000
1727576129.531,-57.617,-35.156,-38.086,-30.762,0.000
1727576129.535,-41.016,-27.832,-36.133,-29.785,0.000
1727576129.539,-20.996,-33.203,-33.691,-47.852,0.000
1727576129.543,-19.043,-44.922,-36.621,-49.316,0.000
1727576129.547,-58.105,-54.199,-41.504,-47.852,0.000
1727576129.551,-43.945,-51.758,-36.133,-17.090,0.000
1727576129.555,-24.414,-48.828,-29.785,-8.301,0.000
1727576129.559,-21.973,-36.621,-33.203,-32.227,0.000
1727576129.563,-14.160,-53.223,-39.062,-32.227,0.000
1727576129.566,-46.875,-62.012,-36.133,-45.898,0.000
1727576129.570,-47.363,-31.738,-22.949,-24.414,0.000
1727576129.574,-29.297,-26.855,-18.066,0.488,0.000
1727576129.578,-14.160,-37.109,-20.996,-7.324,0.000
1727576129.582,0.000,-36.133,-23.438,-3.418,0.000
1727576129.586,-43.457,-43.945,-32.715,-41.992,0.000
1727576129.590,-48.828,-47.363,-38.086,-44.922,0.000
1727576129.594,-20.996,-47.363,-39.551,-8.789,0.000
1727576129.598,-18.066,-51.270,-42.969,-25.879,0.000
1727576129.602,-12.695,-54.688,-44.922,-35.156,0.000
1727576129.606,-42.969,-61.035,-45.898,-36.621,0.000
1727576129.610,-49.316,-56.152,-37.109,-16.113,0.000
1727576129.613,-24.902,-33.691,-28.809,1.465,0.000
1727576129.617,-20.996,-44.922,-41.016,-21.973,0.000
1727576129.621,-5.859,-60.059,-46.387,-36.133,0.000
1727576129.625,-31.250,-42.480,-46.387,-49.805,0.000
1727576129.629,-60.547,-32.715,-38.574,-41.016,0.000
1727576129.633,-37.109,-38.086,-31.738,-20.020,0.000
1727576129.637,-22.461,-40.527,-32.715,-22.461,0.000
1727576129.641,-4.883,-33.691,-27.832,-30.762,0.000
1727576129.645,-20.508,-38.574,-28.809,-39.551,0.000
1727576129.649,-45.898,-35.645,-26.855,-28.809,0.000
1727576129.653,-31.250,-36.133,-26.367,1.465,0.000
1727576129.657,-30.762,-30.762,-33.691,-11.719,0.000
1727576129.660,-15.137,-23.438,-24.414,-33.691,0.000
1727576129.664,-27.832,-35.645,-23.438,-49.316,0.000
1727576129.668,-59.570,-33.203,-25.879,-42.969,0.000
1727576129.672,-44.434,-21.973,-17.090,-19.531,0.000
1727576129.676,-25.879,-26.855,-22.949,-32.715,0.000
1727576129.680,-7.812,-20.508,-31.738,-39.551,0.000
1727576129.684,-17.578,-24.902,-35.156,-45.898,0.000
1727576129.688,-49.805,-37.598,-39.062,-53.711,0.000
1727576129.692,-33.691,-41.016,-41.016,-20.508,0.000
1727576129.696,-11.719,-44.922,-35.645,-8.789,0.000
1727576129.699,7.812,-37.109,-29.785,-21.973,0.000
1727576129.703,5.859,-13.672,-33.203,-38.086,0.000
1727576129.707,-35.645,-8.789,-33.203,-44.434,0.000
1727576129.711,-36.133,-10.254,-26.367,-14.648,0.000
1727576129.715,-19.531,-13.184,-27.344,-6.348,0.000
1727576129.719,-4.883,-18.555,-33.203,-19.043,0.000
1727576129.723,-1.465,-31.738,-40.039,-22.461,0.000
1727576129.727,-46.387,-45.410,-45.898,-31.250,0.000
1727576129.731,-50.781,-31.250,-46.387,-19.531,0.000
1727576129.734,-30.762,-31.738,-40.039,-15.137,0.000
1727576129.738,-21.973,-43.945,-37.598,-25.391,0.000
1727576129.742,-12.207,-50.293,-42.480,-26.367,0.000
1727576129.746,-34.180,-42.480,-42.969,-41.504,0.000
1727576129.750,-43.945,-25.391,-37.109,-22.461,0.000
1727576129.754,-34.180,-34.180,-38.086,0.488,0.000
1727576129.758,-18.066,-39.062,-42.969,-23.926,0.000
1727576129.762,1.465,-48.828,-43.945,-27.832,0.000
1727576129.765,-35.156,-61.523,-45.410,-35.645,0.000
1727576129.769,-60.547,-45.410,-43.945,-37.598,0.000
1727576129.773,-37.109,-34.180,-36.621,-11.719,0.000
1727576129.777,-23.438,-44.922,-35.645,-24.902,0.000
1727576129.781,-10.254,-56.641,-31.250,-41.504,0.000
1727576129.785,-32.227,-62.500,-29.297,-54.199,0.000
1727576129.789,-62.012,-60.059,-30.762,-50.781,0.000
1727576129.793,-44.434,-36.621,-29.297,-21.484,0.000
1727576129.797,-39.062,-41.504,-36.133,-20.020,0.000
1727576129.801,-26.855,-49.805,-39.062,-29.785,0.000
1727576129.804,-36.133,-40.527,-38.086,-41.504,0.000
1727576129.808,-61.035,-35.645,-32.227,-44.922,0.000
1727576129.813,-34.180,-29.297,-21.484,-14.160,0.000
1727576129.817,-18.066,-35.645,-13.672,0.000,0.000
1727576129.821,-4.395,-41.016,-17.578,2.441,0.000
1727576129.824,-12.207,-45.410,-28.809,-23.926,0.000
1727576129.828,-45.410,-43.945,-33.203,-41.016,0.000
1727576129.832,-27.832,-38.574,-38.574,-5.859,0.000
1727576129.836,-7.812,-42.969,-36.621,3.418,0.000
1727576129.840,6.348,-38.086,-33.691,-1.953,0.000
1727576129.844,7.324,-35.156,-38.574,-17.090,0.000
1727576129.848,-25.879,-42.969,-39.551,-32.715,0.000
1727576129.852,-17.578,-22.461,-33.691,-0.977,0.000
1727576129.856,-5.859,-20.020,-35.645,3.418,0.000
1727576129.860,0.000,-37.598,-40.527,-24.414,0.000
1727576129.864,0.000,-43.457,-46.387,-33.691,0.000
1727576129.868,0.000,-53.223,-45.898,-41.504,0.000
1727576129.872,0.000,-56.641,-40.527,-9.766,0.000
1727576129.876,0.000,-45.410,-43.457,10.254,0.000
1727576129.879,0.000,-36.621,-41.992,-15.137,0.000
1727576129.883,0.000,-35.156,-43.457,-34.180,0.000
1727576129.887,0.000,-46.387,-47.852,-54.199,0.000
1727576129.891,0.000,-59.082,-51.758,-42.480,0.000
1727576129.895,0.000,-54.199,-49.805,-18.555,0.000
1727576129.899,0.000,-38.086,-40.039,-34.180,0.000
1727576129.903,0.000,-34.180,-41.992,-47.363,0.000
1727576129.907,-55.176,-45.410,-48.828,-62.500,0.000
1727576129.911,-75.195,-38.574,-42.969,-56.641,0.000
1727576129.915,-46.875,-26.855,-42.480,-30.762,0.000
1727576129.919,-31.738,-38.086,-45.410,-45.898,0.000
1727576129.923,-14.160,-44.922,-46.875,-53.711,0.000
1727576129.927,-33.203,-45.898,-50.293,-62.500,0.000
1727576129.931,-57.129,-33.203,-44.922,-54.688,0.000
1727576129.934,-37.598,-24.414,-39.062,-16.602,0.000
1727576129.938,-11.230,-37.109,-42.969,-13.672,0.000
1727576129.942,20.020,-29.785,-36.133,-17.578,0.000
1727576129.946,-5.859,-24.414,-33.203,-20.020,0.000
1727576129.950,-36.133,-25.391,-33.203,-5.371,0.000
1727576129.954,-11.719,-18.555,-27.832,18.555,0.000
1727576129.958,-3.906,-22.949,-36.133,-5.859,0.000
1727576129.962,7.324,-17.090,-38.086,-22.461,0.000
1727576129.966,5.371,-12.695,-36.133,-17.090,0.000
1727576129.970,-27.832,-15.625,-29.785,-14.648,0.000
1727576129.974,-13.672,-16.113,-24.902,3.418,0.000
1727576129.977,-1.465,-23.438,-27.344,-2.441,0.000
1727576129.981,17.578,-32.715,-22.461,-5.859,0.000
1727576129.985,19.531,-41.504,-17.090,-8.301,0.000
1727576129.989,-37.109,-30.273,-18.066,-31.250,0.000
1727576129.993,-34.668,-16.602,-18.555,-14.648,0.000
1727576129.997,-19.043,-23.926,-22.461,-13.672,0.000
1727576130.001,0.000,-36.621,-29.785,-30.762,0.000
1727576130.005,0.000,-47.363,-31.250,-29.785,0.000
1727576130.009,0.000,-51.758,-33.203,-42.969,0.000
1727576130.013,0.000,-50.781,-34.668,-32.227,0.000
1727576130.017,0.000,-38.574,-34.180,-28.320,0.000
1727576130.020,0.000,-37.109,-33.691,-40.039,0.000
1727576130.024,0.000,-48.340,-41.992,-42.480,0.000
1727576130.028,0.000,-61.035,-45.410,-52.734,0.000
1727576130.032,0.000,-50.781,-30.273,-26.855,0.000
1727576130.036,0.000,-30.762,-30.762,-4.395,0.000
1727576130.040,0.000,-34.668,-45.410,-12.207,0.000
1727576130.044,0.000,-42.969,-48.828,-20.020,0.000
1727576130.048,-41.016,-50.781,-42.969,-56.152,0.000
1727576130.052,-58.594,-43.457,-43.457,-65.430,0.000
1727576130.056,-31.250,-28.809,-47.852,-30.762,0.000
1727576130.059,-17.090,-20.996,-54.199,-35.645,0.000
1727576130.063,0.977,-20.508,-51.758,-44.434,0.000
1727576130.067,-17.578,-34.180,-50.293,-49.805,0.000
1727576130.071,-36.621,-36.133,-57.617,-46.387,0.000
1727576130.075,-25.391,-35.645,-59.082,-14.648,0.000
1727576130.079,-23.926,-22.461,-49.316,-23.438,0.000
1727576130.083,-10.254,-17.578,-43.945,-45.898,0.000
1727576130.087,-32.227,-41.992,-45.898,-58.105,0.000
1727576130.091,-53.711,-34.668,-46.387,-54.688,0.000
1727576130.094,-29.297,-15.625,-44.922,-18.555,0.000
1727576130.098,-12.207,-29.785,-49.805,-16.602,0.000
1727576130.102,-3.418,-37.598,-50.781,-32.715,0.000
1727576130.106,-27.832,-38.086,-36.133,-42.969,0.000
1727576130.110,-64.453,-30.273,-33.203,-45.410,0.000
1727576130.114,-46.875,-32.227,-34.180,-11.719,0.000
1727576130.118,-27.832,-43.945,-28.809,3.418,0.000
1727576130.122,-19.531,-25.879,-28.809,-19.043,0.000
1727576130.126,-30.762,-35.156,-35.645,-48.828,0.000
1727576130.130,-57.129,-48.828,-33.203,-51.270,0.000
1727576130.133,-41.016,-25.879,-28.320,-18.555,0.000
1727576130.137,-32.227,-34.180,-35.645,-25.391,0.000
1727576130.141,-12.207,-51.270,-40.527,-41.504,0.000
1727576130.145,-0.977,-48.828,-44.434,-50.293,0.000
1727576130.149,-49.805,-43.945,-51.758,-67.383,0.000
1727576130.153,-56.641,-30.762,-39.062,-39.062,0.000
1727576130.157,-34.668,-33.203,-32.715,-21.484,0.000
1727576130.160,-18.066,-41.504,-38.086,-25.879,0.000
1727576130.164,-17.090,-46.875,-37.109,-28.809,0.000
1727576130.168,-62.988,-43.457,-40.039,-62.012,0.000
1727576130.172,-74.219,-41.504,-44.434,-44.922,0.000
1727576130.176,-57.129,-48.828,-42.969,-18.555,0.000
1727576130.180,-45.410,-47.363,-41.992,-36.133,0.000
1727576130.184,-33.691,-50.781,-43.457,-54.688,0.000
1727576130.189,-61.035,-62.500,0.000,-66.895,0.000
1727576130.193,-63.965,-46.875,0.000,-41.016,0.000
1727576130.197,-54.199,-39.062,0.000,-16.602,0.000
1727576130.201,-54.688,-43.945,0.000,-48.340,0.000
1727576130.205,-34.668,-28.320,0.000,-59.570,0.000
1727576130.209,-55.664,-31.250,0.000,-72.266,0.000
1727576130.213,-74.219,-30.762,0.000,-74.219,0.000
1727576130.216,-51.270,-2.930,0.000,-40.527,0.000
1727576130.220,-37.109,-10.254,0.000,-42.969,0.000
1727576130.224,-28.320,-34.180,0.000,-55.176,0.000
1727576130.228,-40.527,-25.879,0.000,-59.570,0.000
1727576130.232,-47.363,-13.184,0.000,-49.805,0.000
1727576130.236,-30.762,-18.555,-57.129,-11.230,0.000
1727576130.240,-17.090,-18.066,-52.246,-8.301,0.000
1727576130.244,-2.930,-8.301,-48.828,-26.855,0.000
1727576130.248,-25.391,-14.648,-49.316,-46.875,0.000
1727576130.252,-55.664,-27.832,-49.805,-45.898,0.000
1727576130.256,-37.109,-25.879,-43.457,-5.371,0.000
1727576130.260,-23.438,-21.973,-35.156,4.395,0.000
1727576130.264,-0.977,-24.902,-32.227,4.395,0.000
1727576130.268,-5.371,-27.832,-34.180,-9.277,0.000
1727576130.271,-41.016,-24.902,-29.297,-33.203,0.000
1727576130.275,-34.668,-16.602,-22.461,-14.160,0.000
1727576130.279,-25.879,-18.555,-26.855,-10.254,0.000
1727576130.283,-11.230,-31.250,-23.438,-22.461,0.000
1727576130.287,-4.395,-39.551,-19.043,-31.738,0.000
1727576130.291,-49.316,-24.902,-11.719,-50.293,0.000
1727576130.295,-54.688,-12.695,-15.137,-27.344,0.000
1727576130.299,-34.180,-19.531,-25.879,-13.672,0.000
1727576130.303,-20.020,-17.090,-28.809,-39.551,0.000
1727576130.307,-15.625,-21.973,-29.785,-60.059,0.000
1727576130.311,-54.688,-39.062,-33.691,-65.430,0.000
1727576130.315,-55.176,-49.805,-37.598,-31.738,0.000
1727576130.318,-38.574,-34.668,-38.086,-11.230,0.000
1727576130.322,-37.109,-17.578,-39.062,-27.344,0.000
1727576130.326,-23.926,-29.785,-51.270,-47.363,0.000
1727576130.330,-53.711,-34.668,-62.988,-65.430,0.000
1727576130.334,-58.594,-20.020,-53.711,-42.969,0.000
1727576130.338,-32.715,-18.066,-48.828,-25.879,0.000
1727576130.342,-25.879,-39.551,-57.129,-51.270,0.000
1727576130.346,-19.043,-49.316,-62.012,-57.617,0.000
1727576130.350,-48.340,-42.480,-63.965,-64.453,0.000
1727576130.354,-66.406,-20.508,-61.523,-49.805,0.000
1727576130.358,-45.898,-10.254,-61.523,-18.066,0.000
1727576130.361,-30.273,-29.785,-61.523,-20.996,0.000
1727576130.365,-15.625,-25.391,-56.152,-35.645,0.000
1727576130.369,-47.363,-25.879,-51.270,-46.875,0.000
1727576130.373,-72.266,-36.133,-39.551,-37.598,0.000
1727576130.377,-46.875,-21.484,0.000,-15.137,0.000
1727576130.381,-36.621,-25.391,0.000,-23.438,0.000
1727576130.385,-19.043,-45.898,0.000,-34.180,0.000
1727576130.389,-22.461,-53.711,0.000,-43.945,0.000
1727576130.393,-52.246,-48.340,0.000,-41.992,0.000
1727576130.397,-39.551,-39.062,0.000,-11.230,0.000
1727576130.400,-28.809,-33.691,0.000,-19.531,0.000
1727576130.404,-12.695,-29.297,0.000,-29.785,0.000
1727576130.408,-21.484,-30.762,0.000,-40.527,0.000
1727576130.412,-46.875,-37.109,0.000,-40.527,0.000
1727576130.416,-30.762,-26.367,0.000,-8.301,0.000
1727576130.420,-17.090,-21.973,0.000,-17.578,0.000
1727576130.424,-6.348,-27.344,-20.996,-36.621,0.000
1727576130.428,-19.043,-37.109,-20.508,-46.387,0.000
1727576130.432,-57.129,-46.387,-20.996,-53.711,0.000
1727576130.435,-45.410,-29.297,-26.367,-31.738,0.000
1727576130.439,-27.344,-21.973,-34.180,-29.297,0.000
1727576130.443,-23.926,-27.832,-38.086,-45.898,0.000
1727576130.447,-18.066,-34.668,-37.109,-51.270,0.000
1727576130.451,-38.086,-51.758,-37.109,-47.852,0.000
1727576130.455,-40.527,-33.203,-36.133,-27.832,0.000
1727576130.459,-27.344,-8.301,-40.527,-13.672,0.000
1727576130.463,-13.184,-8.789,-46.387,-17.090,0.000
1727576130.467,-3.906,-15.137,-38.574,-28.320,0.000
1727576130.470,-39.062,-21.484,-38.086,-38.574,0.000
1727576130.474,-51.758,-27.344,-43.945,-23.438,0.000
1727576130.478,-32.227,-27.344,-43.945,-7.812,0.000
1727576130.482,-17.090,-17.578,-42.480,-5.859,0.000
1727576130.486,-11.230,-20.996,-39.551,-28.320,0.000
1727576130.490,-49.805,-37.598,-40.039,-59.570,0.000
1727576130.494,-66.406,-41.016,-40.039,-43.945,0.000
1727576130.498,-40.527,-19.043,-28.809,-6.836,0.000
1727576130.502,-22.461,-10.742,-21.484,-16.113,0.000
1727576130.506,-6.348,-33.691,-33.691,-38.086,0.000
1727576130.509,-43.945,-31.738,-45.410,-56.152,0.000
1727576130.513,-73.730,-10.254,-36.133,-54.199,0.000
1727576130.517,-53.711,-15.625,-22.949,-31.250,0.000
1727576130.521,-41.016,-23.926,-15.625,-31.250,0.000
1727576130.525,-24.902,-20.508,-17.090,-43.457,0.000
1727576130.529,-44.922,-28.320,-19.531,-61.035,0.000
1727576130.533,-76.172,-36.133,-12.207,-59.082,0.000
1727576130.536,-54.199,-37.109,-9.766,-21.973,0.000
1727576130.540,-37.598,-41.504,-18.555,-11.719,0.000
1727576130.544,-13.672,-37.109,-21.484,-20.020,0.000
1727576130.548,-31.250,-36.133,-31.250,-41.016,0.000
1727576130.552,-67.383,-33.691,-36.621,-35.156,0.000
1727576130.556,-50.781,-22.461,-22.461,-1.465,0.000
1727576130.560,-37.598,-22.461,-20.996,-2.930,0.000
1727576130.564,-23.438,-37.109,-26.367,-21.973,0.000
1727576130.568,-23.438,-47.363,-29.785,-30.762,0.000
1727576130.572,-54.688,-39.551,-32.715,-29.297,0.000
1727576130.576,-38.574,-21.484,-27.344,-7.324,0.000
1727576130.580,-20.020,-20.508,-29.297,-9.766,0.000
1727576130.584,-8.301,-37.598,-41.992,-25.879,0.000
1727576130.588,-12.207,-51.270,-42.480,-38.574,0.000
1727576130.592,-63.477,-39.551,-29.297,-51.270,0.000
1727576130.595,-61.035,-26.855,-26.367,-30.273,0.000
1727576130.599,-36.621,-31.250,-32.227,-8.789,0.000
1727576130.603,-34.668,-18.555,-26.855,-27.832,0.000
1727576130.607,-26.367,-11.719,-25.879,-48.340,0.000
1727576130.611,0.000,-22.949,-31.738,-49.316,0.000
1727576130.615,0.000,-15.137,-25.391,-24.414,0.000
1727576130.619,0.000,-11.230,-18.066,-12.207,0.000
1727576130.623,0.000,-26.367,-20.508,-37.109,0.000
1727576130.627,0.000,-37.598,-26.855,-45.898,0.000
1727576130.631,0.000,-57.129,-35.645,-46.875,0.000
1727576130.635,0.000,-40.039,-23.438,-33.691,0.000
1727576130.639,0.000,-17.090,-20.996,-25.391,0.000
1727576130.643,0.000,-27.344,-35.645,-32.227,0.000
1727576130.647,0.000,-44.922,-34.668,-21.484,0.000
1727576130.650,0.000,-53.223,-30.762,-44.434,0.000
1727576130.654,0.000,-50.293,-29.785,-35.156,0.000
1727576130.658,-37.598,-44.434,-28.320,2.441,0.000
1727576130.662,-19.531,-33.691,-33.691,-9.277,0.000
1727576130.666,-2.930,-30.273,-29.785,-24.902,0.000
1727576130.670,-25.879,-35.645,-25.879,-41.016,0.000
1727576130.674,-49.805,-40.527,-28.809,-38.574,0.000
1727576130.678,-31.250,-33.203,-31.250,-12.207,0.000
1727576130.682,-23.926,-24.902,-37.598,-15.137,0.000
1727576130.686,-5.371,-24.902,-35.645,-25.879,0.000
1727576130.690,-12.695,-44.922,-35.156,-30.273,0.000
1727576130.694,-52.246,-43.945,-34.668,-21.973,0.000
1727576130.697,-41.016,-19.043,-20.508,0.977,0.000
1727576130.701,-20.508,-19.531,-21.484,-0.977,0.000
1727576130.706,-8.301,-32.715,-35.156,-14.648,0.000
1727576130.710,-23.438,-39.551,-40.527,-27.344,0.000
1727576130.714,-56.152,-38.574,-30.762,-38.574,0.000
1727576130.718,-45.410,-33.691,-26.855,-17.578,0.000
1727576130.722,-36.133,-46.387,-29.297,-15.137,0.000
1727576130.726,-27.344,-46.387,-24.902,-36.133,0.000
1727576130.730,-19.043,-30.762,-26.855,-49.805,0.000
1727576130.733,-48.340,-38.086,-38.086,-55.664,0.000
1727576130.737,-41.992,-43.945,-41.504,-16.113,0.000
1727576130.741,-34.180,-40.039,-34.668,-11.719,0.000
1727576130.745,-23.926,-45.410,-38.574,-44.434,0.000
1727576130.749,-14.648,-47.852,-38.086,-50.781,0.000
1727576130.753,-52.734,-43.457,-33.691,-54.199,0.000
1727576130.757,-52.246,-37.598,-36.621,-23.438,0.000
1727576130.761,-30.273,-42.480,-37.598,-14.160,0.000
1727576130.765,-17.090,-52.246,-41.016,-34.668,0.000
1727576130.768,-11.719,-43.945,-43.457,-52.734,0.000
1727576130.772,-47.852,-46.387,-44.922,-64.941,0.000
1727576130.776,-58.105,-46.875,-32.227,-33.691,0.000
1727576130.780,-41.504,-50.293,-28.320,-13.672,0.000
1727576130.784,-24.414,-49.316,-31.250,-34.668,0.000
1727576130.788,-9.277,-33.203,-25.391,-31.250,0.000
1727576130.792,-35.645,-37.598,-33.203,-47.363,0.000
1727576130.796,-56.641,-45.898,-41.504,-41.992,0.000
1727576130.800,-44.434,-33.691,-34.668,-11.230,0.000
1727576130.803,-28.320,-30.762,-34.668,-26.367,0.000
1727576130.807,-3.906,-55.176,-39.062,-31.250,0.000
1727576130.811,-23.438,-63.477,-36.133,-40.527,0.000
1727576130.815,-38.574,-58.594,-34.180,-38.086,0.000
1727576130.819,-23.438,-54.688,-34.668,-5.371,0.000
1727576130.823,-18.066,-48.828,-30.273,-8.789,0.000
1727576130.827,-1.953,-54.688,-36.133,-18.555,0.000
1727576130.831,-28.809,-51.758,-42.480,-32.227,0.000
1727576130.835,-58.105,-43.457,-35.156,-27.344,0.000
1727576130.839,-29.785,-41.016,-23.438,1.953,0.000
1727576130.843,-16.602,-42.480,-26.367,-16.602,0.000
1727576130.846,-4.883,-35.645,-34.180,-26.855,0.000
1727576130.850,-17.578,-43.457,-34.180,-28.809,0.000
1727576130.854,-52.734,-62.500,-32.715,-45.410,0.000
1727576130.858,-40.527,-48.828,-35.645,-31.250,0.000
1727576130.862,-30.762,-46.387,-37.598,-25.391,0.000
1727576130.866,-16.113,-64.941,-35.156,-33.691,0.000
1727576130.870,-12.695,-67.871,-43.945,-41.504,0.000
1727576130.874,-51.758,-49.316,-44.922,-46.387,0.000
1727576130.877,-41.504,-24.414,-30.273,-22.949,0.000
1727576130.881,-18.066,-29.785,-28.809,-13.672,0.000
1727576130.885,-9.277,-27.832,-38.574,-34.668,0.000
1727576130.889,-12.695,-27.344,-48.828,-56.152,0.000
1727576130.893,-45.898,-29.297,-48.340,-62.500,0.000
1727576130.897,-41.992,-25.879,-36.621,-29.785,0.000
1727576130.900,-30.762,-32.715,-33.691,-20.508,0.000
1727576130.904,-15.625,-28.320,-32.227,-43.945,0.000
1727576130.908,1.465,-36.133,-35.645,-53.223,0.000
1727576130.912,-21.973,-61.035,-43.457,-57.129,0.000
1727576130.916,-27.832,-49.316,-37.109,-31.250,0.000
1727576130.920,-14.160,-21.973,-31.738,-8.301,0.000
1727576130.924,-8.301,-29.785,-30.273,-16.113,0.000
1727576130.928,-4.395,-41.992,-34.668,-28.809,0.000
1727576130.932,-32.227,-44.434,-42.969,-41.016,0.000
1727576130.936,-31.738,-33.203,-31.250,-22.949,0.000
1727576130.939,-8.789,-24.902,-22.461,-0.977,0.000
1727576130.943,-4.395,-28.809,-28.809,-10.742,0.000
1727576130.947,17.578,-38.086,-30.273,-20.020,0.000
1727576130.951,-12.207,-37.598,-38.574,-32.715,0.000
1727576130.955,-47.363,-24.414,-42.480,-13.184,0.000
1727576130.958,-30.273,-27.832,-33.203,9.766,0.000
1727576130.962,-22.949,-26.367,-27.832,-8.301,0.000
1727576130.966,-7.324,-9.277,-30.762,-22.461,0.000
1727576130.970,-21.484,-26.367,-41.992,-41.016,0.000
1727576130.974,-47.363,-47.852,-48.340,-34.180,0.000
1727576130.978,-37.598,-30.273,-31.738,-0.977,0.000
1727576130.982,-29.297,-36.621,-22.461,-21.973,0.000
1727576130.986,-7.812,-46.387,-27.832,-43.945,0.000
1727576130.990,-11.719,-46.875,-36.621,-41.016,0.000
1727576130.994,-47.363,-43.945,-33.691,-38.574,0.000
1727576130.998,-36.133,-25.879,-24.902,-5.371,0.000
1727576131.002,-15.137,-22.461,-27.344,6.348,0.000
1727576131.006,-6.836,-26.367,-27.344,-4.395,0.000
1727576131.010,-19.531,-28.809,-29.297,-16.113,0.000
1727576131.013,-49.316,-35.156,-36.133,-31.250,0.000
1727576131.017,-32.715,-31.738,-29.785,-5.859,0.000
1727576131.021,-15.137,-22.949,-24.902,4.883,0.000
1727576131.025,-4.883,-16.113,-26.855,-8.789,0.000
1727576131.029,-8.789,-25.879,-32.227,-29.785,0.000
1727576131.033,-45.898,-35.645,0.000,-44.434,0.000
1727576131.037,-40.039,-34.668,0.000,-4.395,0.000
1727576131.041,-20.508,-33.691,0.000,2.441,0.000
1727576131.045,-21.484,-36.621,0.000,-33.203,0.000
1727576131.049,-11.719,-36.133,0.000,-33.203,0.000
1727576131.053,-36.133,-28.809,0.000,-32.227,0.000
1727576131.057,-47.363,-13.184,0.000,-20.020,0.000
1727576131.061,-31.250,-18.066,0.000,-7.324,0.000
1727576131.064,-21.484,-37.109,0.000,-19.043,0.000
1727576131.068,-12.695,-34.180,0.000,-32.715,0.000
1727576131.072,-40.527,-26.855,0.000,-52.246,0.000
1727576131.076,-41.504,-28.320,0.000,-41.016,0.000
1727576131.080,-18.555,-26.855,-23.438,-13.184,0.000
1727576131.084,-13.184,-20.020,-31.738,-18.066,0.000
1727576131.088,-0.488,-20.996,-33.203,-28.320,0.000
1727576131.092,-30.273,-23.438,-31.738,-42.480,0.000
1727576131.096,-45.410,-12.695,-19.531,-29.297,0.000
1727576131.100,-22.461,-9.766,-11.719,-0.488,0.000
1727576131.104,-12.207,-18.066,-22.461,-6.348,0.000
1727576131.107,9.766,-26.855,-33.203,-11.719,0.000
1727576131.111,-15.625,-59.570,-41.992,-28.809,0.000
1727576131.115,-54.688,-41.016,-31.738,-41.992,0.000
1727576131.119,-35.156,-8.301,-21.484,-20.996,0.000
1727576131.123,-21.973,-22.461,-25.391,-25.879,0.000
1727576131.127,-13.672,-32.715,-25.391,-34.668,0.000
1727576131.131,-26.855,-30.762,-30.762,-33.691,0.000
1727576131.135,-50.781,-34.180,-28.320,-27.344,0.000
1727576131.139,-25.391,-28.809,-23.926,-6.348,0.000
1727576131.143,-16.602,-20.996,-34.180,-18.555,0.000
1727576131.147,-9.766,-25.879,-43.945,-29.785,0.000
1727576131.150,-15.137,-31.250,-39.062,-40.527,0.000
1727576131.154,-53.223,-42.969,-30.273,-46.875,0.000
1727576131.158,-47.363,-33.203,-32.227,-15.137,0.000
1727576131.162,-26.367,-23.438,-36.621,-17.578,0.000
1727576131.166,-10.254,-26.855,-35.156,-30.762,0.000
1727576131.170,-15.625,-30.273,-41.992,-40.039,0.000
1727576131.175,0.000,-38.086,-35.156,-52.734,0.000
1727576131.178,0.000,-30.273,-19.043,-22.461,0.000
1727576131.182,0.000,-25.391,-21.484,-10.254,0.000
1727576131.186,0.000,-31.250,-25.391,-20.996,0.000
1727576131.190,0.000,-37.598,-26.855,-37.109,0.000
1727576131.194,0.000,-56.641,-33.203,-59.570,0.000
1727576131.198,0.000,-55.664,-30.762,-32.227,0.000
1727576131.202,0.000,-45.410,-35.156,-10.254,0.000
1727576131.206,0.000,-22.461,-40.527,-23.438,0.000
1727576131.210,0.000,-18.555,-35.645,-23.438,0.000
1727576131.214,0.000,-34.180,-33.203,-36.133,0.000
1727576131.218,0.000,-22.461,-29.785,-28.809,0.000
1727576131.221,-30.762,-10.742,-28.809,-6.348,0.000
1727576131.225,-23.438,-20.020,-33.203,-19.043,0.000
1727576131.229,-7.812,-19.043,-32.715,-26.367,0.000
1727576131.233,-29.297,-15.625,-30.273,-35.645,0.000
1727576131.237,-48.340,-12.695,-27.832,-30.762,0.000
1727576131.241,-33.691,-23.926,-35.645,-5.859,0.000
1727576131.245,-14.648,-34.668,-38.574,-10.254,0.000
1727576131.248,1.465,-32.227,-29.297,-23.438,0.000
1727576131.252,-29.297,-43.945,-27.344,-44.922,0.000
1727576131.256,-54.688,-36.133,-29.297,-45.898,0.000
1727576131.260,-41.016,-25.391,-39.551,-19.043,0.000
1727576131.264,-35.156,-15.137,-43.945,-27.344,0.000
1727576131.268,-20.020,-5.371,-34.180,-41.016,0.000
1727576131.272,-29.785,-28.320,-35.156,-48.828,0.000
1727576131.276,-60.059,-31.250,-40.527,-61.035,0.000
1727576131.280,-45.898,-15.625,-35.156,-42.969,0.000
1727576131.284,-28.320,-22.949,-32.227,-34.180,0.000
1727576131.288,-8.789,-33.203,-34.668,-29.785,0.000
1727576131.292,-15.625,-39.551,-34.180,-29.785,0.000
1727576131.296,-53.223,-20.996,-34.180,-42.969,0.000
1727576131.300,-38.574,-8.789,-36.621,-19.531,0.000
1727576131.304,-23.926,-23.438,-32.715,-4.883,0.000
1727576131.308,-8.789,-33.203,-31.250,-12.695,0.000
1727576131.311,-8.301,-39.062,-38.086,-34.180,0.000
1727576131.316,0.000,-43.945,-42.480,-49.316,0.000
1727576131.320,0.000,-32.715,-40.527,-19.043,0.000
1727576131.323,0.000,-18.555,-20.996,4.883,0.000
1727576131.327,0.000,-8.301,-16.113,-2.930,0.000
1727576131.331,0.000,-31.738,-33.203,-22.461,0.000
1727576131.335,0.000,-80.078,-37.109,-38.574,0.000
1727576131.339,0.000,-67.871,-33.691,-2.441,0.000
1727576131.343,0.000,-27.344,-25.391,23.926,0.000
1727576131.347,0.000,-6.348,-25.391,-13.672,0.000
1727576131.351,0.000,-32.715,-38.574,-34.180,0.000
1727576131.355,0.000,-71.777,-21.484,-28.809,0.000
1727576131.359,0.000,-80.566,-47.852,4.395,0.000
1727576131.360,-47.852,-61.523,-105.469,68.359,0.000
1727576131.364,-35.645,-59.082,-49.805,35.645,0.000
1727576131.368,-1.465,-100.098,-17.090,-15.137,0.000
1727576131.372,13.672,-46.875,-79.102,33.203,0.000
1727576131.376,-0.977,78.613,-12.695,49.805,0.000
1727576131.380,-42.480,-9.766,-4.395,-28.809,0.000
1727576131.384,-18.066,-185.547,-77.148,-28.320,0.000
1727576131.388,0.977,-230.957,-67.871,41.016,0.000
1727576131.392,-20.508,2.441,-188.477,89.355,0.000
1727576131.396,0.488,74.219,-145.996,76.660,0.000
1727576131.399,-9.277,-94.238,55.664,58.105,0.000
1727576131.403,-22.949,-44.922,119.141,-14.648,0.000
1727576131.407,-51.758,-109.863,0.000,-88.379,0.000
1727576131.411,-7.812,-107.422,-83.984,-32.715,0.000
1727576131.415,-46.875,52.734,-23.926,-13.672,0.000
1727576131.419,-28.809,-30.273,9.277,2.441,0.000
1727576131.423,110.840,-27.344,17.090,111.816,0.000
1727576131.427,-3.418,226.074,20.020,-2.930,0.000
1727576131.431,-127.441,151.367,-79.590,-134.277,0.000
1727576131.435,-9.766,-105.469,19.043,-24.902,0.000
1727576131.439,99.121,129.395,110.352,103.027,0.000
1727576131.443,108.887,576.660,4.883,117.188,0.000
1727576131.447,-36.133,833.496,44.922,-60.547,0.000
1727576131.450,-58.105,805.664,291.016,-103.027,0.000
1727576131.454,6.836,682.617,195.801,-1.953,0.000
1727576131.458,52.734,820.312,205.078,57.129,0.000
1727576131.462,9.766,969.238,493.652,-7.324,0.000
1727576131.466,0.488,963.867,558.105,-43.457,0.000
1727576131.470,-6.348,963.867,479.980,-62.012,0.000
1727576131.474,-23.926,967.285,519.531,-51.758,0.000
1727576131.478,44.434,966.797,612.305,23.438,0.000
1727576131.482,90.332,966.309,658.203,61.523,0.000
1727576131.486,97.168,966.797,731.445,60.547,0.000
1727576131.490,97.168,966.797,778.320,44.434,0.000
1727576131.493,68.359,966.797,806.641,39.551,0.000
1727576131.497,79.590,966.797,869.141,81.055,0.000
1727576131.501,97.656,966.309,901.855,94.238,0.000
1727576131.505,108.887,966.797,933.594,81.055,0.000
1727576131.509,120.117,966.797,961.426,81.543,0.000
1727576131.513,84.961,966.797,966.309,66.895,0.000
1727576131.517,77.637,966.797,963.867,77.148,0.000
1727576131.521,101.074,966.797,947.266,103.027,0.000
1727576131.525,103.516,966.797,916.016,85.938,0.000
1727576131.529,110.352,966.797,877.441,62.988,0.000
1727576131.533,78.125,966.797,836.426,41.992,0.000
1727576131.536,46.875,967.773,797.852,56.641,0.000
1727576131.540,59.082,963.867,757.324,71.289,0.000
1727576131.544,65.430,967.773,715.820,43.945,0.000
1727576131.548,73.242,960.938,670.898,36.621,0.000
1727576131.552,41.504,859.375,616.211,16.113,0.000
1727576131.556,8.301,751.953,553.223,2.930,0.000
1727576131.560,18.066,675.781,499.023,18.066,0.000
1727576131.564,20.508,578.125,430.664,0.488,0.000
1727576131.568,36.621,486.328,375.000,-19.531,0.000
1727576131.571,11.230,383.789,329.590,-27.832,0.000
1727576131.575,-34.668,266.602,261.230,-32.715,0.000
1727576131.579,-25.391,190.430,216.797,-17.578,0.000
1727576131.583,-21.973,115.723,161.621,-20.508,0.000
1727576131.587,-12.695,40.527,100.098,-30.273,0.000
1727576131.591,-27.344,-20.020,50.293,-44.922,0.000
1727576131.595,-60.547,-75.195,12.695,-60.059,0.000
1727576131.599,-43.945,-123.047,-10.742,-35.156,0.000
1727576131.602,-36.133,-186.035,-42.480,-30.762,0.000
1727576131.606,-34.180,-241.211,-69.336,-43.945,0.000
1727576131.610,-38.086,-283.691,-105.469,-59.082,0.000
1727576131.614,-74.219,-337.891,-153.809,-72.754,0.000
1727576131.618,-68.848,-376.465,-170.410,-40.527,0.000
1727576131.622,-54.199,-398.438,-186.035,-31.250,0.000
1727576131.626,-50.293,-445.312,-213.867,-66.406,0.000
1727576131.630,-57.129,-502.930,-228.516,-87.891,0.000
1727576131.634,-92.773,-539.551,-247.070,-99.609,0.000
1727576131.638,-90.820,-546.387,-266.113,-72.754,0.000
1727576131.641,-75.684,-549.805,-285.645,-56.641,0.000
1727576131.645,-70.801,-567.383,-295.898,-70.801,0.000
1727576131.649,-60.547,-588.379,-293.457,-72.266,0.000
1727576131.653,-90.820,-594.238,-287.109,-94.727,0.000
1727576131.657,-94.727,-579.590,-282.227,-77.148,0.000
1727576131.661,-62.012,-579.590,-284.180,-42.480,0.000
1727576131.665,-56.641,-594.238,-280.273,-53.711,0.000
1727576131.669,-61.523,-593.262,-291.992,-73.730,0.000
1727576131.672,-94.238,-614.746,-310.059,-91.797,0.000
1727576131.676,-106.445,-624.023,-311.035,-86.914,0.000
1727576131.680,-78.613,-606.445,-310.547,-62.988,0.000
1727576131.684,-70.801,-600.586,-323.730,-65.430,0.000
1727576131.689,-57.617,-602.539,-340.332,-75.684,0.000
1727576131.692,-73.730,-612.793,-351.562,-79.102,0.000
1727576131.696,-100.586,-594.238,-343.750,-71.777,0.000
1727576131.700,-86.914,-542.480,-340.332,-54.688,0.000
1727576131.704,-73.242,-506.348,-331.543,-66.895,0.000
1727576131.708,-54.199,-498.535,-326.660,-82.520,0.000
1727576131.712,-77.148,-510.742,-336.914,-91.309,0.000
1727576131.716,-115.723,-516.113,-320.801,-84.473,0.000
1727576131.720,-99.121,-505.859,-305.176,-47.852,0.000
1727576131.724,-69.824,-498.535,-304.688,-48.340,0.000
1727576131.728,-52.246,-479.980,-290.039,-79.102,0.000
1727576131.732,-73.730,-481.934,-280.762,-98.633,0.000
1727576131.736,0.000,-486.816,-275.391,-87.402,0.000
1727576131.740,0.000,-486.816,-266.113,-51.270,0.000
1727576131.744,0.000,-493.164,-274.902,-44.434,0.000
1727576131.748,0.000,-472.656,-262.207,-54.199,0.000
1727576131.751,0.000,-454.102,-251.953,-79.102,0.000
1727576131.755,0.000,-453.613,-245.605,-95.703,0.000
1727576131.759,0.000,-446.777,-229.980,-55.664,0.000
1727576131.763,0.000,-447.266,-217.285,-43.945,0.000
1727576131.767,0.000,-471.191,-212.402,-72.754,0.000
1727576131.771,0.000,-457.031,-210.449,-76.172,0.000
1727576131.775,0.000,-404.785,-199.219,-82.031,0.000
1727576131.779,0.000,-376.953,-193.359,-63.477,0.000
1727576131.783,-68.848,-362.305,-190.430,-42.480,0.000
1727576131.787,-42.969,-340.332,-174.316,-48.340,0.000
1727576131.791,-29.297,-325.684,-180.664,-57.617,0.000
1727576131.795,-78.125,-330.566,-188.965,-74.219,0.000
1727576131.798,-89.844,-319.336,-178.711,-49.316,0.000
1727576131.802,-62.500,-314.941,-172.852,-28.320,0.000
1727576131.806,-52.734,-319.824,-178.223,-55.664,0.000
1727576131.810,-37.598,-324.219,-179.199,-71.289,0.000
1727576131.814,-63.477,-338.379,-191.406,-72.754,0.000
1727576131.818,-80.566,-315.430,-194.336,-51.758,0.000
1727576131.822,-59.082,-277.344,-170.898,-34.180,0.000
1727576131.826,-46.875,-287.598,-163.086,-46.387,0.000
1727576131.830,-32.715,-292.969,-164.551,-45.898,0.000
1727576131.834,-56.152,-286.133,-164.062,-49.805,0.000
1727576131.838,-73.242,-289.551,-154.785,-31.250,0.000
1727576131.841,-51.758,-273.926,-151.367,-17.578,0.000
1727576131.845,-41.016,-261.230,-158.691,-54.688,0.000
1727576131.849,-27.832,-265.137,-160.156,-69.824,0.000
1727576131.853,-49.805,-259.766,-158.691,-77.637,0.000
1727576131.857,-77.148,-274.902,-160.156,-71.777,0.000
1727576131.861,-64.453,-274.414,-163.086,-36.621,0.000
1727576131.865,-57.129,-243.652,-157.227,-41.504,0.000
1727576131.869,-35.645,-229.980,-150.391,-52.734,0.000
1727576131.873,-48.340,-241.699,-150.391,-61.523,0.000
1727576131.877,-81.055,-239.258,-142.090,-60.547,0.000
1727576131.880,-64.941,-222.656,-130.859,-34.180,0.000
1727576131.884,-50.781,-228.516,-138.672,-41.016,0.000
1727576131.888,-31.738,-231.934,-151.855,-55.664,0.000
1727576131.892,-33.691,-233.398,-149.414,-63.477,0.000
1727576131.896,-74.707,-231.934,-144.531,-67.383,0.000
1727576131.900,-73.242,-195.312,-139.160,-39.551,0.000
1727576131.904,-47.852,-163.086,-131.348,-32.715,0.000
1727576131.908,-39.062,-156.738,-130.859,-45.898,0.000
1727576131.912,-46.387,-154.297,-136.719,-56.641,0.000
1727576131.916,-75.195,-146.484,-131.836,-61.035,0.000
1727576131.919,-65.918,-143.555,-114.746,-30.273,0.000
1727576131.923,-44.922,-148.438,-106.934,-17.578,0.000
1727576131.927,-25.391,-153.320,-110.840,-32.227,0.000
1727576131.931,-18.555,-171.387,-110.352,-46.387,0.000
1727576131.935,-72.754,-195.312,-111.328,-68.848,0.000
1727576131.939,-83.984,-194.824,-112.793,-58.105,0.000
1727576131.943,-57.617,-187.988,-115.234,-36.133,0.000
1727576131.947,-45.410,-187.012,-118.164,-39.062,0.000
1727576131.951,-22.949,-192.383,-123.535,-38.574,0.000
1727576131.954,-43.457,-175.293,-123.535,-55.176,0.000
1727576131.958,-55.176,-160.156,-106.445,-36.133,0.000
1727576131.962,-40.527,-159.668,-104.492,-8.301,0.000
1727576131.966,-38.086,-165.039,-103.516,-32.715,0.000
1727576131.970,-24.414,-168.457,-103.027,-51.758,0.000
1727576131.974,-45.898,-172.363,-108.887,-61.523,0.000
1727576131.978,-60.059,-164.551,-102.051,-35.156,0.000
1727576131.982,-41.992,-131.836,-89.355,-0.488,0.000
1727576131.985,-31.250,-117.188,-78.613,-13.672,0.000
1727576131.989,-10.254,-117.188,-81.543,-36.621,0.000
1727576131.993,-37.109,-117.188,-95.215,-57.129,0.000
1727576131.997,-79.590,-107.422,-88.867,-56.641,0.000
1727576132.001,-59.082,-99.609,-85.938,-26.855,0.000
1727576132.005,-38.086,-109.863,-89.844,-28.320,0.000
1727576132.009,-16.113,-88.379,-81.543,-35.156,0.000
1727576132.013,-24.414,-83.984,-73.730,-44.922,0.000
1727576132.016,-54.199,-89.844,-70.801,-51.758,0.000
1727576132.020,-43.457,-87.402,-74.707,-24.414,0.000
1727576132.024,-30.762,-96.191,-79.590,-18.066,0.000
1727576132.028,-18.555,-96.680,-81.543,-34.180,0.000
1727576132.032,-31.250,-105.957,-87.402,-62.500,0.000
1727576132.036,-63.477,-117.676,-86.914,-57.129,0.000
1727576132.040,-41.504,-104.492,-73.242,-1.465,0.000
1727576132.044,-20.996,-85.938,-66.406,-0.977,0.000
1727576132.048,-20.508,-92.773,-74.219,-37.109,0.000
1727576132.051,-31.250,-107.910,-70.801,-52.734,0.000
1727576132.055,-67.383,-97.656,-61.035,-54.688,0.000
1727576132.059,-65.918,-83.008,-62.988,-31.250,0.000
1727576132.064,0.000,-95.215,-68.848,-23.438,0.000
1727576132.068,0.000,-94.238,-66.406,-34.180,0.000
1727576132.071,0.000,-84.473,-70.801,-50.293,0.000
1727576132.075,0.000,-87.891,-83.984,-65.430,0.000
1727576132.079,0.000,-70.312,-81.055,-30.273,0.000
1727576132.083,0.000,-67.871,-80.078,-5.371,0.000
1727576132.087,0.000,-77.148,-82.520,-44.434,0.000
1727576132.091,0.000,-72.754,-71.289,-56.152,0.000
1727576132.095,0.000,-78.613,-71.777,-52.734,0.000
1727576132.099,0.000,-90.332,-72.266,-30.762,0.000
1727576132.103,0.000,-72.266,-63.477,-16.113,0.000
1727576132.107,0.000,-51.758,-55.664,-36.621,0.000
1727576132.111,-19.043,-69.824,-57.129,-31.738,0.000
1727576132.115,-45.898,-81.543,-58.594,-38.574,0.000
1727576132.119,-62.988,-66.895,-55.664,-40.039,0.000
1727576132.123,-43.457,-64.941,-60.059,-24.414,0.000
1727576132.127,-38.574,-71.289,-68.848,-38.574,0.000
1727576132.130,-21.973,-63.477,-70.312,-45.898,0.000
1727576132.134,-39.062,-48.828,-63.965,-55.176,0.000
1727576132.138,-68.359,-22.949,-54.688,-50.293,0.000
1727576132.142,-49.316,-19.043,-46.387,-14.160,0.000
1727576132.146,-27.832,-27.344,-53.223,-15.625,0.000
1727576132.150,-15.625,-10.742,-49.805,-37.109,0.000
1727576132.154,-31.250,-10.254,-44.434,-52.734,0.000
1727576132.158,-58.105,-18.066,-42.969,-43.945,0.000
1727576132.162,-41.016,-10.254,-37.109,-15.137,0.000
1727576132.166,-27.344,-9.277,-41.016,-24.414,0.000
1727576132.170,-18.555,-22.461,-46.387,-35.645,0.000
1727576132.174,-21.484,-41.016,-52.246,-44.922,0.000
1727576132.178,-41.992,-49.316,-52.734,-32.715,0.000
1727576132.182,-35.645,-27.344,-41.016,-6.348,0.000
1727576132.185,-27.344,-14.160,-47.852,-14.648,0.000
1727576132.189,-7.812,-17.090,-44.434,-18.066,0.000
1727576132.193,-18.066,-24.902,-34.180,-33.203,0.000
1727576132.197,-60.547,-35.156,-41.992,-42.969,0.000
1727576132.201,-46.875,-41.992,-48.340,-12.695,0.000
1727576132.205,-26.855,-46.387,-45.410,-22.949,0.000
1727576132.209,-16.113,-38.086,-45.410,-50.293,0.000
1727576132.213,-9.766,-36.133,-49.805,-49.805,0.000
1727576132.217,-43.945,-47.363,-44.434,-49.316,0.000
1727576132.221,-45.410,-53.711,-43.457,-26.367,0.000
1727576132.225,-31.250,-57.617,-47.363,-17.578,0.000
1727576132.228,-22.461,-52.246,-43.457,-45.898,0.000
1727576132.232,-4.395,-60.059,-45.898,-45.898,0.000
1727576132.236,-30.273,-85.449,-57.129,-40.527,0.000
1727576132.240,-45.898,-54.688,-44.922,-17.578,0.000
1727576132.244,-32.227,-40.039,-37.109,5.859,0.000
1727576132.248,-23.438,-61.035,-41.992,-18.066,0.000
1727576132.252,0.000,-51.270,-41.992,-43.945,0.000
1727576132.256,0.000,-49.805,-40.039,-56.641,0.000
1727576132.260,0.000,-50.293,-32.715,-37.598,0.000
1727576132.264,0.000,-36.621,-28.320,-6.836,0.000
1727576132.268,0.000,-37.109,-33.691,-20.996,0.000
1727576132.271,0.000,-55.176,-36.621,-39.551,0.000
1727576132.275,0.000,-63.477,-45.898,-42.969,0.000
1727576132.279,0.000,-53.223,-50.293,-24.902,0.000
1727576132.283,0.000,-38.574,-41.016,-10.742,0.000
1727576132.287,0.000,-44.434,-47.852,-41.992,0.000
1727576132.291,0.000,-60.547,-55.664,-54.199,0.000
1727576132.295,0.000,-77.637,-51.270,-56.641,0.000
1727576132.299,-67.871,-79.102,-50.781,-59.570,0.000
1727576132.303,-44.434,-46.875,-44.434,-27.832,0.000
1727576132.306,-20.508,-37.109,-34.668,-18.555,0.000
1727576132.310,-6.348,-49.316,-41.016,-21.484,0.000
1727576132.314,-19.043,-47.852,-47.363,-29.297,0.000
1727576132.318,-49.805,-53.711,-44.922,-51.758,0.000
1727576132.322,-44.922,-68.848,-47.363,-30.762,0.000
1727576132.326,-36.133,-75.684,-55.664,-17.090,0.000
1727576132.330,-21.973,-53.223,-46.387,-37.109,0.000
1727576132.334,-21.973,-59.082,-47.363,-56.152,0.000
1727576132.338,-58.594,-74.707,-52.246,-62.500,0.000
1727576132.342,-53.711,-53.223,-41.016,-34.180,0.000
1727576132.345,-35.156,-31.250,-43.945,-21.973,0.000
1727576132.349,-18.555,-27.832,-41.016,-29.297,0.000
1727576132.353,-11.719,-47.852,-38.574,-30.762,0.000
1727576132.357,-40.527,-58.594,-42.480,-39.551,0.000
1727576132.361,-43.945,-52.246,-45.410,-26.367,0.000
1727576132.365,-34.180,-48.828,-51.270,-20.996,0.000
1727576132.369,-27.832,-43.945,-56.152,-32.715,0.000
1727576132.373,-18.066,-35.156,-48.340,-46.387,0.000
1727576132.376,-47.363,-35.156,-46.387,-63.477,0.000
1727576132.380,-47.363,-35.156,-41.992,-35.645,0.000
1727576132.384,-23.438,-35.645,-34.668,-5.859,0.000
1727576132.388,-19.043,-44.434,-42.480,-26.367,0.000
1727576132.393,-13.672,-47.852,-41.992,-43.457,0.000
1727576132.397,-47.363,-49.805,-44.434,-44.922,0.000
1727576132.400,-62.012,-55.176,-46.387,-37.109,0.000
1727576132.404,-39.062,-56.152,-49.316,-28.809,0.000
1727576132.408,-29.785,-51.270,-55.176,-41.992,0.000
1727576132.412,-19.043,-53.711,-56.641,-41.016,0.000
1727576132.416,-43.457,-69.336,-60.059,-45.410,0.000
1727576132.420,-62.012,-48.828,-47.852,-36.133,0.000
1727576132.424,-45.898,-36.133,-38.086,-9.766,0.000
1727576132.428,-32.715,-52.246,-47.363,-19.043,0.000
1727576132.432,-20.020,-50.293,-53.223,-34.668,0.000
1727576132.436,-47.363,-51.758,-50.781,-47.852,0.000
1727576132.439,-59.082,-52.246,-41.992,-43.457,0.000
1727576132.443,-38.574,-58.105,-41.504,-18.555,0.000
1727576132.447,-40.527,-55.664,-55.176,-20.020,0.000
1727576132.451,-18.555,-38.574,-53.711,-33.203,0.000
1727576132.455,-23.438,-49.805,-48.340,-50.781,0.000
1727576132.459,-55.176,-59.570,-42.969,-50.781,0.000
1727576132.462,-41.016,-39.062,-37.109,-26.855,0.000
1727576132.466,-32.715,-27.832,-46.387,-32.227,0.000
1727576132.470,-27.832,-38.574,-50.781,-41.016,0.000
1727576132.474,-31.250,-60.059,-51.270,-41.016,0.000
1727576132.478,-61.035,-45.898,-40.039,-40.039,0.000
1727576132.482,-46.875,-26.855,-33.691,-18.066,0.000
1727576132.486,0.000,-37.109,-43.945,-16.113,0.000
1727576132.490,0.000,-43.457,-38.086,-38.086,0.000
1727576132.494,0.000,-39.551,-40.039,-53.223,0.000
1727576132.498,0.000,-43.945,-55.176,-62.500,0.000
1727576132.502,0.000,-61.035,-53.711,-37.109,0.000
1727576132.506,0.000,-66.895,-50.293,-22.949,0.000
1727576132.510,0.000,-56.641,-57.617,-40.039,0.000
1727576132.514,0.000,-51.270,-56.641,-49.805,0.000
1727576132.517,0.000,-67.383,-56.641,-60.547,0.000
1727576132.521,0.000,-69.824,-54.199,-41.504,0.000
1727576132.525,0.000,-53.223,-42.969,-20.020,0.000
1727576132.529,0.000,-41.016,-36.621,-17.090,0.000
1727576132.531,-32.227,-43.945,-41.504,-33.691,0.000
1727576132.535,-20.508,-61.035,-41.016,-63.477,0.000
1727576132.539,-16.113,-46.875,-35.645,-44.922,0.000
1727576132.543,-48.828,-37.598,-45.410,-23.438,0.000
1727576132.546,-47.363,-46.875,-48.828,-29.297,0.000
1727576132.550,-27.344,-49.316,-38.086,-33.691,0.000
1727576132.554,-17.090,-54.688,-53.711,-50.781,0.000
1727576132.558,-21.973,-43.457,-45.898,-35.645,0.000
1727576132.562,-60.059,-40.527,-29.297,-2.930,0.000
1727576132.566,-57.129,-42.969,-40.039,-18.555,0.000
1727576132.570,-34.180,-34.180,-38.086,-27.832,0.000
1727576132.574,-24.414,-41.992,-32.227,-39.062,0.000
1727576132.579,-58.105,-39.551,-35.645,-35.645,0.000
1727576132.583,-44.922,-32.715,-38.086,-4.395,0.000
1727576132.587,-32.227,-35.645,-36.621,-12.695,0.000
1727576132.590,-17.090,-37.109,-35.645,-27.344,0.000
1727576132.594,-38.086,-43.457,-36.621,-41.504,0.000
1727576132.598,-70.801,-47.852,-34.180,-50.293,0.000
1727576132.602,-55.664,-42.480,-32.227,-27.344,0.000
1727576132.606,-38.574,-47.852,-42.480,-28.809,0.000
1727576132.610,-9.277,-56.641,-45.898,-38.574,0.000
1727576132.614,-18.066,-36.133,-38.574,-46.387,0.000
1727576132.618,-52.734,-48.828,-33.203,-48.340,0.000
1727576132.622,-37.109,-65.918,-27.344,-16.113,0.000
1727576132.626,-28.809,-63.965,-33.203,-15.625,0.000
1727576132.630,-9.277,-47.852,-30.273,-37.109,0.000
1727576132.633,-7.812,-31.738,-36.133,-41.992,0.000
1727576132.637,-49.805,-38.086,-48.828,-51.270,0.000
1727576132.641,-40.527,-30.762,-42.969,-29.785,0.000
1727576132.645,-20.020,-27.832,-42.969,-13.672,0.000
1727576132.649,-9.277,-46.387,-42.480,-31.250,0.000
1727576132.653,-4.395,-57.129,-39.062,-41.016,0.000
1727576132.657,-53.711,-46.387,-36.621,-61.035,0.000
1727576132.661,-63.965,-20.020,-40.039,-44.434,0.000
1727576132.665,-42.480,-12.207,-47.852,-20.020,0.000
1727576132.669,-26.367,-37.109,-47.363,-21.973,0.000
1727576132.672,0.000,-46.387,-39.062,-38.086,0.000
1727576132.676,0.000,-29.785,-35.156,-55.176,0.000
1727576132.680,0.000,-31.738,-41.504,-33.691,0.000
1727576132.684,0.000,-43.457,-48.340,-24.414,0.000
1727576132.688,0.000,-47.852,-35.645,-32.715,0.000
1727576132.692,0.000,-56.641,-41.016,-45.898,0.000
1727576132.696,0.000,-57.617,-50.293,-63.965,0.000
1727576132.700,0.000,-48.340,-35.645,-32.227,0.000
1727576132.704,0.000,-31.738,-31.250,-9.277,0.000
1727576132.708,0.000,-39.062,-38.086,-36.621,0.000
1727576132.711,0.000,-48.340,-40.527,-41.016,0.000
1727576132.715,0.000,-53.223,-40.527,-49.805,0.000
1727576132.719,-60.547,-41.504,0.000,-47.852,0.000
1727576132.723,-48.340,-30.273,0.000,-13.184,0.000
1727576132.727,-39.551,-31.250,0.000,-14.648,0.000
1727576132.731,-16.113,-29.297,0.000,-43.457,0.000
1727576132.735,-34.668,-40.039,0.000,-53.711,0.000
1727576132.739,-66.895,-43.457,0.000,-40.527,0.000
1727576132.743,-41.992,-30.273,0.000,-12.695,0.000
1727576132.746,-18.066,-30.762,0.000,-12.207,0.000
1727576132.750,-1.953,-35.645,0.000,-25.391,0.000
1727576132.754,-10.254,-33.691,0.000,-44.922,0.000
1727576132.758,-45.410,-25.391,0.000,-46.875,0.000
1727576132.762,-51.758,-15.137,0.000,-17.578,0.000
1727576132.766,-39.551,-21.484,-40.039,-21.973,0.000
1727576132.770,-10.254,-28.320,-43.457,-32.227,0.000
1727576132.773,-16.113,-30.273,-47.363,-47.363,0.000
1727576132.777,-46.875,-45.898,-35.645,-43.945,0.000
1727576132.781,-39.062,-53.223,-27.344,-5.859,0.000
1727576132.785,-27.344,-43.945,-31.738,-12.207,0.000
1727576132.789,-8.789,-22.949,-44.922,-32.227,0.000
1727576132.793,-10.254,-2.441,-50.293,-44.434,0.000
1727576132.797,-56.641,-18.555,-47.363,-59.082,0.000
1727576132.801,-55.664,-28.320,-43.457,-39.062,0.000
1727576132.805,-23.438,-18.066,-42.969,-18.066,0.000
1727576132.809,-1.465,-11.719,-46.387,-28.809,0.000
1727576132.812,-5.859,-25.879,-46.387,-35.645,0.000
1727576132.816,-60.059,-42.969,-52.734,-49.316,0.000
1727576132.820,-67.383,-33.203,-52.246,-38.574,0.000
1727576132.824,-41.992,-21.484,-45.898,-19.043,0.000
1727576132.828,-20.996,-15.137,-45.410,-24.414,0.000
1727576132.832,0.977,-30.762,-54.199,-25.391,0.000
1727576132.836,-38.574,-51.270,-52.246,-43.457,0.000
1727576132.839,-59.082,-37.109,-42.969,-30.762,0.000
1727576132.843,-35.645,-37.598,-41.992,-17.578,0.000
1727576132.847,-18.555,-67.871,-41.992,-34.180,0.000
1727576132.851,-11.719,-55.664,-41.992,-46.387,0.000
1727576132.855,-41.504,-34.668,-45.410,-59.082,0.000
1727576132.859,0.000,-38.086,-43.457,-41.992,0.000
1727576132.863,0.000,-35.645,-36.621,-16.602,0.000
1727576132.867,0.000,-49.805,-51.270,-30.762,0.000
1727576132.871,0.000,-49.316,-54.199,-35.645,0.000
1727576132.875,0.000,-50.293,-46.387,-37.598,0.000
1727576132.879,0.000,-49.316,-49.805,-32.715,0.000
1727576132.883,0.000,-35.156,-41.992,-5.371,0.000
1727576132.887,0.000,-55.176,-41.016,-6.348,0.000
1727576132.891,0.000,-58.105,-51.758,-28.809,0.000
1727576132.895,0.000,-45.898,-48.828,-40.039,0.000
1727576132.899,0.000,-38.086,-36.621,-46.875,0.000
1727576132.902,0.000,-35.156,-34.668,-32.227,0.000
1727576132.907,-37.598,-57.129,-36.621,-26.855,0.000
1727576132.911,-16.113,-45.898,-28.809,-29.785,0.000
1727576132.914,-21.973,-42.480,-36.621,-35.156,0.000
1727576132.918,-52.246,-62.500,-45.898,-31.250,0.000
1727576132.922,-41.016,-47.363,-37.598,-10.742,0.000
1727576132.926,-32.715,-32.715,-37.598,-20.508,0.000
1727576132.930,-20.508,-29.297,-35.156,-40.527,0.000
1727576132.934,-13.184,-33.203,-31.738,-49.805,0.000
1727576132.938,-42.969,-46.875,-42.480,-56.152,0.000
1727576132.942,-44.922,-33.691,-29.297,-27.344,0.000
1727576132.946,-27.832,-20.996,-18.066,-14.648,0.000
1727576132.950,-6.836,-32.227,-25.391,-28.809,0.000
1727576132.954,-3.906,-33.203,-32.227,-37.109,0.000
1727576132.958,-48.340,-34.180,-39.062,-49.316,0.000
1727576132.961,-51.270,-48.340,-38.574,-32.227,0.000
1727576132.965,-29.297,-45.898,-36.621,-17.578,0.000
1727576132.969,-25.879,-29.297,-43.945,-27.832,0.000
1727576132.973,-13.184,-21.973,-44.434,-31.738,0.000
1727576132.977,-42.480,-30.273,-40.039,-57.129,0.000
1727576132.981,-61.035,-31.738,-45.410,-42.969,0.000
1727576132.985,-35.156,-26.367,-46.387,0.000,0.000
1727576132.989,-21.484,-11.230,-41.016,-15.137,0.000
1727576132.993,-11.230,-25.391,-43.457,-35.156,0.000
1727576132.997,-41.016,-48.340,-48.828,-47.852,0.000
1727576133.001,0.000,-38.574,-41.992,-44.434,0.000
1727576133.004,0.000,-36.133,-29.785,-20.996,0.000
1727576133.008,0.000,-49.805,-26.855,-16.602,0.000
1727576133.012,0.000,-40.527,-38.574,-26.367,0.000
1727576133.016,0.000,-35.645,-41.992,-47.852,0.000
1727576133.020,0.000,-35.156,-31.738,-32.227,0.000
1727576133.024,0.000,-21.973,-32.227,-7.812,0.000
1727576133.028,0.000,-26.855,-27.832,-16.602,0.000
1727576133.032,0.000,-22.949,-30.762,-30.273,0.000
1727576133.036,0.000,-25.391,-48.340,-58.594,0.000
1727576133.040,0.000,-35.645,-45.410,-55.664,0.000
1727576133.044,0.000,-26.855,-33.203,-17.578,0.000
1727576133.047,-42.969,-22.949,-42.480,-21.973,0.000
1727576133.051,-27.344,-25.879,-48.828,-37.598,0.000
1727576133.055,-36.133,-39.551,-46.387,-42.969,0.000
1727576133.059,-73.242,-45.898,-47.852,-55.176,0.000
1727576133.063,-51.270,-33.691,-39.062,-35.645,0.000
1727576133.067,-26.855,-26.855,-41.504,-19.531,0.000
1727576133.071,-15.137,-33.203,-47.852,-34.180,0.000
1727576133.075,-14.160,-49.805,-46.875,-50.781,0.000
1727576133.079,-51.270,-38.086,-46.875,-61.523,0.000
1727576133.083,-50.293,-25.391,-41.504,-27.344,0.000
1727576133.086,-25.879,-29.297,-33.691,-6.348,0.000
1727576133.090,-2.441,-34.180,-32.227,-22.461,0.000
1727576133.094,-4.883,-35.645,-32.227,-36.133,0.000
1727576133.098,-59.082,-42.480,-45.410,-57.617,0.000
1727576133.102,-51.758,-30.273,-41.992,-36.621,0.000
1727576133.106,-28.320,-22.461,-31.250,-21.484,0.000
1727576133.110,-33.691,-34.180,-41.992,-37.109,0.000
1727576133.114,-20.020,-38.086,-45.410,-33.203,0.000
1727576133.118,-41.992,-50.781,-49.316,-44.922,0.000
1727576133.121,-49.805,-28.320,-33.203,-34.668,0.000
1727576133.125,-34.668,-16.602,-23.438,-13.672,0.000
1727576133.129,-28.809,-38.086,-34.668,-25.879,0.000
1727576133.133,-12.207,-43.457,-33.203,-33.691,0.000
1727576133.137,-38.574,-41.504,-31.738,-44.922,0.000
1727576133.141,-55.176,-35.156,-34.668,-33.691,0.000
1727576133.145,-33.691,-35.156,-33.203,-9.277,0.000
1727576133.148,-20.508,-52.734,-30.762,-23.926,0.000
1727576133.152,-3.418,-55.664,-26.855,-25.879,0.000
1727576133.156,-31.250,-51.758,-29.785,-35.645,0.000
1727576133.160,-59.082,-55.664,-35.156,-36.621,0.000
1727576133.164,-36.621,-54.199,-37.109,-4.883,0.000
1727576133.168,-28.809,-52.246,-28.809,-28.320,0.000
1727576133.172,-19.043,-60.547,-31.738,-47.852,0.000
1727576133.176,-36.133,-60.059,-42.969,-44.434,0.000
1727576133.180,-56.152,-32.715,-33.203,-35.645,0.000
1727576133.184,-35.156,-18.066,-15.137,-11.719,0.000
1727576133.189,0.000,-26.855,-17.090,-32.715,0.000
1727576133.193,0.000,-35.645,-23.926,-44.922,0.000
1727576133.197,0.000,-46.387,-30.273,-54.199,0.000
1727576133.201,0.000,-51.270,-32.715,-67.383,0.000
1727576133.205,0.000,-41.016,-36.133,-45.898,0.000
1727576133.208,0.000,-44.434,-45.410,-44.922,0.000
1727576133.212,0.000,-49.316,-46.387,-46.875,0.000
1727576133.216,0.000,-43.457,-37.598,-40.039,0.000
1727576133.220,0.000,-44.922,-35.156,-38.574,0.000
1727576133.224,0.000,-48.828,-41.992,-10.742,0.000
1727576133.228,0.000,-43.945,-52.246,-15.137,0.000
1727576133.232,0.000,-41.016,-50.293,-46.875,0.000
1727576133.236,-18.555,-49.805,-37.109,-48.340,0.000
1727576133.240,-55.664,-45.410,-26.855,-45.410,0.000
1727576133.244,-47.852,-21.484,-14.648,-21.973,0.000
1727576133.248,-23.926,-21.973,-20.020,-14.160,0.000
1727576133.252,-10.254,-36.621,-40.527,-40.039,0.000
1727576133.256,-3.418,-44.922,-49.805,-54.688,0.000
1727576133.260,-45.410,-39.551,-44.922,-60.059,0.000
1727576133.263,-47.852,-29.785,-29.785,-29.785,0.000
1727576133.267,-25.879,-40.039,-32.715,-8.789,0.000
1727576133.271,-21.973,-43.457,-41.504,-27.832,0.000
1727576133.275,-11.719,-42.969,-39.062,-30.273,0.000
1727576133.279,-45.898,-53.223,-41.016,-51.758,0.000
1727576133.283,-55.176,-54.199,-41.992,-35.645,0.000
1727576133.287,-35.645,-51.270,-37.109,-1.465,0.000
1727576133.291,-29.297,-51.270,-35.645,-16.113,0.000
1727576133.295,-10.254,-49.316,-44.922,-21.973,0.000
1727576133.299,-27.344,-45.898,-42.969,-26.367,0.000
1727576133.303,-51.758,-47.852,-41.504,-21.484,0.000
1727576133.307,-44.434,-47.363,-38.574,-20.020,0.000
1727576133.311,-32.715,-38.086,-34.668,-41.992,0.000
1727576133.314,-12.207,-38.574,-39.551,-49.316,0.000
1727576133.318,-41.016,-40.039,-49.316,-58.594,0.000
1727576133.322,-69.824,-30.273,-42.969,-58.105,0.000
1727576133.326,-41.016,-33.691,-33.691,-28.809,0.000
1727576133.330,-25.879,-33.203,-35.645,-32.227,0.000
1727576133.334,-16.113,-33.203,-39.062,-46.875,0.000
1727576133.338,-35.156,-56.152,-38.574,-64.453,0.000
1727576133.342,-67.383,-57.129,-32.227,-62.500,0.000
1727576133.346,-47.852,-33.691,-29.785,-21.484,0.000
1727576133.350,-29.785,-35.156,-36.621,-20.508,0.000
1727576133.354,-15.137,-37.598,-35.156,-37.109,0.000
1727576133.357,-20.508,-41.016,-40.039,-47.852,0.000
1727576133.361,-55.664,-52.734,-45.410,-52.246,0.000
1727576133.365,-55.176,-34.180,-39.062,-27.832,0.000
1727576133.369,-36.133,-32.715,-31.738,-15.625,0.000
1727576133.373,-8.789,-43.945,-27.832,-26.367,0.000
1727576133.377,-20.020,-38.574,-25.879,-46.875,0.000
1727576133.381,-65.430,-40.527,-27.344,-62.012,0.000
1727576133.385,-56.152,-39.551,-35.156,-23.438,0.000
1727576133.389,-37.598,-38.086,-31.738,-8.301,0.000
1727576133.393,-22.949,-35.156,-19.531,-30.273,0.000
1727576133.396,-7.812,-45.410,-17.090,-36.133,0.000
1727576133.400,-43.945,-58.594,-21.973,-43.945,0.000
1727576133.404,-50.781,-55.176,-20.508,-13.672,0.000
1727576133.408,-31.250,-45.410,-17.090,4.883,0.000
1727576133.412,-20.508,-38.086,-19.531,-22.461,0.000
1727576133.416,-9.766,-47.852,-20.996,-32.715,0.000
1727576133.420,-42.969,-66.406,-20.020,-47.363,0.000
1727576133.424,-51.270,-61.523,-19.531,-38.086,0.000
1727576133.428,-28.320,-43.457,-17.578,-18.555,0.000
1727576133.431,-17.578,-50.781,-18.066,-28.809,0.000
1727576133.435,-10.742,-58.594,-22.461,-33.691,0.000
1727576133.439,-42.480,-60.059,-34.180,-41.016,0.000
1727576133.443,-45.898,-53.711,-24.902,-21.973,0.000
1727576133.447,-26.855,-47.363,-13.672,0.488,0.000
1727576133.451,-22.461,-66.895,-35.156,-17.090,0.000
1727576133.455,-9.277,-60.547,-36.621,-31.738,0.000
1727576133.459,-28.320,-51.758,-28.320,-51.270,0.000
1727576133.463,-49.316,-57.129,-32.715,-40.039,0.000
1727576133.467,-28.320,-39.062,-34.668,-2.441,0.000
1727576133.470,-15.137,-32.715,-34.668,-19.043,0.000
1727576133.474,-0.488,-50.781,-33.203,-34.668,0.000
1727576133.478,-19.531,-70.801,-34.668,-42.969,0.000
1727576133.482,-57.617,-53.223,-31.250,-43.457,0.000
1727576133.486,-25.391,-26.855,-21.973,-9.766,0.000
1727576133.490,0.488,-42.480,-26.367,-4.395,0.000
1727576133.494,-1.465,-63.965,-47.852,-23.438,0.000
1727576133.498,-24.902,-53.711,-56.152,-41.016,0.000
1727576133.502,-57.617,-28.320,-51.270,-41.016,0.000
1727576133.505,-41.992,-22.949,-50.293,-14.160,0.000
1727576133.509,-29.785,-33.691,-49.805,-26.367,0.000
1727576133.513,-14.648,-33.203,-48.340,-46.387,0.000
1727576133.517,-12.207,-31.250,-44.434,-50.293,0.000
1727576133.521,-45.898,-38.086,-37.598,-47.363,0.000
1727576133.525,-35.645,-37.598,-33.203,-8.301,0.000
1727576133.528,-19.043,-31.250,-41.016,2.441,0.000
1727576133.532,-7.324,-36.133,-38.574,-9.766,0.000
1727576133.536,6.348,-72.754,-31.250,-13.672,0.000
1727576133.540,-35.645,-69.336,-37.598,-33.691,0.000
1727576133.544,-45.410,-14.160,-38.086,-14.160,0.000
1727576133.548,-29.785,-14.648,-34.180,-3.418,0.000
1727576133.552,-18.066,-31.250,-30.762,-18.066,0.000
1727576133.556,-6.348,-28.809,-28.320,-19.043,0.000
1727576133.560,-40.039,-36.133,-33.691,-32.227,0.000
1727576133.564,-42.480,-36.621,-32.715,-26.367,0.000
1727576133.568,-22.461,-38.574,-33.691,-9.277,0.000
1727576133.572,-18.555,-41.016,-40.527,-25.879,0.000
1727576133.576,-10.742,-42.969,-46.387,-43.457,0.000
1727576133.580,-38.574,-49.316,-41.016,-52.246,0.000
1727576133.584,-48.340,-47.852,-39.062,-29.785,0.000
1727576133.588,-29.297,-41.016,-39.062,2.441,0.000
1727576133.591,-21.973,-27.344,-30.273,-11.230,0.000
1727576133.595,-3.906,-29.785,-36.621,-21.484,0.000
1727576133.599,-26.367,-45.898,-41.016,-35.156,0.000
1727576133.603,-59.082,-38.574,-29.297,-34.668,0.000
1727576133.607,-38.574,-35.156,-25.879,-9.766,0.000
1727576133.611,-14.648,-53.711,-30.762,-15.625,0.000
1727576133.615,0.000,-58.105,-34.180,-23.926,0.000
1727576133.619,-24.414,-57.129,-39.062,-40.039,0.000
1727576133.623,-51.270,-47.363,-35.156,-48.828,0.000
1727576133.627,-33.691,-35.645,-34.668,-19.531,0.000
1727576133.631,-20.996,-43.945,-38.574,-6.836,0.000
1727576133.635,-5.859,-47.363,-32.715,-9.277,0.000
1727576133.639,-20.996,-51.758,-31.250,-27.832,0.000
1727576133.643,-54.199,-74.707,-37.598,-35.156,0.000
1727576133.646,-40.039,-61.035,-32.715,-6.348,0.000
1727576133.650,-29.297,-45.898,-24.414,-9.277,0.000
1727576133.654,-10.742,-52.246,-23.926,-24.414,0.000
1727576133.658,-20.508,-55.176,-38.086,-44.434,0.000
1727576133.662,-60.059,-57.617,-35.645,-56.152,0.000
1727576133.666,-44.434,-46.387,-27.344,-34.668,0.000
1727576133.670,-21.973,-42.969,-32.227,-33.203,0.000
1727576133.674,-2.441,-49.316,-29.785,-40.527,0.000
1727576133.678,-1.953,-56.641,-22.949,-39.551,0.000
1727576133.682,-41.504,-64.941,-26.367,-33.203,0.000
1727576133.686,-42.480,-66.895,-29.297,-9.766,0.000
1727576133.690,-27.832,-65.918,-33.691,-12.695,0.000
1727576133.694,-20.508,-42.480,-38.086,-36.621,0.000
1727576133.697,-16.602,-21.484,-40.527,-51.758,0.000
1727576133.701,-42.969,-30.273,-41.504,-62.012,0.000
1727576133.705,-43.945,-31.738,-28.320,-29.297,0.000
1727576133.709,-24.902,-30.273,-21.484,-0.488,0.000
1727576133.713,-12.695,-42.969,-36.133,-20.020,0.000
1727576133.717,-6.348,-52.734,-53.223,-34.668,0.000
1727576133.721,-41.992,-56.152,-50.781,-45.410,0.000
1727576133.725,-55.176,-60.059,-38.086,-36.133,0.000
1727576133.729,-29.785,-46.387,-38.086,-9.277,0.000
1727576133.733,-16.602,-45.410,-46.875,-14.648,0.000
1727576133.737,-4.883,-51.270,-44.434,-29.297,0.000
1727576133.740,-38.574,-35.645,-34.668,-52.734,0.000
1727576133.744,-58.105,-26.855,-33.691,-41.016,0.000
1727576133.748,-36.133,-37.598,-40.039,-7.812,0.000
1727576133.752,-34.180,-43.457,-39.551,-15.625,0.000
1727576133.756,-18.066,-37.598,-40.527,-27.832,0.000
1727576133.760,-29.785,-47.363,-53.223,-51.758,0.000
1727576133.764,-47.852,-59.082,-46.387,-43.945,0.000
1727576133.768,-21.973,-49.316,-27.832,1.465,0.000
1727576133.772,-21.484,-38.086,-28.320,-11.719,0.000
1727576133.776,-13.672,-37.109,-43.457,-37.598,0.000
1727576133.779,-15.625,-51.758,-54.199,-46.387,0.000
1727576133.783,-47.852,-56.152,-45.410,-45.898,0.000
1727576133.787,-35.645,-41.016,-34.668,-19.531,0.000
1727576133.791,-23.926,-38.574,-37.109,-11.230,0.000
1727576133.795,-7.324,-52.734,-39.062,-26.367,0.000
1727576133.799,-14.648,-60.059,-39.062,-40.039,0.000
1727576133.803,-53.223,-54.199,-41.016,-43.945,0.000
1727576133.807,-40.039,-49.805,-36.133,-20.020,0.000
1727576133.811,-32.715,-39.551,-43.457,-15.137,0.000
1727576133.814,-24.902,-36.133,-52.734,-27.344,0.000
1727576133.818,-18.555,-43.945,-49.805,-35.645,0.000
1727576133.822,-52.734,-42.480,-42.969,-45.898,0.000
1727576133.826,-47.852,-31.250,-42.480,-26.855,0.000
1727576133.830,-27.832,-21.484,-48.340,-18.066,0.000
1727576133.834,-19.531,-36.621,-45.898,-25.391,0.000
1727576133.838,-10.254,-59.082,-50.293,-33.203,0.000
1727576133.842,-38.086,-47.852,-47.852,-56.152,0.000
1727576133.845,-49.316,-21.973,-36.133,-43.457,0.000
1727576133.849,-29.785,-24.414,-34.668,-19.531,0.000
1727576133.853,-16.602,-33.203,-41.016,-22.461,0.000
1727576133.857,-11.719,-30.273,-40.039,-33.203,0.000
1727576133.861,-46.875,-47.852,-35.645,-55.176,0.000
1727576133.865,-63.477,-49.316,-35.156,-38.086,0.000
1727576133.869,-39.062,-40.039,-33.691,-14.160,0.000
1727576133.873,-26.855,-34.180,-34.668,-23.926,0.000
1727576133.877,-14.648,-30.273,-33.691,-28.320,0.000
1727576133.881,-38.574,-41.016,-35.156,-44.434,0.000
1727576133.884,-55.176,-39.551,-33.691,-36.621,0.000
1727576133.888,-38.086,-33.203,-28.320,-17.090,0.000
1727576133.892,-33.691,-34.180,-30.273,-26.367,0.000
1727576133.896,-12.695,-41.992,-38.574,-35.645,0.000
1727576133.900,-26.367,-48.828,-39.551,-41.504,0.000
1727576133.904,-48.828,-34.668,-32.227,-26.367,0.000
1727576133.908,-34.180,-32.227,-27.344,2.441,0.000
1727576133.911,-21.484,-46.875,-31.738,-5.371,0.000
1727576133.915,-5.371,-50.781,-37.598,-17.578,0.000
1727576133.919,-27.832,-54.199,-42.480,-43.457,0.000
1727576133.923,-62.012,-41.992,-38.086,-53.711,0.000
1727576133.927,-40.039,-34.668,-27.344,-22.949,0.000
1727576133.931,-31.738,-40.527,-28.320,-19.531,0.000
1727576133.935,-23.438,-30.273,-27.344,-34.180,0.000
1727576133.939,-29.297,-30.273,-34.180,-45.898,0.000
1727576133.943,-62.012,-49.805,-40.039,-53.711,0.000
1727576133.947,-40.527,-46.875,-24.414,-15.625,0.000
1727576133.951,-29.785,-43.945,-20.508,-12.207,0.000
1727576133.955,-15.137,-50.781,-30.762,-33.203,0.000
1727576133.959,-8.301,-46.387,-35.645,-37.109,0.000
1727576133.963,-44.922,-41.016,-29.785,-47.363,0.000
1727576133.967,-43.457,-29.297,-32.715,-28.320,0.000
1727576133.970,-29.785,-37.598,-40.039,-19.043,0.000
1727576133.974,-27.344,-51.270,-41.504,-37.598,0.000
1727576133.978,-22.461,-45.898,-42.480,-47.363,0.000
1727576133.982,-48.340,-44.434,-37.109,-51.270,0.000
1727576133.986,-45.410,-29.785,-27.344,-20.020,0.000
1727576133.990,-26.367,-27.344,-31.738,-5.859,0.000
1727576133.994,-20.020,-46.387,-42.969,-26.855,0.000
1727576133.998,-17.090,-46.387,-42.480,-24.902,0.000
1727576134.002,-57.129,-51.758,-41.992,-50.781,0.000
1727576134.006,-63.965,-49.805,-33.203,-46.387,0.000
1727576134.010,-36.621,-34.668,-27.344,-14.160,0.000
1727576134.014,-34.668,-32.227,-35.156,-36.621,0.000
1727576134.018,-22.949,-45.898,-46.875,-46.387,0.000
1727576134.022,-44.434,-71.289,-50.293,-50.293,0.000
1727576134.025,-62.988,-51.270,-35.645,-42.969,0.000
1727576134.029,-37.109,-30.273,-28.809,-6.836,0.000
1727576134.033,-22.949,-41.992,-30.273,-7.324,0.000
1727576134.037,-1.953,-40.527,-33.691,-31.250,0.000
1727576134.041,-21.973,-35.645,-45.898,-53.223,0.000
1727576134.045,-60.547,-36.133,-48.828,-52.246,0.000
1727576134.049,-46.875,-29.785,-45.410,-28.320,0.000
1727576134.053,-33.203,-37.109,-44.922,-27.832,0.000
1727576134.057,-17.578,-46.387,-40.527,-35.156,0.000
1727576134.061,-32.715,-56.152,-47.852,-52.734,0.000
1727576134.065,-60.547,-68.359,-45.410,-48.828,0.000
1727576134.069,-47.363,-47.852,-31.250,-18.555,0.000
1727576134.072,-27.344,-21.484,-24.902,-21.973,0.000
1727576134.076,0.977,-24.902,-24.414,-25.879,0.000
1727576134.080,-16.602,-49.316,-33.203,-32.715,0.000
1727576134.084,-62.500,-56.641,-33.203,-45.898,0.000
1727576134.088,-48.340,-48.828,-29.297,-30.273,0.000
1727576134.092,-27.344,-53.711,-37.598,-22.949,0.000
1727576134.096,-16.602,-58.105,-27.344,-22.949,0.000
1727576134.100,-26.855,-70.312,-33.691,-38.086,0.000
1727576134.104,-61.035,-58.594,-36.133,-64.941,0.000
1727576134.108,-55.664,-32.227,-29.785,-31.250,0.000
1727576134.112,-39.551,-35.645,-45.898,-12.695,0.000
1727576134.115,-24.902,-31.250,-43.457,-36.621,0.000
1727576134.119,-20.020,-37.109,-41.016,-46.875,0.000
1727576134.123,-50.293,-56.152,-46.875,-50.293,0.000
1727576134.127,-51.758,-35.645,-39.062,-27.344,0.000
1727576134.131,-27.832,-10.742,-35.156,-24.414,0.000
1727576134.135,-10.742,-25.879,-36.621,-31.738,0.000
1727576134.139,-1.465,-31.250,-40.527,-36.621,0.000
1727576134.143,-25.391,-27.832,-42.480,-58.594,0.000
1727576134.147,-38.086,-33.203,-42.480,-37.109,0.000
1727576134.151,-33.691,-30.762,-43.945,-14.648,0.000
1727576134.154,-25.391,-41.992,-39.062,-20.996,0.000
1727576134.158,-18.066,-58.594,-41.504,-39.062,0.000
1727576134.162,-46.387,-52.734,-45.410,-61.035,0.000
1727576134.166,-51.758,-39.551,-35.645,-32.715,0.000
1727576134.170,-26.855,-30.762,-28.320,-3.418,0.000
1727576134.174,-20.020,-24.414,-37.598,-20.508,0.000
1727576134.178,-7.324,-33.691,-44.434,-23.926,0.000
1727576134.182,-21.484,-50.293,-41.016,-36.621,0.000
1727576134.186,-43.945,-45.410,-32.715,-32.715,0.000
1727576134.189,-36.133,-38.086,-30.762,-7.812,0.000
1727576134.193,-33.203,-50.781,-34.668,-25.879,0.000
1727576134.197,-16.602,-55.176,-37.598,-42.969,0.000
1727576134.201,-36.133,-60.547,-44.434,-38.086,0.000
1727576134.205,-70.312,-39.062,-37.598,-21.484,0.000
1727576134.209,-41.016,-19.531,-25.879,0.488,0.000
1727576134.213,-20.020,-30.273,-31.738,-14.160,0.000
1727576134.217,-15.137,-34.180,-42.480,-30.273,0.000
1727576134.220,-30.762,-44.922,-49.316,-44.922,0.000
1727576134.224,-57.129,-51.758,-46.387,-50.781,0.000
1727576134.228,-35.645,-38.086,-35.645,-8.301,0.000
1727576134.232,-15.137,-37.598,-35.645,-6.348,0.000
1727576134.236,-1.465,-38.574,-46.387,-27.832,0.000
1727576134.240,-2.930,-41.016,-47.363,-34.668,0.000
1727576134.244,-41.992,-37.598,-46.387,-47.852,0.000
1727576134.248,-43.945,-19.531,-41.992,-25.879,0.000
1727576134.252,-33.691,-27.344,-40.527,-20.996,0.000
1727576134.256,-16.602,-41.016,-41.504,-36.621,0.000
1727576134.259,-9.766,-41.992,-37.598,-38.086,0.000
1727576134.263,-48.828,-35.645,-35.645,-46.875,0.000
1727576134.267,-44.922,-18.066,-29.297,-27.344,0.000
1727576134.271,-22.461,-24.414,-33.203,-15.625,0.000
1727576134.275,-11.719,-37.109,-35.156,-38.086,0.000
1727576134.279,3.906,-22.461,-31.250,-31.250,0.000
1727576134.282,-35.156,-19.043,-33.203,-28.809,0.000
1727576134.286,-52.734,-21.973,-35.645,-12.695,0.000
1727576134.290,-35.645,-26.367,-41.016,1.953,0.000
1727576134.294,-34.180,-23.926,-41.016,-18.555,0.000
1727576134.298,-24.414,-22.949,-40.039,-34.668,0.000
1727576134.302,-43.457,-31.738,-35.156,-44.434,0.000
1727576134.306,-51.758,-27.344,-29.297,-20.508,0.000
1727576134.310,-29.785,-17.090,-31.250,1.465,0.000
1727576134.314,-21.484,-30.762,-39.062,-14.160,0.000
1727576134.318,-6.836,-36.621,-30.273,-29.297,0.000
1727576134.322,-28.809,-31.250,-26.367,-44.434,0.000
1727576134.326,-48.828,-33.203,-34.180,-37.598,0.000
1727576134.330,-26.855,-19.531,-36.133,-9.277,0.000
1727576134.334,-11.719,-7.812,-37.109,-16.113,0.000
1727576134.338,1.953,-5.371,-43.457,-30.762,0.000
1727576134.341,-21.973,-3.906,-41.992,-41.504,0.000
1727576134.345,-53.711,-15.137,-46.387,-41.992,0.000
1727576134.349,-34.180,-25.879,-41.992,-15.625,0.000
1727576134.353,-21.973,-20.020,-23.438,-14.160,0.000
1727576134.357,-2.441,-13.672,-24.414,-27.832,0.000
1727576134.361,-8.301,-20.020,-35.156,-36.621,0.000
1727576134.365,-47.852,-23.926,-30.762,-34.668,0.000
1727576134.369,-47.363,-19.531,-25.391,-10.742,0.000
1727576134.373,-32.715,-18.555,-27.832,-9.766,0.000
1727576134.377,-20.020,-13.184,-28.320,-27.344,0.000
1727576134.381,-29.297,-18.555,-28.809,-38.086,0.000
1727576134.385,-59.570,-21.484,-34.668,-41.992,0.000
1727576134.389,-43.945,-15.625,-30.273,-26.367,0.000
1727576134.393,-27.344,-28.809,-29.785,-15.625,0.000
1727576134.397,-18.555,-40.527,-33.203,-4.395,0.000
1727576134.400,-20.996,-32.715,-34.180,-32.715,0.000
1727576134.404,-54.199,-39.062,-38.086,-65.918,0.000
1727576134.408,-45.898,-41.504,-33.691,-39.551,0.000
1727576134.412,-31.250,-30.762,-27.344,-27.832,0.000
1727576134.416,-28.320,-30.273,-28.320,-38.574,0.000
1727576134.420,-22.461,-49.316,-37.598,-40.039,0.000
1727576134.424,-51.758,-56.641,-42.480,-53.711,0.000
1727576134.428,-49.316,-47.852,-32.715,-39.551,0.000
1727576134.432,-26.367,-41.504,-28.809,-18.555,0.000
1727576134.436,-20.508,-49.805,-41.016,-28.320,0.000
1727576134.440,-12.207,-62.012,-54.688,-35.156,0.000
1727576134.444,-45.898,-42.480,-52.246,-49.805,0.000
1727576134.447,-55.176,-23.926,-45.410,-32.715,0.000
1727576134.451,-35.156,-35.645,-45.410,-15.625,0.000
1727576134.455,-27.344,-41.016,-40.039,-28.320,0.000
1727576134.459,-7.324,-25.391,-29.785,-31.738,0.000
1727576134.463,-37.109,-23.438,-29.297,-38.086,0.000
1727576134.467,-61.035,-14.160,-30.762,-32.227,0.000
1727576134.471,-33.691,-4.395,-28.320,-13.672,0.000
1727576134.475,-30.762,-20.508,-31.250,-28.809,0.000
1727576134.479,-28.320,-34.180,-31.738,-37.598,0.000
1727576134.483,-46.387,-44.922,-37.598,-40.527,0.000
1727576134.487,-68.848,-40.527,-42.480,-32.715,0.000
1727576134.490,-53.223,-1.953,-22.949,-7.812,0.000
1727576134.494,-38.086,-8.789,-23.926,-17.578,0.000
1727576134.498,-26.367,-26.367,-36.133,-45.410,0.000
1727576134.502,0.000,-29.785,-35.156,-58.594,0.000
1727576134.506,0.000,-30.762,-32.715,-46.875,0.000
1727576134.510,0.000,-28.320,-34.668,-28.320,0.000
1727576134.514,0.000,-34.668,-37.598,-40.527,0.000
1727576134.518,0.000,-40.527,-44.922,-52.734,0.000
1727576134.522,0.000,-49.316,-47.363,-58.594,0.000
1727576134.526,0.000,-43.457,-38.574,-55.176,0.000
1727576134.529,0.000,-29.785,-36.621,-25.879,0.000
1727576134.533,0.000,-24.414,-39.062,-26.855,0.000
1727576134.537,0.000,-19.043,-31.250,-37.109,0.000
1727576134.541,0.000,-23.438,-32.227,-45.410,0.000
1727576134.545,0.000,-49.805,-40.039,-56.152,0.000
1727576134.549,-37.109,-41.992,-41.016,-32.715,0.000
1727576134.553,-15.137,-27.832,-45.410,-27.832,0.000
1727576134.557,3.906,-23.926,-44.922,-40.527,0.000
1727576134.561,11.230,-17.090,-37.598,-35.645,0.000
1727576134.565,-27.832,-19.531,-42.969,-49.316,0.000
1727576134.568,-39.551,-17.578,-44.434,-42.480,0.000
1727576134.572,-33.203,-20.020,-36.621,-15.137,0.000
1727576134.576,-18.066,-30.762,-36.133,-7.324,0.000
1727576134.580,-7.812,-20.996,-32.715,-33.203,0.000
1727576134.584,-40.039,-25.391,-34.180,-69.824,0.000
1727576134.588,-52.246,-34.180,-37.109,-45.898,0.000
1727576134.592,-38.574,-31.250,-39.551,-24.414,0.000
1727576134.595,-25.391,-28.809,-42.969,-34.668,0.000
1727576134.599,-12.207,-25.879,-36.621,-41.016,0.000
1727576134.603,-51.758,-40.527,-40.527,-51.758,0.000
1727576134.607,-67.871,-35.645,-39.062,-26.855,0.000
1727576134.611,-43.457,-30.762,-26.855,5.859,0.000
1727576134.615,-37.598,-32.227,-32.715,-20.508,0.000
1727576134.619,-11.230,-34.668,-41.992,-38.574,0.000
1727576134.623,-33.691,-34.180,-36.621,-46.875,0.000
1727576134.627,-55.664,-14.648,-25.391,-45.410,0.000
1727576134.631,-24.902,-9.766,-24.902,-15.625,0.000
1727576134.635,-20.996,-15.137,-32.715,-21.484,0.000
1727576134.638,-14.160,-24.902,-34.668,-33.691,0.000
1727576134.642,-32.227,-34.180,-36.133,-37.109,0.000
1727576134.646,-59.082,-32.227,-38.574,-32.715,0.000
1727576134.650,-41.992,-28.320,-39.551,-4.883,0.000
1727576134.654,-29.785,-22.461,-36.621,-14.160,0.000
1727576134.658,-0.977,-16.602,-29.297,-21.973,0.000
1727576134.661,-13.672,-34.668,-44.434,-38.086,0.000
1727576134.665,-58.594,-55.176,-56.641,-49.805,0.000
1727576134.669,-48.828,-35.156,-39.062,-24.414,0.000
1727576134.673,-31.738,-30.273,-35.156,-19.043,0.000
1727576134.677,-14.648,-37.598,-35.645,-35.645,0.000
1727576134.681,-19.531,-45.898,-35.156,-47.363,0.000
1727576134.685,-48.340,-51.758,-32.715,-36.621,0.000
1727576134.688,-41.016,-33.203,-32.715,-13.672,0.000
1727576134.692,-21.973,-37.109,-32.715,-15.137,0.000
1727576134.696,-4.395,-42.969,-26.367,-23.926,0.000
1727576134.700,-7.812,-37.109,-29.785,-27.832,0.000
1727576134.704,-47.852,-49.805,-34.668,-36.621,0.000
1727576134.708,-38.086,-53.223,-33.691,-9.766,0.000
1727576134.712,-15.137,-52.734,-30.273,-3.906,0.000
1727576134.716,-4.883,-46.875,-30.273,-27.832,0.000
1727576134.720,4.883,-50.781,-31.738,-42.480,0.000
1727576134.723,-22.461,-65.918,-37.598,-50.293,0.000
1727576134.727,-39.551,-53.223,-41.992,-29.785,0.000
1727576134.731,-32.227,-39.062,-44.922,-19.043,0.000
1727576134.736,-16.113,-43.945,0.000,-35.645,0.000
1727576134.739,2.930,-46.875,0.000,-50.293,0.000
1727576134.743,-35.156,-54.199,0.000,-55.664,0.000
1727576134.747,-55.176,-51.270,0.000,-24.414,0.000
