timestamps,TP9,AF7,AF8,TP10,Right AUX
1727575745.894,-14.648,-30.762,-48.828,-41.504,0.000
1727575745.898,-8.301,-41.016,-51.270,-42.480,0.000
1727575745.902,-39.551,-53.223,-42.969,-39.551,0.000
1727575745.906,-38.086,-55.176,-37.109,-26.855,0.000
1727575745.910,-26.367,-48.340,-37.109,-9.766,0.000
1727575745.913,-25.391,-51.270,-44.434,-12.695,0.000
1727575745.917,-13.672,-54.688,-45.898,-30.762,0.000
1727575745.921,-55.176,-52.734,-45.410,-41.992,0.000
1727575745.925,-69.336,-40.527,-43.945,-36.133,0.000
1727575745.929,-42.480,-44.922,-49.316,-37.109,0.000
1727575745.933,-27.344,-51.758,-49.316,-39.551,0.000
1727575745.937,-13.184,-32.227,-41.016,-38.086,0.000
1727575745.941,-54.199,-30.762,-39.551,-57.129,0.000
1727575745.945,-74.219,-40.039,-35.156,-48.828,0.000
1727575745.948,-45.410,-39.062,-30.273,-17.090,0.000
1727575745.952,-33.203,-34.180,-26.855,-21.484,0.000
1727575745.956,-14.648,-37.598,-31.250,-28.809,0.000
1727575745.960,-40.039,-58.594,-45.898,-51.270,0.000
1727575745.964,-63.965,-62.500,-35.645,-47.363,0.000
1727575745.968,-46.387,-40.039,-22.461,-20.508,0.000
1727575745.972,-33.691,-23.926,-23.438,-22.461,0.000
1727575745.976,4.395,-23.438,-22.949,-17.090,0.000
1727575745.980,-3.906,-40.527,-27.832,-25.879,0.000
1727575745.984,-36.621,-44.922,-23.438,-28.320,0.000
1727575745.987,-20.020,-23.926,-11.719,-2.441,0.000
1727575745.991,-7.324,-16.113,-16.113,-10.254,0.000
1727575745.995,11.719,-21.973,-24.902,-23.926,0.000
1727575745.999,-6.836,-36.133,-26.855,-35.156,0.000
1727575746.003,-47.363,-34.668,-27.344,-39.062,0.000
1727575746.007,-29.785,-27.344,-28.320,-20.508,0.000
1727575746.011,-11.719,-36.133,-30.762,-12.695,0.000
1727575746.015,0.488,-25.879,-26.855,-18.066,0.000
1727575746.019,-13.672,-27.832,-32.715,-33.203,0.000
1727575746.022,-56.641,-41.992,-37.109,-40.527,0.000
1727575746.026,-46.875,-27.344,-34.180,-19.043,0.000
1727575746.030,-31.738,-13.672,-41.504,-12.695,0.000
1727575746.034,0.000,-19.043,-42.969,-19.531,0.000
1727575746.038,0.000,-37.109,-41.504,-36.621,0.000
1727575746.042,0.000,-33.203,-38.574,-44.434,0.000
1727575746.046,0.000,-19.531,-31.250,-20.996,0.000
1727575746.050,0.000,-28.320,-37.109,-28.320,0.000
1727575746.054,0.000,-41.504,-47.363,-32.227,0.000
1727575746.058,0.000,-46.875,-50.293,-34.180,0.000
1727575746.062,0.000,-52.246,-45.898,-62.500,0.000
1727575746.066,0.000,-40.527,-39.551,-46.875,0.000
1727575746.070,0.000,-40.039,-41.016,-27.344,0.000
1727575746.074,0.000,-41.504,-34.180,-40.039,0.000
1727575746.077,0.000,-42.480,-32.227,-45.898,0.000
1727575746.081,-50.781,-40.527,-33.203,-57.129,0.000
1727575746.085,-65.918,-33.203,-29.785,-48.828,0.000
1727575746.089,-51.270,-23.926,-28.809,-33.203,0.000
1727575746.093,-41.016,-26.855,-34.668,-39.062,0.000
1727575746.097,-45.410,-55.664,-44.922,-58.105,0.000
1727575746.101,-86.426,-68.848,-49.316,-68.359,0.000
1727575746.105,-87.402,-57.129,-42.969,-46.875,0.000
1727575746.109,-53.223,-43.945,-34.180,-35.156,0.000
1727575746.113,-26.855,-45.410,-37.109,-31.738,0.000
1727575746.117,-7.324,-49.316,-46.875,-36.133,0.000
1727575746.121,-49.316,-52.246,-45.410,-65.918,0.000
1727575746.124,-67.871,-43.945,-33.203,-55.176,0.000
1727575746.128,0.000,-39.062,-30.273,-27.832,0.000
1727575746.132,0.000,-36.621,-28.320,-23.438,0.000
1727575746.136,0.000,-29.297,-22.949,-17.578,0.000
1727575746.140,0.000,-50.293,-27.832,-24.414,0.000
1727575746.144,0.000,-55.664,-29.785,-27.832,0.000
1727575746.148,0.000,-44.922,-28.809,-9.277,0.000
1727575746.152,0.000,-36.621,-26.367,-6.836,0.000
1727575746.156,0.000,-34.668,-31.250,-6.836,0.000
1727575746.160,0.000,-66.895,-45.410,-20.020,0.000
1727575746.164,0.000,-53.711,-41.992,-33.691,0.000
1727575746.168,0.000,-25.391,-30.273,-20.508,0.000
1727575746.171,0.000,-31.250,-32.715,-12.695,0.000
1727575746.175,9.277,-27.344,-34.668,-9.766,0.000
1727575746.179,-13.184,-31.250,-37.109,-35.156,0.000
1727575746.183,-60.059,-38.086,-42.969,-49.805,0.000
1727575746.187,-49.316,-33.203,-43.457,-23.438,0.000
1727575746.191,-35.645,-23.926,-45.410,-35.645,0.000
1727575746.195,-14.160,-22.949,-49.316,-42.480,0.000
1727575746.199,-18.066,-32.227,-52.246,-39.062,0.000
1727575746.203,-49.805,-35.156,-49.805,-43.457,0.000
1727575746.207,-38.086,-29.785,-44.922,-24.414,0.000
1727575746.210,-26.855,-30.762,-42.969,-30.273,0.000
1727575746.214,-3.418,-37.109,-42.480,-34.668,0.000
1727575746.218,4.395,-34.668,-43.945,-31.250,0.000
1727575746.222,-39.062,-32.227,-39.062,-43.945,0.000
1727575746.226,-45.410,-29.785,-28.320,-26.367,0.000
1727575746.230,-35.156,-38.574,-31.738,-15.137,0.000
1727575746.234,-16.113,-40.039,-39.551,-22.461,0.000
1727575746.238,-10.742,-34.180,-41.504,-32.227,0.000
1727575746.242,-51.758,-42.969,-37.598,-40.527,0.000
1727575746.246,-58.105,-36.621,-32.715,-20.996,0.000
1727575746.250,-40.527,-41.504,-36.621,-11.719,0.000
1727575746.253,-15.625,-32.227,-33.691,-23.438,0.000
1727575746.257,-9.766,-33.203,-36.133,-34.180,0.000
1727575746.261,-52.734,-46.387,-38.574,-41.992,0.000
1727575746.265,-52.734,-39.551,-30.273,-15.625,0.000
1727575746.269,-27.832,-29.785,-31.738,-5.859,0.000
1727575746.273,-19.043,-25.391,-34.668,-26.855,0.000
1727575746.277,-9.766,-36.133,-36.133,-37.109,0.000
1727575746.281,-48.828,-44.922,-39.062,-49.805,0.000
1727575746.285,-63.965,-31.250,-32.715,-28.809,0.000
1727575746.288,-36.621,-31.738,-29.297,-1.465,0.000
1727575746.292,-15.137,-39.062,-28.320,-11.719,0.000
1727575746.296,6.348,-40.527,-30.273,-14.648,0.000
1727575746.300,-29.297,-28.320,-31.738,-33.203,0.000
1727575746.304,-55.664,-19.043,-27.832,-31.738,0.000
1727575746.308,-25.879,-22.461,-25.391,0.000,0.000
1727575746.312,-7.324,-23.438,-30.762,-10.742,0.000
1727575746.316,2.930,-31.738,-36.621,-21.484,0.000
1727575746.320,-28.320,-48.340,-41.016,-24.414,0.000
1727575746.324,-59.570,-39.062,-41.016,-10.742,0.000
1727575746.327,-40.527,-14.160,-34.668,3.418,0.000
1727575746.331,-25.879,-13.184,-27.832,-9.766,0.000
1727575746.335,-1.953,-22.949,-25.391,-15.625,0.000
1727575746.339,-18.555,-42.480,-35.645,-26.855,0.000
1727575746.343,-50.781,-33.203,-33.203,-35.645,0.000
1727575746.347,-28.320,-6.836,-29.785,-22.461,0.000
1727575746.351,-24.414,-15.625,-39.062,-27.832,0.000
1727575746.355,-6.348,-35.156,-37.109,-31.738,0.000
1727575746.359,-13.184,-54.199,-41.992,-37.598,0.000
1727575746.362,-48.340,-44.434,-49.805,-47.363,0.000
1727575746.366,-26.855,-14.160,-35.156,-15.625,0.000
1727575746.370,-3.906,-1.465,-37.109,0.977,0.000
1727575746.374,10.742,-1.953,-44.434,-21.484,0.000
1727575746.378,-8.301,-7.812,-38.574,-39.551,0.000
1727575746.382,-38.574,-22.461,-39.551,-39.551,0.000
1727575746.386,-10.254,-40.039,-37.598,-11.230,0.000
1727575746.390,4.883,-43.945,-32.715,0.977,0.000
1727575746.394,10.254,-24.414,-34.668,-20.020,0.000
1727575746.398,-11.230,-18.066,-38.086,-46.875,0.000
1727575746.401,-56.152,-13.672,-37.109,-57.617,0.000
1727575746.405,-45.410,-2.441,-28.320,-28.809,0.000
1727575746.409,-13.672,-20.996,-25.879,-5.371,0.000
1727575746.413,16.602,-56.641,-35.156,0.977,0.000
1727575746.417,0.977,-53.711,-48.340,-19.531,0.000
1727575746.421,-49.316,-35.156,-46.875,-57.129,0.000
1727575746.425,-33.203,-8.301,-23.438,-27.832,0.000
1727575746.429,-24.902,-10.742,-23.438,-20.020,0.000
1727575746.433,-36.133,-28.809,-35.156,-56.152,0.000
1727575746.437,-39.551,-20.996,-35.156,-67.383,0.000
1727575746.441,-91.797,-29.297,-38.574,-80.078,0.000
1727575746.445,-93.750,-49.805,-33.203,-60.059,0.000
1727575746.449,-55.664,-27.832,-15.625,-38.086,0.000
1727575746.452,-39.551,-17.578,-19.531,-46.387,0.000
1727575746.456,-28.320,-41.016,-23.926,-47.363,0.000
1727575746.460,-62.988,-77.148,-27.832,-68.359,0.000
1727575746.464,-61.523,-107.910,-57.617,-52.246,0.000
1727575746.468,-17.578,-53.223,-51.270,-6.348,0.000
1727575746.472,-1.953,-53.711,-29.785,-17.578,0.000
1727575746.476,-14.648,-84.473,-63.477,-23.926,0.000
1727575746.480,-66.406,-28.320,-56.152,-46.387,0.000
1727575746.484,-62.988,-41.504,-17.090,-41.992,0.000
1727575746.488,13.184,-155.273,-38.086,27.344,0.000
1727575746.492,58.594,-75.195,-76.660,65.430,0.000
1727575746.496,123.047,-6.836,20.508,74.707,0.000
1727575746.499,111.816,-307.129,18.555,69.336,0.000
1727575746.503,110.840,-329.590,-18.066,115.234,0.000
1727575746.507,258.789,169.922,167.969,280.762,0.000
1727575746.511,99.121,184.082,58.105,112.305,0.000
1727575746.515,38.574,-97.168,-215.332,17.090,0.000
1727575746.519,64.453,211.426,-89.355,53.711,0.000
1727575746.523,-131.836,199.707,-47.363,-113.770,0.000
1727575746.527,-112.793,-121.582,-140.137,-76.172,0.000
1727575746.531,17.090,-3.906,-91.797,41.016,0.000
1727575746.535,6.348,17.578,-26.855,-24.902,0.000
1727575746.539,48.828,-82.031,73.730,24.414,0.000
1727575746.543,73.242,395.996,20.020,96.191,0.000
1727575746.546,-51.758,471.680,-15.137,-50.293,0.000
1727575746.550,-125.000,508.301,35.156,-126.953,0.000
1727575746.554,-152.344,767.578,44.922,-125.000,0.000
1727575746.558,-159.180,800.781,38.574,-114.746,0.000
1727575746.562,-95.703,885.742,109.375,-36.133,0.000
1727575746.566,-35.645,958.984,213.867,15.137,0.000
1727575746.570,10.254,967.285,330.566,51.270,0.000
1727575746.574,41.016,964.844,415.527,62.988,0.000
1727575746.578,41.016,967.285,506.348,63.477,0.000
1727575746.582,18.066,966.797,638.672,81.055,0.000
1727575746.585,40.039,966.797,764.160,111.816,0.000
1727575746.589,79.590,966.797,879.395,126.465,0.000
1727575746.593,90.820,966.797,952.148,125.000,0.000
1727575746.597,90.332,966.797,967.773,124.512,0.000
1727575746.601,63.965,966.797,964.844,120.605,0.000
1727575746.605,63.477,966.797,967.285,138.672,0.000
1727575746.609,82.520,966.309,966.797,142.090,0.000
1727575746.613,100.586,966.797,966.797,134.277,0.000
1727575746.617,123.047,966.797,966.797,138.184,0.000
1727575746.621,89.844,966.797,966.797,120.605,0.000
1727575746.625,81.055,966.797,966.797,138.184,0.000
1727575746.628,94.727,966.797,966.797,146.484,0.000
1727575746.632,102.539,966.797,966.797,126.465,0.000
1727575746.636,108.887,966.797,965.820,112.793,0.000
1727575746.640,60.547,966.797,966.309,89.355,0.000
1727575746.644,37.109,967.285,966.309,89.844,0.000
1727575746.648,53.223,962.891,917.480,92.773,0.000
1727575746.652,65.918,972.168,844.238,78.613,0.000
1727575746.656,71.289,953.613,782.227,59.570,0.000
1727575746.660,23.926,890.137,710.449,31.738,0.000
1727575746.664,22.949,858.887,663.086,57.617,0.000
1727575746.667,55.664,715.332,615.723,91.309,0.000
1727575746.671,55.664,708.008,525.879,83.496,0.000
1727575746.675,109.375,638.672,467.773,85.938,0.000
1727575746.679,111.816,282.227,442.383,83.984,0.000
1727575746.683,-24.902,415.527,394.531,29.297,0.000
1727575746.687,-115.723,665.039,319.336,-48.340,0.000
1727575746.691,-88.379,437.012,251.953,-59.082,0.000
1727575746.695,-12.207,346.191,223.633,5.859,0.000
1727575746.699,-3.418,437.988,221.191,28.320,0.000
1727575746.702,-85.449,351.074,175.293,-20.020,0.000
1727575746.706,-83.496,255.371,99.609,-16.113,0.000
1727575746.710,-54.688,259.766,58.594,-22.461,0.000
1727575746.714,-39.062,245.605,5.859,-44.434,0.000
1727575746.718,-49.805,164.062,-23.438,-50.293,0.000
1727575746.722,-90.332,149.902,-41.504,-64.453,0.000
1727575746.726,-76.172,177.246,-64.453,-31.250,0.000
1727575746.730,-54.199,157.227,-93.262,-22.461,0.000
1727575746.734,-27.832,136.230,-114.746,-39.551,0.000
1727575746.737,-40.527,112.305,-126.465,-37.109,0.000
1727575746.741,-81.543,88.379,-139.648,-43.945,0.000
1727575746.745,-61.035,86.426,-141.113,-27.832,0.000
1727575746.749,-50.781,74.219,-145.508,-22.461,0.000
1727575746.753,-30.273,53.223,-152.832,-40.527,0.000
1727575746.757,-19.043,23.438,-162.598,-50.293,0.000
1727575746.761,-54.688,11.719,-158.691,-39.062,0.000
1727575746.765,-54.688,12.207,-148.926,-26.367,0.000
1727575746.769,-40.527,-29.785,-160.156,-28.809,0.000
1727575746.773,-27.344,-48.340,-173.340,-29.297,0.000
1727575746.776,-32.715,-43.457,-184.570,-40.527,0.000
1727575746.780,-75.195,-64.453,-185.059,-61.523,0.000
1727575746.784,-66.406,-64.941,-166.992,-49.805,0.000
1727575746.788,-43.457,-69.336,-163.574,-26.367,0.000
1727575746.792,-33.203,-96.191,-171.875,-32.715,0.000
1727575746.796,-25.391,-140.625,-184.570,-54.688,0.000
1727575746.800,-72.754,-181.152,-196.777,-67.383,0.000
1727575746.804,-81.055,-201.172,-188.477,-39.062,0.000
1727575746.808,-49.805,-207.031,-178.711,-20.508,0.000
1727575746.812,-32.715,-208.984,-185.059,-37.109,0.000
1727575746.816,-13.184,-231.445,-194.824,-48.340,0.000
1727575746.820,-54.688,-250.977,-208.984,-62.500,0.000
1727575746.824,-73.242,-242.676,-204.590,-57.617,0.000
1727575746.827,-48.340,-250.977,-206.543,-44.922,0.000
1727575746.831,-41.992,-291.504,-211.426,-44.434,0.000
1727575746.835,-33.691,-316.895,-206.055,-53.711,0.000
1727575746.839,-64.941,-314.941,-213.867,-74.707,0.000
1727575746.843,-80.566,-289.062,-210.449,-72.266,0.000
1727575746.847,-64.941,-285.645,-208.984,-61.035,0.000
1727575746.851,-55.176,-320.312,-218.750,-70.312,0.000
1727575746.855,-47.852,-356.934,-222.168,-83.496,0.000
1727575746.859,-83.984,-377.441,-219.727,-101.074,0.000
1727575746.863,-100.098,-380.371,-203.125,-89.844,0.000
1727575746.867,-71.777,-370.605,-191.406,-69.336,0.000
1727575746.871,-70.312,-380.371,-201.660,-79.590,0.000
1727575746.874,-56.641,-405.762,-189.453,-91.797,0.000
1727575746.878,-64.453,-441.895,-158.691,-105.957,0.000
1727575746.882,-93.262,-448.730,-123.535,-95.703,0.000
1727575746.886,-74.707,-416.504,-91.797,-66.895,0.000
1727575746.890,-45.410,-401.855,-87.891,-72.754,0.000
1727575746.894,-27.344,-417.480,-88.867,-83.496,0.000
1727575746.898,-57.617,-437.012,-93.750,-100.098,0.000
1727575746.902,-92.285,-428.711,-94.727,-107.910,0.000
1727575746.906,-74.707,-415.039,-93.262,-83.008,0.000
1727575746.910,-63.477,-420.898,-104.004,-75.195,0.000
1727575746.914,-43.945,-405.273,-98.633,-82.520,0.000
1727575746.918,-48.340,-395.020,-89.355,-90.820,0.000
1727575746.921,-80.566,-408.691,-82.520,-86.914,0.000
1727575746.925,-66.895,-411.621,-77.148,-57.617,0.000
1727575746.929,-56.152,-411.621,-89.844,-52.734,0.000
1727575746.933,-39.062,-423.828,-104.492,-68.359,0.000
1727575746.937,-42.480,-445.312,-109.863,-77.637,0.000
1727575746.941,-82.520,-446.777,-111.328,-88.379,0.000
1727575746.945,-75.195,-437.988,-120.605,-67.871,0.000
1727575746.949,-61.035,-432.617,-141.113,-56.641,0.000
1727575746.953,-42.480,-434.082,-165.527,-50.293,0.000
1727575746.957,-34.668,-445.312,-193.848,-58.105,0.000
1727575746.960,-90.332,-443.359,-205.566,-91.797,0.000
1727575746.964,-90.332,-442.871,-200.195,-77.637,0.000
1727575746.968,-48.828,-446.777,-183.594,-55.176,0.000
1727575746.973,-39.551,-440.430,-154.785,-61.523,0.000
1727575746.977,-44.434,-440.918,-140.625,-65.918,0.000
1727575746.980,-77.148,-440.918,-142.090,-69.824,0.000
1727575746.984,-79.590,-425.781,-139.160,-53.711,0.000
1727575746.988,-65.918,-414.551,-142.578,-42.969,0.000
1727575746.992,-47.852,-420.410,-145.508,-62.012,0.000
1727575746.996,-30.273,-440.430,-144.043,-82.520,0.000
1727575747.000,-83.984,-461.914,-147.461,-100.098,0.000
1727575747.004,-109.375,-448.730,-138.672,-87.402,0.000
1727575747.008,-83.008,-444.824,-132.324,-70.801,0.000
1727575747.012,-61.035,-465.820,-137.695,-70.801,0.000
1727575747.016,-47.852,-475.586,-144.043,-70.801,0.000
1727575747.019,-79.102,-472.656,-145.996,-86.426,0.000
1727575747.023,-99.121,-454.102,-137.207,-80.566,0.000
1727575747.027,-76.172,-444.336,-140.625,-58.594,0.000
1727575747.031,-42.480,-439.941,-147.461,-55.176,0.000
1727575747.035,-17.090,-431.152,-140.625,-56.641,0.000
1727575747.039,-50.781,-426.270,-137.207,-75.684,0.000
1727575747.043,-80.078,-406.738,-136.719,-73.242,0.000
1727575747.047,-55.664,-380.859,-125.977,-45.898,0.000
1727575747.051,-41.504,-368.164,-121.094,-47.363,0.000
1727575747.055,-20.508,-363.770,-120.605,-49.316,0.000
1727575747.058,-33.691,-377.441,-124.512,-68.848,0.000
1727575747.062,-71.289,-368.652,-120.605,-68.848,0.000
1727575747.067,-58.594,-335.938,-104.492,-36.621,0.000
1727575747.071,-40.039,-323.242,-102.051,-31.250,0.000
1727575747.074,-2.930,-331.543,-109.863,-33.691,0.000
1727575747.078,-13.672,-356.445,-115.723,-47.852,0.000
1727575747.082,-60.059,-316.895,-107.910,-48.340,0.000
1727575747.086,-45.410,-256.348,-97.168,-27.832,0.000
1727575747.090,-41.016,-263.184,-106.934,-35.645,0.000
1727575747.094,-21.484,-255.859,-122.559,-43.457,0.000
1727575747.098,-23.926,-253.418,-114.258,-51.758,0.000
1727575747.102,-62.012,-278.809,-98.145,-50.293,0.000
1727575747.106,-41.016,-278.809,-93.750,-17.090,0.000
1727575747.110,-29.297,-261.719,-102.051,-24.414,0.000
1727575747.113,-25.879,-236.328,-104.004,-44.434,0.000
1727575747.117,-20.508,-220.215,-100.098,-49.316,0.000
1727575747.121,-61.035,-226.562,-102.051,-65.430,0.000
1727575747.125,-62.988,-220.703,-96.191,-53.711,0.000
1727575747.129,-56.152,-220.703,-99.121,-43.457,0.000
1727575747.133,-36.621,-234.863,-110.352,-53.711,0.000
1727575747.137,-24.902,-240.234,-119.141,-68.848,0.000
1727575747.141,-65.918,-233.887,-108.887,-80.078,0.000
1727575747.144,-60.059,-218.262,-90.820,-61.523,0.000
1727575747.148,-30.273,-218.262,-91.797,-41.992,0.000
1727575747.152,-10.254,-221.191,-93.262,-43.457,0.000
1727575747.156,-6.348,-216.797,-86.426,-60.059,0.000
1727575747.160,-50.781,-210.938,-90.820,-67.871,0.000
1727575747.164,-74.707,-214.844,-94.238,-63.965,0.000
1727575747.168,-53.711,-212.891,-88.379,-57.617,0.000
1727575747.172,-23.926,-183.594,-87.402,-54.199,0.000
1727575747.176,-16.602,-181.152,-92.773,-63.965,0.000
1727575747.180,-65.430,-196.289,-98.633,-76.660,0.000
1727575747.184,-78.613,-173.340,-93.750,-50.781,0.000
1727575747.188,-55.664,-153.809,-86.914,-28.809,0.000
1727575747.192,-37.109,-159.180,-86.914,-29.297,0.000
1727575747.195,-2.930,-154.785,-85.938,-26.367,0.000
1727575747.199,-32.715,-166.016,-80.078,-34.668,0.000
1727575747.203,-61.523,-191.895,-77.637,-19.531,0.000
1727575747.207,-32.715,-167.969,-85.449,-8.789,0.000
1727575747.211,-4.395,-136.719,-80.566,-12.207,0.000
1727575747.215,11.230,-135.254,-77.637,-22.461,0.000
1727575747.219,-30.273,-145.508,-89.355,-51.758,0.000
1727575747.223,-54.688,-148.438,-87.402,-47.363,0.000
1727575747.227,-27.832,-142.578,-76.172,-25.879,0.000
1727575747.231,-11.719,-145.020,-73.242,-27.344,0.000
1727575747.235,5.859,-145.020,-69.336,-22.949,0.000
1727575747.239,-22.949,-163.086,-72.754,-32.227,0.000
1727575747.242,-57.617,-166.504,-73.242,-33.203,0.000
1727575747.246,-36.621,-141.113,-62.500,-13.184,0.000
1727575747.250,-22.461,-144.531,-60.059,-17.090,0.000
1727575747.254,-9.766,-158.691,-64.941,-28.809,0.000
1727575747.258,-25.879,-168.457,-72.266,-48.340,0.000
1727575747.262,-62.988,-166.992,-69.824,-53.711,0.000
1727575747.266,-54.199,-167.969,-63.965,-28.809,0.000
1727575747.270,-41.504,-177.246,-71.777,-28.809,0.000
1727575747.274,-26.855,-159.668,-76.660,-38.574,0.000
1727575747.278,-50.293,-146.973,-86.426,-71.777,0.000
1727575747.282,-84.961,-143.066,-86.914,-83.984,0.000
1727575747.285,-56.641,-140.137,-77.148,-49.805,0.000
1727575747.289,-39.551,-125.000,-69.336,-38.086,0.000
1727575747.293,-25.391,-129.883,-67.383,-42.969,0.000
1727575747.297,-16.602,-151.367,-68.359,-50.293,0.000
1727575747.301,-64.941,-143.555,-66.406,-56.152,0.000
1727575747.305,-67.383,-122.070,-67.871,-35.645,0.000
1727575747.309,-47.363,-130.371,-69.824,-20.508,0.000
1727575747.313,-20.996,-141.113,-66.406,-24.414,0.000
1727575747.317,-13.184,-158.203,-71.289,-38.574,0.000
1727575747.321,-69.336,-167.480,-72.266,-43.945,0.000
1727575747.325,-60.059,-129.395,-63.965,-20.996,0.000
1727575747.328,-29.297,-117.676,-61.523,-8.301,0.000
1727575747.332,-15.137,-130.859,-59.082,-6.348,0.000
1727575747.336,-4.883,-125.977,-56.641,-16.602,0.000
1727575747.340,-36.133,-122.559,-59.570,-28.809,0.000
1727575747.344,-43.945,-109.863,-53.223,-12.207,0.000
1727575747.348,-30.762,-97.168,-55.664,-17.578,0.000
1727575747.352,-19.531,-97.168,-66.406,-24.902,0.000
1727575747.356,-5.371,-107.422,-62.988,-33.203,0.000
1727575747.360,-40.039,-129.883,-56.152,-56.152,0.000
1727575747.364,-51.758,-136.719,-54.199,-44.434,0.000
1727575747.367,-26.855,-111.328,-47.852,-14.648,0.000
1727575747.371,-15.137,-91.797,-50.293,-15.625,0.000
1727575747.375,5.371,-98.145,-58.105,-23.438,0.000
1727575747.379,-35.156,-106.445,-57.617,-40.527,0.000
1727575747.383,-51.270,-104.492,-49.316,-42.969,0.000
1727575747.387,-13.672,-109.863,-45.410,-15.137,0.000
1727575747.391,-11.230,-118.164,-52.734,-10.254,0.000
1727575747.395,-7.324,-112.305,-48.340,-20.996,0.000
1727575747.399,-41.504,-122.070,-52.734,-43.945,0.000
1727575747.402,-65.430,-116.699,-56.641,-38.086,0.000
1727575747.406,-50.293,-104.004,-56.152,-27.832,0.000
1727575747.410,-41.992,-110.352,-58.594,-38.574,0.000
1727575747.414,-27.832,-131.348,-59.570,-36.621,0.000
1727575747.418,-46.875,-153.809,-64.941,-51.758,0.000
1727575747.422,-70.312,-143.066,-65.918,-49.805,0.000
1727575747.426,-52.246,-105.469,-57.129,-24.414,0.000
1727575747.430,-32.227,-93.262,-55.176,-20.508,0.000
1727575747.434,-8.789,-108.887,-64.941,-27.832,0.000
1727575747.438,-25.391,-125.488,-75.195,-52.246,0.000
1727575747.441,-58.105,-114.746,-69.824,-57.129,0.000
1727575747.445,-36.133,-93.262,-58.105,-24.902,0.000
1727575747.449,-14.160,-93.750,-53.711,-16.113,0.000
1727575747.453,15.137,-108.887,-56.152,-33.203,0.000
1727575747.457,-10.742,-123.535,-64.941,-46.875,0.000
1727575747.461,-62.988,-109.863,-64.941,-44.922,0.000
1727575747.465,-33.691,-96.680,-57.617,-16.113,0.000
1727575747.469,-28.320,-87.891,-53.223,-9.766,0.000
1727575747.473,-11.230,-81.055,-54.199,-21.484,0.000
1727575747.477,-4.395,-96.680,-64.941,-31.250,0.000
1727575747.480,-52.734,-107.422,-69.336,-55.176,0.000
1727575747.484,-36.133,-91.309,-57.617,-42.969,0.000
1727575747.488,-12.207,-89.844,-49.316,-18.555,0.000
1727575747.492,-0.488,-92.773,-45.898,-18.066,0.000
1727575747.496,7.324,-101.562,-45.410,-27.832,0.000
1727575747.500,-38.086,-103.027,-42.480,-35.645,0.000
1727575747.504,-45.898,-79.590,-35.156,-14.160,0.000
1727575747.508,-19.043,-79.102,-37.109,4.395,0.000
1727575747.511,0.488,-92.285,-38.086,5.859,0.000
1727575747.515,4.395,-81.055,-40.039,-13.672,0.000
1727575747.519,-35.156,-83.984,-45.410,-38.086,0.000
1727575747.523,-32.227,-81.543,-33.203,-13.184,0.000
1727575747.527,-9.277,-78.125,-22.461,7.324,0.000
1727575747.531,7.812,-80.078,-21.973,-1.465,0.000
1727575747.535,19.043,-89.844,-28.320,-9.766,0.000
1727575747.539,-30.273,-106.445,-39.062,-25.391,0.000
1727575747.543,-52.246,-90.820,-34.180,-14.648,0.000
1727575747.547,-33.203,-70.312,-26.367,2.930,0.000
1727575747.551,-10.254,-75.684,-20.508,-2.930,0.000
1727575747.555,2.930,-109.863,-31.250,-18.066,0.000
1727575747.559,-52.246,-127.930,-49.805,-44.434,0.000
1727575747.562,-83.008,-111.816,-45.898,-49.805,0.000
1727575747.566,-51.270,-100.098,-37.109,-23.926,0.000
1727575747.570,-35.156,-106.445,-40.527,-19.531,0.000
1727575747.574,-23.438,-93.262,-42.969,-44.922,0.000
1727575747.578,-47.363,-89.844,-44.434,-63.477,0.000
1727575747.582,0.000,-92.285,-43.945,-55.176,0.000
1727575747.586,0.000,-85.449,-37.598,-22.949,0.000
1727575747.590,0.000,-83.496,-32.227,-21.973,0.000
1727575747.594,0.000,-85.449,-43.945,-37.598,0.000
1727575747.598,0.000,-92.773,-58.594,-46.387,0.000
1727575747.602,0.000,-94.727,-57.617,-44.434,0.000
1727575747.606,0.000,-78.613,-43.457,-18.066,0.000
1727575747.609,0.000,-62.500,-43.945,-14.648,0.000
1727575747.613,0.000,-68.848,-53.711,-26.367,0.000
1727575747.617,0.000,-84.961,-53.711,-40.527,0.000
1727575747.621,0.000,-62.500,-42.480,-44.434,0.000
1727575747.625,0.000,-41.992,-38.086,-16.113,0.000
1727575747.629,-24.902,-47.363,-41.016,-12.207,0.000
1727575747.633,-2.441,-51.758,-42.969,-27.832,0.000
1727575747.637,-10.254,-58.105,-51.758,-44.922,0.000
1727575747.641,-57.617,-56.641,-55.176,-48.340,0.000
1727575747.645,-45.410,-48.340,-43.457,-14.648,0.000
1727575747.649,-14.648,-39.062,-34.668,-3.418,0.000
1727575747.652,8.789,-30.273,-38.574,-11.230,0.000
1727575747.656,-0.977,-41.992,-46.387,-19.531,0.000
1727575747.660,-44.434,-69.824,-50.293,-33.203,0.000
1727575747.664,-45.898,-38.574,-38.086,-27.832,0.000
1727575747.668,-30.762,-4.395,-35.645,-25.879,0.000
1727575747.672,-5.859,-14.648,-42.480,-22.949,0.000
1727575747.676,-3.906,-30.762,-40.527,-27.344,0.000
1727575747.680,-39.062,-43.457,-35.645,-38.086,0.000
1727575747.684,-36.133,-44.434,-35.645,-22.461,0.000
1727575747.688,-22.949,-38.574,-34.180,-5.859,0.000
1727575747.692,-2.930,-32.715,-22.949,-0.977,0.000
1727575747.695,-7.324,-58.105,-27.344,-21.973,0.000
1727575747.699,-55.664,-65.918,-35.645,-43.945,0.000
1727575747.703,-58.105,-41.992,-35.645,-27.832,0.000
1727575747.707,-41.992,-41.504,-39.062,-10.742,0.000
1727575747.711,-38.574,-51.758,-45.898,-38.086,0.000
1727575747.715,-22.461,-66.895,-56.152,-52.246,0.000
1727575747.719,-49.316,-69.336,-54.688,-53.223,0.000
1727575747.723,-60.059,-47.852,0.000,-39.062,0.000
1727575747.727,-43.457,-35.645,0.000,-15.625,0.000
1727575747.731,-36.133,-48.828,0.000,-23.926,0.000
1727575747.734,-19.043,-63.965,0.000,-35.645,0.000
1727575747.738,-56.641,-68.848,0.000,-54.199,0.000
1727575747.742,-80.078,-64.941,0.000,-52.246,0.000
1727575747.746,-50.293,-59.570,0.000,-31.738,0.000
1727575747.750,-25.879,-62.500,0.000,-23.438,0.000
1727575747.754,8.789,-51.270,0.000,-18.555,0.000
1727575747.758,-12.207,-41.992,0.000,-33.691,0.000
1727575747.762,-53.223,-53.223,0.000,-39.551,0.000
1727575747.766,-41.504,-53.711,0.000,-21.973,0.000
1727575747.769,-25.391,-46.387,-45.410,-30.273,0.000
1727575747.773,0.977,-53.711,-44.434,-28.320,0.000
1727575747.777,-16.602,-72.266,-46.387,-26.855,0.000
1727575747.781,-53.223,-68.848,-36.621,-23.926,0.000
1727575747.785,-39.551,-58.105,-30.762,-5.859,0.000
1727575747.789,-27.832,-51.758,-29.785,-13.672,0.000
1727575747.793,-2.441,-42.480,-26.367,-13.672,0.000
1727575747.797,-2.441,-50.293,-31.250,-8.789,0.000
1727575747.801,-47.363,-45.410,-27.344,-23.438,0.000
1727575747.805,-35.156,-33.203,-16.602,-6.348,0.000
1727575747.809,-1.953,-36.621,-16.113,7.324,0.000
1727575747.812,11.230,-39.062,-24.902,-12.695,0.000
1727575747.816,0.000,-43.457,-37.109,-37.109,0.000
1727575747.820,0.000,-51.270,-43.945,-43.945,0.000
1727575747.824,0.000,-44.434,-36.133,-16.113,0.000
1727575747.828,0.000,-36.621,-26.855,-11.230,0.000
1727575747.832,0.000,-43.945,-28.809,-13.184,0.000
1727575747.836,0.000,-59.082,-30.762,-14.648,0.000
1727575747.840,0.000,-71.289,-31.250,-24.414,0.000
1727575747.844,0.000,-57.617,-28.809,-10.742,0.000
1727575747.847,0.000,-39.551,-32.715,-13.184,0.000
1727575747.851,0.000,-53.223,-44.434,-38.086,0.000
1727575747.855,0.000,-83.496,-45.898,-42.969,0.000
1727575747.859,0.000,-83.008,-47.363,-48.340,0.000
1727575747.863,-68.359,-41.016,-35.156,-26.855,0.000
1727575747.867,-42.969,-35.156,-28.809,-13.672,0.000
1727575747.871,-33.203,-45.898,-37.109,-33.203,0.000
1727575747.875,-24.414,-44.922,-38.574,-41.992,0.000
1727575747.878,-62.988,-62.012,-41.016,-56.641,0.000
1727575747.882,-62.988,-65.430,-42.969,-48.340,0.000
1727575747.886,-29.297,-56.152,-43.945,-27.832,0.000
1727575747.890,-26.367,-40.039,-42.480,-43.457,0.000
1727575747.894,-18.066,-33.203,-48.828,-49.316,0.000
1727575747.898,-51.758,-36.133,-60.059,-59.082,0.000
1727575747.902,-63.477,-23.926,-50.293,-41.016,0.000
1727575747.906,-26.855,-9.277,-32.227,-10.742,0.000
1727575747.910,-16.602,-14.648,-36.621,-27.344,0.000
1727575747.914,-12.207,-37.598,-51.758,-40.039,0.000
1727575747.918,-47.363,-35.645,-48.828,-55.176,0.000
1727575747.922,-67.383,-23.926,-36.621,-46.875,0.000
1727575747.926,-42.480,-24.414,-37.109,-14.160,0.000
1727575747.929,-26.855,-34.180,-48.828,-17.090,0.000
1727575747.933,1.465,-34.668,-52.246,-26.367,0.000
1727575747.937,-17.578,-37.598,-53.223,-34.180,0.000
1727575747.941,-45.410,-47.363,-49.805,-36.133,0.000
1727575747.945,-19.043,-49.316,-32.715,-11.230,0.000
1727575747.949,-6.836,-34.180,-22.949,-6.348,0.000
1727575747.953,6.836,-26.855,-35.156,-19.531,0.000
1727575747.957,-13.672,-47.363,0.000,-35.156,0.000
1727575747.961,-52.246,-42.480,0.000,-33.203,0.000
1727575747.965,-41.992,-20.996,0.000,-10.742,0.000
1727575747.969,-18.555,-22.949,0.000,-9.766,0.000
1727575747.973,8.789,-34.180,0.000,-12.695,0.000
1727575747.976,-17.090,-49.805,0.000,-31.250,0.000
1727575747.980,-62.988,-49.316,0.000,-46.387,0.000
1727575747.984,-42.480,-34.668,0.000,-26.855,0.000
1727575747.988,-23.926,-46.387,0.000,-26.367,0.000
1727575747.992,-16.113,-54.199,0.000,-27.832,0.000
1727575747.996,-23.438,-41.016,0.000,-36.621,0.000
1727575748.000,-66.406,-42.480,0.000,-50.781,0.000
1727575748.004,-64.941,-40.527,-39.551,-23.926,0.000
1727575748.008,-42.480,-41.016,-44.434,-12.207,0.000
1727575748.012,-24.902,-46.387,-51.758,-27.832,0.000
1727575748.016,-15.625,-57.617,-49.805,-30.762,0.000
1727575748.020,-43.945,-71.289,-48.828,-40.527,0.000
1727575748.023,-52.246,-62.988,-40.527,-30.762,0.000
1727575748.027,-41.016,-57.617,-42.480,-19.043,0.000
1727575748.031,-23.926,-48.828,-46.387,-27.832,0.000
1727575748.035,-20.996,-61.035,-49.805,-32.715,0.000
1727575748.039,-59.570,-64.941,-48.828,-44.922,0.000
1727575748.043,-56.152,-42.480,-41.016,-25.391,0.000
1727575748.047,-34.180,-46.875,-41.992,-10.254,0.000
1727575748.051,-20.508,-51.758,-39.551,-24.902,0.000
1727575748.055,-9.277,-47.852,-41.504,-46.387,0.000
1727575748.059,-43.945,-53.711,-46.387,-53.223,0.000
1727575748.062,-42.969,-46.875,-39.551,-27.832,0.000
1727575748.066,-6.836,-36.621,-39.551,-8.789,0.000
1727575748.070,-2.930,-36.621,-39.551,-7.812,0.000
1727575748.074,0.488,-41.016,-40.039,-7.812,0.000
1727575748.078,-35.645,-50.293,-46.387,-25.879,0.000
1727575748.082,-41.016,-46.875,-39.062,-10.742,0.000
1727575748.086,-22.461,-31.250,-27.344,1.953,0.000
1727575748.090,-25.391,-35.645,-30.273,-21.973,0.000
1727575748.094,-1.465,-52.734,-38.086,-28.320,0.000
1727575748.098,-30.273,-53.223,-36.621,-40.527,0.000
1727575748.101,-45.898,-29.297,-28.809,-30.762,0.000
1727575748.105,-7.324,-23.926,-22.461,-3.906,0.000
1727575748.109,-3.418,-36.621,-17.578,-5.859,0.000
1727575748.113,0.488,-41.016,-23.926,-19.043,0.000
1727575748.117,-22.949,-54.199,-35.156,-37.109,0.000
1727575748.121,-51.758,-51.758,-28.809,-34.668,0.000
1727575748.125,-27.344,-54.199,-17.578,-5.371,0.000
1727575748.129,-17.578,-49.316,-11.230,-1.465,0.000
1727575748.133,-8.789,-42.969,-12.695,-8.301,0.000
1727575748.137,-31.738,-70.312,-27.344,-32.227,0.000
1727575748.141,-71.777,-80.566,-34.180,-36.133,0.000
1727575748.144,-53.711,-59.570,-31.250,-18.066,0.000
1727575748.148,-30.273,-52.246,-29.785,-20.508,0.000
1727575748.152,-11.719,-66.895,-35.645,-19.043,0.000
1727575748.156,-29.297,-78.125,-39.062,-29.785,0.000
1727575748.160,-70.801,-72.266,-27.344,-35.645,0.000
1727575748.164,-51.270,-58.594,-19.043,-16.113,0.000
1727575748.168,-39.551,-67.383,-24.902,-8.789,0.000
1727575748.172,-19.043,-73.730,-30.762,-11.719,0.000
1727575748.176,-22.461,-66.895,-30.762,-33.203,0.000
1727575748.180,-73.730,-81.543,-35.156,-52.246,0.000
1727575748.183,-59.570,-72.266,-33.691,-29.297,0.000
1727575748.187,-33.203,-46.875,-20.020,-15.137,0.000
1727575748.191,0.000,-51.758,-22.461,-25.879,0.000
1727575748.195,0.000,-70.312,-39.551,-43.945,0.000
1727575748.199,0.000,-75.684,-43.457,-50.781,0.000
1727575748.203,0.000,-60.547,-33.203,-28.320,0.000
1727575748.207,0.000,-50.293,-26.367,-13.672,0.000
1727575748.211,0.000,-55.664,-32.227,-18.555,0.000
1727575748.214,0.000,-66.895,-35.156,-26.367,0.000
1727575748.218,0.000,-64.941,-32.715,-39.551,0.000
1727575748.222,0.000,-46.875,-21.484,-13.184,0.000
1727575748.226,0.000,-49.805,-17.578,3.906,0.000
1727575748.230,0.000,-45.898,-29.785,0.000,0.000
1727575748.234,0.000,-41.016,-40.527,-4.395,0.000
1727575748.238,-27.344,-59.082,-44.922,-27.344,0.000
1727575748.242,-40.527,-53.711,-33.691,-19.043,0.000
1727575748.246,-17.090,-36.621,-27.344,-5.371,0.000
1727575748.249,-7.324,-41.992,-27.832,-17.090,0.000
1727575748.253,5.859,-54.199,-33.203,-25.391,0.000
1727575748.257,-33.691,-77.148,-38.574,-42.969,0.000
1727575748.261,-52.734,-72.754,-28.809,-29.297,0.000
1727575748.265,-30.762,-37.109,-17.578,-2.930,0.000
1727575748.269,-13.672,-40.039,-11.719,-5.371,0.000
1727575748.273,0.000,-62.988,-20.996,-15.625,0.000
1727575748.277,-43.945,-90.332,-35.645,-36.133,0.000
1727575748.281,-74.707,-102.539,-29.785,-42.969,0.000
1727575748.285,-45.410,-85.449,-18.066,-22.461,0.000
1727575748.289,-19.531,-85.938,-20.996,-21.973,0.000
1727575748.293,-1.465,-77.637,-29.785,-36.133,0.000
1727575748.297,-25.391,-77.637,-31.250,-50.293,0.000
1727575748.300,-64.453,-91.309,-29.297,-49.316,0.000
1727575748.304,-60.547,-103.516,-32.715,-22.949,0.000
1727575748.308,-50.293,-100.586,-41.504,-30.762,0.000
1727575748.312,-24.414,-85.938,-41.504,-50.293,0.000
1727575748.316,-37.598,-99.121,-49.316,-54.199,0.000
1727575748.320,-75.684,-106.934,-53.711,-54.199,0.000
1727575748.324,-59.082,-81.543,-41.992,-40.527,0.000
1727575748.328,-44.922,-76.660,-39.062,-32.715,0.000
1727575748.332,-22.461,-86.914,-41.992,-38.086,0.000
1727575748.336,-32.715,-93.750,-45.898,-47.363,0.000
1727575748.340,-70.312,-76.660,-42.969,-55.176,0.000
1727575748.344,-55.664,-59.082,-42.969,-35.156,0.000
1727575748.347,-43.457,-60.059,-46.387,-30.273,0.000
1727575748.351,-16.602,-65.918,-45.898,-31.250,0.000
1727575748.355,-16.602,-76.660,-53.711,-48.340,0.000
1727575748.359,-55.664,-67.871,-49.316,-54.688,0.000
1727575748.363,-41.992,-51.270,-41.504,-25.879,0.000
1727575748.367,-17.578,-48.828,-38.574,-11.230,0.000
1727575748.371,-4.395,-42.969,-25.391,-10.742,0.000
1727575748.375,-8.301,-48.340,-28.809,-27.832,0.000
1727575748.379,-41.016,-62.500,-41.016,-57.129,0.000
1727575748.383,-33.203,-59.082,-36.133,-36.133,0.000
1727575748.387,-29.785,-40.527,-39.551,-22.461,0.000
1727575748.391,-20.508,-33.203,-40.039,-27.344,0.000
1727575748.394,-3.906,-39.062,-36.621,-27.832,0.000
1727575748.398,-42.969,-39.551,-42.480,-43.457,0.000
1727575748.402,-45.410,-23.926,-41.016,-25.879,0.000
1727575748.406,-22.461,-22.461,-32.227,-6.836,0.000
1727575748.410,-13.672,-45.410,-31.738,-14.160,0.000
1727575748.414,-6.348,-41.992,-37.109,-19.531,0.000
1727575748.418,-41.992,-36.621,-43.457,-40.039,0.000
1727575748.422,-50.781,-34.180,-34.668,-31.250,0.000
1727575748.426,-23.926,-30.762,-27.344,-6.836,0.000
1727575748.430,-14.160,-30.273,-32.715,-8.789,0.000
1727575748.433,-5.371,-34.668,-40.039,-22.949,0.000
1727575748.437,-51.758,-46.875,-47.363,-45.898,0.000
1727575748.441,-76.660,-27.832,-43.457,-52.246,0.000
1727575748.445,-53.223,-22.461,-41.504,-38.574,0.000
1727575748.449,-40.039,-39.062,-45.898,-40.039,0.000
1727575748.453,-12.207,-41.992,-43.457,-42.480,0.000
1727575748.457,-40.039,-38.574,-46.387,-48.340,0.000
1727575748.461,-69.824,-31.738,-49.805,-46.875,0.000
1727575748.465,-50.293,-34.668,-48.828,-31.250,0.000
1727575748.469,-40.527,-41.992,-49.805,-34.180,0.000
1727575748.473,-15.625,-32.715,-48.828,-34.668,0.000
1727575748.476,-41.016,-24.414,-43.457,-45.410,0.000
1727575748.480,-81.055,-23.926,-44.922,-56.641,0.000
1727575748.484,-59.570,-14.160,-46.875,-30.273,0.000
1727575748.488,-43.945,-12.207,-44.434,-28.320,0.000
1727575748.492,-17.578,-18.555,-47.363,-44.434,0.000
1727575748.496,-24.414,-22.949,-57.617,-54.199,0.000
1727575748.500,-67.383,-29.297,-57.617,-47.363,0.000
1727575748.504,-47.852,-2.930,-40.527,-22.461,0.000
1727575748.508,-27.832,14.648,-35.645,-19.531,0.000
1727575748.512,0.488,5.371,-41.992,-18.066,0.000
1727575748.515,4.883,-8.789,-43.945,-31.738,0.000
1727575748.519,-36.621,-15.137,-47.852,-47.363,0.000
1727575748.523,-25.879,-3.418,-43.457,-17.578,0.000
1727575748.527,2.930,-8.789,-35.645,-0.488,0.000
1727575748.531,20.996,-20.020,-38.086,-12.207,0.000
1727575748.535,4.883,-31.738,-48.828,-36.621,0.000
1727575748.539,-44.922,-33.691,-47.363,-46.387,0.000
1727575748.543,-36.621,-17.578,-36.621,-15.625,0.000
1727575748.547,-10.742,-24.414,-45.898,-10.254,0.000
1727575748.551,-2.441,-19.043,-49.316,-25.391,0.000
1727575748.554,-2.441,-28.809,-38.574,-32.715,0.000
1727575748.558,-42.480,-54.199,-39.551,-43.945,0.000
1727575748.562,-46.875,-27.832,-37.598,-30.762,0.000
1727575748.566,-32.715,-20.020,-37.109,-27.832,0.000
1727575748.570,-19.043,-25.879,-41.992,-40.039,0.000
1727575748.574,-7.812,-32.227,-47.363,-47.852,0.000
1727575748.578,-50.781,-43.457,-47.852,-65.430,0.000
1727575748.582,-50.781,-32.715,-35.645,-45.410,0.000
1727575748.586,-30.762,-26.367,-29.297,-23.926,0.000
1727575748.589,-29.785,-42.969,-8.789,-24.902,0.000
1727575748.593,-15.625,-43.945,11.230,-27.832,0.000
1727575748.597,-51.758,-43.945,18.066,-52.734,0.000
1727575748.601,-62.500,-42.480,24.902,-39.062,0.000
1727575748.605,-28.320,-28.809,34.668,-11.719,0.000
1727575748.609,-20.508,-36.133,31.250,-15.625,0.000
1727575748.613,-9.277,-46.875,18.066,-32.715,0.000
1727575748.617,-40.039,-56.152,7.324,-51.270,0.000
1727575748.620,-71.777,-37.109,11.719,-47.852,0.000
1727575748.624,-41.992,-13.184,20.508,-20.996,0.000
1727575748.628,-18.066,-15.137,13.184,-15.625,0.000
1727575748.632,-6.836,-35.645,4.883,-26.855,0.000
1727575748.636,-35.156,-47.852,6.348,-32.227,0.000
1727575748.640,-58.105,-34.668,13.672,-25.879,0.000
1727575748.644,-33.691,-28.809,11.230,-1.465,0.000
1727575748.648,-15.625,-36.621,-8.301,-5.859,0.000
1727575748.652,1.953,-42.480,-29.297,-15.137,0.000
1727575748.656,-22.949,-37.109,-46.875,-31.738,0.000
1727575748.660,-57.617,-35.645,-54.688,-44.434,0.000
1727575748.664,-37.598,-27.344,-60.547,-16.602,0.000
1727575748.668,-22.949,-18.555,-70.312,-14.160,0.000
1727575748.671,-2.930,-28.320,-80.078,-24.902,0.000
1727575748.675,-15.625,-38.574,-89.355,-24.902,0.000
1727575748.679,-47.363,-33.203,-87.891,-24.902,0.000
1727575748.683,-30.273,-13.184,-71.289,-2.930,0.000
1727575748.687,-18.066,-9.766,-64.941,-3.418,0.000
1727575748.691,4.395,-22.949,-69.824,-8.789,0.000
1727575748.695,1.465,-43.945,-76.660,-18.555,0.000
1727575748.699,-54.199,-50.293,-72.266,-41.504,0.000
1727575748.703,-46.875,-42.969,-64.941,-25.391,0.000
1727575748.707,-23.926,-47.852,-66.406,-13.672,0.000
1727575748.711,-6.348,-46.387,-66.895,-17.578,0.000
1727575748.715,-20.508,-44.922,-70.312,-38.086,0.000
1727575748.719,-73.730,-53.711,-73.730,-64.453,0.000
1727575748.722,-66.895,-44.922,-66.406,-42.480,0.000
1727575748.726,-41.504,-40.527,-65.918,-21.973,0.000
1727575748.730,-20.996,-44.434,-67.871,-28.320,0.000
1727575748.734,-20.508,-56.152,-67.871,-37.598,0.000
1727575748.738,-66.406,-66.895,-64.941,-43.945,0.000
1727575748.742,-64.941,-57.617,-58.594,-31.738,0.000
1727575748.746,-46.387,-36.133,-55.176,-30.762,0.000
1727575748.750,-16.113,-30.273,-50.293,-23.926,0.000
1727575748.754,7.324,-61.035,-51.270,-15.625,0.000
1727575748.758,-41.504,-76.172,-55.176,-38.086,0.000
1727575748.762,-64.453,-41.504,-57.617,-32.715,0.000
1727575748.765,-50.781,-18.066,-65.918,-20.996,0.000
1727575748.769,-32.227,-20.020,-70.801,-24.902,0.000
1727575748.773,-17.578,-31.738,-70.801,-35.645,0.000
1727575748.777,-51.270,-41.016,-64.941,-54.199,0.000
1727575748.781,-64.453,-30.273,-49.805,-38.086,0.000
1727575748.785,-38.574,-34.668,-48.828,-1.953,0.000
1727575748.789,-27.344,-36.133,-42.480,-5.371,0.000
1727575748.793,-7.812,-31.738,-36.621,-23.926,0.000
1727575748.797,-31.738,-41.016,-51.758,-42.480,0.000
1727575748.801,-55.176,-28.809,-46.387,-29.785,0.000
1727575748.805,-30.273,-16.113,-35.156,0.977,0.000
1727575748.808,-19.531,-18.066,-37.598,-2.441,0.000
1727575748.812,-3.906,-30.273,-45.410,-17.578,0.000
1727575748.816,-23.926,-41.992,-42.969,-29.785,0.000
1727575748.820,-53.223,-38.574,-39.551,-25.391,0.000
1727575748.824,-34.180,-26.855,-40.039,-18.555,0.000
1727575748.828,-19.531,-36.621,-37.598,-16.602,0.000
1727575748.832,-5.371,-50.781,-41.016,-14.648,0.000
1727575748.836,-31.250,-47.852,-41.504,-38.086,0.000
1727575748.840,-55.664,-47.363,-37.598,-43.457,0.000
1727575748.844,-30.273,-47.363,-29.785,-14.648,0.000
1727575748.847,-17.578,-35.156,-24.414,-11.230,0.000
1727575748.851,-1.465,-20.508,-28.809,-15.137,0.000
1727575748.855,-13.672,-32.715,-40.039,-31.250,0.000
1727575748.859,-55.176,-47.363,-39.551,-35.156,0.000
1727575748.863,-45.410,-31.250,-29.785,-8.301,0.000
1727575748.867,-26.855,-37.598,-33.203,-11.719,0.000
1727575748.871,-5.371,-56.152,-38.086,-22.461,0.000
1727575748.875,-12.207,-70.312,-42.969,-30.273,0.000
1727575748.879,-56.641,-57.129,-42.480,-47.363,0.000
1727575748.883,-42.480,-29.297,-33.691,-27.832,0.000
1727575748.887,-28.320,-49.316,-40.527,-20.508,0.000
1727575748.890,-16.602,-60.547,-42.969,-28.320,0.000
1727575748.894,-11.230,-39.062,-42.480,-33.691,0.000
1727575748.898,-60.059,-39.551,-50.293,-48.828,0.000
1727575748.902,-58.594,-40.039,-54.688,-30.273,0.000
1727575748.906,-27.832,-42.480,-52.734,-8.301,0.000
1727575748.910,-14.160,-52.734,-42.969,-17.578,0.000
1727575748.914,-8.789,-55.176,-38.574,-24.414,0.000
1727575748.918,-50.293,-52.734,-47.852,-40.527,0.000
1727575748.922,-49.316,-43.457,-54.688,-21.973,0.000
1727575748.926,-29.785,-13.672,-42.969,-16.113,0.000
1727575748.929,-22.461,-6.348,-38.574,-33.691,0.000
1727575748.933,2.441,-25.879,-43.457,-24.902,0.000
1727575748.937,-36.133,-38.086,-40.527,-38.086,0.000
1727575748.941,-48.828,-29.297,-36.133,-26.855,0.000
1727575748.945,-21.973,-26.367,-38.574,-0.488,0.000
1727575748.949,-7.812,-34.180,-43.457,-11.230,0.000
1727575748.953,6.836,-40.527,-47.852,-18.555,0.000
1727575748.957,-28.320,-48.340,-49.316,-31.738,0.000
1727575748.961,-43.457,-45.410,-35.645,-18.555,0.000
1727575748.964,-23.926,-45.410,-26.855,7.324,0.000
1727575748.968,-15.625,-36.621,-25.391,-1.465,0.000
1727575748.972,6.348,-32.715,-28.809,-28.320,0.000
1727575748.976,-20.020,-53.223,-36.133,-38.574,0.000
1727575748.980,-46.387,-60.059,-34.180,-30.762,0.000
1727575748.984,-23.926,-50.781,-30.762,-21.484,0.000
1727575748.988,-9.277,-50.293,-31.738,-25.879,0.000
1727575748.992,22.949,-56.152,-34.180,-15.625,0.000
1727575748.995,-15.137,-61.035,-50.293,-30.762,0.000
1727575748.999,-67.383,-52.246,-51.270,-40.527,0.000
1727575749.003,-50.293,-45.898,-42.480,-18.066,0.000
1727575749.007,-37.598,-47.363,-42.969,-19.531,0.000
1727575749.011,-8.789,-58.594,-41.504,-22.949,0.000
1727575749.015,-30.762,-63.965,-44.434,-39.551,0.000
1727575749.019,-78.613,-57.129,-49.316,-48.340,0.000
1727575749.023,-54.688,-50.293,-41.504,-20.508,0.000
1727575749.027,-35.645,-50.781,-37.598,-18.066,0.000
1727575749.031,-17.090,-42.480,-40.527,-17.578,0.000
1727575749.035,-21.484,-50.293,-47.852,-27.344,0.000
1727575749.039,-56.641,-67.383,-45.898,-37.109,0.000
1727575749.043,-49.805,-59.082,-41.992,-19.531,0.000
1727575749.046,-37.598,-73.242,-48.340,-12.695,0.000
1727575749.050,-8.301,-71.777,-41.992,-5.859,0.000
1727575749.054,-9.766,-49.316,-43.457,-17.578,0.000
1727575749.058,-60.547,-44.922,-49.316,-44.434,0.000
1727575749.062,-50.781,-20.996,-31.738,-29.297,0.000
1727575749.066,-32.227,-10.254,-27.344,-19.531,0.000
1727575749.070,-7.324,-30.762,-38.086,-25.879,0.000
1727575749.074,2.441,-42.480,-42.480,-32.227,0.000
1727575749.078,-35.156,-36.621,-34.180,-44.922,0.000
1727575749.082,-21.484,-22.461,-15.137,-6.348,0.000
1727575749.086,6.836,-37.109,-16.602,17.090,0.000
1727575749.090,16.602,-68.359,-36.133,0.488,0.000
1727575749.093,19.531,-46.387,-42.480,-1.465,0.000
1727575749.097,-36.621,-12.207,-48.828,-22.461,0.000
1727575749.101,-29.297,-43.457,-37.598,1.953,0.000
1727575749.105,-4.395,-37.598,0.977,18.555,0.000
1727575749.109,-14.648,-59.570,-11.230,-16.602,0.000
1727575749.113,73.242,-180.176,-37.598,37.598,0.000
1727575749.117,99.121,-166.504,-46.875,92.773,0.000
1727575749.121,30.273,-110.352,-52.734,77.637,0.000
1727575749.125,62.012,-174.316,5.859,94.238,0.000
1727575749.129,125.977,-54.688,79.102,126.953,0.000
1727575749.133,38.574,64.941,2.441,11.230,0.000
1727575749.137,-36.133,-207.520,-45.410,-56.152,0.000
1727575749.140,142.578,-191.895,76.172,161.133,0.000
1727575749.144,203.613,63.965,-34.180,235.352,0.000
1727575749.148,32.715,39.551,-133.301,55.664,0.000
1727575749.152,-114.746,100.098,-141.602,-127.930,0.000
1727575749.156,-198.242,35.645,-300.781,-212.402,0.000
1727575749.160,-92.773,28.809,-141.113,-73.242,0.000
1727575749.164,-6.836,17.090,-72.266,2.930,0.000
1727575749.168,95.215,11.230,-198.242,92.285,0.000
1727575749.172,181.152,209.473,-206.055,144.043,0.000
1727575749.176,87.891,222.168,-132.812,21.973,0.000
1727575749.180,-114.258,410.156,-105.469,-105.957,0.000
1727575749.184,-187.012,708.008,-50.293,-125.488,0.000
1727575749.188,-150.879,685.547,-107.422,-109.863,0.000
1727575749.192,-57.129,676.758,-143.066,-57.617,0.000
1727575749.196,-35.645,837.402,-156.738,-29.785,0.000
1727575749.199,-66.406,955.078,-156.738,-19.043,0.000
1727575749.203,-22.949,967.285,-111.816,28.809,0.000
1727575749.207,25.879,963.867,-97.168,60.547,0.000
1727575749.211,58.594,967.285,-88.867,67.871,0.000
1727575749.215,45.898,966.797,-81.055,68.359,0.000
1727575749.219,18.066,966.797,-62.012,78.125,0.000
1727575749.223,34.180,966.797,-31.250,108.887,0.000
1727575749.227,49.316,966.797,-8.301,125.977,0.000
1727575749.231,73.730,966.797,5.371,119.629,0.000
1727575749.235,75.195,966.797,10.742,105.469,0.000
1727575749.238,28.320,966.797,18.066,88.379,0.000
1727575749.242,32.227,966.797,30.273,107.422,0.000
1727575749.246,51.758,966.797,30.273,114.258,0.000
1727575749.250,63.477,966.797,25.391,96.680,0.000
1727575749.254,63.477,966.797,23.438,79.590,0.000
1727575749.258,8.301,966.797,20.508,63.477,0.000
1727575749.262,0.488,966.797,16.602,81.055,0.000
1727575749.266,25.391,967.773,5.859,83.008,0.000
1727575749.270,31.250,963.867,-1.953,57.129,0.000
1727575749.274,26.367,968.262,-14.648,49.316,0.000
1727575749.277,-23.926,958.984,-30.273,28.320,0.000
1727575749.281,-35.156,866.211,-31.250,28.809,0.000
1727575749.285,-16.113,759.277,-32.715,42.480,0.000
1727575749.289,-5.859,671.387,-37.109,35.156,0.000
1727575749.293,2.441,556.152,-58.105,21.973,0.000
1727575749.297,-46.875,413.574,-88.867,-2.441,0.000
1727575749.301,-69.824,327.148,-90.820,-9.277,0.000
1727575749.305,-53.223,236.816,-91.797,1.465,0.000
1727575749.309,-43.457,118.652,-104.980,-14.648,0.000
1727575749.313,-23.926,25.391,-101.074,-22.949,0.000
1727575749.316,-68.848,-64.941,-87.402,-32.227,0.000
1727575749.320,-101.562,-134.766,-72.754,-31.250,0.000
1727575749.324,-66.406,-191.406,-67.871,-13.672,0.000
1727575749.328,-46.875,-254.883,-62.500,-24.902,0.000
1727575749.332,-30.273,-308.594,-39.551,-31.738,0.000
1727575749.336,-50.293,-365.234,-17.578,-41.992,0.000
1727575749.340,-79.590,-415.527,-4.395,-35.156,0.000
1727575749.344,-62.012,-434.082,0.000,-20.020,0.000
1727575749.348,-41.992,-453.125,-3.418,-29.297,0.000
1727575749.351,-16.602,-510.742,-11.230,-35.156,0.000
1727575749.355,-37.598,-569.824,-17.090,-52.734,0.000
1727575749.359,-81.055,-582.520,-11.230,-67.871,0.000
1727575749.363,-72.754,-561.035,-8.301,-56.641,0.000
1727575749.367,-61.035,-553.711,-19.043,-52.734,0.000
1727575749.371,-38.574,-591.309,-23.438,-51.758,0.000
1727575749.375,-50.781,-624.512,-29.297,-66.406,0.000
1727575749.379,-104.004,-589.355,-37.598,-83.496,0.000
1727575749.382,-100.586,-558.105,-36.133,-62.012,0.000
1727575749.386,-70.312,-575.684,-45.410,-50.293,0.000
1727575749.390,-60.547,-564.453,-51.758,-72.266,0.000
1727575749.394,-68.848,-577.148,-49.805,-83.008,0.000
1727575749.398,-84.473,-630.371,-38.574,-84.473,0.000
1727575749.402,-85.449,-583.984,-44.434,-72.266,0.000
1727575749.406,-81.543,-506.836,-53.223,-64.941,0.000
1727575749.410,-49.316,-499.023,-50.781,-69.824,0.000
1727575749.413,-53.223,-536.621,-57.617,-78.613,0.000
1727575749.417,-96.191,-545.410,-61.035,-78.125,0.000
1727575749.421,-80.566,-513.672,-45.410,-56.152,0.000
1727575749.425,-69.336,-495.605,-41.504,-55.176,0.000
1727575749.429,-56.152,-499.023,-55.664,-70.801,0.000
1727575749.433,-47.363,-504.395,-61.035,-95.703,0.000
1727575749.437,-75.195,-482.910,-47.363,-99.121,0.000
1727575749.441,-69.824,-451.172,-36.621,-63.477,0.000
1727575749.445,-51.270,-462.402,-44.922,-43.457,0.000
1727575749.449,-47.852,-458.496,-49.805,-63.477,0.000
1727575749.452,-37.109,-444.824,-55.176,-89.844,0.000
1727575749.457,-65.430,-446.777,-54.199,-99.121,0.000
1727575749.460,-74.707,-430.664,-43.945,-81.055,0.000
1727575749.464,-45.410,-399.414,-41.992,-52.246,0.000
1727575749.468,-23.926,-392.578,-50.781,-46.875,0.000
1727575749.472,-9.766,-404.297,-59.082,-53.223,0.000
1727575749.476,-49.316,-388.184,-55.664,-73.242,0.000
1727575749.480,-75.195,-349.121,-48.340,-72.754,0.000
1727575749.484,-51.270,-335.449,-44.922,-54.688,0.000
1727575749.488,-32.227,-338.867,-50.781,-52.734,0.000
1727575749.492,-5.859,-340.332,-47.363,-47.852,0.000
1727575749.496,-41.504,-337.402,-46.875,-69.336,0.000
1727575749.499,-66.895,-314.941,-48.828,-63.965,0.000
1727575749.503,-42.969,-320.801,-40.039,-33.691,0.000
1727575749.507,-38.086,-300.781,-43.457,-39.551,0.000
1727575749.511,-24.902,-267.578,-39.551,-53.711,0.000
1727575749.515,-52.734,-273.926,-35.645,-80.078,0.000
1727575749.519,-80.078,-287.598,-37.109,-77.148,0.000
1727575749.523,-53.223,-271.973,-37.598,-41.504,0.000
1727575749.527,-38.574,-234.375,-35.645,-43.945,0.000
1727575749.531,-15.625,-230.957,-36.133,-55.176,0.000
1727575749.535,-47.852,-258.301,-47.363,-67.383,0.000
1727575749.539,-101.074,-242.188,-52.734,-81.055,0.000
1727575749.543,-84.473,-223.633,-43.945,-63.965,0.000
1727575749.546,-41.992,-221.680,-44.434,-46.875,0.000
1727575749.550,-16.113,-220.215,-57.129,-55.664,0.000
1727575749.554,-59.082,-239.258,-56.641,-76.172,0.000
1727575749.558,-101.074,-236.816,-44.434,-77.637,0.000
1727575749.562,-65.918,-203.613,-28.809,-42.969,0.000
1727575749.566,-47.363,-189.941,-31.738,-40.039,0.000
1727575749.570,-33.203,-191.406,-42.969,-57.129,0.000
1727575749.574,-24.902,-193.359,-42.969,-61.523,0.000
1727575749.578,-53.223,-191.406,-40.527,-57.617,0.000
1727575749.582,-52.734,-190.430,-33.203,-30.273,0.000
1727575749.585,-40.527,-188.965,-31.250,-29.785,0.000
1727575749.589,-21.973,-176.270,-37.598,-44.922,0.000
1727575749.593,-21.973,-172.363,-41.504,-50.781,0.000
1727575749.597,-61.523,-160.645,-41.504,-58.105,0.000
1727575749.601,-46.875,-133.789,-38.086,-44.434,0.000
1727575749.605,-27.344,-143.066,-37.109,-28.320,0.000
1727575749.609,-2.441,-157.715,-40.039,-41.504,0.000
1727575749.613,11.719,-158.691,-42.480,-55.664,0.000
1727575749.617,-47.363,-158.203,-38.086,-50.781,0.000
1727575749.621,-62.012,-145.996,-26.367,-27.344,0.000
1727575749.625,-41.504,-145.996,-30.762,-12.207,0.000
1727575749.628,-26.367,-130.371,-38.574,-21.973,0.000
1727575749.632,-8.301,-119.629,-32.227,-34.180,0.000
1727575749.636,-40.039,-126.465,-25.391,-33.203,0.000
1727575749.640,-50.781,-120.605,-28.320,-30.273,0.000
1727575749.644,-25.879,-107.422,-30.273,-21.484,0.000
1727575749.648,-20.020,-109.863,-28.320,-29.297,0.000
1727575749.652,-20.996,-144.531,-38.574,-33.203,0.000
1727575749.656,-55.176,-149.902,-44.434,-48.340,0.000
1727575749.660,-70.801,-110.352,-33.691,-46.387,0.000
1727575749.664,-46.387,-81.055,-35.645,-29.297,0.000
1727575749.667,-25.879,-89.844,-45.410,-39.062,0.000
1727575749.671,-16.602,-105.957,-55.664,-50.781,0.000
1727575749.675,-52.246,-96.680,-54.688,-67.383,0.000
1727575749.679,-73.730,-96.191,-44.922,-56.641,0.000
1727575749.683,-44.922,-97.656,-41.016,-26.367,0.000
1727575749.687,-31.250,-104.980,-41.504,-28.809,0.000
1727575749.691,0.000,-115.723,-40.527,-38.086,0.000
1727575749.695,0.000,-127.441,-47.852,-46.875,0.000
1727575749.699,0.000,-132.324,-45.410,-33.691,0.000
1727575749.702,0.000,-116.699,-38.574,-20.996,0.000
1727575749.706,0.000,-112.793,-42.480,-28.809,0.000
1727575749.710,0.000,-121.582,-43.945,-19.531,0.000
1727575749.714,0.000,-130.371,-44.434,-47.852,0.000
1727575749.718,0.000,-115.723,-38.574,-59.082,0.000
1727575749.722,0.000,-88.867,-33.203,-22.461,0.000
1727575749.726,0.000,-81.543,-38.086,-19.531,0.000
1727575749.730,0.000,-83.984,-37.109,-12.695,0.000
1727575749.734,0.000,-81.055,-39.551,-9.277,0.000
1727575749.737,-47.852,-72.754,-46.387,-14.160,0.000
1727575749.741,-34.668,-76.172,-47.852,-19.531,0.000
1727575749.745,-17.578,-83.008,-49.805,-28.320,0.000
1727575749.749,-3.418,-81.055,-52.246,-16.602,0.000
1727575749.753,-11.719,-89.355,-58.594,-32.715,0.000
1727575749.757,-54.199,-92.773,-58.105,-31.250,0.000
1727575749.761,-33.691,-90.820,-47.363,2.930,0.000
1727575749.765,-15.137,-70.312,-41.992,-24.414,0.000
1727575749.769,-1.953,-62.012,-42.969,-11.719,0.000
1727575749.773,-3.418,-72.754,-54.688,-21.484,0.000
1727575749.776,-49.316,-88.379,-58.105,-80.078,0.000
1727575749.780,-45.410,-81.543,-40.039,-50.293,0.000
1727575749.784,0.000,-61.035,-30.273,-18.555,0.000
1727575749.788,0.000,-56.152,-43.457,-22.461,0.000
1727575749.792,0.000,-76.660,-61.035,-34.668,0.000
1727575749.796,0.000,-75.195,-56.641,-61.035,0.000
1727575749.800,0.000,-51.758,-50.781,-46.875,0.000
1727575749.804,0.000,-49.316,-62.988,-29.297,0.000
1727575749.808,0.000,-50.781,-55.664,-34.180,0.000
1727575749.812,0.000,-56.641,-43.945,-49.316,0.000
1727575749.816,0.000,-71.777,-54.199,-71.289,0.000
1727575749.820,0.000,-73.242,-58.594,-47.852,0.000
1727575749.824,0.000,-66.406,-45.410,-26.367,0.000
1727575749.827,0.000,-61.035,-36.621,-37.598,0.000
1727575749.832,-4.883,-55.176,-41.504,-28.809,0.000
1727575749.835,-33.691,-65.430,-43.945,-60.547,0.000
1727575749.839,-56.641,-57.617,-41.992,-90.820,0.000
1727575749.843,-37.598,-43.457,-47.363,-66.895,0.000
1727575749.847,-21.973,-47.363,-41.992,-53.223,0.000
1727575749.851,-1.953,-56.641,-41.992,-47.852,0.000
1727575749.855,-34.180,-70.801,-48.828,-69.824,0.000
1727575749.859,-54.688,-63.965,-49.316,-71.777,0.000
1727575749.863,-25.391,-63.965,-47.363,-41.016,0.000
1727575749.867,-17.578,-75.684,-58.105,-40.527,0.000
1727575749.871,-5.859,-52.246,-59.082,-49.316,0.000
1727575749.874,-20.020,-51.758,-57.617,-59.570,0.000
1727575749.878,0.000,-64.941,-55.664,-64.453,0.000
1727575749.882,0.000,-54.199,-47.363,-39.062,0.000
1727575749.886,0.000,-52.246,-45.898,-40.527,0.000
1727575749.890,0.000,-61.523,-41.992,-51.758,0.000
1727575749.894,0.000,-76.172,-44.922,-65.430,0.000
1727575749.898,0.000,-72.266,-51.758,-71.289,0.000
1727575749.902,0.000,-51.758,-45.898,-58.105,0.000
1727575749.906,0.000,-46.875,-41.504,-51.270,0.000
1727575749.910,0.000,-63.965,-48.828,-48.828,0.000
1727575749.914,0.000,-61.035,-48.340,-60.547,0.000
1727575749.918,0.000,-59.570,-44.922,-74.707,0.000
1727575749.921,0.000,-79.102,-49.316,-62.500,0.000
1727575749.925,-30.762,-74.219,-47.852,-47.852,0.000
1727575749.929,-16.602,-57.617,-42.480,-45.898,0.000
1727575749.933,-20.020,-64.941,-47.852,-63.477,0.000
1727575749.937,-56.152,-67.383,-46.387,-83.984,0.000
1727575749.941,-46.387,-46.875,-32.227,-46.387,0.000
1727575749.945,-19.531,-54.688,-37.598,-37.109,0.000
1727575749.949,-18.555,-58.594,-47.363,-58.105,0.000
1727575749.953,-31.250,-74.707,-55.176,-65.918,0.000
1727575749.957,-68.848,-95.703,-61.035,-84.473,0.000
1727575749.961,-69.336,-59.570,-52.246,-74.707,0.000
1727575749.964,-49.805,-56.641,-53.223,-48.828,0.000
1727575749.968,-30.273,-78.125,-57.617,-50.293,0.000
1727575749.972,0.000,-69.824,-57.617,-62.012,0.000
1727575749.976,0.000,-64.941,-68.359,-76.660,0.000
1727575749.980,0.000,-69.336,-63.477,-57.617,0.000
1727575749.984,0.000,-63.965,-49.805,-36.133,0.000
1727575749.988,0.000,-50.781,-48.340,-50.781,0.000
1727575749.992,0.000,-60.547,-63.965,-66.895,0.000
1727575749.996,0.000,-73.730,-76.660,-80.078,0.000
1727575750.000,0.000,-59.570,-69.336,-63.965,0.000
1727575750.003,0.000,-60.059,-54.688,-46.387,0.000
1727575750.007,0.000,-52.734,-45.410,-45.410,0.000
1727575750.011,0.000,-41.504,-52.734,-40.039,0.000
1727575750.015,0.000,-39.551,-53.223,-44.434,0.000
1727575750.019,-44.434,-19.531,-41.016,-31.250,0.000
1727575750.023,-30.273,-30.762,-41.992,-22.949,0.000
1727575750.027,-33.203,-59.570,-58.105,-49.805,0.000
1727575750.031,-15.137,-50.293,-59.570,-64.941,0.000
1727575750.035,-27.344,-44.922,-53.711,-73.730,0.000
1727575750.039,-55.176,-51.270,-47.852,-65.430,0.000
1727575750.042,-30.762,-50.781,-39.062,-28.320,0.000
1727575750.046,-6.836,-55.176,-32.227,-12.695,0.000
1727575750.050,1.465,-57.129,-31.738,-24.414,0.000
1727575750.054,-16.113,-77.637,-36.621,-34.668,0.000
1727575750.058,-46.387,-66.406,-40.039,-48.340,0.000
1727575750.062,-21.973,-33.203,-36.621,-23.438,0.000
1727575750.066,-6.836,-27.832,-30.273,-9.766,0.000
1727575750.070,3.906,-35.645,-27.344,-19.043,0.000
1727575750.074,-9.277,-57.617,-39.551,-36.621,0.000
1727575750.077,-55.664,-61.035,-43.457,-41.992,0.000
1727575750.081,-45.898,-47.852,-34.180,-13.184,0.000
1727575750.085,-31.250,-53.223,-39.062,-13.672,0.000
1727575750.089,-15.625,-62.500,-45.410,-21.484,0.000
1727575750.093,-32.715,-75.684,-50.293,-41.504,0.000
1727575750.097,-80.566,-64.941,-51.758,-61.523,0.000
1727575750.101,-62.988,-48.340,-50.781,-27.344,0.000
1727575750.105,-29.785,-46.875,-50.293,-10.742,0.000
1727575750.109,-5.859,-49.316,-45.410,-17.578,0.000
1727575750.112,-6.836,-52.246,-44.922,-19.531,0.000
1727575750.116,-46.387,-37.109,-42.969,-30.273,0.000
1727575750.120,-52.734,-19.531,-42.969,-21.484,0.000
1727575750.124,-37.109,-17.578,-41.016,-12.207,0.000
1727575750.128,-25.391,-31.738,-42.969,-17.578,0.000
1727575750.132,-15.137,-54.688,-51.270,-15.137,0.000
1727575750.136,-40.039,-75.684,-53.711,-23.926,0.000
1727575750.140,-42.480,-48.340,-43.945,-14.648,0.000
1727575750.144,-25.391,-27.832,-41.016,0.000,0.000
1727575750.148,-17.090,-35.645,-50.781,-11.719,0.000
1727575750.151,-5.371,-32.227,-50.293,-32.227,0.000
1727575750.155,-44.434,-29.785,-42.480,-44.434,0.000
1727575750.159,-62.988,-18.066,-34.668,-17.090,0.000
1727575750.163,-27.344,-18.555,-28.320,16.602,0.000
1727575750.167,-12.695,-38.086,-32.227,9.766,0.000
1727575750.171,-6.348,-51.758,-40.039,-4.395,0.000
1727575750.175,-26.855,-29.785,-28.809,-5.371,0.000
1727575750.179,-42.969,-20.996,-27.832,15.137,0.000
1727575750.182,-41.992,-28.809,-44.434,6.836,0.000
1727575750.186,-34.180,-22.949,-40.527,-17.090,0.000
1727575750.190,-0.977,-28.320,-35.156,-21.973,0.000
1727575750.194,-24.902,-57.617,-43.945,-40.039,0.000
1727575750.198,-59.082,-60.547,-37.109,-38.574,0.000
1727575750.202,-32.715,-56.641,-31.738,-6.348,0.000
1727575750.206,0.000,-59.082,-37.109,6.348,0.000
1727575750.210,0.000,-63.965,-37.109,0.488,0.000
1727575750.214,0.000,-80.566,-40.527,-19.043,0.000
1727575750.218,0.000,-68.359,-32.715,-11.230,0.000
1727575750.222,0.000,-53.223,-22.461,15.137,0.000
1727575750.226,0.000,-50.781,-39.062,8.789,0.000
1727575750.230,0.000,-46.875,-40.039,-0.488,0.000
1727575750.233,0.000,-54.688,-38.086,-20.996,0.000
1727575750.237,0.000,-55.176,-41.504,-18.555,0.000
1727575750.241,0.000,-33.691,-34.668,5.859,0.000
1727575750.245,0.000,-34.180,-37.109,-6.348,0.000
1727575750.249,0.000,-55.176,-41.504,-12.207,0.000
1727575750.253,-36.133,-78.125,-51.270,-21.973,0.000
1727575750.257,-76.660,-77.148,-53.223,-35.645,0.000
1727575750.261,-61.035,-47.852,-40.527,-12.207,0.000
1727575750.265,-26.367,-35.645,-39.551,0.000,0.000
1727575750.269,-6.836,-49.805,-41.992,0.488,0.000
1727575750.273,-7.812,-64.453,-42.969,-9.766,0.000
1727575750.277,-47.363,-48.340,-43.457,-28.809,0.000
1727575750.280,-44.434,-40.039,-38.574,-10.742,0.000
1727575750.284,-30.762,-69.336,-43.945,-1.953,0.000
1727575750.288,-19.043,-59.570,-41.504,-11.230,0.000
1727575750.292,-15.137,-56.641,-36.621,-30.273,0.000
1727575750.296,-57.617,-66.406,-41.016,-39.551,0.000
1727575750.300,-52.734,-43.945,-37.598,-16.602,0.000
1727575750.304,-35.645,-39.062,-39.551,-17.090,0.000
1727575750.308,-16.602,-44.922,-41.016,-19.531,0.000
1727575750.312,8.789,-52.734,-41.504,-10.254,0.000
1727575750.316,-29.785,-60.059,-41.016,-27.344,0.000
1727575750.320,-32.715,-53.223,-35.645,-15.137,0.000
1727575750.323,-9.277,-45.898,-26.367,5.371,0.000
1727575750.327,2.441,-47.363,-27.832,-1.953,0.000
1727575750.331,17.090,-65.918,-36.621,-8.789,0.000
1727575750.335,-34.180,-65.430,-40.039,-34.180,0.000
1727575750.339,-54.688,-48.340,-37.598,-22.461,0.000
1727575750.343,-26.855,-45.410,-32.227,2.930,0.000
1727575750.347,-16.113,-45.898,-34.668,-16.602,0.000
1727575750.351,12.695,-51.270,-39.551,-25.879,0.000
1727575750.355,-7.812,-61.523,-33.691,-35.156,0.000
1727575750.359,-47.852,-67.383,-31.738,-29.297,0.000
1727575750.362,-34.180,-66.406,-33.203,-12.695,0.000
1727575750.366,-28.809,-53.223,-41.504,-23.926,0.000
1727575750.370,-12.695,-39.551,-40.039,-27.832,0.000
1727575750.374,-32.227,-52.246,-40.527,-39.551,0.000
1727575750.378,-68.848,-44.434,-37.598,-27.832,0.000
1727575750.382,-39.062,-26.855,-23.926,3.906,0.000
1727575750.386,-15.137,-50.293,-35.645,0.000,0.000
1727575750.390,0.488,-78.613,-49.316,-1.953,0.000
1727575750.394,-27.832,-89.844,-47.363,-26.367,0.000
1727575750.398,-58.105,-76.660,-40.527,-37.109,0.000
1727575750.401,-40.039,-51.270,-41.504,-8.301,0.000
1727575750.405,-31.738,-44.434,-45.410,-9.277,0.000
1727575750.409,-13.184,-48.828,-40.039,-17.578,0.000
1727575750.413,-19.043,-63.477,-41.016,-32.227,0.000
1727575750.417,-52.246,-74.219,-41.992,-34.180,0.000
1727575750.421,-35.156,-73.242,-37.109,0.977,0.000
1727575750.425,-14.160,-52.734,-29.297,4.395,0.000
1727575750.429,17.578,-62.012,-29.785,-14.160,0.000
1727575750.433,1.953,-83.984,-41.016,-49.316,0.000
1727575750.437,-51.270,-83.008,-44.434,-55.664,0.000
1727575750.440,-42.969,-65.918,-39.062,-21.484,0.000
1727575750.444,-29.785,-52.734,-36.133,-10.254,0.000
1727575750.448,-2.441,-59.570,-37.109,-17.578,0.000
1727575750.452,1.953,-64.941,-37.598,-27.832,0.000
1727575750.456,-45.898,-65.430,-38.086,-43.457,0.000
1727575750.460,-43.945,-59.570,-33.691,-21.484,0.000
1727575750.464,-27.344,-58.594,-35.645,-8.789,0.000
1727575750.468,-18.555,-59.082,-41.016,-18.066,0.000
1727575750.472,-4.883,-64.941,-41.504,-25.391,0.000
1727575750.476,-34.668,-77.148,-38.574,-44.922,0.000
1727575750.479,-45.898,-71.289,-30.762,-19.531,0.000
1727575750.483,-28.320,-50.781,-27.344,7.812,0.000
1727575750.487,-14.648,-34.180,-34.668,-4.395,0.000
1727575750.491,3.418,-42.969,-37.109,-22.461,0.000
1727575750.495,-34.180,-55.664,-43.945,-41.992,0.000
1727575750.499,-58.105,-45.410,-44.434,-25.391,0.000
1727575750.503,-39.551,-42.969,-42.480,-16.113,0.000
1727575750.507,-16.113,-48.828,-45.898,-20.508,0.000
1727575750.510,0.000,-61.035,-44.434,-20.996,0.000
1727575750.514,-33.691,-71.777,-36.621,-33.691,0.000
1727575750.518,-44.434,-50.293,-25.391,-6.348,0.000
1727575750.522,-29.297,-42.480,-29.297,-0.977,0.000
1727575750.526,-25.391,-38.086,-39.062,-18.066,0.000
1727575750.530,-8.789,-30.273,-40.527,-14.648,0.000
1727575750.534,-33.691,-50.293,-38.086,-37.109,0.000
1727575750.538,-46.875,-55.176,-32.227,-29.297,0.000
1727575750.541,-16.602,-35.645,-22.461,-0.488,0.000
1727575750.545,-9.277,-29.297,-23.926,-11.230,0.000
1727575750.549,4.883,-40.039,-33.691,-12.207,0.000
1727575750.553,-14.160,-65.918,-41.016,-31.250,0.000
1727575750.557,-47.363,-64.941,-41.992,-36.133,0.000
1727575750.561,-31.250,-45.898,-39.062,-15.137,0.000
1727575750.565,-12.207,-51.270,-40.527,-18.066,0.000
1727575750.569,14.648,-54.688,-42.969,-16.602,0.000
1727575750.573,-1.953,-51.270,-42.480,-30.762,0.000
1727575750.577,-33.203,-38.574,-33.691,-33.691,0.000
1727575750.581,-11.230,-24.902,-29.785,-8.301,0.000
1727575750.585,-13.184,-25.391,-32.715,-7.812,0.000
1727575750.589,2.930,-25.879,-30.273,-4.883,0.000
1727575750.592,-0.488,-31.738,-35.156,-14.160,0.000
1727575750.596,-52.246,-37.598,-44.434,-32.227,0.000
1727575750.600,-38.574,-41.016,-41.992,-14.648,0.000
1727575750.604,-14.648,-47.363,-43.945,-15.625,0.000
1727575750.608,-6.348,-41.504,-49.805,-30.273,0.000
1727575750.612,-13.184,-52.734,-59.570,-30.762,0.000
1727575750.616,-48.828,-52.246,-57.129,-31.738,0.000
1727575750.620,-45.898,-20.996,-47.363,-17.578,0.000
1727575750.624,-31.250,-22.949,-53.711,-11.719,0.000
1727575750.628,-9.277,-37.598,0.000,-20.996,0.000
1727575750.632,-10.742,-33.691,0.000,-31.738,0.000
1727575750.636,-60.547,-36.133,0.000,-47.852,0.000
1727575750.639,-55.664,-31.250,0.000,-33.203,0.000
1727575750.643,-28.320,-20.996,0.000,-18.555,0.000
1727575750.647,-15.137,-28.320,0.000,-39.062,0.000
1727575750.651,-13.672,-31.250,0.000,-49.805,0.000
1727575750.655,-61.523,-36.133,0.000,-55.664,0.000
1727575750.659,-60.059,-44.434,0.000,-25.879,0.000
1727575750.663,-30.273,-34.668,0.000,-2.441,0.000
1727575750.667,-11.230,-20.508,0.000,-10.742,0.000
1727575750.671,12.207,-29.297,0.000,-20.508,0.000
1727575750.675,-26.855,-39.062,-46.387,-31.250,0.000
1727575750.679,-52.246,-17.090,-39.551,-14.648,0.000
1727575750.682,-23.926,-9.766,-36.133,0.488,0.000
1727575750.686,-8.301,-24.414,-38.086,-2.930,0.000
1727575750.690,8.789,-37.109,-35.156,-12.207,0.000
1727575750.694,-16.602,-44.434,-40.527,-35.156,0.000
1727575750.698,-41.992,-36.621,-37.109,-29.297,0.000
1727575750.702,-24.414,-32.715,-34.668,-8.301,0.000
1727575750.706,-3.906,-37.109,-35.645,-5.859,0.000
1727575750.710,11.719,-5.371,-28.809,-15.137,0.000
1727575750.714,-22.949,-0.977,-32.227,-30.273,0.000
1727575750.718,-53.711,-13.672,-29.785,-33.203,0.000
1727575750.722,0.000,-11.719,-31.250,-19.531,0.000
1727575750.725,0.000,-16.602,-35.156,-26.855,0.000
1727575750.729,0.000,-28.320,-36.133,-39.551,0.000
1727575750.733,0.000,-47.363,-45.410,-50.781,0.000
1727575750.737,0.000,-39.062,-40.527,-44.922,0.000
1727575750.741,0.000,-29.297,-35.156,-7.324,0.000
1727575750.745,0.000,-40.039,-40.527,-13.184,0.000
1727575750.749,0.000,-48.828,-44.434,-38.574,0.000
1727575750.753,0.000,-52.246,-46.387,-52.246,0.000
1727575750.757,0.000,-38.086,-41.504,-53.223,0.000
1727575750.761,0.000,-27.832,-37.598,-36.133,0.000
1727575750.765,0.000,-40.039,-41.504,-34.180,0.000
1727575750.768,0.488,-32.227,-39.551,-33.203,0.000
1727575750.772,-16.113,-46.387,-41.504,-47.852,0.000
1727575750.776,-62.500,-62.500,-39.551,-52.246,0.000
1727575750.780,-52.246,-41.016,-32.715,-25.879,0.000
1727575750.784,-37.109,-36.621,-36.133,-26.367,0.000
1727575750.788,-5.371,-60.059,-36.621,-34.180,0.000
1727575750.792,-1.953,-79.590,-50.293,-44.434,0.000
1727575750.796,-50.293,-64.941,-59.570,-55.176,0.000
1727575750.800,-50.293,-44.434,-47.852,-35.156,0.000
1727575750.804,-39.551,-44.434,-46.387,-27.832,0.000
1727575750.807,-13.672,-41.504,-49.316,-23.926,0.000
1727575750.811,-9.277,-49.316,-44.922,-26.367,0.000
1727575750.815,-61.523,-41.016,-41.016,-51.758,0.000
1727575750.819,-54.199,-19.531,-33.203,-35.156,0.000
1727575750.823,-23.438,-19.531,-29.297,-16.602,0.000
1727575750.827,-0.977,-30.762,-31.738,-20.020,0.000
1727575750.831,7.812,-28.809,-34.668,-20.020,0.000
1727575750.835,-30.273,-30.273,-39.551,-32.227,0.000
1727575750.839,-31.738,-31.250,-34.180,-17.090,0.000
1727575750.842,-18.066,-12.695,-30.762,-8.789,0.000
1727575750.846,-14.648,-7.324,-32.227,-15.137,0.000
1727575750.850,-0.977,-20.020,-36.621,-18.555,0.000
1727575750.854,-37.109,-35.156,-42.480,-48.340,0.000
1727575750.858,-60.059,-35.156,-34.180,-32.227,0.000
1727575750.862,-35.156,-34.180,-22.949,-2.441,0.000
1727575750.866,-22.461,-47.363,-26.367,-12.207,0.000
1727575750.870,-11.230,-51.758,-46.875,-33.203,0.000
1727575750.874,-36.621,-41.504,-49.805,-54.688,0.000
1727575750.877,-54.688,-31.738,-41.016,-37.109,0.000
1727575750.881,-39.551,-35.645,-38.086,-3.906,0.000
1727575750.885,-26.855,-51.758,-44.434,-16.113,0.000
1727575750.889,-9.766,-41.016,-42.480,-34.668,0.000
1727575750.893,-38.574,-44.922,-38.574,-45.410,0.000
1727575750.897,-67.871,-43.457,-39.551,-41.504,0.000
1727575750.901,-50.293,-29.785,-41.016,-27.832,0.000
1727575750.905,-43.945,-42.969,-46.387,-32.227,0.000
1727575750.909,-24.902,-51.270,-52.246,-45.410,0.000
1727575750.913,-42.480,-72.266,-59.082,-61.523,0.000
1727575750.917,-73.242,-65.918,-50.293,-59.570,0.000
1727575750.921,-49.805,-33.691,-36.133,-20.996,0.000
1727575750.925,-36.133,-43.457,-37.598,-24.414,0.000
1727575750.928,-15.137,-56.641,-41.016,-28.320,0.000
1727575750.932,-20.996,-51.758,-43.945,-25.391,0.000
1727575750.936,-58.105,-30.762,-37.109,-40.039,0.000
1727575750.940,-36.621,-17.578,-35.645,-20.996,0.000
1727575750.944,-14.160,-43.945,-42.480,-5.371,0.000
1727575750.948,3.906,-45.410,-41.504,-19.531,0.000
1727575750.952,-1.953,-34.668,-39.551,-32.227,0.000
1727575750.956,-47.363,-42.969,-38.574,-39.551,0.000
1727575750.960,-37.109,-35.645,-33.203,-16.602,0.000
1727575750.964,-16.602,-27.344,-29.297,-8.301,0.000
1727575750.968,-7.324,-32.227,-41.016,-19.531,0.000
1727575750.972,-16.602,-57.129,-56.152,-36.133,0.000
1727575750.976,-56.641,-68.359,-47.363,-32.715,0.000
1727575750.979,-34.180,-43.945,-34.180,-13.672,0.000
1727575750.983,-14.160,-21.484,-34.668,-18.066,0.000
1727575750.987,-9.277,-17.090,-40.039,-23.926,0.000
1727575750.991,-6.836,-40.527,-48.340,-20.508,0.000
1727575750.995,-47.852,-37.598,-44.434,-33.203,0.000
1727575750.999,-37.598,-24.414,-39.062,-16.602,0.000
1727575751.003,0.000,-26.855,-35.156,-0.488,0.000
1727575751.007,0.000,-30.762,-33.691,-22.949,0.000
1727575751.011,0.000,-38.574,-41.504,-40.527,0.000
1727575751.015,0.000,-49.805,-47.852,-63.477,0.000
1727575751.019,0.000,-45.898,-46.875,-55.176,0.000
1727575751.023,0.000,-48.828,-45.410,-37.598,0.000
1727575751.026,0.000,-49.316,-45.898,-45.898,0.000
1727575751.030,0.000,-41.504,-46.387,-47.852,0.000
1727575751.034,0.000,-57.129,-48.828,-48.828,0.000
1727575751.038,0.000,-48.340,-38.574,-44.434,0.000
1727575751.042,0.000,-47.363,-35.156,-20.996,0.000
1727575751.046,0.000,-60.547,-44.434,-25.879,0.000
1727575751.050,-10.742,-60.059,-42.480,-30.273,0.000
1727575751.054,-34.668,-62.012,-39.062,-36.133,0.000
1727575751.058,-60.059,-56.152,-35.645,-32.715,0.000
1727575751.062,-36.621,-57.617,-37.109,-16.113,0.000
1727575751.066,-27.832,-65.918,-41.016,-21.973,0.000
1727575751.069,-9.766,-54.199,-41.016,-24.902,0.000
1727575751.073,-33.691,-52.246,-46.387,-42.480,0.000
1727575751.077,-65.918,-59.570,-46.387,-51.758,0.000
1727575751.081,-45.410,-64.941,-36.133,-21.484,0.000
1727575751.085,-23.926,-46.875,-28.320,-12.695,0.000
1727575751.089,8.789,-41.016,-28.809,-10.254,0.000
1727575751.093,-16.113,-62.988,-29.785,-25.391,0.000
1727575751.097,-60.547,-52.734,-25.879,-26.855,0.000
1727575751.101,-44.922,-37.598,-24.902,-3.906,0.000
1727575751.105,-28.320,-47.363,-31.738,-10.742,0.000
1727575751.108,4.883,-48.340,-31.250,-20.508,0.000
1727575751.112,4.395,-41.992,-31.738,-30.273,0.000
1727575751.116,-45.898,-45.410,-35.156,-34.180,0.000
1727575751.120,-37.109,-34.180,-31.250,-6.348,0.000
1727575751.124,-14.648,-38.086,-38.086,-8.301,0.000
1727575751.128,0.977,-44.434,-40.527,-20.020,0.000
1727575751.132,-10.254,-41.016,-34.180,-38.574,0.000
1727575751.136,-56.641,-62.988,-36.621,-50.293,0.000
1727575751.140,-39.062,-59.082,-30.762,-18.066,0.000
1727575751.143,-22.461,-44.922,-34.668,-13.672,0.000
1727575751.147,-17.578,-44.434,-41.016,-24.414,0.000
1727575751.151,-23.438,-57.617,-40.039,-34.668,0.000
1727575751.155,-60.547,-76.172,-28.809,-44.922,0.000
1727575751.159,-51.270,-64.453,-18.066,-13.184,0.000
1727575751.163,-38.574,-57.129,-23.438,-2.441,0.000
1727575751.167,-24.414,-63.965,-33.203,-12.207,0.000
1727575751.171,-11.719,-78.613,-42.480,-30.762,0.000
1727575751.175,-64.941,-72.754,-40.039,-51.270,0.000
1727575751.179,-73.730,-59.570,-34.180,-36.621,0.000
1727575751.183,-43.457,-60.059,-34.668,-23.438,0.000
1727575751.186,-20.996,-55.176,-31.250,-22.461,0.000
1727575751.190,-5.371,-57.129,-37.598,-36.621,0.000
1727575751.194,-54.199,-74.707,-46.387,-57.617,0.000
1727575751.198,-69.824,-69.824,-40.527,-40.527,0.000
1727575751.202,-47.363,-50.293,-34.668,-29.297,0.000
1727575751.206,-31.250,-52.246,-32.227,-32.715,0.000
1727575751.210,-13.184,-62.500,-37.598,-29.297,0.000
1727575751.214,-44.922,-75.195,-47.852,-42.969,0.000
1727575751.218,-57.129,-60.059,-43.457,-35.156,0.000
1727575751.221,-21.484,-42.969,-28.809,-5.371,0.000
1727575751.225,-5.371,-48.340,-27.344,-3.418,0.000
1727575751.229,3.418,-46.875,-37.598,-2.930,0.000
1727575751.233,-33.691,-45.410,-41.504,-18.555,0.000
1727575751.237,-58.594,-23.926,-37.598,-33.203,0.000
1727575751.241,-32.715,-13.672,-34.180,-9.277,0.000
1727575751.245,-10.254,-15.625,-27.832,0.488,0.000
1727575751.249,16.602,-11.230,-20.020,-2.441,0.000
1727575751.252,-11.719,-29.297,-28.809,-19.531,0.000
1727575751.256,-46.387,-50.781,-50.781,-20.508,0.000
1727575751.260,-20.996,-41.504,-48.340,2.441,0.000
1727575751.264,-4.395,-35.645,-39.062,-4.883,0.000
1727575751.268,24.902,-44.922,-32.715,-7.812,0.000
1727575751.272,8.301,-40.039,-41.016,-29.297,0.000
1727575751.276,-43.457,-26.855,-42.480,-43.457,0.000
1727575751.280,-47.852,-14.648,-35.645,-24.414,0.000
1727575751.283,-36.133,-10.742,-37.109,-29.785,0.000
1727575751.287,-11.230,-18.066,-41.504,-37.109,0.000
1727575751.291,-20.508,-37.598,-49.316,-47.363,0.000
1727575751.295,-66.895,-34.668,-53.223,-54.688,0.000
1727575751.299,-54.688,-27.344,-47.363,-32.715,0.000
1727575751.303,-32.715,-48.828,-44.922,-31.738,0.000
1727575751.307,-10.254,-42.480,-43.945,-39.062,0.000
1727575751.311,-12.207,-34.668,-39.062,-39.062,0.000
1727575751.315,-56.641,-44.922,-36.133,-46.387,0.000
1727575751.319,-45.410,-35.156,-27.344,-21.484,0.000
1727575751.323,-16.113,-26.367,-29.785,-16.113,0.000
1727575751.326,4.395,-30.762,-33.203,-22.461,0.000
1727575751.331,-6.348,-43.945,-39.062,-36.621,0.000
1727575751.334,-53.711,-67.383,-55.176,-56.152,0.000
1727575751.338,-59.570,-50.781,-46.875,-31.250,0.000
1727575751.342,-44.922,-34.180,-36.133,-17.578,0.000
1727575751.346,-26.367,-48.340,-34.668,-28.320,0.000
1727575751.350,-15.137,-52.246,-38.086,-41.992,0.000
1727575751.354,-57.129,-55.176,-45.898,-61.035,0.000
1727575751.358,-67.871,-46.875,-41.504,-48.340,0.000
1727575751.362,-43.457,-48.828,-35.645,-27.832,0.000
1727575751.366,-23.438,-55.176,-33.691,-17.090,0.000
1727575751.370,-11.230,-45.410,-24.902,-19.531,0.000
1727575751.374,-47.363,-49.316,-22.949,-34.180,0.000
1727575751.378,-61.523,-42.969,0.000,-22.949,0.000
1727575751.381,-39.062,-27.832,0.000,-1.953,0.000
1727575751.385,-33.203,-33.203,0.000,-13.184,0.000
1727575751.389,-11.719,-41.504,0.000,-24.414,0.000
1727575751.393,-35.645,-45.898,0.000,-30.273,0.000
1727575751.397,-54.199,-36.621,0.000,-21.973,0.000
1727575751.401,-32.715,-34.668,0.000,-9.766,0.000
1727575751.405,-15.137,-44.922,0.000,-13.184,0.000
1727575751.409,7.324,-53.223,0.000,-21.973,0.000
1727575751.413,-14.648,-37.598,0.000,-42.969,0.000
1727575751.417,-35.645,-14.648,0.000,-35.156,0.000
1727575751.421,-16.113,-21.484,0.000,-13.672,0.000
1727575751.424,-12.207,-26.367,-34.180,-21.484,0.000
1727575751.428,9.766,-30.762,-40.039,-22.949,0.000
1727575751.432,-13.184,-50.293,-52.246,-44.922,0.000
1727575751.436,-59.570,-55.176,-56.152,-51.270,0.000
1727575751.440,-36.621,-41.504,-41.504,-17.090,0.000
1727575751.444,-8.789,-37.598,-37.598,-12.207,0.000
1727575751.448,9.277,-31.250,-38.574,-20.020,0.000
1727575751.452,-8.301,-34.180,-46.875,-31.738,0.000
1727575751.456,-54.199,-41.992,-51.758,-34.180,0.000
1727575751.460,-53.223,-12.695,-41.992,-25.391,0.000
1727575751.464,-28.809,-12.695,-40.039,-17.578,0.000
1727575751.467,-5.371,-39.551,-38.574,-15.625,0.000
1727575751.471,-14.648,-41.016,-45.898,-29.785,0.000
1727575751.475,-57.617,-38.086,-48.340,-50.781,0.000
1727575751.479,-50.781,-32.227,-45.410,-28.809,0.000
1727575751.483,-29.785,-29.785,-54.199,-19.043,0.000
1727575751.487,-9.277,-30.273,-53.711,-31.250,0.000
1727575751.491,-6.348,-65.918,-58.105,-38.086,0.000
1727575751.495,-45.898,-79.102,-61.035,-51.270,0.000
1727575751.499,-52.734,-54.688,-48.340,-26.367,0.000
1727575751.503,-33.691,-32.715,-41.016,-8.301,0.000
1727575751.507,-14.160,-25.391,-40.039,-21.484,0.000
1727575751.510,-12.695,-40.527,-42.480,-33.691,0.000
1727575751.514,-54.199,-43.945,-55.176,-50.781,0.000
1727575751.518,-61.523,-36.621,-53.223,-43.457,0.000
1727575751.522,-40.039,-28.809,-37.598,-23.926,0.000
1727575751.526,-15.137,-29.785,-39.062,-33.691,0.000
1727575751.530,-3.418,-38.574,-43.457,-37.109,0.000
1727575751.534,-49.316,-54.199,-53.223,-43.945,0.000
1727575751.538,-62.988,-50.781,-48.828,-37.109,0.000
1727575751.542,-39.551,-40.527,-40.039,-16.602,0.000
1727575751.545,-14.160,-44.434,-42.969,-12.695,0.000
1727575751.549,0.000,-32.227,-40.039,-32.227,0.000
1727575751.553,-45.410,-39.551,-41.016,-46.387,0.000
1727575751.557,-63.477,-43.457,-38.086,-32.227,0.000
1727575751.561,-31.250,-40.527,-34.668,-10.254,0.000
1727575751.565,-10.742,-40.527,-34.668,-0.488,0.000
1727575751.569,8.301,-40.527,-34.180,-7.324,0.000
1727575751.573,-28.320,-53.711,-39.062,-33.203,0.000
1727575751.577,-70.312,-44.922,-41.016,-33.203,0.000
1727575751.581,-49.316,-37.598,-38.574,-12.695,0.000
1727575751.585,-30.273,-48.828,-45.410,-24.414,0.000
1727575751.588,-4.883,-50.781,-49.316,-31.738,0.000
1727575751.592,-37.598,-56.152,-51.270,-44.434,0.000
1727575751.596,-73.242,-57.617,-54.688,-44.922,0.000
1727575751.600,-37.109,-42.480,-54.688,-21.973,0.000
1727575751.604,-20.020,-62.500,-61.523,-28.320,0.000
1727575751.608,7.812,-66.406,-62.012,-43.945,0.000
1727575751.612,0.000,-62.500,-54.688,-45.898,0.000
1727575751.616,-41.016,-59.570,-50.781,-38.086,0.000
1727575751.620,-32.227,-39.062,-42.480,-25.879,0.000
1727575751.623,-21.973,-35.156,-40.527,-23.438,0.000
1727575751.627,3.906,-27.344,-41.992,-16.602,0.000
1727575751.631,-8.301,-40.527,-51.270,-41.504,0.000
1727575751.635,-63.965,-56.152,-56.641,-71.289,0.000
1727575751.639,-57.129,-41.016,-50.293,-52.734,0.000
1727575751.643,-24.414,-41.992,-44.434,-39.551,0.000
1727575751.647,2.441,-51.758,-41.504,-31.738,0.000
1727575751.651,-19.531,-63.965,-51.270,-42.480,0.000
1727575751.655,-75.195,-60.547,-56.152,-61.035,0.000
1727575751.658,0.000,-39.551,-41.992,-32.715,0.000
1727575751.662,0.000,-35.156,-38.574,-6.348,0.000
1727575751.666,0.000,-34.180,-41.504,-12.695,0.000
1727575751.670,0.000,-34.668,-44.434,-31.738,0.000
1727575751.674,0.000,-46.875,-52.734,-54.199,0.000
1727575751.678,0.000,-48.828,-46.875,-28.809,0.000
1727575751.682,0.000,-33.691,-30.762,-3.906,0.000
1727575751.686,0.000,-30.273,-37.598,-17.090,0.000
1727575751.690,0.000,-45.410,-51.270,-26.855,0.000
1727575751.693,0.000,-57.129,-50.781,-43.457,0.000
1727575751.697,0.000,-46.387,-41.992,-24.902,0.000
1727575751.701,0.000,-40.039,-36.133,4.395,0.000
1727575751.705,-1.953,-31.738,-33.203,-6.836,0.000
1727575751.709,11.230,-25.391,-37.109,-20.020,0.000
1727575751.713,-39.062,-30.762,-41.504,-29.785,0.000
1727575751.717,-48.340,-22.949,-32.715,-16.602,0.000
1727575751.721,-20.020,-22.461,-30.762,0.977,0.000
1727575751.725,-10.742,-35.645,-42.969,-10.254,0.000
1727575751.729,-2.930,-41.504,-49.805,-31.738,0.000
1727575751.733,-40.039,-36.621,-44.434,-56.152,0.000
1727575751.737,-56.152,-38.574,-42.969,-39.551,0.000
1727575751.741,-35.156,-36.621,-34.668,-0.488,0.000
1727575751.744,-28.320,-19.043,-33.691,-17.090,0.000
1727575751.748,5.859,-26.855,-45.898,-28.320,0.000
1727575751.752,-18.555,-52.734,-52.734,-35.645,0.000
1727575751.756,-63.965,-45.898,-49.316,-38.574,0.000
1727575751.760,-44.922,-29.785,-48.828,-24.414,0.000
1727575751.764,-31.250,-37.109,-51.270,-30.273,0.000
1727575751.768,-8.789,-41.992,-48.828,-29.785,0.000
1727575751.772,-23.926,-44.434,-50.293,-42.480,0.000
1727575751.776,-62.012,-42.969,-51.758,-51.270,0.000
1727575751.780,-44.434,-33.691,-54.688,-38.574,0.000
1727575751.784,-30.762,-41.016,-59.082,-43.457,0.000
1727575751.788,-12.695,-35.156,-54.199,-48.340,0.000
1727575751.791,-28.320,-34.668,-52.734,-59.570,0.000
1727575751.795,-72.754,-50.293,-53.711,-73.730,0.000
1727575751.799,-62.988,-41.504,-43.945,-38.574,0.000
1727575751.803,-42.969,-39.062,-38.086,-26.855,0.000
1727575751.807,-15.625,-46.387,-43.945,-36.133,0.000
1727575751.811,-23.438,-48.340,-52.734,-40.039,0.000
1727575751.815,-64.941,-42.480,-52.734,-53.711,0.000
1727575751.819,-51.758,-34.180,-48.828,-37.109,0.000
1727575751.823,-32.715,-26.855,-39.062,-17.578,0.000
1727575751.827,-17.578,-34.180,-37.109,-16.113,0.000
1727575751.831,-13.672,-63.477,-43.945,-26.855,0.000
1727575751.834,-53.711,-53.223,-37.598,-44.922,0.000
1727575751.838,-53.223,-39.551,-31.250,-29.297,0.000
1727575751.842,-26.855,-50.293,-32.715,-15.625,0.000
1727575751.846,0.000,-43.945,-36.133,-26.367,0.000
1727575751.850,0.000,-41.016,-36.621,-42.480,0.000
1727575751.854,0.000,-48.828,-40.527,-50.781,0.000
1727575751.858,0.000,-41.016,-39.062,-28.320,0.000
1727575751.862,0.000,-26.367,-36.133,-7.812,0.000
1727575751.866,0.000,-32.715,-46.387,-20.996,0.000
1727575751.870,0.000,-43.945,-45.898,-35.645,0.000
1727575751.874,0.000,-45.410,-41.016,-40.039,0.000
1727575751.877,0.000,-31.738,-45.410,-30.762,0.000
1727575751.881,0.000,-26.855,-48.828,-32.227,0.000
1727575751.885,0.000,-39.551,-53.711,-38.086,0.000
1727575751.889,0.000,-39.551,-56.152,-34.668,0.000
1727575751.893,-46.875,-40.039,-59.570,-58.594,0.000
1727575751.897,-69.336,-36.621,-55.176,-60.547,0.000
1727575751.901,-44.922,-28.320,-48.828,-33.691,0.000
1727575751.905,-28.809,-34.180,-49.316,-37.109,0.000
1727575751.909,-8.789,-38.086,-53.223,-39.062,0.000
1727575751.913,-36.621,-40.527,-57.617,-48.340,0.000
1727575751.917,-66.406,-31.738,-53.711,-55.664,0.000
1727575751.920,-38.574,-31.738,-48.340,-33.203,0.000
1727575751.924,0.000,-22.461,-41.016,-26.855,0.000
1727575751.928,17.090,-20.996,-39.551,-29.297,0.000
1727575751.932,-24.414,-43.945,-43.945,-40.039,0.000
1727575751.936,-61.523,-41.016,-42.969,-46.387,0.000
1727575751.940,-41.992,-26.855,-33.691,-22.949,0.000
1727575751.944,-33.691,-30.762,-34.668,-20.996,0.000
1727575751.948,-18.555,-38.574,-41.992,-24.902,0.000
1727575751.952,-35.156,-39.062,-44.922,-31.250,0.000
1727575751.955,-67.383,-33.691,-34.668,-38.086,0.000
1727575751.959,-46.875,-33.691,-22.949,-8.301,0.000
1727575751.963,-24.414,-43.945,-28.809,1.465,0.000
1727575751.967,1.953,-34.180,-28.809,-6.836,0.000
1727575751.971,-3.906,-30.762,-30.762,-31.738,0.000
1727575751.975,-42.969,-40.527,-34.668,-43.457,0.000
1727575751.979,-26.367,-30.273,-27.344,-10.742,0.000
1727575751.983,-13.184,-29.297,-27.344,-10.254,0.000
1727575751.987,3.418,-27.344,-23.926,-14.648,0.000
1727575751.990,-5.371,-27.344,-30.762,-17.090,0.000
1727575751.994,-46.875,-26.855,-37.109,-21.484,0.000
1727575751.998,-32.227,-8.789,-18.066,-2.930,0.000
1727575752.002,-24.414,-11.230,-17.090,-0.488,0.000
1727575752.006,-10.742,-18.066,-31.250,-12.695,0.000
1727575752.010,1.953,-31.250,-41.016,-33.203,0.000
1727575752.014,-36.621,-27.344,-36.133,-50.781,0.000
1727575752.018,-33.203,-4.395,-24.414,-17.090,0.000
1727575752.022,-23.438,-1.953,-25.879,0.000,0.000
1727575752.026,-18.555,-13.672,-35.645,-25.391,0.000
1727575752.029,-9.277,-22.949,-38.086,-41.504,0.000
1727575752.034,0.000,-36.133,-38.086,-52.734,0.000
1727575752.038,0.000,-49.316,-39.551,-35.645,0.000
1727575752.041,0.000,-33.691,-35.645,-26.855,0.000
1727575752.045,0.000,-43.945,-35.645,-39.551,0.000
1727575752.049,0.000,-96.680,-36.621,-31.250,0.000
1727575752.053,0.000,-68.848,-31.250,-16.113,0.000
1727575752.057,0.000,-21.973,-35.645,-20.020,0.000
1727575752.061,0.000,-153.809,-32.227,3.418,0.000
1727575752.065,0.000,-199.219,-86.426,70.312,0.000
1727575752.069,0.000,-32.227,-63.965,72.266,0.000
1727575752.073,0.000,-181.641,20.996,65.918,0.000
1727575752.077,0.000,-299.805,-20.996,198.242,0.000
1727575752.081,229.980,-54.688,16.602,231.445,0.000
1727575752.085,87.891,76.172,3.906,89.355,0.000
1727575752.089,172.363,123.047,-104.980,150.391,0.000
1727575752.092,233.398,-33.691,-133.301,177.246,0.000
1727575752.096,83.008,-155.273,20.020,34.668,0.000
1727575752.100,101.562,64.453,94.727,124.023,0.000
1727575752.104,-91.309,165.527,-157.715,-24.414,0.000
1727575752.108,-236.816,141.113,-80.566,-234.863,0.000
1727575752.112,-110.840,177.246,84.961,-139.160,0.000
1727575752.116,27.344,205.078,-73.730,5.371,0.000
1727575752.120,44.922,235.352,-26.855,83.496,0.000
1727575752.124,-74.219,290.527,163.574,1.465,0.000
1727575752.128,0.000,556.641,183.105,-126.465,0.000
1727575752.132,0.000,654.785,121.094,-173.828,0.000
1727575752.136,0.000,661.621,133.301,-101.074,0.000
1727575752.139,0.000,795.898,258.301,33.203,0.000
1727575752.143,0.000,894.531,369.629,94.727,0.000
1727575752.147,0.000,956.543,519.531,95.215,0.000
1727575752.151,0.000,967.773,678.711,104.492,0.000
1727575752.155,0.000,964.844,848.633,125.977,0.000
1727575752.159,0.000,967.285,957.520,164.062,0.000
1727575752.163,0.000,966.309,965.820,175.293,0.000
1727575752.167,0.000,966.797,964.844,166.504,0.000
1727575752.171,0.000,966.797,967.285,161.621,0.000
1727575752.175,20.996,966.797,966.797,149.902,0.000
1727575752.179,27.344,966.797,966.797,166.016,0.000
1727575752.182,53.223,966.797,966.797,188.965,0.000
1727575752.186,67.871,966.309,966.797,187.500,0.000
1727575752.190,59.082,967.285,966.797,175.781,0.000
1727575752.194,15.625,966.309,966.309,157.715,0.000
1727575752.198,19.531,965.332,966.309,177.246,0.000
1727575752.202,46.387,967.285,966.797,190.918,0.000
1727575752.206,56.641,922.363,966.797,181.641,0.000
1727575752.210,41.992,842.773,966.309,169.434,0.000
1727575752.214,-5.859,764.160,966.309,137.207,0.000
1727575752.218,-12.207,697.266,967.285,146.484,0.000
1727575752.221,-1.953,635.254,964.844,144.043,0.000
1727575752.225,0.488,562.988,967.773,116.211,0.000
1727575752.229,4.395,483.398,961.426,99.609,0.000
1727575752.233,-49.316,381.836,895.020,75.195,0.000
1727575752.237,-70.312,312.012,831.543,77.637,0.000
1727575752.241,-56.152,242.676,763.672,75.684,0.000
1727575752.245,-54.199,142.090,678.223,49.805,0.000
1727575752.249,-48.340,49.805,615.723,34.668,0.000
1727575752.253,-94.238,-34.180,554.688,10.254,0.000
1727575752.257,-121.582,-102.051,510.742,0.977,0.000
1727575752.261,-94.238,-174.805,479.004,16.113,0.000
1727575752.264,-78.125,-252.930,414.551,4.395,0.000
1727575752.268,-67.383,-315.918,328.125,-11.719,0.000
1727575752.272,-102.539,-385.254,247.070,-39.062,0.000
1727575752.276,-130.371,-433.594,186.035,-39.062,0.000
1727575752.280,-97.168,-450.195,141.113,-14.160,0.000
1727575752.284,-87.891,-493.164,94.727,-24.902,0.000
1727575752.288,-66.406,-554.199,50.781,-38.086,0.000
1727575752.292,-75.684,-588.379,4.883,-64.941,0.000
1727575752.296,-119.141,-591.797,-27.832,-69.824,0.000
1727575752.300,-111.328,-579.590,-55.664,-47.363,0.000
1727575752.303,-97.656,-574.219,-98.145,-54.199,0.000
1727575752.307,-83.496,-575.195,-131.836,-66.895,0.000
1727575752.311,-96.191,-581.055,-155.762,-93.262,0.000
1727575752.315,-134.766,-569.336,0.000,-105.469,0.000
1727575752.319,-115.234,-553.223,0.000,-70.312,0.000
1727575752.323,-95.703,-556.152,0.000,-79.590,0.000
1727575752.327,-78.125,-555.664,0.000,-107.422,0.000
1727575752.331,-68.848,-567.871,0.000,-114.258,0.000
1727575752.335,-113.281,-596.680,0.000,-122.070,0.000
1727575752.338,-124.512,-589.355,0.000,-106.445,0.000
1727575752.342,-115.234,-563.477,0.000,-98.145,0.000
1727575752.346,-102.539,-542.480,0.000,-122.070,0.000
1727575752.350,-91.797,-575.684,0.000,-142.578,0.000
1727575752.354,-121.582,-591.309,0.000,-135.742,0.000
1727575752.358,-122.070,-522.949,0.000,-114.746,0.000
1727575752.362,-109.375,-481.445,-305.176,-125.000,0.000
1727575752.366,-88.379,-495.117,-321.289,-139.648,0.000
1727575752.370,-82.520,-492.676,-328.125,-145.020,0.000
1727575752.373,-131.836,-458.008,-313.477,-159.180,0.000
1727575752.377,-132.324,-430.176,-308.594,-150.879,0.000
1727575752.381,-103.027,-435.547,-316.895,-142.090,0.000
1727575752.385,-84.961,-447.266,-310.059,-133.789,0.000
1727575752.389,-81.055,-436.523,-298.828,-127.930,0.000
1727575752.393,-119.629,-429.199,-301.270,-142.090,0.000
1727575752.397,-107.422,-407.715,-290.039,-130.859,0.000
1727575752.401,-76.660,-384.766,-287.598,-111.328,0.000
1727575752.405,-67.383,-390.137,-299.316,-115.723,0.000
1727575752.408,-49.316,-395.020,-297.852,-121.582,0.000
1727575752.412,-79.590,-375.977,-290.527,-125.488,0.000
1727575752.416,-83.984,-340.820,-277.832,-104.980,0.000
1727575752.420,-61.523,-309.570,-257.324,-75.195,0.000
1727575752.424,-58.105,-317.871,-247.559,-86.426,0.000
1727575752.428,-29.785,-347.656,-249.512,-93.262,0.000
1727575752.432,-56.152,-336.914,-250.488,-102.051,0.000
1727575752.436,-74.707,-285.645,-234.863,-96.680,0.000
1727575752.440,-44.434,-265.137,-214.355,-66.895,0.000
1727575752.444,-36.133,-263.672,-208.008,-55.176,0.000
1727575752.447,-27.344,-252.441,-208.496,-54.688,0.000
1727575752.451,-53.711,-259.766,-211.914,-82.031,0.000
1727575752.455,0.000,-240.234,-203.613,-84.473,0.000
1727575752.459,0.000,-203.613,-193.848,-56.641,0.000
1727575752.463,0.000,-197.266,-193.359,-65.430,0.000
1727575752.467,0.000,-201.660,-194.336,-69.824,0.000
1727575752.471,0.000,-217.773,-201.172,-76.660,0.000
1727575752.475,0.000,-240.723,-200.684,-83.008,0.000
1727575752.479,0.000,-211.914,-186.523,-67.383,0.000
1727575752.483,0.000,-172.852,-186.523,-58.105,0.000
1727575752.487,0.000,-184.082,-200.195,-52.246,0.000
1727575752.491,0.000,-200.195,-214.355,-76.172,0.000
1727575752.495,0.000,-186.035,-205.566,-103.516,0.000
1727575752.498,0.000,-170.410,-193.359,-78.125,0.000
1727575752.502,-24.902,-170.898,-193.848,-61.035,0.000
1727575752.506,-7.324,-190.918,-187.012,-57.129,0.000
1727575752.510,-19.531,-198.242,-187.988,-70.801,0.000
1727575752.514,-74.707,-175.781,-190.430,-83.496,0.000
1727575752.518,-63.965,-151.367,-172.852,-50.293,0.000
1727575752.522,-40.039,-147.461,-161.621,-37.598,0.000
1727575752.526,-39.062,-143.555,-163.086,-64.453,0.000
1727575752.530,-28.320,-152.832,-161.621,-78.125,0.000
1727575752.534,-54.688,-165.039,-157.715,-76.660,0.000
1727575752.538,-57.129,-133.301,-144.531,-45.410,0.000
1727575752.541,-46.387,-126.465,-136.719,-31.738,0.000
1727575752.545,-41.016,-149.902,-136.230,-35.645,0.000
1727575752.549,-17.578,-159.180,-143.555,-32.715,0.000
1727575752.553,-58.105,-140.137,-148.438,-62.012,0.000
1727575752.557,-68.848,-108.887,-138.184,-54.199,0.000
1727575752.561,-30.762,-113.281,-130.859,-27.344,0.000
1727575752.565,-21.973,-121.582,-130.859,-30.762,0.000
1727575752.569,-10.742,-107.910,-129.883,-28.809,0.000
1727575752.573,-30.273,-93.750,-127.441,-31.738,0.000
1727575752.577,-44.434,-93.750,-128.418,-26.367,0.000
1727575752.581,-23.926,-106.934,-121.582,-3.418,0.000
1727575752.585,-9.277,-88.379,-106.445,-15.137,0.000
1727575752.588,-0.977,-95.215,-114.258,-30.273,0.000
1727575752.592,-34.668,-118.652,-125.977,-40.527,0.000
1727575752.596,-56.641,-98.633,-119.141,-29.785,0.000
1727575752.600,-25.391,-76.172,-114.258,-11.230,0.000
1727575752.604,-15.137,-81.543,-117.676,-13.672,0.000
1727575752.608,-0.977,-89.355,-121.582,-12.207,0.000
1727575752.612,-15.625,-98.145,-125.488,-20.508,0.000
1727575752.616,-33.691,-104.980,-114.258,2.441,0.000
1727575752.620,-6.348,-86.426,-97.168,20.508,0.000
1727575752.624,7.812,-75.195,-99.609,3.418,0.000
1727575752.627,8.301,-62.012,-110.840,-8.789,0.000
1727575752.631,-33.691,-53.223,-117.188,-46.387,0.000
1727575752.635,-63.965,-67.383,-119.629,-69.824,0.000
1727575752.639,-33.691,-84.473,-110.352,-38.574,0.000
1727575752.643,-22.949,-79.102,-99.121,-20.996,0.000
1727575752.647,-1.953,-69.824,-105.469,-34.668,0.000
1727575752.651,-4.883,-82.031,-112.305,-56.641,0.000
1727575752.655,-41.992,-90.332,-111.328,-66.895,0.000
1727575752.659,-25.879,-81.055,-102.539,-37.598,0.000
1727575752.663,-16.602,-81.543,-98.145,-27.344,0.000
1727575752.666,7.324,-90.820,-95.703,-30.273,0.000
1727575752.670,7.324,-112.793,-96.680,-20.020,0.000
1727575752.674,-53.711,-107.422,-93.750,-23.438,0.000
1727575752.678,-55.664,-90.332,-84.961,-15.137,0.000
1727575752.682,-32.227,-95.703,-83.984,-10.742,0.000
1727575752.686,-9.277,-94.727,-82.031,-12.207,0.000
1727575752.690,-18.066,-98.145,-87.891,-25.879,0.000
1727575752.694,-62.012,-111.328,-93.262,-47.363,0.000
1727575752.698,-45.410,-105.469,-84.961,-34.668,0.000
1727575752.702,-27.344,-87.402,-83.496,-21.484,0.000
1727575752.705,-16.113,-90.820,-92.285,-32.715,0.000
1727575752.709,-4.883,-103.516,-101.074,-46.875,0.000
1727575752.713,-38.086,-120.117,-91.309,-42.480,0.000
1727575752.717,-42.480,-96.191,-73.242,-12.695,0.000
1727575752.721,-26.367,-42.480,-73.730,-10.254,0.000
1727575752.725,-6.836,-38.574,-76.172,-21.973,0.000
1727575752.729,3.906,-55.664,-79.102,-30.762,0.000
1727575752.733,-36.133,-54.688,-75.195,-47.363,0.000
1727575752.737,-42.969,-43.945,-70.312,-38.086,0.000
1727575752.740,-26.367,-48.828,-77.148,-14.648,0.000
1727575752.744,-12.695,-47.852,-71.289,-10.742,0.000
1727575752.748,12.207,-40.039,-66.895,-17.090,0.000
1727575752.752,-28.809,-56.152,-73.730,-27.832,0.000
1727575752.756,-36.621,-73.730,-76.660,-8.301,0.000
1727575752.760,-15.137,-79.590,-80.078,14.648,0.000
1727575752.764,-10.254,-53.711,-84.473,-7.324,0.000
1727575752.768,7.812,-41.016,-86.426,-26.855,0.000
1727575752.772,-20.996,-49.316,-83.984,-40.527,0.000
1727575752.776,-44.434,-41.992,-83.008,-29.785,0.000
1727575752.779,-32.227,-28.809,-80.078,-2.930,0.000
1727575752.783,-10.742,-35.156,-82.031,-14.160,0.000
1727575752.787,21.484,-53.711,-90.332,-36.133,0.000
1727575752.791,-17.578,-65.430,-97.168,-54.688,0.000
1727575752.795,-56.152,-46.875,-93.262,-53.711,0.000
1727575752.799,-30.273,-25.391,-83.008,-26.855,0.000
1727575752.803,-14.648,-50.293,-86.914,-17.578,0.000
1727575752.807,-0.488,-65.918,-96.191,-24.414,0.000
1727575752.810,-21.484,-61.523,-96.191,-46.387,0.000
1727575752.814,-65.430,-54.688,-87.402,-58.594,0.000
1727575752.818,-40.527,-49.805,-69.336,-22.461,0.000
1727575752.822,-21.484,-45.898,-67.871,-16.113,0.000
1727575752.826,-15.625,-45.898,-83.984,-35.156,0.000
1727575752.830,-33.691,-73.242,-95.215,-55.664,0.000
1727575752.834,-73.242,-82.520,-92.285,-66.406,0.000
1727575752.838,-47.363,-55.176,-77.148,-28.809,0.000
1727575752.842,-33.203,-52.246,-75.684,-28.320,0.000
1727575752.846,-26.367,-55.176,-80.078,-46.875,0.000
1727575752.850,-21.973,-64.941,-78.125,-50.781,0.000
1727575752.854,-59.082,-68.359,-66.406,-49.316,0.000
1727575752.858,-53.223,-50.293,-57.617,-27.344,0.000
1727575752.861,-24.902,-42.480,-53.223,-13.672,0.000
1727575752.865,-4.395,-49.805,-54.688,-13.672,0.000
1727575752.869,-6.348,-56.641,-64.941,-33.691,0.000
1727575752.873,-38.574,-67.871,-62.500,-51.270,0.000
1727575752.877,-25.879,-62.988,-52.734,-25.391,0.000
1727575752.881,-0.488,-54.688,-54.199,-2.930,0.000
1727575752.885,12.207,-47.363,-55.664,-7.812,0.000
1727575752.889,15.137,-35.645,-53.711,-20.996,0.000
1727575752.893,-31.250,-43.945,-53.711,-30.273,0.000
1727575752.897,-39.062,-59.082,-57.617,-15.137,0.000
1727575752.901,-11.230,-52.734,-52.734,7.812,0.000
1727575752.905,-3.418,-24.414,-45.898,-7.324,0.000
1727575752.909,-0.488,-17.578,-55.664,-27.344,0.000
1727575752.912,-24.414,-13.672,-60.059,-38.086,0.000
1727575752.916,-34.668,9.766,-52.246,-29.297,0.000
1727575752.920,-24.902,7.324,-50.781,-15.625,0.000
1727575752.924,-3.418,-13.672,-52.246,-17.578,0.000
1727575752.928,9.766,-10.254,-59.082,-19.531,0.000
1727575752.932,-34.180,-10.254,-67.383,-44.922,0.000
1727575752.936,-56.152,-11.719,-74.707,-44.434,0.000
1727575752.940,-26.855,-3.418,-72.754,-15.137,0.000
1727575752.944,-4.883,-7.324,-64.453,-16.113,0.000
1727575752.948,12.207,-10.254,-68.359,-23.438,0.000
1727575752.952,-21.484,-18.555,-75.195,-28.809,0.000
1727575752.955,-43.457,-29.297,-72.266,-22.461,0.000
1727575752.959,-18.066,1.953,-56.152,-10.254,0.000
1727575752.963,-12.207,7.812,-50.293,-18.555,0.000
1727575752.967,9.277,9.277,-54.199,-22.949,0.000
1727575752.971,0.000,20.020,-66.406,-44.922,0.000
1727575752.975,0.000,20.020,-66.895,-48.828,0.000
1727575752.979,0.000,14.160,-60.059,-19.531,0.000
1727575752.983,0.000,-10.254,-54.199,-33.203,0.000
1727575752.987,0.000,-14.160,-55.176,-39.062,0.000
1727575752.991,0.000,-35.645,-65.430,-43.945,0.000
1727575752.994,0.000,-46.387,-72.754,-58.594,0.000
1727575752.998,0.000,-38.574,-69.336,-26.367,0.000
1727575753.002,0.000,-33.203,-57.129,-26.367,0.000
1727575753.006,0.000,-18.066,-57.617,-42.969,0.000
1727575753.010,0.000,-36.133,-66.895,-41.504,0.000
1727575753.014,0.000,-47.363,-62.012,-46.387,0.000
1727575753.018,-46.387,-29.297,-51.270,-22.949,0.000
1727575753.022,-17.578,-35.645,-52.734,-15.625,0.000
1727575753.026,-1.465,-39.551,-55.176,-19.531,0.000
1727575753.030,-3.418,-41.504,-52.734,-20.996,0.000
1727575753.034,-41.016,-39.062,-49.805,-29.785,0.000
1727575753.037,-36.133,-23.438,-49.805,-9.277,0.000
1727575753.041,-18.066,-35.156,-51.758,2.441,0.000
1727575753.045,10.742,-40.039,-51.270,2.930,0.000
1727575753.049,3.418,-25.879,-48.340,-5.859,0.000
1727575753.053,-42.969,-45.898,-50.293,-29.785,0.000
1727575753.057,-28.809,-37.109,-45.410,-14.160,0.000
1727575753.061,-11.719,-8.789,-45.410,-8.301,0.000
1727575753.065,-5.371,-15.137,-47.363,-20.508,0.000
1727575753.069,3.906,-43.945,-49.805,-22.949,0.000
1727575753.072,-42.480,-57.129,-64.941,-41.016,0.000
1727575753.076,-47.363,-11.230,-62.988,-32.227,0.000
1727575753.080,-22.461,12.207,-62.988,-22.949,0.000
1727575753.084,-19.531,-9.277,-72.754,-40.527,0.000
1727575753.088,-8.789,-29.297,-72.754,-44.434,0.000
1727575753.092,-42.969,-24.414,-65.430,-50.781,0.000
1727575753.096,-56.152,-2.441,-55.176,-37.109,0.000
1727575753.100,-31.250,-7.812,-54.199,-12.207,0.000
1727575753.104,-10.254,-35.156,-55.664,-6.348,0.000
1727575753.108,21.484,-53.711,-61.523,-7.812,0.000
1727575753.111,-10.742,-44.922,-65.430,-30.762,0.000
1727575753.115,-44.434,-32.227,-58.594,-25.391,0.000
1727575753.119,-30.762,-19.531,-57.129,-4.395,0.000
1727575753.123,-22.461,-9.277,-59.570,-14.160,0.000
1727575753.127,9.277,-14.648,-56.152,-20.996,0.000
1727575753.131,-20.996,-43.945,-55.176,-39.062,0.000
1727575753.135,-64.453,-51.270,-52.246,-38.574,0.000
1727575753.139,-42.969,-20.996,-41.992,-11.719,0.000
1727575753.143,-26.367,-22.461,-47.363,-20.508,0.000
1727575753.147,-5.371,-43.945,-57.617,-29.785,0.000
1727575753.150,-31.250,-59.570,-59.082,-40.527,0.000
1727575753.154,-62.012,-57.617,-45.410,-48.340,0.000
1727575753.158,-38.086,-49.805,-37.598,-28.809,0.000
1727575753.162,-17.090,-46.875,-39.551,-15.625,0.000
1727575753.166,1.465,-54.199,-38.086,-14.648,0.000
1727575753.170,-12.207,-89.355,-40.039,-28.809,0.000
1727575753.174,-50.781,-76.172,-39.062,-32.227,0.000
1727575753.178,-44.922,-28.320,-35.645,-6.836,0.000
1727575753.181,-26.367,-15.625,-34.668,-6.348,0.000
1727575753.185,1.465,-19.043,-36.621,-21.484,0.000
1727575753.189,-12.207,-39.551,-42.480,-32.227,0.000
1727575753.193,-51.758,-61.035,-38.574,-34.668,0.000
1727575753.197,-32.227,-54.199,-32.227,-5.371,0.000
1727575753.201,-15.137,-50.293,-38.574,-7.324,0.000
1727575753.205,4.883,-43.945,-41.992,-16.113,0.000
1727575753.209,0.000,-62.988,-41.992,-20.020,0.000
1727575753.213,-52.246,-71.777,-41.504,-42.969,0.000
1727575753.217,-51.758,-35.645,-40.039,-24.902,0.000
1727575753.221,-27.344,-37.109,-46.875,-7.324,0.000
1727575753.225,0.488,-59.570,-54.199,-12.207,0.000
1727575753.229,6.348,-50.293,-52.246,-25.879,0.000
1727575753.232,-41.016,-48.828,-51.270,-43.945,0.000
1727575753.236,-42.969,-49.805,-47.852,-26.855,0.000
1727575753.240,-29.785,-43.945,-50.293,-11.230,0.000
1727575753.244,-13.672,-30.273,-56.152,-19.043,0.000
1727575753.248,-0.488,-37.109,-61.523,-28.809,0.000
1727575753.252,-42.969,-64.453,-64.941,-43.945,0.000
1727575753.256,-47.852,-50.781,-54.199,-24.414,0.000
1727575753.260,-21.484,-34.180,-52.734,-3.418,0.000
1727575753.264,-5.859,-38.086,-59.082,-18.066,0.000
1727575753.268,10.742,-54.199,-59.570,-29.297,0.000
1727575753.272,-25.391,-77.148,-56.641,-38.086,0.000
1727575753.276,-47.852,-63.965,-50.781,-27.832,0.000
1727575753.279,-26.855,-46.387,-54.199,-5.371,0.000
1727575753.283,-18.066,-52.246,-60.059,-11.230,0.000
1727575753.287,-9.277,-45.898,-51.270,-26.367,0.000
1727575753.291,-39.551,-55.176,-49.316,-49.805,0.000
1727575753.295,-59.082,-79.590,-43.945,-40.527,0.000
1727575753.299,-32.227,-57.129,-41.016,-12.695,0.000
1727575753.303,-22.949,-33.203,-41.016,-18.555,0.000
1727575753.307,-6.836,-36.621,-39.062,-23.926,0.000
1727575753.311,-37.109,-51.270,-45.410,-29.297,0.000
1727575753.315,-64.941,-59.570,-40.527,-26.367,0.000
1727575753.319,-32.715,-52.734,-32.715,-3.906,0.000
1727575753.322,-25.879,-50.293,-29.785,0.000,0.000
1727575753.326,-11.230,-56.641,-27.344,-7.324,0.000
1727575753.330,-28.320,-62.988,-37.598,-17.090,0.000
1727575753.334,-75.195,-49.805,-41.504,-34.180,0.000
1727575753.338,-50.781,-47.852,-37.598,-0.488,0.000
1727575753.342,-22.949,-64.453,-40.039,12.207,0.000
1727575753.346,-6.836,-52.734,-31.738,5.371,0.000
1727575753.350,-19.043,-56.152,-37.109,-9.277,0.000
1727575753.354,-57.129,-52.734,-43.945,-31.738,0.000
1727575753.358,-41.504,-29.297,-41.992,-18.066,0.000
1727575753.362,-31.738,-33.203,-48.828,-18.555,0.000
1727575753.365,-15.137,-44.922,-54.199,-24.414,0.000
1727575753.369,-12.207,-62.988,-56.152,-25.879,0.000
1727575753.373,-53.711,-68.359,-48.828,-41.504,0.000
1727575753.377,-45.898,-21.484,-40.527,-35.645,0.000
1727575753.381,-30.762,-1.465,-46.387,-33.203,0.000
1727575753.385,-2.930,-25.879,-50.781,-37.598,0.000
1727575753.389,6.836,-36.621,-56.641,-48.828,0.000
1727575753.393,-42.480,-32.715,-62.500,-74.219,0.000
1727575753.397,-39.062,-12.207,-51.758,-50.781,0.000
1727575753.401,-11.719,-8.789,-48.828,-23.926,0.000
1727575753.404,-2.441,-27.832,-48.828,-34.668,0.000
1727575753.408,3.906,-41.504,-54.199,-43.457,0.000
1727575753.412,-29.297,-53.223,-52.734,-44.434,0.000
1727575753.416,-42.969,-33.203,-40.527,-23.926,0.000
1727575753.420,-32.715,-21.973,-42.969,-8.789,0.000
1727575753.424,-19.043,-8.301,-47.852,-25.391,0.000
1727575753.428,-9.277,-21.484,-49.316,-32.715,0.000
1727575753.432,-41.504,-63.965,-46.387,-38.574,0.000
1727575753.436,-44.434,-60.059,-44.434,-29.785,0.000
1727575753.440,-20.508,-35.645,-30.762,-1.953,0.000
1727575753.444,-20.996,-37.109,-30.762,-12.207,0.000
1727575753.448,-19.531,-59.082,-50.293,-35.156,0.000
1727575753.452,-61.035,-75.195,-51.270,-45.898,0.000
1727575753.456,-77.148,-64.453,-45.898,-48.340,0.000
1727575753.460,-50.293,-66.406,-45.410,-30.762,0.000
1727575753.463,-32.715,-77.148,-45.898,-16.602,0.000
1727575753.467,-6.836,-69.336,-43.457,-16.602,0.000
1727575753.471,-37.109,-63.477,-44.434,-47.363,0.000
1727575753.475,-65.430,-61.035,-41.992,-50.781,0.000
1727575753.479,-40.527,-60.547,-39.551,-15.137,0.000
1727575753.483,-26.367,-50.781,-38.574,-14.160,0.000
1727575753.487,-2.441,-40.039,-35.645,-20.508,0.000
1727575753.491,-24.902,-56.152,-46.387,-36.133,0.000
1727575753.494,-56.641,-53.223,-41.992,-36.133,0.000
1727575753.498,-33.203,-38.086,-28.320,0.488,0.000
1727575753.502,-14.648,-33.691,-38.574,0.488,0.000
1727575753.506,12.695,-41.992,-47.363,-7.812,0.000
1727575753.510,0.488,-53.223,-48.340,-24.414,0.000
1727575753.514,-50.293,-55.176,-45.410,-39.062,0.000
1727575753.518,-43.945,-45.898,-32.227,-20.020,0.000
1727575753.522,-22.949,-35.156,-31.738,-20.996,0.000
1727575753.526,1.465,-41.504,-45.410,-19.043,0.000
1727575753.530,-8.789,-38.574,-46.875,-22.461,0.000
1727575753.533,0.000,-38.574,-55.664,-44.922,0.000
1727575753.537,0.000,-37.598,-52.246,-25.391,0.000
1727575753.541,0.000,-37.598,-46.875,-17.090,0.000
1727575753.545,0.000,-26.855,-55.664,-29.297,0.000
1727575753.549,0.000,-31.250,-59.570,-36.133,0.000
1727575753.553,0.000,-59.082,-68.359,-41.992,0.000
1727575753.557,0.000,-52.734,-62.012,-22.461,0.000
1727575753.561,0.000,-37.109,-51.270,-18.066,0.000
1727575753.565,0.000,-41.016,-49.805,-24.902,0.000
1727575753.568,0.000,-67.871,-55.664,-31.738,0.000
1727575753.572,0.000,-73.242,-52.246,-38.574,0.000
1727575753.576,0.000,-46.387,-41.992,-28.320,0.000
1727575753.580,-43.457,-43.945,-47.852,-28.809,0.000
1727575753.584,-29.297,-67.383,-58.594,-47.852,0.000
1727575753.588,-4.395,-71.777,-47.363,-45.410,0.000
1727575753.592,-41.992,-66.406,-31.250,-44.434,0.000
1727575753.596,-71.777,-59.570,-33.691,-38.574,0.000
1727575753.600,-57.617,-61.035,-43.457,-21.973,0.000
1727575753.604,-34.668,-48.828,-46.875,-32.227,0.000
1727575753.608,-15.137,-39.551,-43.945,-43.945,0.000
1727575753.612,-56.152,-56.152,-43.945,-58.594,0.000
1727575753.615,-71.289,-63.965,-47.363,-34.668,0.000
1727575753.619,-39.551,-44.922,-35.645,-9.766,0.000
1727575753.623,-15.625,-41.504,-31.738,-17.090,0.000
1727575753.627,-4.395,-61.523,-41.992,-22.461,0.000
1727575753.631,-40.527,-78.613,-50.293,-52.734,0.000
1727575753.635,-56.641,-75.684,-47.852,-51.758,0.000
1727575753.639,-31.250,-60.059,-37.598,-24.414,0.000
1727575753.643,-20.020,-50.293,-42.969,-29.297,0.000
1727575753.647,-1.953,-44.434,-49.805,-31.738,0.000
1727575753.651,-36.621,-45.898,-48.828,-51.758,0.000
1727575753.655,-71.777,-34.668,-39.062,-43.945,0.000
1727575753.659,-37.109,-31.738,-36.133,-3.418,0.000
1727575753.662,-25.879,-31.250,-38.574,-18.555,0.000
1727575753.666,-10.742,-30.273,-39.551,-32.227,0.000
1727575753.670,-29.297,-60.059,-48.828,-41.504,0.000
1727575753.674,-64.453,-65.918,-52.734,-44.922,0.000
1727575753.678,-36.133,-32.227,-47.363,-22.461,0.000
1727575753.682,-20.996,-18.066,-47.363,-26.367,0.000
1727575753.686,-0.977,-31.738,-44.922,-30.762,0.000
1727575753.690,-8.301,-52.246,-47.363,-38.086,0.000
1727575753.694,-46.875,-48.828,-45.410,-48.828,0.000
1727575753.698,-32.715,-27.832,-33.691,-33.691,0.000
1727575753.702,-17.090,-39.062,-39.062,-19.043,0.000
1727575753.706,9.277,-48.340,-43.457,-4.883,0.000
1727575753.709,0.000,-24.414,-32.715,-22.461,0.000
1727575753.713,-40.039,-36.621,-33.203,-40.527,0.000
1727575753.717,-21.973,-44.922,-38.086,-14.648,0.000
1727575753.721,-11.719,-35.645,-39.062,-9.277,0.000
1727575753.725,-8.789,-33.691,-43.945,-21.484,0.000
1727575753.729,-15.625,-37.598,-47.363,-41.504,0.000
1727575753.733,-64.941,-54.199,-46.875,-55.664,0.000
1727575753.737,-70.312,-47.363,-42.480,-23.926,0.000
1727575753.741,-39.551,-45.898,-39.551,-3.418,0.000
1727575753.745,-11.719,-57.129,-35.645,-17.090,0.000
1727575753.748,-11.230,-79.102,-43.945,-23.926,0.000
1727575753.752,-55.664,-75.684,-47.363,-31.250,0.000
1727575753.756,-64.453,-38.086,-31.738,-24.414,0.000
1727575753.760,-44.922,-50.781,-33.203,-18.555,0.000
1727575753.764,-26.367,-69.336,-35.156,-28.320,0.000
1727575753.768,-6.836,-47.363,-33.691,-40.039,0.000
1727575753.772,-41.504,-50.781,-40.527,-55.664,0.000
1727575753.776,-59.570,-54.688,-38.086,-40.527,0.000
1727575753.780,-36.621,-47.852,-33.203,-18.066,0.000
1727575753.784,-12.695,-54.688,-31.250,-17.578,0.000
1727575753.787,-0.488,-51.758,-34.180,-23.438,0.000
1727575753.791,-46.387,-54.199,-45.898,-44.922,0.000
1727575753.795,-56.152,-59.570,-43.457,-25.879,0.000
1727575753.799,-31.250,-43.457,-38.086,-14.648,0.000
1727575753.803,-19.531,-39.551,-40.039,-37.109,0.000
1727575753.807,0.000,-50.781,-45.898,-39.062,0.000
1727575753.811,-34.180,-65.430,-52.734,-56.152,0.000
1727575753.815,-60.547,-58.105,-48.340,-53.711,0.000
1727575753.819,-43.457,-46.875,-47.363,-26.855,0.000
1727575753.823,-25.879,-43.945,-43.945,-25.879,0.000
1727575753.826,0.000,-24.902,-41.504,-19.043,0.000
1727575753.830,-36.621,-30.273,-55.176,-27.832,0.000
1727575753.834,-77.148,-34.180,-50.781,-41.992,0.000
1727575753.838,-49.316,-39.551,-41.992,-18.066,0.000
1727575753.842,-31.738,-44.922,-43.945,-22.949,0.000
1727575753.846,-21.484,-32.715,-43.457,-38.086,0.000
1727575753.850,-36.621,-44.434,-51.270,-42.969,0.000
1727575753.854,-63.477,-54.199,-48.340,-41.016,0.000
1727575753.858,-46.387,-40.039,-33.203,-12.207,0.000
1727575753.861,-35.156,-23.438,-32.715,-13.184,0.000
1727575753.865,-12.695,-23.926,-39.062,-34.180,0.000
1727575753.869,-17.578,-32.227,-37.109,-37.598,0.000
1727575753.873,-66.895,-45.898,-32.227,-39.062,0.000
1727575753.877,-57.617,-40.039,-31.250,-28.809,0.000
1727575753.881,-34.668,-50.781,-33.203,-26.367,0.000
1727575753.885,-4.883,-73.730,-34.180,-23.438,0.000
1727575753.889,-9.766,-52.246,-36.621,-38.086,0.000
1727575753.893,-53.223,-39.062,-34.668,-61.035,0.000
1727575753.897,-39.551,-34.668,-27.344,-30.762,0.000
1727575753.900,-20.996,-29.297,-27.344,-10.254,0.000
1727575753.904,-9.277,-28.320,-25.391,-26.855,0.000
1727575753.908,-8.301,-42.969,-27.832,-36.133,0.000
1727575753.912,-57.129,-61.523,-34.180,-45.410,0.000
1727575753.916,-61.523,-48.340,-25.879,-41.992,0.000
1727575753.920,-33.203,-38.574,-26.367,-27.832,0.000
1727575753.924,-11.719,-38.086,-33.691,-28.320,0.000
1727575753.928,-10.742,-49.805,-40.039,-37.109,0.000
1727575753.931,-52.246,-59.082,-46.875,-49.316,0.000
1727575753.935,-55.176,-38.086,-34.180,-27.832,0.000
1727575753.939,-31.738,-32.715,-27.832,-4.883,0.000
1727575753.943,-16.113,-57.617,-35.156,-12.695,0.000
1727575753.947,-6.836,-71.777,-35.645,-26.367,0.000
1727575753.951,-44.922,-48.340,-47.852,-50.781,0.000
1727575753.955,-52.246,-31.738,-51.758,-50.293,0.000
1727575753.959,-40.039,-41.016,-42.480,-27.344,0.000
1727575753.963,-36.133,-43.945,-43.945,-31.738,0.000
1727575753.967,-7.324,-56.152,-46.875,-31.250,0.000
1727575753.971,-32.715,-80.078,-47.363,-41.992,0.000
1727575753.975,-64.941,-72.266,-39.062,-24.414,0.000
1727575753.979,-42.969,-46.387,-28.320,4.883,0.000
1727575753.982,-24.414,-46.387,-30.762,-13.672,0.000
1727575753.986,0.488,-70.801,-35.156,-26.855,0.000
1727575753.990,-26.367,-81.543,-36.621,-38.086,0.000
1727575753.994,-65.430,-60.059,-27.344,-34.668,0.000
1727575753.998,-42.480,-48.828,-23.438,-8.789,0.000
1727575754.002,0.000,-54.688,-23.926,-5.371,0.000
1727575754.006,0.000,-58.105,-21.484,-14.648,0.000
1727575754.010,0.000,-66.895,-29.785,-43.457,0.000
1727575754.014,0.000,-68.848,-31.250,-48.340,0.000
1727575754.018,0.000,-51.758,-20.508,-13.672,0.000
1727575754.022,0.000,-39.551,-22.461,-11.230,0.000
1727575754.026,0.000,-48.828,-18.066,-9.766,0.000
1727575754.029,0.000,-54.199,-20.020,-15.625,0.000
1727575754.033,0.000,-45.410,-29.297,-23.438,0.000
1727575754.037,0.000,-21.484,-21.973,-3.906,0.000
1727575754.041,0.000,-20.020,-19.043,-1.953,0.000
1727575754.045,0.000,-38.574,-24.902,4.883,0.000
1727575754.049,-11.230,-48.828,-38.574,-9.766,0.000
1727575754.053,-51.270,-41.504,-38.086,-33.203,0.000
1727575754.057,-33.691,-12.695,-26.855,-15.137,0.000
1727575754.061,-18.555,-16.602,-29.297,0.000,0.000
1727575754.065,-16.113,-38.086,-35.156,-16.602,0.000
1727575754.069,-14.160,-52.246,-46.387,-37.598,0.000
1727575754.072,-47.852,-48.340,-56.641,-49.805,0.000
1727575754.076,-37.109,-28.809,-50.293,-23.926,0.000
1727575754.080,-11.719,-35.156,-44.434,-4.883,0.000
1727575754.084,-2.930,-30.273,-47.363,-30.762,0.000
1727575754.088,3.906,-34.180,-56.152,-51.270,0.000
1727575754.092,-34.180,-39.062,-61.035,-62.012,0.000
1727575754.096,-52.246,-29.785,-54.688,-50.781,0.000
1727575754.100,-28.320,-27.344,-48.828,-42.480,0.000
1727575754.104,-11.719,-19.043,-56.152,-58.105,0.000
1727575754.108,-11.719,-29.297,-66.406,-61.035,0.000
1727575754.112,-46.875,-44.922,-60.547,-69.336,0.000
1727575754.115,-55.176,-40.527,-41.504,-39.551,0.000
1727575754.119,-25.391,-34.668,-31.250,-3.906,0.000
1727575754.123,-10.742,-50.293,-37.109,-7.324,0.000
1727575754.127,-0.977,-45.898,-38.086,-9.766,0.000
1727575754.131,-36.621,-34.668,-38.086,-27.344,0.000
1727575754.135,-50.781,-29.297,-34.668,-25.391,0.000
1727575754.139,-29.297,-33.691,-30.273,-2.930,0.000
1727575754.143,-17.090,-40.039,-31.738,-7.324,0.000
1727575754.147,-9.277,-30.762,-30.273,-21.484,0.000
1727575754.151,-42.969,-38.574,-35.156,-38.086,0.000
1727575754.155,-55.664,-38.574,-31.250,-29.785,0.000
1727575754.158,-19.531,-23.438,-26.855,-9.277,0.000
1727575754.162,-7.812,-26.855,-28.320,-10.254,0.000
1727575754.166,0.977,-39.551,-27.344,-12.207,0.000
1727575754.170,-17.578,-59.082,-32.715,-18.066,0.000
1727575754.174,-46.875,-35.156,-24.902,-9.277,0.000
1727575754.178,-27.344,-20.508,-20.508,4.883,0.000
1727575754.182,-9.766,-36.133,-31.738,-16.602,0.000
1727575754.186,-2.441,-34.180,-37.109,-28.809,0.000
1727575754.190,-27.832,-41.016,-43.945,-33.203,0.000
1727575754.193,-63.965,-39.551,-44.434,-43.945,0.000
1727575754.197,-52.246,-31.250,-46.875,-27.344,0.000
1727575754.201,-24.414,-28.809,-46.387,-29.785,0.000
1727575754.205,-3.906,-25.879,-40.039,-41.504,0.000
1727575754.209,-17.090,-46.387,-51.270,-39.062,0.000
1727575754.213,-59.082,-55.664,-54.688,-42.969,0.000
1727575754.217,-58.105,-27.832,-43.457,-31.250,0.000
1727575754.221,-41.016,-13.184,-50.781,-31.738,0.000
1727575754.225,-17.578,-17.090,-63.477,-41.504,0.000
1727575754.229,-18.555,-39.551,-63.477,-49.316,0.000
1727575754.232,-58.594,-51.270,-52.246,-55.664,0.000
1727575754.236,-58.594,-25.879,-40.527,-41.504,0.000
1727575754.240,-37.598,-27.832,-48.340,-41.504,0.000
1727575754.244,-18.555,-37.109,-56.641,-45.898,0.000
1727575754.248,-13.672,-34.180,-55.176,-49.805,0.000
1727575754.252,-56.641,-40.527,-57.617,-55.664,0.000
1727575754.256,-65.918,-33.203,-51.758,-40.039,0.000
1727575754.260,-41.016,-41.992,-48.340,-20.996,0.000
1727575754.264,-17.090,-39.062,-44.434,-27.344,0.000
1727575754.267,-6.836,-27.832,-39.551,-33.691,0.000
1727575754.271,-52.246,-47.363,-41.992,-43.945,0.000
1727575754.275,-53.711,-42.969,-34.668,-25.879,0.000
1727575754.279,-39.551,-35.645,-28.320,-8.301,0.000
1727575754.283,-30.273,-40.039,-27.832,-24.902,0.000
1727575754.287,-6.836,-43.945,-21.484,-25.879,0.000
1727575754.291,-51.270,-51.758,-27.832,-40.039,0.000
1727575754.295,-66.895,-45.410,-37.109,-48.340,0.000
1727575754.298,-37.109,-47.363,-38.086,-29.297,0.000
1727575754.302,-21.973,-57.617,-34.668,-19.531,0.000
1727575754.306,-4.883,-48.828,-33.691,-26.367,0.000
1727575754.310,-39.551,-53.223,-37.598,-39.551,0.000
1727575754.314,-71.777,-58.105,-39.551,-36.621,0.000
1727575754.318,-52.734,-45.898,-40.039,-19.043,0.000
1727575754.322,-30.273,-44.434,-41.504,-31.250,0.000
1727575754.326,-5.371,-45.410,-46.387,-41.016,0.000
1727575754.330,0.000,-54.688,-52.246,-53.223,0.000
1727575754.334,0.000,-50.781,-44.922,-53.711,0.000
1727575754.338,0.000,-33.691,-34.668,-26.855,0.000
1727575754.342,0.000,-35.645,-36.133,-20.508,0.000
1727575754.346,0.000,-32.715,-34.180,-16.602,0.000
1727575754.349,0.000,-39.551,-40.527,-27.344,0.000
1727575754.353,0.000,-43.945,-39.551,-30.762,0.000
1727575754.357,0.000,-28.320,-33.691,-20.996,0.000
1727575754.361,0.000,-40.039,-41.992,-28.809,0.000
1727575754.365,0.000,-57.129,-47.852,-33.203,0.000
1727575754.369,0.000,-50.293,-53.223,-49.316,0.000
1727575754.373,0.000,-51.758,-49.805,-52.734,0.000
1727575754.376,-35.156,-46.875,-41.016,-24.414,0.000
1727575754.379,-71.289,-34.180,-37.109,-13.672,0.000
1727575754.383,-49.805,-33.691,-39.062,-25.391,0.000
1727575754.387,-26.367,-47.363,-50.781,-43.457,0.000
1727575754.391,-3.418,-60.059,-50.293,-41.504,0.000
1727575754.395,-27.344,-54.688,-37.109,-15.625,0.000
1727575754.399,-65.430,-41.504,-33.203,-5.859,0.000
1727575754.403,-43.457,-33.691,-33.203,-10.742,0.000
1727575754.407,-31.738,-50.781,-37.598,-21.973,0.000
1727575754.411,-13.672,-53.223,-37.598,-27.344,0.000
1727575754.415,-29.297,-31.738,-30.762,-10.254,0.000
1727575754.419,-73.730,-35.645,-37.109,-6.836,0.000
1727575754.423,-1.953,-41.992,-37.109,-12.207,0.000
1727575754.427,5.859,-47.363,-35.645,-17.578,0.000
1727575754.431,-38.574,-54.688,-41.016,-37.109,0.000
1727575754.435,-44.922,-48.340,-37.598,-18.066,0.000
1727575754.439,-19.531,-38.574,-36.621,-2.441,0.000
1727575754.443,-5.859,-41.016,-42.969,-17.090,0.000
1727575754.446,-6.348,-50.781,-49.316,-30.762,0.000
1727575754.450,-53.223,-57.617,-53.223,-39.062,0.000
1727575754.454,-52.734,-50.781,-47.852,-12.695,0.000
1727575754.458,-28.320,-38.086,-44.434,0.977,0.000
1727575754.462,-24.902,-28.320,-43.945,-21.973,0.000
1727575754.466,-11.719,-23.926,-48.340,-35.156,0.000
1727575754.470,-51.270,-39.551,-54.688,-53.223,0.000
1727575754.474,-69.824,-38.086,-40.527,-44.922,0.000
1727575754.478,-48.340,-32.227,-33.203,-22.461,0.000
1727575754.482,-30.762,-52.734,-38.086,-31.250,0.000
1727575754.486,-8.789,-66.895,-40.527,-37.109,0.000
1727575754.490,-48.340,-75.684,-52.734,-50.781,0.000
1727575754.493,-72.266,-69.336,-47.363,-51.758,0.000
1727575754.497,-37.598,-57.617,-37.598,-27.344,0.000
1727575754.501,-23.438,-59.082,-49.316,-27.344,0.000
1727575754.505,-5.371,-54.688,-48.340,-33.203,0.000
1727575754.509,-36.621,-65.430,-48.828,-52.246,0.000
1727575754.513,-74.219,-73.730,-48.828,-42.969,0.000
1727575754.517,-56.152,-42.969,-39.551,-10.742,0.000
1727575754.521,-37.598,-31.250,-41.992,-20.020,0.000
1727575754.525,-7.324,-41.504,-45.898,-27.832,0.000
1727575754.529,-27.344,-55.664,-52.734,-36.133,0.000
1727575754.532,-60.059,-51.758,-49.316,-45.410,0.000
1727575754.536,-32.227,-38.086,-34.180,-22.949,0.000
1727575754.540,-7.812,-46.387,-27.832,-4.395,0.000
1727575754.544,19.043,-52.734,-26.367,-1.953,0.000
1727575754.548,3.418,-45.410,-28.320,-21.484,0.000
1727575754.552,-40.039,-46.875,-29.297,-26.855,0.000
1727575754.556,-31.738,-35.156,-22.949,-2.930,0.000
1727575754.560,-12.695,-21.973,-20.020,2.441,0.000
1727575754.564,3.906,-26.367,-28.809,-5.371,0.000
1727575754.568,-3.418,-37.109,-35.645,-16.602,0.000
1727575754.571,-47.852,-42.480,-35.156,-35.156,0.000
1727575754.575,-40.527,-21.484,-29.297,-19.043,0.000
1727575754.579,-11.230,-18.555,-21.484,-6.348,0.000
1727575754.583,5.371,-34.668,-28.320,-24.902,0.000
1727575754.587,-1.953,-48.828,-41.016,-40.527,0.000
1727575754.591,-56.152,-42.969,-42.480,-58.105,0.000
1727575754.595,-67.871,-21.973,-41.504,-52.246,0.000
1727575754.599,-46.875,-22.461,-46.875,-29.785,0.000
1727575754.603,-27.344,-38.086,-50.781,-34.180,0.000
1727575754.607,-37.109,-52.734,-56.641,-44.922,0.000
1727575754.610,-85.449,-54.688,-60.059,-58.594,0.000
1727575754.614,-71.777,-37.109,-50.781,-39.551,0.000
1727575754.618,-42.969,-27.832,-45.410,-36.621,0.000
1727575754.622,-35.156,-29.785,-45.898,-51.270,0.000
1727575754.626,-24.902,-42.969,-52.246,-51.270,0.000
1727575754.630,-65.430,-69.336,-63.477,-67.383,0.000
1727575754.634,-69.824,-52.246,-57.617,-36.133,0.000
1727575754.638,-43.457,-19.043,-43.945,-14.160,0.000
1727575754.642,-27.832,-23.926,-39.551,-31.738,0.000
1727575754.646,0.488,-17.578,-35.645,-34.668,0.000
1727575754.649,-35.156,-20.996,-41.504,-46.387,0.000
1727575754.653,-53.711,-23.438,-45.898,-37.598,0.000
1727575754.657,-20.020,-17.090,-41.504,-10.742,0.000
1727575754.661,-7.812,-26.367,-41.504,-17.578,0.000
1727575754.665,11.230,-37.109,-44.922,-31.250,0.000
1727575754.669,-25.391,-50.781,-46.387,-48.828,0.000
1727575754.673,-46.387,-39.551,-37.598,-31.738,0.000
1727575754.677,-14.160,-32.715,-33.691,2.930,0.000
1727575754.681,-7.812,-38.574,-39.062,-3.906,0.000
1727575754.684,19.043,-28.320,-28.809,3.418,0.000
1727575754.688,5.859,-27.832,-27.832,-11.230,0.000
1727575754.692,-36.621,-30.273,-33.691,-18.555,0.000
1727575754.696,-19.531,-17.090,-31.738,7.324,0.000
1727575754.700,0.488,-13.672,-34.668,4.883,0.000
1727575754.704,0.000,-18.555,-34.668,-3.418,0.000
1727575754.708,0.000,-36.133,-41.016,-30.273,0.000
1727575754.712,0.000,-35.645,-41.016,-47.852,0.000
1727575754.716,0.000,-16.602,-34.668,-23.438,0.000
1727575754.720,0.000,-15.137,-36.621,-14.160,0.000
1727575754.724,0.000,-32.227,-48.340,-22.949,0.000
1727575754.728,0.000,-48.828,-59.570,-40.527,0.000
1727575754.732,0.000,-37.109,-55.664,-60.059,0.000
1727575754.735,0.000,-28.320,-47.363,-35.156,0.000
1727575754.739,0.000,-38.574,-54.199,-17.090,0.000
1727575754.743,0.000,-20.996,-54.199,-34.668,0.000
1727575754.747,0.000,-31.738,-55.664,-43.945,0.000
1727575754.751,-58.594,-51.758,-54.688,-59.082,0.000
1727575754.755,-55.176,-23.926,-43.945,-52.734,0.000
1727575754.759,-41.992,-8.301,-43.457,-39.062,0.000
1727575754.763,-34.668,-19.043,-53.711,-45.410,0.000
1727575754.767,-28.320,-33.203,-62.012,-56.641,0.000
1727575754.771,-62.500,-41.504,-59.570,-61.035,0.000
1727575754.775,-53.223,-20.996,-46.387,-36.621,0.000
1727575754.779,-34.180,-3.418,-50.293,-20.996,0.000
1727575754.782,-28.809,-13.672,-61.035,-19.531,0.000
1727575754.786,-14.160,-24.414,-54.199,-29.297,0.000
1727575754.790,-49.316,-30.273,-49.805,-45.410,0.000
1727575754.794,-59.082,-32.715,-49.805,-20.020,0.000
1727575754.798,-34.668,-22.461,-46.875,2.930,0.000
1727575754.802,-10.742,-11.230,-41.992,-9.766,0.000
1727575754.806,8.301,-21.484,-43.945,-22.461,0.000
