timestamps,TP9,AF7,AF8,TP10,Right AUX
1727422927.887,-8.789,-33.203,-44.434,-30.762,0.000
1727422927.891,-38.086,-44.922,-57.129,-42.969,0.000
1727422927.895,-66.895,-38.574,-57.617,-53.223,0.000
1727422927.899,-62.012,-32.715,-37.109,-57.617,0.000
1727422927.903,-27.344,-35.645,-18.555,-41.016,0.000
1727422927.907,-13.672,-40.039,-7.812,-30.762,0.000
1727422927.911,-36.133,-44.922,-7.812,-30.273,0.000
1727422927.915,-72.754,-36.133,-8.789,-43.457,0.000
1727422927.919,-67.383,-33.203,-9.277,-46.387,0.000
1727422927.923,-17.090,-39.062,-13.672,-39.062,0.000
1727422927.926,-3.906,-49.316,-13.184,-40.039,0.000
1727422927.930,-36.621,-59.082,-22.461,-38.574,0.000
1727422927.934,-67.871,-60.547,-32.227,-50.781,0.000
1727422927.938,-71.777,-48.828,-26.855,-56.641,0.000
1727422927.942,-33.691,-45.410,-22.949,-39.551,0.000
1727422927.946,2.441,-53.711,-21.484,-26.367,0.000
1727422927.950,-8.789,-50.293,-17.090,-20.508,0.000
1727422927.954,-46.875,-43.457,-14.160,-19.043,0.000
1727422927.957,-59.570,-41.504,-10.742,-30.273,0.000
1727422927.961,-23.438,-36.621,-6.348,-23.438,0.000
1727422927.965,4.395,-35.645,-19.043,1.465,0.000
1727422927.969,-7.324,-38.574,-24.902,0.000,0.000
1727422927.973,-39.551,-35.645,-19.531,-24.414,0.000
1727422927.977,-49.805,-30.273,-18.066,-35.645,0.000
1727422927.981,-11.230,-27.344,-15.137,-21.973,0.000
1727422927.985,13.184,-36.133,-20.996,-11.230,0.000
1727422927.989,0.000,-42.480,-36.133,-14.648,0.000
1727422927.993,-41.016,-44.434,-55.176,-22.461,0.000
1727422927.997,-55.176,-42.969,-54.199,-32.715,0.000
1727422928.001,-17.090,-35.156,-42.969,-18.066,0.000
1727422928.005,8.301,-33.691,-37.598,6.836,0.000
1727422928.008,4.883,-33.203,-41.016,-6.836,0.000
1727422928.012,-25.391,-37.109,-50.293,-22.461,0.000
1727422928.016,-55.176,-38.574,-43.457,-18.066,0.000
1727422928.020,-34.668,-28.809,-41.504,-25.879,0.000
1727422928.024,-0.488,-30.762,-56.641,-30.273,0.000
1727422928.028,0.000,-39.062,-59.082,-32.227,0.000
1727422928.032,0.000,-41.504,-48.340,-43.457,0.000
1727422928.036,0.000,-43.945,-40.527,-52.734,0.000
1727422928.040,0.000,-50.293,-45.410,-37.109,0.000
1727422928.044,0.000,-54.688,-48.340,-13.672,0.000
1727422928.048,0.000,-42.480,-63.965,-7.812,0.000
1727422928.052,0.000,-24.414,-68.359,-44.922,0.000
1727422928.055,0.000,-22.949,-69.824,-90.332,0.000
1727422928.059,0.000,-30.762,-84.473,-87.891,0.000
1727422928.063,0.000,-23.438,-92.773,-74.707,0.000
1727422928.067,0.000,-14.160,-92.773,-73.242,0.000
1727422928.071,0.000,-13.672,-96.191,-82.031,0.000
1727422928.075,-92.773,-9.277,-111.328,-102.051,0.000
1727422928.079,-100.098,-7.812,-113.281,-99.609,0.000
1727422928.083,-51.758,-9.277,-107.910,-77.148,0.000
1727422928.087,-22.949,-12.207,-111.328,-80.078,0.000
1727422928.091,-49.805,-15.137,-124.512,-86.914,0.000
1727422928.095,-84.961,-14.160,-136.719,-93.750,0.000
1727422928.099,-83.984,-14.160,-140.137,-90.332,0.000
1727422928.102,-42.969,-8.789,-145.508,-80.078,0.000
1727422928.106,-9.766,-3.906,-152.832,-75.195,0.000
1727422928.110,-17.090,-1.953,-145.508,-62.012,0.000
1727422928.114,-54.688,-1.953,-141.113,-68.848,0.000
1727422928.118,-55.176,2.930,-142.578,-63.965,0.000
1727422928.122,-7.324,8.789,-139.160,-36.621,0.000
1727422928.126,19.531,4.395,-130.859,-22.461,0.000
1727422928.130,17.578,-2.930,-128.906,-33.691,0.000
1727422928.134,-19.531,0.977,-130.371,-56.152,0.000
1727422928.138,-45.898,-2.441,-127.930,-54.199,0.000
1727422928.142,-16.113,-3.418,-121.094,-45.898,0.000
1727422928.145,6.836,-7.812,-112.305,-44.434,0.000
1727422928.149,-0.977,-8.301,-113.281,-35.156,0.000
1727422928.153,-22.461,1.953,-107.422,-31.250,0.000
1727422928.157,-45.898,-8.301,-109.863,-47.363,0.000
1727422928.161,-30.762,-22.949,-119.141,-39.551,0.000
1727422928.165,-1.953,-18.066,-111.328,-10.254,0.000
1727422928.169,4.883,-16.602,-103.027,-20.020,0.000
1727422928.173,-13.184,-24.414,-101.074,-41.504,0.000
1727422928.177,-48.340,-29.297,-97.168,-49.805,0.000
1727422928.181,-35.156,-20.020,-89.844,-44.922,0.000
1727422928.184,7.812,-20.996,-79.590,-34.668,0.000
1727422928.188,19.043,-36.133,-72.266,-31.738,0.000
1727422928.192,-15.137,-36.133,-67.383,-34.668,0.000
1727422928.196,-53.223,-30.273,-66.895,-38.086,0.000
1727422928.200,-40.039,-17.578,-68.359,-43.945,0.000
1727422928.204,5.371,-20.508,-53.223,-29.785,0.000
1727422928.208,18.555,-35.645,-46.875,-14.648,0.000
1727422928.212,-8.789,-33.691,-46.875,-11.719,0.000
1727422928.216,-42.969,-29.297,0.000,-11.719,0.000
1727422928.219,-37.109,-25.391,0.000,-18.555,0.000
1727422928.223,9.766,-20.508,0.000,-19.531,0.000
1727422928.227,10.254,-26.367,0.000,-12.695,0.000
1727422928.231,-24.414,-30.273,0.000,-16.113,0.000
1727422928.235,-54.688,-30.273,0.000,-38.086,0.000
1727422928.239,-57.129,-37.109,0.000,-31.738,0.000
1727422928.243,-19.043,-33.691,0.000,-17.090,0.000
1727422928.247,2.441,-28.809,0.000,-25.391,0.000
1727422928.251,-21.973,-36.621,0.000,-24.414,0.000
1727422928.255,-54.199,-33.203,0.000,-24.902,0.000
1727422928.259,-56.641,-36.621,0.000,-32.227,0.000
1727422928.262,-32.715,-41.016,-34.180,-30.273,0.000
1727422928.266,-2.930,-20.996,-40.039,-26.855,0.000
1727422928.270,-2.930,-16.113,-34.668,-21.973,0.000
1727422928.274,-42.969,-30.762,-36.133,-30.273,0.000
1727422928.278,-62.500,-32.715,-37.598,-50.781,0.000
1727422928.282,-33.691,-23.438,-30.273,-39.062,0.000
1727422928.286,-7.812,-20.996,-31.250,2.441,0.000
1727422928.290,-21.973,-32.227,-44.434,-16.113,0.000
1727422928.294,-58.105,-43.457,-53.223,-52.734,0.000
1727422928.297,-63.477,-47.363,-41.992,-48.828,0.000
1727422928.301,-22.949,-39.062,-33.203,-38.086,0.000
1727422928.305,-0.977,-33.203,-40.527,-29.785,0.000
1727422928.309,-17.578,-39.062,-48.340,-39.062,0.000
1727422928.313,-38.574,-41.504,-43.945,-45.410,0.000
1727422928.317,-69.336,-41.016,-42.969,-47.852,0.000
1727422928.321,-48.828,-43.457,-38.574,-35.156,0.000
1727422928.325,4.883,-38.574,-32.715,-7.812,0.000
1727422928.328,-7.324,-45.898,-52.246,-11.230,0.000
1727422928.332,-44.922,-56.641,-54.688,-37.598,0.000
1727422928.336,-72.266,-64.453,-51.270,-53.223,0.000
1727422928.340,-41.016,-55.664,-48.340,-35.645,0.000
1727422928.344,0.000,-34.668,-40.527,-18.066,0.000
1727422928.348,-4.883,-37.109,-44.434,-26.855,0.000
1727422928.352,-38.086,-39.062,-42.969,-29.785,0.000
1727422928.356,-67.871,-36.133,-33.691,-32.227,0.000
1727422928.360,-50.781,-35.645,-26.367,-35.156,0.000
1727422928.364,-10.742,-34.180,-23.438,-28.320,0.000
1727422928.368,-12.695,-39.551,-31.250,-27.832,0.000
1727422928.372,-28.809,-42.969,-42.969,-36.133,0.000
1727422928.376,-51.270,-41.016,-42.480,-52.246,0.000
1727422928.379,-58.594,-43.457,-35.645,-40.039,0.000
1727422928.383,-14.160,-34.668,-25.879,-13.672,0.000
1727422928.387,1.465,-29.297,-27.832,-18.066,0.000
1727422928.391,-33.203,-30.762,-41.504,-33.203,0.000
1727422928.395,-64.941,-35.156,-35.156,-43.945,0.000
1727422928.399,-54.199,-24.414,-21.484,-46.387,0.000
1727422928.403,-14.160,-12.695,-27.832,-31.738,0.000
1727422928.407,-0.977,-20.508,-38.086,-31.250,0.000
1727422928.411,-18.555,-27.344,-36.621,-30.762,0.000
1727422928.415,-46.875,-28.320,-34.180,-25.879,0.000
1727422928.419,-48.828,-28.320,-34.668,-33.691,0.000
1727422928.423,-17.578,-31.250,-32.715,-31.250,0.000
1727422928.427,19.043,-28.320,-27.344,-13.672,0.000
1727422928.430,-0.977,-31.250,-29.297,-6.836,0.000
1727422928.434,-51.758,-48.340,-36.621,-25.391,0.000
1727422928.438,-62.500,-49.805,-31.250,-31.738,0.000
1727422928.442,-37.598,-41.992,-27.344,-18.066,0.000
1727422928.446,-6.836,-45.410,-37.598,-22.461,0.000
1727422928.450,-8.301,-43.945,-41.016,-32.227,0.000
1727422928.454,-49.316,-38.574,-41.992,-37.109,0.000
1727422928.458,-78.613,-37.109,-44.434,-58.105,0.000
1727422928.462,-47.363,-40.039,-42.480,-48.828,0.000
1727422928.466,-2.930,-37.598,-37.598,-19.043,0.000
1727422928.470,-11.230,-34.668,-39.062,-27.832,0.000
1727422928.473,-45.410,-46.387,-45.410,-42.480,0.000
1727422928.477,-55.664,-42.480,-41.016,-31.738,0.000
1727422928.481,-31.250,-39.062,-38.574,-28.320,0.000
1727422928.485,3.906,-44.922,-36.133,-30.273,0.000
1727422928.489,1.953,-56.641,-35.156,-24.902,0.000
1727422928.493,-33.203,-57.129,-40.039,-27.344,0.000
1727422928.497,-62.988,-39.062,-40.039,-39.551,0.000
1727422928.501,-45.898,-28.809,-41.992,-33.203,0.000
1727422928.505,-8.301,-31.738,-40.039,-27.344,0.000
1727422928.509,-3.906,-34.668,-31.738,-12.695,0.000
1727422928.513,-37.598,-39.062,-35.645,-18.555,0.000
1727422928.516,-64.941,-39.551,-38.574,-47.363,0.000
1727422928.520,-38.574,-30.762,-34.180,-37.598,0.000
1727422928.524,-2.441,-32.227,-39.062,-24.902,0.000
1727422928.528,4.395,-37.109,-41.992,-29.297,0.000
1727422928.532,-25.879,-30.762,-41.016,-33.203,0.000
1727422928.536,-66.406,-29.785,-40.039,-37.598,0.000
1727422928.540,-51.758,-35.645,-33.691,-37.598,0.000
1727422928.544,-6.348,-39.062,-38.574,-10.254,0.000
1727422928.548,12.695,-41.504,-38.574,5.859,0.000
1727422928.552,-5.859,-31.738,-33.203,-4.395,0.000
1727422928.555,-44.922,-28.809,-43.457,-32.227,0.000
1727422928.559,-54.199,-31.738,-51.270,-51.270,0.000
1727422928.563,-13.184,-30.273,-54.199,-45.410,0.000
1727422928.567,0.977,-32.715,-61.523,-42.480,0.000
1727422928.571,-26.855,-37.109,-58.594,-41.992,0.000
1727422928.575,-62.012,-40.527,-51.270,-51.270,0.000
1727422928.579,-72.754,-44.434,-49.316,-62.012,0.000
1727422928.583,-36.621,-45.898,-45.898,-46.875,0.000
1727422928.587,-1.953,-36.133,-44.922,-16.113,0.000
1727422928.591,-12.695,-30.273,-41.016,-17.090,0.000
1727422928.594,-50.781,-34.668,-41.016,-42.969,0.000
1727422928.598,-66.895,-37.109,-45.898,-47.852,0.000
1727422928.602,-35.156,-35.156,-46.387,-26.855,0.000
1727422928.606,-0.977,-36.133,-49.805,-26.367,0.000
1727422928.610,-0.977,-40.527,-50.781,-26.367,0.000
1727422928.614,-43.457,-41.016,-49.316,-21.484,0.000
1727422928.618,-61.523,-31.250,-41.504,-20.996,0.000
1727422928.622,-36.133,-32.715,-39.062,-29.785,0.000
1727422928.626,-13.184,-46.875,-45.410,-36.621,0.000
1727422928.630,-14.160,-48.828,-42.969,-34.180,0.000
1727422928.633,-48.340,-46.387,-46.875,-45.898,0.000
1727422928.637,-65.430,-41.504,-47.852,-37.109,0.000
1727422928.641,-38.574,-46.387,-45.898,-22.461,0.000
1727422928.645,-8.789,-52.734,-42.480,-12.695,0.000
1727422928.649,-2.930,-48.340,-36.621,-10.254,0.000
1727422928.653,-38.574,-51.758,-41.992,-20.508,0.000
1727422928.657,-64.453,-50.781,-40.039,-35.645,0.000
1727422928.661,-46.387,-47.363,-32.227,-29.785,0.000
1727422928.665,-18.066,-43.457,-30.762,-14.160,0.000
1727422928.668,-4.883,-41.992,-30.762,-18.066,0.000
1727422928.672,-26.367,-44.922,-29.785,-27.344,0.000
1727422928.676,-60.059,-42.480,-28.320,-39.551,0.000
1727422928.680,-51.758,-37.598,-26.855,-38.574,0.000
1727422928.684,-8.301,-32.715,-28.320,-21.484,0.000
1727422928.688,11.230,-33.203,-34.180,-23.926,0.000
1727422928.692,-13.672,-38.086,-36.621,-23.438,0.000
1727422928.696,-57.129,-36.133,-38.574,-18.555,0.000
1727422928.700,-57.129,-32.227,-39.062,-37.598,0.000
1727422928.703,-20.508,-36.133,-43.457,-32.715,0.000
1727422928.707,-3.418,-30.273,-46.387,-26.855,0.000
1727422928.711,-17.578,-27.832,-46.387,-35.156,0.000
1727422928.715,-60.059,-34.668,-48.340,-41.504,0.000
1727422928.719,-74.219,-40.527,-46.387,-51.758,0.000
1727422928.723,-27.344,-37.109,-47.363,-50.293,0.000
1727422928.727,1.953,-39.551,-56.641,-39.062,0.000
1727422928.731,-18.066,-43.457,-64.453,-35.156,0.000
1727422928.735,-47.852,-26.367,-59.082,-37.598,0.000
1727422928.739,-57.617,-24.902,-55.176,-33.203,0.000
1727422928.743,-24.414,-42.969,-53.711,-22.461,0.000
1727422928.747,5.371,-46.387,-56.152,-31.250,0.000
1727422928.750,0.488,-41.992,-61.035,-49.316,0.000
1727422928.754,-43.945,-45.410,-60.059,-48.340,0.000
1727422928.758,-60.059,-38.574,-52.734,-40.527,0.000
1727422928.762,-25.879,-37.109,-46.387,-31.738,0.000
1727422928.766,-4.883,-48.340,-41.016,-28.809,0.000
1727422928.770,-7.812,-44.434,-30.762,-23.926,0.000
1727422928.774,-28.320,-39.062,-22.949,-18.066,0.000
1727422928.778,-51.758,-42.480,-24.902,-32.715,0.000
1727422928.782,-29.297,-43.945,-32.715,-33.691,0.000
1727422928.786,5.371,-42.480,-42.480,-19.043,0.000
1727422928.790,0.488,-43.945,-46.875,-15.137,0.000
1727422928.794,-20.508,-41.992,-51.270,-26.855,0.000
1727422928.797,-53.711,-47.363,-54.199,-49.805,0.000
1727422928.801,-47.852,-41.016,-54.688,-37.109,0.000
1727422928.805,-4.883,-34.668,-52.246,-18.555,0.000
1727422928.809,1.465,-45.410,-50.781,-24.902,0.000
1727422928.813,-29.785,-44.434,-52.734,-30.762,0.000
1727422928.817,-58.105,-40.039,-49.805,-34.668,0.000
1727422928.821,-34.180,-49.805,-49.316,-34.180,0.000
1727422928.825,-3.906,-54.199,-51.758,-41.504,0.000
1727422928.829,-7.324,-42.480,-44.434,-30.273,0.000
1727422928.833,-22.461,-38.086,-41.992,-30.762,0.000
1727422928.837,-58.594,-47.852,-44.922,-41.504,0.000
1727422928.841,-60.547,-49.316,-43.945,-34.180,0.000
1727422928.845,-13.672,-44.434,-43.945,-17.578,0.000
1727422928.849,-3.418,-51.758,-41.992,-18.066,0.000
1727422928.853,-29.297,-56.152,-41.992,-26.855,0.000
1727422928.857,-43.457,-36.133,-33.691,-19.531,0.000
1727422928.860,-38.086,-28.809,-26.855,-18.066,0.000
1727422928.864,-1.953,-35.156,-20.020,-17.578,0.000
1727422928.868,16.113,-30.273,-8.301,-15.137,0.000
1727422928.872,-22.949,-33.691,-5.371,-25.391,0.000
1727422928.876,-65.430,-39.062,-6.348,-44.922,0.000
1727422928.880,-68.359,-40.039,-9.277,-52.246,0.000
1727422928.884,-29.297,-40.039,-9.277,-30.762,0.000
1727422928.888,4.395,-49.316,-10.742,-21.484,0.000
1727422928.892,-5.371,-51.270,-11.719,-29.297,0.000
1727422928.896,-59.570,-47.363,-15.137,-44.434,0.000
1727422928.900,-68.848,-53.711,-17.578,-52.246,0.000
1727422928.903,-22.461,-62.988,-12.695,-35.156,0.000
1727422928.907,1.465,-66.406,-14.648,-22.949,0.000
1727422928.911,-11.719,-63.477,-16.113,-14.648,0.000
1727422928.915,-54.688,-64.941,-18.066,-27.344,0.000
1727422928.919,-82.520,-51.758,-16.602,-42.969,0.000
1727422928.923,-57.129,-43.457,-6.348,-37.109,0.000
1727422928.927,-24.414,-52.734,-0.488,-29.785,0.000
1727422928.931,-20.996,-59.570,1.953,-25.879,0.000
1727422928.935,-43.945,-48.340,9.277,-32.227,0.000
1727422928.939,-57.129,-32.227,11.230,-52.246,0.000
1727422928.942,-27.832,-29.785,22.949,-40.039,0.000
1727422928.946,13.184,-41.992,25.391,-17.578,0.000
1727422928.950,3.906,-52.246,2.441,-27.832,0.000
1727422928.954,-19.043,-121.094,-7.812,-36.621,0.000
1727422928.958,-6.348,-131.836,19.043,-5.859,0.000
1727422928.962,9.766,-47.852,33.691,15.137,0.000
1727422928.966,6.348,-27.344,4.395,-16.602,0.000
1727422928.970,12.207,-25.879,11.719,-8.301,0.000
1727422928.974,-14.160,-4.883,1.953,-19.043,0.000
1727422928.977,-73.730,-25.391,-20.508,-59.082,0.000
1727422928.981,-32.715,-93.262,-14.648,-41.504,0.000
1727422928.985,52.734,-129.395,-8.789,9.277,0.000
1727422928.989,48.828,-58.105,30.762,27.344,0.000
1727422928.993,37.598,-58.594,43.457,41.992,0.000
1727422928.997,4.395,-83.496,39.551,24.902,0.000
1727422929.001,-49.316,-40.039,60.059,-46.875,0.000
1727422929.005,-7.812,8.789,52.734,-33.691,0.000
1727422929.009,65.430,8.301,49.805,48.340,0.000
1727422929.012,46.387,-18.555,110.352,42.969,0.000
1727422929.016,-7.324,-2.930,164.062,3.906,0.000
1727422929.020,-40.527,-117.188,116.211,-38.086,0.000
1727422929.024,-50.781,21.973,106.445,-60.547,0.000
1727422929.028,-53.223,245.605,168.457,-67.383,0.000
1727422929.032,-72.754,152.832,163.574,-83.496,0.000
1727422929.036,-22.949,60.547,180.176,-0.488,0.000
1727422929.040,26.855,75.684,211.426,60.547,0.000
1727422929.044,55.664,88.867,205.566,51.270,0.000
1727422929.048,89.844,49.805,186.523,46.875,0.000
1727422929.051,81.543,134.766,239.258,77.637,0.000
1727422929.055,88.379,201.172,314.453,121.094,0.000
1727422929.059,79.590,120.605,280.273,91.309,0.000
1727422929.063,51.270,121.582,294.922,46.875,0.000
1727422929.067,98.633,210.449,354.492,72.266,0.000
1727422929.071,103.516,193.359,387.207,84.473,0.000
1727422929.075,64.453,190.430,430.176,76.172,0.000
1727422929.079,61.035,219.727,445.312,74.707,0.000
1727422929.083,90.332,239.746,444.336,86.426,0.000
1727422929.086,113.770,246.582,455.078,92.773,0.000
1727422929.090,91.797,224.609,455.078,74.219,0.000
1727422929.094,54.688,196.777,440.430,69.336,0.000
1727422929.098,34.668,187.012,433.105,62.988,0.000
1727422929.102,46.875,182.129,423.828,47.363,0.000
1727422929.106,74.219,156.250,409.180,52.734,0.000
1727422929.110,79.590,132.812,384.766,59.570,0.000
1727422929.114,47.852,126.953,362.793,46.875,0.000
1727422929.118,22.461,103.027,347.168,12.207,0.000
1727422929.122,29.297,74.707,329.102,15.137,0.000
1727422929.126,58.105,73.730,314.941,38.086,0.000
1727422929.130,65.430,62.500,308.105,28.809,0.000
1727422929.133,48.340,43.945,299.805,14.648,0.000
1727422929.137,16.602,33.203,292.480,-3.418,0.000
1727422929.141,-1.465,23.438,280.762,7.324,0.000
1727422929.145,28.320,36.133,265.137,30.762,0.000
1727422929.149,42.480,51.270,254.395,21.484,0.000
1727422929.153,16.602,41.992,245.117,8.789,0.000
1727422929.157,-20.996,24.902,231.445,-4.883,0.000
1727422929.161,-22.949,4.883,224.121,-5.371,0.000
1727422929.165,19.043,-15.137,213.379,-2.930,0.000
1727422929.169,47.852,-24.414,201.172,2.930,0.000
1727422929.173,16.113,-31.250,199.219,0.488,0.000
1727422929.177,-37.598,-49.316,196.289,-1.465,0.000
1727422929.180,-44.434,-86.426,198.730,0.488,0.000
1727422929.184,8.301,-109.863,190.430,-4.883,0.000
1727422929.188,29.297,-113.770,163.574,-4.395,0.000
1727422929.192,-11.719,-121.582,136.230,-9.766,0.000
1727422929.196,-47.363,-127.441,103.516,-27.344,0.000
1727422929.200,-62.012,-123.047,59.082,-50.293,0.000
1727422929.204,-40.527,-122.559,41.504,-40.039,0.000
1727422929.208,-12.207,-135.742,35.645,-19.531,0.000
1727422929.212,-27.344,-157.715,-11.230,-27.344,0.000
1727422929.216,-70.312,-158.203,-40.039,-43.945,0.000
1727422929.220,-84.473,-136.230,-58.105,-57.617,0.000
1727422929.223,-53.711,-121.582,-91.309,-53.711,0.000
1727422929.227,-24.414,-103.027,-125.488,-48.828,0.000
1727422929.231,-31.738,-98.145,-151.367,-37.598,0.000
1727422929.235,-66.406,-106.934,-174.805,-35.645,0.000
1727422929.239,-88.867,-138.184,-198.730,-59.570,0.000
1727422929.243,-71.289,-153.320,-215.820,-66.895,0.000
1727422929.247,-39.062,-139.160,-224.609,-62.988,0.000
1727422929.251,-43.457,-129.883,-223.633,-67.871,0.000
1727422929.255,-74.707,-118.164,-236.816,-77.148,0.000
1727422929.259,-99.121,-78.125,-260.742,-94.727,0.000
1727422929.263,-95.215,-38.086,-282.715,-103.516,0.000
1727422929.266,-63.965,-35.645,-291.504,-91.309,0.000
1727422929.270,-59.082,-36.133,-295.898,-89.844,0.000
1727422929.274,-87.891,-43.457,-308.105,-94.727,0.000
1727422929.278,-116.211,-41.016,-312.500,-94.727,0.000
1727422929.282,-105.469,-38.086,-332.031,-86.914,0.000
1727422929.286,-64.453,-54.688,-352.539,-80.566,0.000
1727422929.290,-52.246,-110.352,-358.887,-87.891,0.000
1727422929.294,-86.426,-169.434,-352.539,-93.750,0.000
1727422929.298,-118.652,-185.059,-339.844,-103.027,0.000
1727422929.302,-108.398,-183.594,-334.961,-94.727,0.000
1727422929.306,-71.777,-169.922,-333.496,-72.754,0.000
1727422929.310,-50.293,-160.156,-330.566,-69.336,0.000
1727422929.314,-83.984,-165.527,-312.012,-90.332,0.000
1727422929.318,-133.789,-174.805,-291.504,-119.629,0.000
1727422929.322,-129.883,-181.641,-282.227,-116.211,0.000
1727422929.325,-94.238,-178.711,-276.367,-101.562,0.000
1727422929.329,-77.637,-177.246,-270.508,-91.309,0.000
1727422929.333,-94.238,-191.406,-268.066,-79.590,0.000
1727422929.337,-126.465,-198.730,-264.648,-94.727,0.000
1727422929.341,-131.836,-185.059,-258.789,-104.980,0.000
1727422929.345,-99.609,-178.223,-266.602,-106.934,0.000
1727422929.349,-61.523,-169.922,-276.367,-99.609,0.000
1727422929.353,-76.660,-154.297,-279.785,-97.168,0.000
1727422929.357,-127.441,-146.484,-294.922,-111.816,0.000
1727422929.360,-127.441,-142.578,-319.336,-106.445,0.000
1727422929.364,-77.637,-129.883,-332.031,-84.473,0.000
1727422929.368,-51.758,-118.652,-327.637,-81.543,0.000
1727422929.372,-54.688,-117.676,-317.383,-86.914,0.000
1727422929.376,-81.055,-132.812,-307.129,-81.543,0.000
1727422929.380,-115.234,-149.414,-301.270,-74.707,0.000
1727422929.384,-96.680,-140.137,-297.363,-68.848,0.000
1727422929.388,-60.059,-113.281,-282.715,-65.430,0.000
1727422929.392,-49.805,-95.703,-270.020,-57.617,0.000
1727422929.396,-84.961,-94.238,-267.090,-63.965,0.000
1727422929.400,-108.398,-96.191,-264.160,-74.219,0.000
1727422929.404,-80.566,-85.449,-257.324,-71.289,0.000
1727422929.408,-36.133,-75.195,-245.117,-58.105,0.000
1727422929.412,-39.062,-83.008,-237.305,-50.293,0.000
1727422929.415,-77.148,-83.496,-230.469,-52.734,0.000
1727422929.419,-88.867,-68.359,-212.891,-47.852,0.000
1727422929.423,-66.895,-65.430,-199.707,-38.086,0.000
1727422929.427,-30.273,-69.824,-194.336,-31.250,0.000
1727422929.431,-19.043,-60.547,-183.105,-8.301,0.000
1727422929.435,-58.105,-55.664,-179.199,-25.391,0.000
1727422929.439,-90.332,-57.617,-178.223,-69.824,0.000
1727422929.443,-69.336,-50.781,-171.875,-60.059,0.000
1727422929.446,-38.086,-51.270,-174.316,-54.688,0.000
1727422929.450,-27.344,-69.824,-175.293,-50.293,0.000
1727422929.454,-41.016,-82.031,-172.363,-42.480,0.000
1727422929.458,-63.965,-75.195,-166.504,-52.246,0.000
1727422929.462,-72.754,-56.152,-165.039,-52.246,0.000
1727422929.466,-57.129,-46.387,-166.504,-48.828,0.000
1727422929.470,-42.969,-43.457,-159.668,-48.340,0.000
1727422929.474,-64.453,-36.621,-154.297,-53.223,0.000
1727422929.478,-96.680,-33.691,-149.414,-54.688,0.000
1727422929.482,-83.984,-41.992,-145.508,-52.734,0.000
1727422929.486,-41.016,-50.781,-146.973,-47.852,0.000
1727422929.490,-16.113,-51.270,-145.508,-39.062,0.000
1727422929.493,-35.645,-64.941,-150.879,-52.734,0.000
1727422929.497,-83.008,-72.754,-163.086,-73.242,0.000
1727422929.501,-85.938,-68.359,-166.504,-82.520,0.000
1727422929.505,-32.227,-64.941,-161.133,-65.918,0.000
1727422929.509,-16.602,-59.570,-140.137,-41.992,0.000
1727422929.513,-40.527,-54.688,-123.047,-43.945,0.000
1727422929.517,-69.824,-49.805,-114.746,-50.781,0.000
1727422929.521,-83.008,-41.016,-116.699,-59.570,0.000
1727422929.525,-51.758,-40.039,-125.977,-56.152,0.000
1727422929.529,-12.695,-38.574,-125.977,-42.969,0.000
1727422929.533,-19.043,-36.621,-124.512,-31.250,0.000
1727422929.537,-67.871,-38.086,-124.512,-26.367,0.000
1727422929.540,-73.242,-24.414,-113.281,-32.227,0.000
1727422929.544,-30.273,-14.160,-109.375,-35.645,0.000
1727422929.548,0.000,-13.184,-109.375,-18.555,0.000
1727422929.552,-1.953,-7.324,-105.469,-8.301,0.000
1727422929.556,-34.180,-7.812,-106.934,-32.715,0.000
1727422929.560,-47.852,-11.719,-108.398,-37.109,0.000
1727422929.564,-19.043,-9.277,-111.328,-30.273,0.000
1727422929.568,-0.488,-12.207,-121.094,-27.832,0.000
1727422929.572,-18.555,-23.926,-122.070,-30.273,0.000
1727422929.576,-44.434,-14.160,-97.656,-38.086,0.000
1727422929.580,-62.988,1.953,-76.172,-25.879,0.000
1727422929.584,-45.410,-2.930,-74.219,-20.508,0.000
1727422929.588,-0.488,-12.695,-76.172,-10.742,0.000
1727422929.592,1.465,-19.043,-78.613,-17.090,0.000
1727422929.596,-37.598,-27.832,-79.102,-32.227,0.000
1727422929.600,-58.105,-26.367,-73.730,-33.203,0.000
1727422929.603,-45.410,-22.461,-83.008,-42.480,0.000
1727422929.607,-17.090,-25.879,-94.238,-30.762,0.000
1727422929.611,-14.648,-24.902,-93.750,-32.715,0.000
1727422929.615,-50.293,-29.785,-95.703,-42.480,0.000
1727422929.619,-83.496,-33.691,-89.355,-42.969,0.000
1727422929.623,-77.637,-34.180,-82.031,-48.828,0.000
1727422929.627,-37.109,-41.992,-79.590,-37.109,0.000
1727422929.631,-10.254,-50.781,-76.660,-33.691,0.000
1727422929.635,-34.668,-53.711,-82.520,-45.898,0.000
1727422929.639,-76.172,-52.734,-81.543,-62.988,0.000
1727422929.642,-75.684,-56.152,-75.195,-53.223,0.000
1727422929.646,-42.480,-61.523,-80.078,-43.457,0.000
1727422929.650,-25.391,-52.246,-82.520,-50.781,0.000
1727422929.654,-40.039,-43.945,-82.031,-40.527,0.000
1727422929.658,-75.195,-47.852,-94.727,-48.828,0.000
1727422929.662,-75.684,-46.387,-93.750,-52.734,0.000
1727422929.666,-29.297,-39.062,-79.102,-21.973,0.000
1727422929.670,-9.277,-34.180,-87.402,-17.578,0.000
1727422929.674,-28.320,-33.203,-98.145,-42.969,0.000
1727422929.678,-63.477,-35.156,-98.633,-53.711,0.000
1727422929.682,-77.148,-27.344,-95.215,-53.711,0.000
1727422929.686,-33.691,-20.996,-90.332,-35.156,0.000
1727422929.690,2.441,-19.043,-94.727,-16.113,0.000
1727422929.694,-9.766,-19.043,-104.004,-14.160,0.000
1727422929.698,-47.363,-22.461,-104.004,-24.902,0.000
1727422929.701,-63.477,-25.879,-95.215,-42.480,0.000
1727422929.705,-43.457,-36.133,-88.867,-42.480,0.000
1727422929.709,-6.836,-43.945,-86.426,-24.414,0.000
1727422929.713,5.859,-32.227,-85.449,-21.973,0.000
1727422929.717,-34.180,-25.879,-83.008,-30.273,0.000
1727422929.721,-67.383,-27.832,-81.543,-31.738,0.000
1727422929.725,-41.504,-28.320,-83.984,-34.668,0.000
1727422929.729,-5.371,-29.785,-83.984,-38.574,0.000
1727422929.733,-6.348,-38.086,-83.008,-18.555,0.000
1727422929.736,-52.734,-53.711,-81.543,-29.297,0.000
1727422929.740,-79.590,-50.781,-71.289,-61.523,0.000
1727422929.744,-49.805,-36.133,-59.082,-55.664,0.000
1727422929.748,-13.672,-30.762,-60.547,-41.504,0.000
1727422929.752,-17.578,-42.969,-62.988,-36.621,0.000
1727422929.756,-41.504,-44.434,-60.059,-49.805,0.000
1727422929.760,-63.477,-34.668,-54.688,-59.082,0.000
1727422929.764,-71.777,-32.227,-48.340,-56.641,0.000
1727422929.768,-31.250,-26.367,-41.504,-37.109,0.000
1727422929.772,-11.230,-28.809,-41.992,-26.367,0.000
1727422929.776,-49.316,-53.223,-54.688,-40.527,0.000
1727422929.780,-86.426,-64.941,-59.082,-58.105,0.000
1727422929.784,-76.660,-58.594,-54.199,-64.453,0.000
1727422929.787,-41.016,-57.617,-51.758,-51.270,0.000
1727422929.791,-26.855,-60.059,-45.898,-31.250,0.000
1727422929.795,-41.992,-46.875,-43.945,-41.992,0.000
1727422929.799,-72.266,-36.133,-45.898,-57.617,0.000
1727422929.803,-64.941,-35.156,-42.969,-55.176,0.000
1727422929.807,-21.973,-36.133,-45.898,-41.504,0.000
1727422929.811,9.277,-35.645,-47.363,-23.926,0.000
1727422929.815,-7.812,-39.551,-42.969,-12.207,0.000
1727422929.819,-56.152,-36.133,-41.992,-31.250,0.000
1727422929.823,-63.965,-29.785,-41.504,-42.969,0.000
1727422929.827,-26.855,-41.504,-39.551,-20.508,0.000
1727422929.831,6.836,-38.086,-30.273,-14.648,0.000
1727422929.835,-9.277,-29.785,-26.367,-29.297,0.000
1727422929.838,-47.363,-37.598,-39.062,-42.480,0.000
1727422929.842,-64.453,-44.434,-43.945,-46.875,0.000
1727422929.846,-45.898,-45.410,-35.156,-35.645,0.000
1727422929.850,-20.020,-39.062,-33.203,-28.320,0.000
1727422929.854,-30.762,-34.668,-33.203,-33.203,0.000
1727422929.858,-63.477,-38.574,-33.691,-36.133,0.000
1727422929.862,-86.426,-45.898,-40.527,-50.293,0.000
1727422929.866,-56.152,-50.293,-49.805,-48.340,0.000
1727422929.870,-16.113,-51.758,-47.363,-33.203,0.000
1727422929.874,-26.855,-48.340,-42.969,-37.109,0.000
1727422929.878,-61.523,-54.199,-47.852,-46.875,0.000
1727422929.882,-74.219,-51.270,-44.922,-53.711,0.000
1727422929.885,-56.152,-45.410,-33.203,-48.828,0.000
1727422929.889,-29.297,-55.176,-34.180,-40.527,0.000
1727422929.893,-22.949,-51.270,-40.039,-43.457,0.000
1727422929.897,-53.711,-46.387,-43.945,-53.711,0.000
1727422929.901,-79.590,-52.734,-47.363,-70.312,0.000
1727422929.905,-43.945,-46.875,-44.434,-62.012,0.000
1727422929.909,-0.977,-38.086,-40.039,-46.875,0.000
1727422929.913,-10.742,-33.691,-39.062,-32.715,0.000
1727422929.917,-24.414,-24.414,-43.457,-28.320,0.000
1727422929.921,-51.270,-24.414,-44.434,-37.598,0.000
1727422929.925,-64.453,-27.832,-47.363,-44.922,0.000
1727422929.928,-16.113,-18.066,-42.969,-20.020,0.000
1727422929.932,8.789,-13.672,-35.645,-2.930,0.000
1727422929.936,-25.391,-22.461,-35.156,-31.738,0.000
1727422929.940,-59.570,-24.414,-31.250,-43.457,0.000
1727422929.944,-49.805,-19.043,-24.414,-30.762,0.000
1727422929.948,-12.695,-20.020,-24.902,-25.879,0.000
1727422929.952,5.859,-22.461,-30.273,-20.996,0.000
1727422929.956,-22.949,-28.809,-30.273,-21.484,0.000
1727422929.960,-68.359,-32.715,-27.832,-42.969,0.000
1727422929.964,-61.035,-37.598,-25.391,-46.875,0.000
1727422929.968,-14.160,-39.062,-23.438,-33.691,0.000
1727422929.971,5.859,-35.645,-22.949,-29.297,0.000
1727422929.975,-19.043,-36.133,-28.809,-28.809,0.000
1727422929.979,-55.176,-38.574,-31.738,-27.344,0.000
1727422929.983,-60.547,-33.203,-25.879,-34.668,0.000
1727422929.987,-33.203,-27.344,-18.066,-28.809,0.000
1727422929.991,-12.207,-33.203,-15.137,-14.160,0.000
1727422929.995,-10.742,-41.992,-18.555,-18.066,0.000
1727422929.999,-52.246,-46.875,-23.438,-54.199,0.000
1727422930.003,-89.355,-45.898,-32.715,-72.266,0.000
1727422930.007,-45.410,-38.086,-32.227,-50.293,0.000
1727422930.011,4.883,-38.574,-23.926,-28.320,0.000
1727422930.014,-3.906,-59.570,-35.645,-30.273,0.000
1727422930.018,-52.246,-56.152,-37.109,-40.527,0.000
1727422930.022,-81.543,-57.129,-34.668,-57.617,0.000
1727422930.026,-49.805,-61.523,-45.898,-56.641,0.000
1727422930.030,-8.301,-41.992,-44.922,-44.922,0.000
1727422930.034,-9.277,-31.250,-35.156,-35.156,0.000
1727422930.038,-43.457,-35.645,-32.715,-23.438,0.000
1727422930.042,-77.148,-40.527,-35.156,-40.527,0.000
1727422930.046,0.000,-41.992,-35.645,-40.527,0.000
1727422930.049,0.000,-39.551,-35.645,-37.598,0.000
1727422930.053,0.000,-38.086,-36.133,-40.527,0.000
1727422930.057,0.000,-42.480,-36.133,-46.875,0.000
1727422930.061,0.000,-41.992,-31.250,-52.246,0.000
1727422930.065,0.000,-36.621,-26.855,-35.645,0.000
1727422930.069,0.000,-43.945,-34.668,-19.531,0.000
1727422930.073,0.000,-44.922,-43.457,-10.742,0.000
1727422930.077,0.000,-38.574,-45.410,-16.602,0.000
1727422930.081,0.000,-58.105,-55.176,-37.109,0.000
1727422930.085,0.000,-58.105,-54.199,-31.738,0.000
1727422930.089,0.000,-34.180,-36.621,-8.789,0.000
1727422930.092,-0.977,-29.297,-39.551,-8.301,0.000
1727422930.096,-39.551,-34.180,-50.781,-21.973,0.000
1727422930.100,-60.059,-40.039,-47.852,-40.039,0.000
1727422930.104,-41.016,-34.668,-42.480,-37.109,0.000
1727422930.108,-13.184,-29.297,-35.645,-21.484,0.000
1727422930.112,6.348,-41.992,-35.156,-9.277,0.000
1727422930.116,-9.277,-57.129,-43.945,-15.137,0.000
1727422930.120,-53.711,-53.711,-45.410,-20.020,0.000
1727422930.124,-66.406,-47.363,-43.945,-34.180,0.000
1727422930.127,-29.785,-43.945,-50.781,-47.852,0.000
1727422930.131,-7.324,-34.668,-48.828,-40.527,0.000
1727422930.135,-26.367,-41.016,-44.434,-49.805,0.000
1727422930.139,-63.965,-49.316,-46.875,-51.270,0.000
1727422930.143,-76.660,-41.992,-49.316,-40.527,0.000
1727422930.147,-36.621,-40.527,-44.434,-44.922,0.000
1727422930.151,3.418,-42.969,-37.598,-39.551,0.000
1727422930.155,-7.324,-46.875,-40.039,-39.551,0.000
1727422930.158,-55.664,-44.434,-45.410,-59.570,0.000
1727422930.162,-67.871,-33.203,-41.504,-60.547,0.000
1727422930.166,-23.438,-28.809,-23.926,-40.039,0.000
1727422930.170,4.883,-35.645,-24.902,-36.621,0.000
1727422930.174,-8.789,-47.852,-39.551,-39.551,0.000
1727422930.178,-42.480,-50.293,-43.457,-45.898,0.000
1727422930.182,-68.848,-47.852,-39.062,-50.781,0.000
1727422930.186,-41.016,-41.016,-30.273,-32.227,0.000
1727422930.189,-8.301,-41.992,-24.902,-15.625,0.000
1727422930.193,-17.090,-42.969,-18.066,-32.227,0.000
1727422930.197,-45.898,-39.062,-15.625,-41.016,0.000
1727422930.201,-74.707,-43.945,-24.414,-50.781,0.000
1727422930.205,-56.641,-56.152,-24.902,-53.711,0.000
1727422930.209,-20.508,-59.570,-21.484,-35.156,0.000
1727422930.213,-0.488,-42.480,-27.344,-31.738,0.000
1727422930.217,-20.996,-36.133,-29.297,-42.480,0.000
1727422930.221,-55.664,-39.062,-25.391,-54.199,0.000
1727422930.225,-34.668,-30.762,-19.531,-42.480,0.000
1727422930.229,-3.418,-25.391,-17.090,-34.180,0.000
1727422930.233,4.883,-34.180,-10.742,-32.715,0.000
1727422930.237,-20.996,-41.016,-5.371,-30.762,0.000
1727422930.240,-62.988,-36.621,-14.648,-51.758,0.000
1727422930.244,-60.059,-37.109,-18.066,-59.082,0.000
1727422930.248,-16.113,-40.527,-20.020,-35.645,0.000
1727422930.252,5.859,-35.156,-20.508,-24.414,0.000
1727422930.256,-23.438,-25.879,-14.160,-27.832,0.000
1727422930.260,-78.125,-32.227,-20.508,-32.227,0.000
1727422930.264,-79.102,-41.504,-31.250,-53.223,0.000
1727422930.268,-33.691,-46.875,-32.227,-54.688,0.000
1727422930.272,-21.973,-47.852,-32.227,-37.109,0.000
1727422930.276,-36.621,-31.738,-34.668,-41.016,0.000
1727422930.280,-66.406,-32.227,-28.809,-51.758,0.000
1727422930.283,-75.195,-43.945,-21.973,-48.828,0.000
1727422930.287,-34.180,-38.574,-16.602,-41.992,0.000
1727422930.291,-3.418,-34.180,-13.184,-32.227,0.000
1727422930.295,-24.414,-42.969,-26.367,-37.109,0.000
1727422930.299,-71.777,-53.711,-32.227,-50.293,0.000
1727422930.303,-85.938,-57.617,-37.109,-62.988,0.000
1727422930.307,-52.246,-63.965,-46.875,-53.223,0.000
1727422930.311,-9.277,-48.340,-31.250,-21.973,0.000
1727422930.315,-7.324,-20.996,-13.184,-11.719,0.000
1727422930.319,-48.340,-25.879,-20.508,-25.879,0.000
1727422930.323,-76.660,-34.180,-28.320,-47.852,0.000
1727422930.326,-38.574,-31.250,-27.344,-60.059,0.000
1727422930.330,9.277,-26.855,-21.973,-50.293,0.000
1727422930.334,-8.301,-25.879,-25.879,-41.016,0.000
1727422930.338,-48.340,-30.273,-33.691,-53.223,0.000
1727422930.342,-68.359,-31.250,-32.715,-54.688,0.000
1727422930.346,-40.527,-31.738,-26.367,-37.109,0.000
1727422930.350,10.742,-27.344,-28.320,-22.461,0.000
1727422930.354,14.160,-39.062,-41.504,-9.277,0.000
1727422930.358,-29.297,-60.547,-46.875,-12.207,0.000
1727422930.362,-62.012,-45.410,-42.969,-23.438,0.000
1727422930.366,-35.645,-27.344,-40.527,-16.113,0.000
1727422930.369,3.906,-23.438,-47.363,-12.695,0.000
1727422930.373,-5.371,-28.809,-59.570,-19.531,0.000
1727422930.377,-40.039,-29.297,-62.988,-32.227,0.000
1727422930.381,-60.547,-12.207,-59.082,-36.133,0.000
1727422930.385,-51.758,-18.066,-62.012,-31.250,0.000
1727422930.389,-13.184,-25.879,-63.965,-12.207,0.000
1727422930.393,6.348,-20.020,-56.152,-5.371,0.000
1727422930.397,-17.578,-23.438,-57.129,-18.066,0.000
1727422930.401,-50.293,-28.809,-64.941,-27.832,0.000
1727422930.405,-48.340,-29.297,-66.895,-37.598,0.000
1727422930.408,-20.996,-26.855,-65.430,-33.203,0.000
1727422930.412,-3.906,-37.598,-68.848,-25.391,0.000
1727422930.416,-22.461,-43.457,-75.684,-31.250,0.000
1727422930.420,-57.129,-39.551,-80.078,-50.293,0.000
1727422930.424,-52.246,-39.551,-77.148,-59.082,0.000
1727422930.428,-20.020,-50.781,-73.242,-46.387,0.000
1727422930.432,-8.301,-54.199,-73.242,-36.133,0.000
1727422930.436,-29.297,-38.574,-75.195,-45.410,0.000
1727422930.440,-56.641,-27.344,-62.500,-51.270,0.000
1727422930.444,-58.105,-29.297,-57.617,-56.152,0.000
1727422930.447,-21.973,-30.273,-65.430,-49.316,0.000
1727422930.451,-1.465,-29.297,-68.359,-34.668,0.000
1727422930.455,-23.926,-30.762,-69.824,-43.457,0.000
1727422930.459,-56.152,-29.297,-66.895,-43.457,0.000
1727422930.463,-63.477,-28.809,-60.059,-38.086,0.000
1727422930.467,-33.691,-31.738,-61.035,-37.598,0.000
1727422930.471,-7.324,-32.227,-60.547,-34.668,0.000
1727422930.475,-12.207,-28.320,-54.199,-15.625,0.000
1727422930.479,-45.898,-30.762,-53.223,-21.973,0.000
1727422930.482,-58.105,-40.527,-48.828,-38.574,0.000
1727422930.486,-28.320,-41.992,-42.480,-28.320,0.000
1727422930.490,-0.977,-34.668,-45.898,-11.719,0.000
1727422930.494,0.488,-24.414,-50.293,-9.766,0.000
1727422930.498,-28.809,-25.391,-49.316,-18.555,0.000
1727422930.502,-50.293,-39.062,-48.340,-20.508,0.000
1727422930.506,-30.762,-47.363,-46.875,-18.555,0.000
1727422930.510,14.160,-30.273,-36.133,2.930,0.000
1727422930.514,17.090,-15.625,-30.273,9.277,0.000
1727422930.517,-27.344,-27.344,-41.992,-17.090,0.000
1727422930.521,-61.035,-35.156,-51.270,-38.086,0.000
1727422930.525,-36.133,-33.691,-46.875,-31.738,0.000
1727422930.529,8.789,-35.645,-44.922,-20.020,0.000
1727422930.533,-1.953,-33.203,-51.758,-21.484,0.000
1727422930.537,-34.668,-31.250,-48.340,-17.090,0.000
1727422930.541,-53.223,-40.039,-41.504,-26.367,0.000
1727422930.545,-55.664,-41.992,-46.387,-45.898,0.000
1727422930.549,-25.879,-46.387,-50.293,-53.223,0.000
1727422930.553,-14.160,-42.969,-38.574,-49.805,0.000
1727422930.556,-41.992,-37.109,-37.598,-48.340,0.000
1727422930.560,-72.266,-34.668,-29.297,-46.875,0.000
1727422930.564,-67.383,-32.715,-23.926,-37.598,0.000
1727422930.568,-31.250,-41.504,-34.180,-43.457,0.000
1727422930.572,-8.789,-38.086,-34.668,-40.039,0.000
1727422930.576,-29.297,-41.016,-35.645,-31.738,0.000
1727422930.580,-61.523,-45.898,-38.086,-39.551,0.000
1727422930.584,-44.922,-38.574,-35.645,-49.316,0.000
1727422930.587,-10.742,-39.551,-35.156,-41.504,0.000
1727422930.591,0.000,-41.504,-36.621,-21.484,0.000
1727422930.595,-20.508,-41.992,-40.527,-12.207,0.000
1727422930.599,-52.246,-46.387,-36.133,-30.762,0.000
1727422930.603,-59.082,-35.645,-32.715,-33.691,0.000
1727422930.607,-32.715,-31.738,-45.898,-18.066,0.000
1727422930.611,-12.207,-31.738,-50.293,-11.719,0.000
1727422930.615,-16.113,-23.438,-41.016,-18.066,0.000
1727422930.618,-36.621,-26.367,-41.016,-32.227,0.000
1727422930.622,-58.594,-24.902,-42.480,-41.992,0.000
1727422930.626,-23.926,-25.879,-38.574,-29.297,0.000
1727422930.630,27.832,-37.598,-26.855,-5.859,0.000
1727422930.634,16.602,-41.992,-28.320,-1.953,0.000
1727422930.638,-37.598,-37.598,-40.039,-16.113,0.000
1727422930.642,-58.594,-38.574,-52.246,-30.273,0.000
1727422930.646,-27.832,-41.504,-65.430,-17.090,0.000
1727422930.650,4.395,-31.738,-53.711,1.953,0.000
1727422930.654,1.465,-30.273,-37.109,1.953,0.000
1727422930.658,-37.109,-37.598,-35.156,-22.461,0.000
1727422930.661,-59.082,-34.180,-35.156,-51.758,0.000
1727422930.665,-25.879,-21.484,-30.762,-33.691,0.000
1727422930.669,-1.953,-15.625,-33.691,-16.113,0.000
1727422930.673,-11.719,-21.484,-43.945,-25.879,0.000
1727422930.677,-31.738,-25.879,-42.480,-31.738,0.000
1727422930.681,-67.383,-32.227,-34.668,-38.574,0.000
1727422930.685,-54.199,-35.156,-28.809,-28.320,0.000
1727422930.689,-22.949,-43.457,-41.016,-21.484,0.000
1727422930.693,-38.574,-47.363,-60.547,-31.250,0.000
1727422930.697,-57.617,-38.086,-61.523,-32.227,0.000
1727422930.701,-74.707,-37.598,-52.734,-37.598,0.000
1727422930.705,-69.336,-44.922,-51.270,-50.293,0.000
1727422930.708,-37.598,-51.758,-55.664,-42.480,0.000
1727422930.712,-11.719,-39.551,-54.688,-32.715,0.000
1727422930.716,-30.273,-39.551,-61.523,-41.016,0.000
1727422930.720,-65.918,-50.293,-73.242,-65.918,0.000
1727422930.724,-62.988,-41.992,-72.754,-61.523,0.000
1727422930.728,-19.531,-47.852,-65.430,-37.109,0.000
1727422930.732,10.254,-49.805,-55.176,-25.391,0.000
1727422930.736,-13.672,-36.621,-47.852,-23.926,0.000
1727422930.740,-54.688,-28.809,-48.340,-34.668,0.000
1727422930.744,-58.594,-32.715,-49.316,-49.805,0.000
1727422930.747,-28.320,-60.547,-52.246,-61.523,0.000
1727422930.751,-8.789,-63.965,-56.152,-50.293,0.000
1727422930.755,-21.484,-37.109,-52.246,-34.668,0.000
1727422930.759,-47.852,-24.902,-49.316,-39.062,0.000
1727422930.763,-54.688,-15.625,-46.875,-38.086,0.000
1727422930.767,-24.414,-13.184,-38.574,-23.926,0.000
1727422930.771,14.648,-16.602,-32.227,-20.020,0.000
1727422930.775,6.836,-20.020,-32.227,-17.090,0.000
1727422930.779,-50.293,-32.227,-31.738,-29.297,0.000
1727422930.783,-61.523,-31.250,-18.555,-33.203,0.000
1727422930.787,-16.602,-27.832,-16.602,-17.090,0.000
1727422930.790,9.277,-26.855,-21.484,-12.695,0.000
1727422930.794,-9.766,-33.203,-25.879,-20.508,0.000
1727422930.798,-46.875,-46.387,-31.738,-43.457,0.000
1727422930.802,-70.312,-50.293,-33.691,-49.805,0.000
1727422930.806,-38.086,-40.039,-26.367,-33.691,0.000
1727422930.810,-0.977,-38.574,-21.484,-29.785,0.000
1727422930.814,-6.348,-41.016,-27.832,-28.320,0.000
1727422930.818,-47.363,-37.109,-26.367,-31.250,0.000
1727422930.822,-74.219,-49.316,-26.855,-40.527,0.000
1727422930.826,-50.781,-58.594,-27.832,-27.344,0.000
1727422930.829,-28.320,-55.176,-38.086,-26.855,0.000
1727422930.833,-21.973,-51.270,-41.504,-33.691,0.000
1727422930.837,-47.363,-46.387,-36.621,-46.875,0.000
1727422930.841,-83.984,-43.945,-45.898,-67.871,0.000
1727422930.845,-60.547,-50.781,-45.898,-49.316,0.000
1727422930.849,-12.695,-55.176,-37.598,-32.715,0.000
1727422930.853,-21.973,-59.082,-44.922,-43.945,0.000
1727422930.857,-49.805,-58.594,-43.945,-39.062,0.000
1727422930.861,-62.988,-42.969,-28.320,-28.320,0.000
1727422930.864,-57.617,-40.039,-26.855,-31.738,0.000
1727422930.868,-22.461,-34.668,-38.086,-20.996,0.000
1727422930.872,-10.742,-40.527,-36.621,-22.949,0.000
1727422930.876,-43.945,-70.801,-45.410,-37.598,0.000
1727422930.880,-73.730,-63.477,-48.828,-44.434,0.000
1727422930.884,-64.941,-42.480,-35.156,-42.969,0.000
1727422930.888,-29.297,-41.504,-29.785,-34.180,0.000
1727422930.892,-15.625,-43.945,-40.527,-44.434,0.000
1727422930.896,-34.180,-38.574,-48.340,-41.504,0.000
1727422930.899,-67.383,-39.062,-46.875,-34.180,0.000
1727422930.903,-65.918,-42.480,-41.504,-38.574,0.000
1727422930.907,-23.438,-34.180,-39.062,-35.645,0.000
1727422930.911,12.695,-34.668,-37.598,-25.391,0.000
1727422930.915,-4.883,-36.621,-35.645,-12.207,0.000
1727422930.919,-57.129,-45.898,-41.504,-36.133,0.000
1727422930.923,-60.059,-51.270,-39.062,-50.293,0.000
1727422930.927,-24.902,-37.109,-28.320,-37.109,0.000
1727422930.931,-3.906,-31.738,-28.320,-23.926,0.000
1727422930.934,-4.395,-39.551,-33.203,-20.996,0.000
1727422930.938,-31.250,-42.480,-34.180,-23.926,0.000
1727422930.942,-53.711,-50.781,-30.762,-27.344,0.000
1727422930.946,-17.090,-44.922,-31.738,-28.809,0.000
1727422930.950,22.949,-29.785,-33.203,-14.648,0.000
1727422930.954,-6.836,-36.133,-41.016,-25.391,0.000
1727422930.958,-54.199,-40.527,-39.062,-42.969,0.000
1727422930.962,-70.312,-40.527,-25.879,-39.551,0.000
1727422930.966,-48.828,-41.992,-30.273,-30.762,0.000
1727422930.970,-19.531,-41.504,-38.574,-30.762,0.000
1727422930.973,-26.367,-52.246,-37.598,-41.016,0.000
1727422930.977,-65.918,-67.871,-39.062,-41.992,0.000
1727422930.981,-89.355,-65.918,-36.621,-47.363,0.000
1727422930.985,-62.988,-58.105,-35.156,-50.293,0.000
1727422930.989,-17.090,-55.664,-36.133,-30.273,0.000
1727422930.993,-10.742,-50.781,-41.992,-30.762,0.000
1727422930.997,-49.805,-47.363,-45.898,-36.621,0.000
1727422931.001,-84.473,-48.828,-44.922,-51.270,0.000
1727422931.005,-70.312,-45.410,-32.715,-59.082,0.000
1727422931.009,-31.738,-45.898,-17.578,-45.898,0.000
1727422931.013,-22.461,-44.922,-20.996,-38.086,0.000
1727422931.017,-42.969,-48.340,-26.367,-36.133,0.000
1727422931.021,-73.242,-51.758,-25.879,-46.387,0.000
1727422931.024,-63.477,-32.715,-15.137,-48.340,0.000
1727422931.028,-17.090,-31.738,-17.578,-36.621,0.000
1727422931.032,-11.719,-42.969,-34.180,-32.715,0.000
1727422931.036,-42.969,-44.922,-39.062,-38.086,0.000
1727422931.040,-67.383,-46.875,-34.668,-57.617,0.000
1727422931.044,-62.012,-53.711,-33.203,-62.012,0.000
1727422931.048,-33.203,-48.340,-28.320,-39.062,0.000
1727422931.052,-9.277,-27.344,-17.578,-23.926,0.000
1727422931.056,-28.320,-30.762,-20.508,-21.484,0.000
1727422931.060,-60.547,-38.574,-25.391,-20.996,0.000
1727422931.064,-64.453,-29.785,-20.996,-23.926,0.000
1727422931.068,-37.109,-38.574,-24.902,-31.738,0.000
1727422931.071,-3.418,-52.734,-26.855,-29.785,0.000
1727422931.075,0.000,-49.805,-15.625,-11.719,0.000
1727422931.079,0.000,-43.945,-19.531,-28.320,0.000
1727422931.083,0.000,-39.551,-29.297,-47.363,0.000
1727422931.087,0.000,-31.250,-37.598,-37.598,0.000
1727422931.091,0.000,-28.809,-47.852,-35.645,0.000
1727422931.095,0.000,-40.527,-48.340,-34.668,0.000
1727422931.099,0.000,-47.852,-43.457,-26.855,0.000
1727422931.103,0.000,-44.922,-46.875,-38.574,0.000
1727422931.107,0.000,-44.434,-51.270,-47.852,0.000
1727422931.111,0.000,-42.480,-53.711,-46.875,0.000
1727422931.114,0.000,-49.316,-55.664,-38.574,0.000
1727422931.118,0.000,-52.246,-58.105,-41.016,0.000
1727422931.122,-84.473,-43.457,-67.871,-60.059,0.000
1727422931.126,-66.406,-31.250,-70.801,-58.105,0.000
1727422931.130,-30.273,-29.297,-66.406,-48.340,0.000
1727422931.134,-26.855,-41.016,-62.500,-41.504,0.000
1727422931.138,-47.363,-48.340,-57.617,-40.527,0.000
1727422931.142,-67.383,-45.898,-53.711,-42.480,0.000
1727422931.146,-58.594,-32.227,-51.270,-36.133,0.000
1727422931.150,-20.508,-25.879,-51.758,-35.156,0.000
1727422931.154,-5.859,-30.273,-57.617,-31.250,0.000
1727422931.157,-38.086,-29.297,-61.035,-41.504,0.000
1727422931.161,-67.383,-38.574,-56.641,-43.457,0.000
1727422931.165,-55.664,-36.133,-52.734,-35.156,0.000
1727422931.169,-18.066,-23.926,-53.223,-30.762,0.000
1727422931.173,2.441,-21.973,-54.688,-18.066,0.000
1727422931.177,-14.160,-19.531,-55.664,-14.160,0.000
1727422931.181,-44.922,-15.625,-61.035,-22.949,0.000
1727422931.185,-42.969,-16.602,-64.453,-43.457,0.000
1727422931.189,-11.230,-22.461,-63.965,-43.457,0.000
1727422931.193,5.859,-19.531,-61.523,-32.227,0.000
1727422931.196,-10.742,-21.973,-61.035,-15.137,0.000
1727422931.200,-53.223,-27.832,-57.617,-15.137,0.000
1727422931.204,-53.711,-24.902,-54.199,-38.086,0.000
1727422931.208,-5.859,-28.809,-52.246,-29.297,0.000
1727422931.212,21.973,-37.109,-55.176,-19.043,0.000
1727422931.216,0.000,-41.504,-59.570,-20.508,0.000
1727422931.220,-41.992,-40.527,-55.176,-20.020,0.000
1727422931.224,-55.176,-39.551,-47.363,-22.949,0.000
1727422931.228,-23.438,-40.527,-46.875,-16.113,0.000
1727422931.232,8.301,-40.527,-49.316,-21.973,0.000
1727422931.235,-8.301,-44.434,-52.246,-34.668,0.000
1727422931.239,-51.758,-44.434,-51.270,-32.227,0.000
1727422931.243,-62.012,-45.898,-42.480,-13.672,0.000
1727422931.247,-30.273,-48.828,-43.457,-19.043,0.000
1727422931.251,-3.418,-43.457,-49.805,-39.062,0.000
1727422931.255,-6.348,-41.016,-50.781,-28.809,0.000
1727422931.259,-47.852,-44.922,-52.246,-29.297,0.000
1727422931.263,-79.102,-51.758,-50.781,-50.293,0.000
1727422931.267,-51.758,-59.570,-48.828,-41.016,0.000
1727422931.270,-14.648,-46.875,-42.969,-20.020,0.000
1727422931.274,-27.344,-45.410,-41.992,-33.691,0.000
1727422931.278,-59.082,-51.758,-55.664,-45.410,0.000
1727422931.282,-71.289,-45.410,-56.152,-54.688,0.000
1727422931.286,-48.340,-53.223,-43.945,-40.039,0.000
1727422931.290,-10.742,-58.105,-42.480,-34.668,0.000
1727422931.294,-5.371,-52.246,-48.340,-37.598,0.000
1727422931.298,-41.992,-50.781,-56.152,-38.086,0.000
1727422931.302,-72.266,-49.805,-56.152,-49.316,0.000
1727422931.306,-55.664,-48.340,-53.711,-40.039,0.000
1727422931.309,-21.484,-41.504,-46.875,-32.715,0.000
1727422931.313,-6.348,-43.457,-37.109,-25.879,0.000
1727422931.317,-29.297,-37.109,-42.969,-34.180,0.000
1727422931.321,-70.801,-31.738,-45.898,-37.598,0.000
1727422931.325,-55.176,-38.086,-25.879,-20.508,0.000
1727422931.329,-11.230,-39.551,-20.508,-19.043,0.000
1727422931.333,-1.953,-37.109,-21.484,-7.324,0.000
1727422931.337,-20.020,-32.715,-20.996,-15.137,0.000
1727422931.340,-38.574,-32.227,-17.578,-29.785,0.000
1727422931.344,-30.273,-27.344,-15.137,-20.508,0.000
1727422931.348,-7.324,-31.250,-26.367,-22.949,0.000
1727422931.352,7.812,-34.180,-22.949,-15.137,0.000
1727422931.356,-9.766,-27.832,-20.020,-9.277,0.000
1727422931.360,-48.340,-30.762,-20.020,-22.461,0.000
1727422931.364,-41.992,-25.879,-24.902,-20.508,0.000
1727422931.368,-6.836,-20.020,-33.203,-14.648,0.000
1727422931.371,0.488,-34.668,-31.250,-23.926,0.000
1727422931.375,-23.438,-44.434,-30.273,-21.973,0.000
1727422931.379,-62.988,-45.898,-31.738,-22.461,0.000
1727422931.383,-77.148,-43.945,-29.297,-35.156,0.000
1727422931.387,-38.086,-36.133,-28.320,-36.133,0.000
1727422931.391,-6.348,-32.227,-35.156,-30.762,0.000
1727422931.395,-15.625,-26.855,-39.551,-29.785,0.000
1727422931.399,-59.082,-34.668,-40.039,-33.203,0.000
1727422931.403,-79.590,-35.645,-37.109,-45.410,0.000
1727422931.407,-48.340,-32.227,-36.621,-55.176,0.000
1727422931.411,-19.043,-38.086,-41.016,-50.781,0.000
1727422931.415,-10.742,-42.480,-45.898,-44.922,0.000
1727422931.419,-41.504,-47.363,-45.410,-46.387,0.000
1727422931.422,-61.523,-36.133,-43.457,-54.199,0.000
1727422931.426,-32.715,-23.438,-39.551,-47.363,0.000
1727422931.430,3.906,-21.484,-26.367,-27.344,0.000
1727422931.434,4.395,-33.203,-23.926,-2.930,0.000
1727422931.438,-35.156,-54.199,-34.668,-9.766,0.000
1727422931.442,-71.777,-55.176,-38.086,-48.340,0.000
1727422931.446,-50.781,-41.992,-41.016,-48.340,0.000
1727422931.450,-9.766,-34.180,-43.945,-34.668,0.000
1727422931.454,-10.254,-36.621,-48.828,-44.434,0.000
1727422931.458,-34.180,-42.969,-52.246,-54.199,0.000
1727422931.462,-55.664,-47.852,-43.945,-51.758,0.000
1727422931.465,-45.410,-41.504,-32.227,-37.109,0.000
1727422931.469,-12.207,-35.156,-30.762,-23.926,0.000
1727422931.473,-1.465,-33.203,-31.250,-17.578,0.000
1727422931.477,-20.996,-30.762,-27.344,-16.113,0.000
1727422931.481,-57.129,-34.180,-36.621,-26.367,0.000
1727422931.485,-55.664,-46.875,-38.086,-20.508,0.000
1727422931.489,0.000,-49.805,-31.250,-19.531,0.000
1727422931.493,6.348,-37.598,-33.203,-18.555,0.000
1727422931.497,-26.855,-36.133,-30.273,-14.160,0.000
1727422931.501,-44.434,-30.273,-31.738,-28.320,0.000
1727422931.505,-48.340,-31.738,-39.062,-42.969,0.000
1727422931.508,-22.461,-38.086,-41.016,-29.297,0.000
1727422931.512,3.906,-32.227,-35.156,-15.625,0.000
1727422931.516,-13.184,-26.855,-26.855,-26.367,0.000
1727422931.520,-64.941,-31.250,-28.809,-38.086,0.000
1727422931.524,-63.965,-36.621,-28.809,-38.086,0.000
1727422931.528,-20.020,-34.668,-29.785,-32.715,0.000
1727422931.532,0.488,-47.852,-31.738,-22.949,0.000
1727422931.536,-6.836,-56.641,-31.738,-15.625,0.000
1727422931.540,-48.340,-52.734,-33.691,-19.043,0.000
1727422931.544,-75.195,-48.828,-36.621,-56.641,0.000
1727422931.547,-41.992,-33.203,-32.227,-55.176,0.000
1727422931.551,-12.207,-33.691,-36.621,-35.156,0.000
1727422931.555,-20.020,-38.086,-38.086,-43.457,0.000
1727422931.559,-36.621,-41.992,-32.227,-41.504,0.000
1727422931.563,-67.383,-50.293,-35.645,-41.992,0.000
1727422931.567,-56.152,-44.922,-41.992,-37.598,0.000
1727422931.571,-13.184,-36.133,-38.086,-29.297,0.000
1727422931.575,-21.973,-34.180,-30.273,-33.203,0.000
1727422931.579,-57.129,-29.297,-28.320,-46.387,0.000
1727422931.583,-73.242,-20.996,-28.809,-50.293,0.000
1727422931.587,-33.691,-21.484,-28.320,-35.645,0.000
1727422931.590,17.090,-28.320,-24.414,-7.812,0.000
1727422931.594,0.000,-31.738,-27.832,-8.789,0.000
1727422931.598,-43.945,-30.273,-37.598,-21.973,0.000
1727422931.602,-66.895,-31.250,-41.016,-37.598,0.000
1727422931.606,-47.852,-25.391,-39.062,-44.434,0.000
1727422931.610,-10.742,-18.555,-32.227,-34.668,0.000
1727422931.614,-6.348,-18.066,-31.250,-20.508,0.000
1727422931.618,-20.020,-16.113,-31.250,-12.207,0.000
1727422931.622,-50.781,-22.949,-30.273,-39.551,0.000
1727422931.625,-58.594,-34.180,-33.203,-52.734,0.000
1727422931.629,-15.625,-37.109,-33.203,-34.180,0.000
1727422931.633,2.441,-37.109,-28.320,-19.531,0.000
1727422931.637,-27.344,-36.621,-29.297,-20.020,0.000
1727422931.641,-49.316,-34.180,-34.668,-28.809,0.000
1727422931.645,-36.133,-37.109,-33.691,-23.926,0.000
1727422931.649,-11.230,-43.457,-31.738,-27.344,0.000
1727422931.653,-8.301,-43.457,-29.297,-39.062,0.000
1727422931.657,-33.203,-39.551,-27.832,-39.551,0.000
1727422931.660,-57.129,-34.668,-18.066,-24.414,0.000
1727422931.664,-50.781,-33.203,-14.648,-22.949,0.000
1727422931.668,-22.461,-48.340,-28.809,-36.133,0.000
1727422931.672,-7.324,-48.340,-37.598,-35.645,0.000
1727422931.676,-23.438,-37.109,-40.039,-36.133,0.000
1727422931.680,-59.082,-35.645,-39.062,-48.828,0.000
1727422931.684,-59.082,-33.691,-29.785,-51.758,0.000
1727422931.688,-20.020,-26.367,-24.902,-34.668,0.000
1727422931.691,8.789,-28.809,-30.762,-26.367,0.000
1727422931.695,0.000,-35.645,-32.715,-24.902,0.000
1727422931.699,-46.875,-36.133,-38.574,-34.180,0.000
1727422931.703,-56.152,-37.598,-40.039,-42.969,0.000
1727422931.707,-20.020,-34.668,-35.156,-25.391,0.000
1727422931.711,-0.977,-28.320,-43.457,-17.090,0.000
1727422931.715,-13.672,-35.645,-41.504,-19.531,0.000
1727422931.719,-42.480,-46.875,-36.133,-32.227,0.000
1727422931.723,-62.012,-44.922,-39.062,-49.805,0.000
1727422931.727,-42.969,-38.574,-38.574,-36.621,0.000
1727422931.730,-16.602,-41.992,-39.551,-19.531,0.000
1727422931.734,-25.391,-43.945,-41.016,-18.555,0.000
1727422931.738,-48.828,-40.527,-35.645,-30.762,0.000
1727422931.742,-57.617,-37.598,-30.273,-39.062,0.000
1727422931.746,-39.551,-28.320,-30.273,-17.578,0.000
1727422931.750,-3.418,-34.180,-33.691,-0.977,0.000
1727422931.754,6.348,-35.156,-35.156,-26.367,0.000
1727422931.758,-26.367,-28.320,-36.621,-38.086,0.000
1727422931.762,-53.711,-26.367,-34.668,-39.062,0.000
1727422931.765,-38.086,-25.879,-25.391,-44.922,0.000
1727422931.769,-7.324,-32.715,-18.066,-24.414,0.000
1727422931.773,-0.488,-41.016,-18.066,-20.508,0.000
1727422931.777,-32.227,-37.109,-24.414,-36.621,0.000
1727422931.781,-69.336,-35.156,-28.320,-41.504,0.000
1727422931.785,-59.082,-37.109,-26.367,-39.062,0.000
1727422931.789,-15.137,-24.414,-20.996,-22.461,0.000
1727422931.793,-1.953,-27.344,-24.902,-19.043,0.000
1727422931.797,-37.598,-33.691,-31.738,-26.855,0.000
1727422931.801,-69.336,-34.668,-31.738,-41.504,0.000
1727422931.805,-60.059,-35.156,-31.250,-45.410,0.000
1727422931.809,-29.297,-22.461,-36.133,-23.926,0.000
1727422931.812,-3.906,-31.738,-38.574,-26.855,0.000
1727422931.816,-13.672,-45.410,-32.715,-37.598,0.000
1727422931.820,-51.758,-38.086,-28.809,-34.180,0.000
1727422931.824,-59.082,-28.809,-25.391,-41.992,0.000
1727422931.828,-18.555,-17.090,-22.461,-40.527,0.000
1727422931.832,4.395,-19.043,-27.344,-19.531,0.000
1727422931.836,-23.926,-27.344,-32.227,-28.320,0.000
1727422931.840,-54.688,-19.043,-26.367,-47.363,0.000
1727422931.844,-44.922,-23.926,-23.926,-42.969,0.000
1727422931.848,-16.113,-35.156,-38.574,-36.621,0.000
1727422931.852,-9.766,-37.598,-42.969,-31.738,0.000
1727422931.856,-27.344,-30.273,-39.551,-27.832,0.000
1727422931.859,-60.059,-20.996,-39.551,-43.457,0.000
1727422931.863,-62.500,-20.020,-36.621,-46.875,0.000
1727422931.867,-30.762,-20.996,-34.180,-32.715,0.000
1727422931.871,-1.953,-19.043,-23.926,-23.438,0.000
1727422931.875,-3.418,-31.250,-24.414,-12.695,0.000
1727422931.879,-42.969,-35.156,-35.156,-29.297,0.000
1727422931.883,-57.617,-24.414,-33.691,-26.367,0.000
1727422931.887,-18.555,-25.879,-29.785,-8.789,0.000
1727422931.891,21.973,-29.785,-27.832,-17.578,0.000
1727422931.895,12.695,-37.598,-34.180,-23.438,0.000
1727422931.899,-41.504,-47.852,-43.457,-33.203,0.000
1727422931.902,-73.242,-45.898,-45.898,-41.504,0.000
1727422931.906,-49.316,-32.227,-43.457,-39.062,0.000
1727422931.910,-19.531,-32.715,-51.758,-39.062,0.000
1727422931.914,-16.602,-41.504,-57.617,-32.715,0.000
1727422931.918,-39.551,-32.715,-49.805,-22.949,0.000
1727422931.922,-64.941,-25.879,-54.688,-44.434,0.000
1727422931.926,-48.828,-36.621,-54.688,-48.340,0.000
1727422931.930,-7.324,-36.133,-47.363,-18.066,0.000
1727422931.934,2.441,-38.574,-54.199,-26.367,0.000
1727422931.938,-29.785,-47.852,-64.941,-46.387,0.000
1727422931.941,-68.359,-39.062,-65.430,-49.805,0.000
1727422931.945,-62.012,-38.574,-56.152,-54.688,0.000
1727422931.949,-20.508,-37.598,-51.758,-46.387,0.000
1727422931.953,-2.930,-25.879,-48.340,-37.109,0.000
1727422931.957,-32.227,-23.438,-50.293,-43.457,0.000
1727422931.961,-67.383,-21.484,-54.199,-57.129,0.000
1727422931.965,-63.477,-17.578,-45.410,-42.969,0.000
1727422931.969,-22.949,-27.832,-51.270,-35.156,0.000
1727422931.973,-3.418,-41.504,-57.129,-38.086,0.000
1727422931.977,-19.531,-48.828,-57.129,-31.250,0.000
1727422931.980,-38.574,-44.922,-64.941,-35.156,0.000
1727422931.984,-54.688,-37.598,-60.059,-34.668,0.000
1727422931.988,-37.109,-36.621,-52.734,-39.551,0.000
1727422931.992,-9.766,-35.645,-52.734,-51.758,0.000
1727422931.996,-28.320,-30.273,-51.270,-58.105,0.000
1727422932.000,-60.547,-21.973,-47.363,-63.477,0.000
1727422932.004,-63.965,-14.160,-37.109,-50.293,0.000
1727422932.008,-22.461,-10.254,-31.250,-24.414,0.000
1727422932.012,0.000,-18.555,-37.598,-18.066,0.000
1727422932.015,-10.254,-26.855,-40.039,-28.320,0.000
1727422932.019,-30.273,-29.297,-34.180,-41.992,0.000
1727422932.023,-60.547,-36.621,-30.273,-49.805,0.000
1727422932.027,-43.457,-39.062,-38.086,-24.414,0.000
1727422932.031,12.695,-26.367,-36.621,-13.184,0.000
1727422932.035,23.438,-29.297,-32.227,-15.137,0.000
1727422932.039,-33.691,-34.668,-40.039,-13.672,0.000
1727422932.043,-58.594,-16.602,-32.715,-29.785,0.000
1727422932.047,-28.809,-27.832,-26.367,-24.414,0.000
1727422932.051,1.953,-46.875,-35.645,-19.043,0.000
1727422932.055,-4.395,-38.574,-40.527,-23.438,0.000
1727422932.058,-47.363,-37.109,-41.992,-25.879,0.000
1727422932.062,-70.801,-36.621,-35.645,-36.621,0.000
1727422932.066,-47.363,-39.062,-26.855,-39.551,0.000
1727422932.070,-13.672,-41.504,-28.320,-27.344,0.000
1727422932.074,-8.301,-40.527,-31.738,-15.137,0.000
1727422932.078,-32.227,-37.598,-31.250,-29.785,0.000
1727422932.082,-62.500,-31.250,-27.832,-44.922,0.000
1727422932.086,-43.457,-20.508,-19.531,-42.969,0.000
1727422932.089,-15.137,-23.438,-17.090,-40.527,0.000
1727422932.093,-15.137,-26.367,-19.531,-27.344,0.000
1727422932.097,-28.809,-22.461,-21.973,-27.344,0.000
1727422932.101,-51.758,-26.855,-18.066,-36.621,0.000
1727422932.105,-51.270,-27.832,-19.043,-39.062,0.000
1727422932.109,-18.066,-34.180,-21.973,-18.555,0.000
1727422932.113,5.859,-35.645,-21.973,-0.488,0.000
1727422932.117,-26.367,-40.039,-30.762,-19.043,0.000
1727422932.121,-71.289,-55.176,-29.297,-48.340,0.000
1727422932.125,-66.895,-57.617,-25.879,-54.688,0.000
1727422932.129,-28.809,-42.969,-26.367,-43.457,0.000
1727422932.133,0.000,-35.156,-25.879,-27.344,0.000
1727422932.137,-23.926,-33.203,-23.438,-9.277,0.000
1727422932.141,-62.012,-33.691,-23.926,-17.578,0.000
1727422932.144,-64.453,-31.250,-21.973,-32.227,0.000
1727422932.148,-17.090,-11.230,-18.555,-19.531,0.000
1727422932.152,10.254,-7.324,-26.367,-20.508,0.000
1727422932.156,-19.531,-29.297,-40.039,-41.992,0.000
1727422932.160,-59.570,-51.758,-50.293,-46.387,0.000
1727422932.164,-71.289,-54.199,-51.270,-33.203,0.000
1727422932.168,-26.855,-36.621,-48.340,-23.926,0.000
1727422932.172,6.348,-30.762,-47.852,-17.578,0.000
1727422932.176,-18.555,-41.016,-58.105,-25.391,0.000
1727422932.180,-51.758,-40.527,-55.176,-34.668,0.000
1727422932.184,-61.035,-40.527,-47.363,-22.949,0.000
1727422932.188,-34.668,-50.781,-42.480,-10.254,0.000
1727422932.191,-4.395,-62.012,-35.645,-15.625,0.000
1727422932.195,-14.648,-69.336,-42.969,-36.133,0.000
1727422932.199,-54.199,-57.129,-49.316,-50.781,0.000
1727422932.203,-77.637,-37.109,-45.898,-62.012,0.000
1727422932.207,-54.199,-28.809,-40.039,-49.316,0.000
1727422932.211,-10.742,-34.668,-43.945,-26.855,0.000
1727422932.215,-9.277,-42.480,-52.734,-21.484,0.000
1727422932.219,-44.922,-41.504,-56.641,-37.598,0.000
1727422932.223,-69.824,-33.203,-54.688,-61.523,0.000
1727422932.227,-57.129,-27.344,-50.293,-52.734,0.000
1727422932.231,-16.113,-24.902,-45.410,-22.949,0.000
1727422932.235,-8.301,-27.344,-46.875,-28.320,0.000
1727422932.238,-36.133,-28.809,-50.781,-46.387,0.000
1727422932.242,-66.406,-32.715,-49.805,-49.316,0.000
1727422932.246,-58.594,-38.574,-47.363,-44.434,0.000
1727422932.250,-27.832,-36.133,-47.852,-39.062,0.000
1727422932.254,-22.461,-47.363,-54.199,-37.109,0.000
1727422932.258,-41.504,-52.246,-52.734,-27.832,0.000
1727422932.262,-62.988,-39.551,-46.875,-15.137,0.000
1727422932.266,-62.012,-44.434,-49.316,-22.461,0.000
1727422932.270,-21.484,-49.316,-50.293,-34.180,0.000
1727422932.274,4.395,-33.691,-51.270,-27.344,0.000
1727422932.278,-18.555,-26.855,-49.805,-27.344,0.000
1727422932.281,-54.688,-26.367,-41.016,-35.156,0.000
1727422932.285,-47.363,-20.996,-29.297,-27.344,0.000
1727422932.289,-7.812,-26.855,-26.367,-11.719,0.000
1727422932.293,-3.418,-34.180,-36.133,-7.812,0.000
1727422932.297,-30.762,-37.109,-37.109,-17.090,0.000
1727422932.301,-53.711,-33.203,-33.203,-41.016,0.000
1727422932.305,-61.035,-33.203,-40.039,-51.758,0.000
1727422932.309,-20.020,-36.621,-41.016,-39.551,0.000
1727422932.313,-0.488,-42.969,-37.598,-27.832,0.000
1727422932.317,-31.738,-50.293,-40.527,-28.809,0.000
1727422932.321,-62.988,-45.410,-43.945,-29.297,0.000
1727422932.324,-78.125,-41.992,-46.875,-39.062,0.000
1727422932.328,-46.875,-40.039,-46.875,-46.875,0.000
1727422932.332,-11.230,-37.109,-41.504,-35.156,0.000
1727422932.336,-19.531,-39.062,-39.551,-28.809,0.000
1727422932.340,-56.152,-42.969,-46.875,-37.598,0.000
1727422932.344,-71.777,-28.320,-45.898,-43.945,0.000
1727422932.348,-42.969,-26.855,-39.551,-35.645,0.000
1727422932.352,-4.883,-42.480,-39.062,-33.691,0.000
1727422932.356,-7.812,-38.574,-42.480,-37.598,0.000
1727422932.359,-41.016,-35.156,-38.574,-36.621,0.000
1727422932.363,-61.523,-42.969,-39.062,-36.133,0.000
1727422932.367,-42.480,-43.945,-43.457,-31.250,0.000
1727422932.371,-11.719,-36.621,-43.945,-22.461,0.000
1727422932.375,-5.371,-43.945,-41.992,-14.648,0.000
1727422932.379,-36.133,-45.898,-36.621,-21.484,0.000
1727422932.383,-66.895,-37.109,-36.133,-28.320,0.000
1727422932.387,-57.129,-40.527,-40.039,-35.156,0.000
1727422932.391,-20.508,-47.852,-44.434,-41.504,0.000
1727422932.395,-8.301,-47.852,-41.504,-34.668,0.000
1727422932.398,-37.109,-44.922,-43.945,-21.973,0.000
1727422932.402,-61.523,-47.363,-40.527,-21.973,0.000
1727422932.406,-48.828,-50.293,-36.621,-30.273,0.000
1727422932.410,-11.719,-42.480,-37.598,-25.391,0.000
1727422932.414,1.465,-21.973,-34.180,-20.508,0.000
1727422932.418,-20.996,-27.344,-35.645,-32.715,0.000
1727422932.422,-47.363,-35.156,-31.250,-40.039,0.000
1727422932.426,-43.945,-30.273,-27.344,-45.898,0.000
1727422932.430,-10.254,-28.320,-21.484,-29.785,0.000
1727422932.433,5.371,-33.691,-21.484,-7.812,0.000
1727422932.437,-15.625,-41.992,-30.273,-16.602,0.000
1727422932.441,-53.711,-46.387,-41.016,-42.480,0.000
1727422932.445,-66.406,-45.898,-41.992,-45.410,0.000
1727422932.449,-41.016,-36.621,-39.062,-35.156,0.000
1727422932.453,-4.883,-33.203,-37.109,-29.785,0.000
1727422932.457,-15.137,-35.645,-36.133,-28.320,0.000
1727422932.461,-55.664,-43.457,-46.387,-42.480,0.000
1727422932.465,-60.547,-46.387,-45.410,-52.734,0.000
1727422932.469,-25.391,-40.527,-33.691,-41.992,0.000
1727422932.472,7.812,-34.180,-29.785,-29.785,0.000
1727422932.476,-7.812,-35.156,-37.598,-31.738,0.000
1727422932.480,-54.688,-38.086,-49.805,-41.016,0.000
1727422932.484,-63.477,-42.969,-58.105,-54.199,0.000
1727422932.488,-19.043,-33.203,-44.434,-43.457,0.000
1727422932.492,18.555,-19.043,-28.320,-21.484,0.000
1727422932.496,0.488,-25.391,-39.551,-38.086,0.000
1727422932.499,-40.527,-33.203,-44.434,-52.246,0.000
1727422932.503,-57.129,-34.180,-34.668,-49.805,0.000
1727422932.507,-42.480,-45.898,-29.297,-45.410,0.000
1727422932.511,-0.977,-43.457,-29.785,-42.969,0.000
1727422932.515,5.859,-34.180,-34.668,-28.809,0.000
1727422932.519,-34.180,-39.062,-38.574,-35.645,0.000
1727422932.523,-75.195,-40.527,-39.551,-61.035,0.000
1727422932.527,-64.453,-27.832,-42.480,-52.246,0.000
1727422932.531,-21.484,-20.996,-44.922,-41.504,0.000
1727422932.535,-14.648,-26.855,-41.016,-39.551,0.000
1727422932.539,-39.551,-26.855,-41.504,-33.691,0.000
1727422932.543,-71.777,-32.715,-43.457,-38.574,0.000
1727422932.547,-62.012,-35.156,-43.457,-47.363,0.000
1727422932.550,-20.020,-30.762,-40.527,-36.621,0.000
1727422932.554,-9.766,-31.250,-34.668,-25.879,0.000
1727422932.558,-30.762,-33.691,-37.598,-30.273,0.000
1727422932.562,-54.199,-46.387,-42.969,-40.527,0.000
1727422932.566,-56.152,-45.410,-43.945,-43.457,0.000
1727422932.570,-18.555,-21.484,-35.645,-23.926,0.000
1727422932.574,2.441,-17.578,-31.738,-10.742,0.000
1727422932.578,-28.320,-39.551,-36.621,-35.156,0.000
1727422932.582,-69.824,-49.805,-34.668,-55.176,0.000
1727422932.586,-65.430,-45.410,-31.738,-52.734,0.000
1727422932.590,-22.461,-41.504,-36.621,-47.852,0.000
1727422932.594,-2.930,-35.645,-38.086,-41.992,0.000
1727422932.597,-26.367,-35.156,-34.668,-27.344,0.000
1727422932.601,-60.547,-41.016,-31.738,-43.457,0.000
1727422932.605,-50.781,-44.434,-25.879,-40.527,0.000
1727422932.609,-29.785,-44.434,-26.367,-10.742,0.000
1727422932.613,-4.395,-42.969,-25.879,-18.555,0.000
1727422932.617,-7.324,-45.410,-27.832,-30.273,0.000
1727422932.621,-63.477,-42.969,-32.227,-35.156,0.000
1727422932.625,-73.242,-37.598,-32.227,-40.039,0.000
1727422932.629,-25.879,-36.621,-30.762,-27.832,0.000
1727422932.633,4.883,-31.738,-34.180,-20.996,0.000
1727422932.637,-11.230,-30.762,-43.945,-32.715,0.000
1727422932.640,-53.223,-34.668,-46.875,-33.203,0.000
1727422932.644,-64.941,-35.645,-47.852,-46.875,0.000
1727422932.648,-30.762,-37.109,-40.039,-42.969,0.000
1727422932.652,1.465,-32.715,-34.180,-34.180,0.000
1727422932.656,-18.066,-41.992,-37.598,-49.805,0.000
1727422932.660,-67.383,-66.406,-46.875,-59.082,0.000
1727422932.664,-80.078,-53.711,-44.922,-61.035,0.000
1727422932.668,-52.246,-34.668,-39.551,-39.551,0.000
1727422932.672,-16.113,-33.203,-45.410,-30.273,0.000
1727422932.676,-7.324,-35.645,-51.758,-21.484,0.000
1727422932.680,-34.180,-41.992,-54.199,-23.438,0.000
1727422932.683,-60.059,-39.551,-50.781,-45.898,0.000
1727422932.687,-43.945,-35.645,-51.270,-42.969,0.000
1727422932.691,3.418,-36.133,-60.059,-38.574,0.000
1727422932.695,8.789,-37.109,-56.641,-39.551,0.000
1727422932.699,-28.320,-35.645,-50.781,-34.668,0.000
1727422932.703,-57.129,-33.203,-50.781,-35.645,0.000
1727422932.707,-35.645,-34.180,-42.480,-22.949,0.000
1727422932.711,5.371,-38.574,-42.480,-7.324,0.000
1727422932.715,5.371,-42.480,-46.875,-4.395,0.000
1727422932.718,-14.648,-43.945,-50.781,-14.648,0.000
1727422932.722,-39.062,-39.551,-51.758,-30.273,0.000
1727422932.726,-33.203,-34.180,-41.992,-27.344,0.000
1727422932.730,3.418,-37.598,-42.969,-26.367,0.000
1727422932.734,15.137,-42.480,-45.898,-31.250,0.000
1727422932.738,-24.902,-47.852,-52.246,-31.250,0.000
1727422932.742,-75.684,-47.852,-57.617,-33.691,0.000
1727422932.746,-76.172,-42.969,-55.664,-45.410,0.000
1727422932.750,-26.367,-42.969,-58.105,-52.246,0.000
1727422932.754,-13.672,-46.387,-58.594,-45.410,0.000
1727422932.758,-47.363,-50.293,-61.523,-33.691,0.000
1727422932.761,-77.637,-44.922,-64.453,-35.645,0.000
1727422932.765,-77.637,-42.480,-57.129,-46.875,0.000
1727422932.769,-35.156,-47.363,-44.434,-33.203,0.000
1727422932.773,-13.672,-49.805,-41.992,-27.344,0.000
1727422932.777,-28.320,-50.781,-46.875,-34.180,0.000
1727422932.781,-59.570,-52.246,-55.176,-41.992,0.000
1727422932.785,-73.730,-49.805,-56.152,-51.758,0.000
1727422932.789,-51.270,-43.457,-50.781,-40.039,0.000
1727422932.793,-25.879,-50.293,-49.316,-19.043,0.000
1727422932.796,-23.926,-60.547,-52.246,-18.555,0.000
1727422932.800,-53.223,-48.340,-48.828,-40.039,0.000
1727422932.804,-71.777,-41.016,-43.457,-47.363,0.000
1727422932.808,-44.922,-47.852,-45.410,-38.086,0.000
1727422932.812,5.371,-44.922,-45.898,-18.066,0.000
1727422932.816,10.742,-39.551,-44.434,-4.883,0.000
1727422932.820,-31.738,-36.621,-43.457,-11.230,0.000
1727422932.824,-53.711,-25.879,-42.480,-37.598,0.000
1727422932.827,-21.484,-24.414,-32.715,-25.879,0.000
1727422932.831,11.719,-29.297,-33.203,-13.184,0.000
1727422932.835,11.230,-19.043,-41.016,-16.602,0.000
1727422932.839,-11.719,-12.207,-35.645,-19.043,0.000
1727422932.843,-42.969,-17.090,-30.273,-38.086,0.000
1727422932.847,-35.156,-17.090,-31.250,-26.367,0.000
1727422932.851,4.883,-17.578,-29.297,-0.977,0.000
1727422932.855,22.461,-23.438,-29.297,8.301,0.000
1727422932.859,-4.395,-35.156,-33.691,5.371,0.000
1727422932.862,-47.363,-39.551,-36.621,-19.043,0.000
1727422932.866,-41.504,-26.855,-29.785,-24.902,0.000
1727422932.870,-3.906,-36.621,-26.367,-18.066,0.000
1727422932.874,12.207,-47.852,-35.645,-8.789,0.000
1727422932.878,-7.324,-32.227,-32.715,1.465,0.000
1727422932.882,-50.293,-19.531,-28.809,-6.836,0.000
1727422932.886,-53.711,-20.996,-35.156,-26.855,0.000
1727422932.890,-14.160,-31.738,-38.574,-29.297,0.000
1727422932.894,-7.812,-41.992,-38.574,-20.508,0.000
1727422932.898,-33.691,-36.133,-42.969,-41.992,0.000
1727422932.902,-68.359,-32.715,-44.434,-59.082,0.000
1727422932.906,-70.312,-32.715,-41.016,-54.199,0.000
1727422932.909,-27.832,-27.344,-41.016,-41.992,0.000
1727422932.913,-10.742,-27.344,-45.410,-35.156,0.000
1727422932.917,-41.992,-40.527,-48.340,-38.574,0.000
1727422932.921,-85.938,-47.852,-49.805,-48.340,0.000
1727422932.925,-86.426,-40.527,-50.293,-43.945,0.000
1727422932.929,-48.340,-44.434,-55.176,-32.715,0.000
1727422932.933,-13.672,-50.781,-56.641,-32.227,0.000
1727422932.937,-28.320,-49.316,-49.805,-24.414,0.000
1727422932.941,-63.477,-42.480,-43.457,-37.598,0.000
1727422932.945,-73.730,-37.109,-45.898,-52.246,0.000
1727422932.949,-41.016,-32.715,-42.969,-37.109,0.000
1727422932.953,-1.465,-36.133,-43.457,-22.461,0.000
1727422932.956,-17.090,-41.992,-50.781,-22.949,0.000
1727422932.960,-51.758,-36.621,-51.270,-30.762,0.000
1727422932.964,-58.105,-31.738,-47.852,-50.293,0.000
1727422932.968,-36.621,-27.832,-44.922,-49.805,0.000
1727422932.972,0.488,-31.738,-44.434,-23.438,0.000
1727422932.976,10.254,-31.738,-43.945,-6.836,0.000
1727422932.980,-30.273,-27.832,-48.828,-11.230,0.000
1727422932.984,-40.527,-32.227,-44.922,-31.250,0.000
1727422932.988,-14.648,-28.809,-31.738,-30.273,0.000
1727422932.992,-4.883,-27.832,-38.086,-19.531,0.000
1727422932.996,-1.953,-36.133,-41.504,-20.508,0.000
1727422932.999,-27.832,-39.062,-40.527,-24.902,0.000
1727422933.003,-50.781,-33.691,-39.062,-20.020,0.000
1727422933.007,-14.648,-30.762,-20.996,5.859,0.000
1727422933.011,26.855,-43.945,-22.461,-6.836,0.000
1727422933.015,17.578,-79.102,-45.410,-26.367,0.000
1727422933.019,2.441,-98.633,-39.062,-2.441,0.000
1727422933.023,-5.371,-138.672,-37.109,2.441,0.000
1727422933.027,13.672,-164.551,-24.414,6.836,0.000
1727422933.031,43.945,-95.703,-13.672,18.555,0.000
1727422933.035,34.668,14.160,-33.203,7.812,0.000
1727422933.039,19.043,-57.129,-43.457,4.395,0.000
1727422933.042,55.176,-166.992,-25.879,46.387,0.000
1727422933.046,86.914,-115.723,14.160,81.543,0.000
1727422933.050,90.820,-69.824,-23.926,69.824,0.000
1727422933.054,88.867,-144.043,-62.988,59.082,0.000
1727422933.058,160.645,-130.859,129.395,148.438,0.000
1727422933.062,131.348,83.984,168.945,140.137,0.000
1727422933.066,-76.172,53.223,23.926,-80.566,0.000
1727422933.070,-139.648,-143.555,70.801,-151.367,0.000
1727422933.074,-64.453,-72.754,338.867,-70.801,0.000
1727422933.078,76.660,-20.996,418.945,94.727,0.000
1727422933.082,111.328,67.383,297.852,125.488,0.000
1727422933.085,21.484,85.938,413.574,16.602,0.000
1727422933.089,44.922,-84.473,482.422,43.945,0.000
1727422933.093,-4.395,202.637,500.000,-19.043,0.000
1727422933.097,-130.371,430.664,501.953,-118.652,0.000
1727422933.101,-114.746,479.980,587.402,-61.035,0.000
1727422933.105,-13.184,475.098,720.215,46.387,0.000
1727422933.109,103.516,394.043,749.023,124.023,0.000
1727422933.113,186.523,332.520,794.922,167.969,0.000
1727422933.117,179.199,617.188,845.703,166.016,0.000
1727422933.121,130.859,975.586,778.809,145.020,0.000
1727422933.124,110.840,964.844,765.625,149.414,0.000
1727422933.128,139.160,957.520,775.879,170.410,0.000
1727422933.132,197.266,969.238,729.492,199.219,0.000
1727422933.136,208.008,966.309,697.754,207.520,0.000
1727422933.140,174.316,966.309,707.031,198.730,0.000
1727422933.144,142.578,966.797,725.586,180.664,0.000
1727422933.148,149.414,966.797,687.500,167.969,0.000
1727422933.152,187.500,966.797,669.922,169.434,0.000
1727422933.156,189.941,966.797,653.809,174.805,0.000
1727422933.159,154.785,966.797,613.281,169.922,0.000
1727422933.163,119.629,966.309,765.137,150.879,0.000
1727422933.167,119.629,966.797,903.320,140.137,0.000
1727422933.171,144.043,966.797,820.312,139.648,0.000
1727422933.175,152.344,966.797,767.090,148.926,0.000
1727422933.179,112.793,967.285,775.879,136.230,0.000
1727422933.183,59.082,960.449,888.184,94.727,0.000
1727422933.187,66.895,976.562,959.473,96.680,0.000
1727422933.191,100.586,916.504,896.973,105.957,0.000
1727422933.195,104.004,779.785,847.656,85.938,0.000
1727422933.199,68.359,730.469,803.223,72.266,0.000
1727422933.203,20.508,678.711,722.168,60.059,0.000
1727422933.207,12.207,576.172,636.719,50.781,0.000
1727422933.211,34.180,430.176,556.641,43.457,0.000
1727422933.214,33.691,273.438,286.133,29.297,0.000
1727422933.218,8.301,140.137,-50.293,20.020,0.000
1727422933.222,-36.621,5.371,-218.262,-2.441,0.000
1727422933.226,-52.734,-91.309,-427.734,-9.277,0.000
1727422933.230,-23.926,-165.527,-588.867,7.324,0.000
1727422933.234,-8.789,-235.352,-659.668,5.859,0.000
1727422933.238,-14.160,-314.453,-730.957,-6.348,0.000
1727422933.242,-55.664,-341.309,-774.902,-23.926,0.000
1727422933.245,-77.637,-583.496,-799.805,-45.898,0.000
1727422933.249,-42.969,-966.797,-800.293,-44.922,0.000
1727422933.253,-15.625,-1000.000,-774.902,-32.715,0.000
1727422933.257,-27.344,-989.258,-766.602,-29.785,0.000
1727422933.261,-59.082,-1000.000,-778.809,-55.176,0.000
1727422933.265,-87.402,-999.512,-789.062,-68.848,0.000
1727422933.269,-75.195,-1000.000,-811.035,-56.152,0.000
1727422933.273,-30.273,-992.676,-833.496,-59.082,0.000
1727422933.277,-24.414,-949.219,-858.887,-54.688,0.000
1727422933.281,-68.848,-872.070,-865.723,-42.969,0.000
1727422933.285,-91.309,-777.832,-823.242,-62.012,0.000
1727422933.289,-68.848,-690.430,-770.020,-74.219,0.000
1727422933.292,-43.457,-649.414,-738.770,-60.547,0.000
1727422933.296,-56.152,-638.672,-710.938,-57.129,0.000
1727422933.300,-87.402,-616.211,-665.527,-82.031,0.000
1727422933.304,-107.910,-571.777,-620.605,-107.422,0.000
1727422933.308,-96.191,-528.809,-563.477,-104.980,0.000
1727422933.312,-69.336,-496.582,-531.250,-94.238,0.000
1727422933.316,-71.777,-483.398,-505.859,-100.586,0.000
1727422933.320,-95.703,-465.332,-469.238,-105.957,0.000
1727422933.324,-135.742,-419.434,-475.586,-119.629,0.000
1727422933.328,-134.277,-400.879,-486.816,-129.395,0.000
1727422933.332,-96.680,-410.156,-479.004,-131.348,0.000
1727422933.336,-85.938,-417.969,-477.051,-121.582,0.000
1727422933.339,-115.723,-410.645,-478.516,-113.770,0.000
1727422933.343,-142.090,-375.977,-452.148,-120.605,0.000
1727422933.347,-114.746,-309.570,-430.176,-123.047,0.000
1727422933.351,-102.051,-255.859,-439.941,-143.066,0.000
1727422933.355,-107.910,-235.840,-443.848,-147.949,0.000
1727422933.359,-122.559,-203.613,-435.547,-151.367,0.000
1727422933.363,-161.621,-176.758,-414.551,-154.297,0.000
1727422933.367,-158.691,-167.969,-383.301,-143.555,0.000
1727422933.371,-123.535,-171.387,-357.422,-129.883,0.000
1727422933.375,-104.980,-166.504,-332.520,-113.770,0.000
1727422933.379,-116.211,-157.227,-318.359,-115.234,0.000
1727422933.382,-153.809,-165.039,-312.988,-140.137,0.000
1727422933.386,-162.109,-200.195,-309.082,-157.715,0.000
1727422933.390,-106.445,-229.004,-292.480,-148.438,0.000
1727422933.394,-75.195,-230.957,-271.484,-129.395,0.000
1727422933.398,-98.145,-227.539,-262.207,-123.535,0.000
1727422933.402,-122.559,-219.238,-238.770,-118.164,0.000
1727422933.406,-131.836,-218.262,-211.914,-111.816,0.000
1727422933.410,-94.238,-215.332,-209.961,-104.980,0.000
1727422933.414,-69.824,-213.379,-217.773,-100.586,0.000
1727422933.418,-83.496,-206.055,-216.309,-88.867,0.000
1727422933.421,-109.375,-185.059,-197.754,-87.402,0.000
1727422933.425,-135.254,-200.684,-181.152,-118.652,0.000
1727422933.429,-105.957,-213.867,-171.875,-121.582,0.000
1727422933.433,-62.988,-201.660,-166.504,-89.844,0.000
1727422933.437,-70.801,-195.312,-153.809,-89.844,0.000
1727422933.441,-108.398,-183.105,-136.719,-101.562,0.000
1727422933.445,-119.141,-159.180,-124.023,-92.773,0.000
1727422933.449,-76.660,-132.812,-109.863,-88.379,0.000
1727422933.453,-36.133,-127.441,-96.680,-72.266,0.000
1727422933.457,-33.691,-125.488,-94.727,-49.316,0.000
1727422933.461,-72.754,-117.188,-99.121,-61.035,0.000
1727422933.464,-113.770,-123.047,-99.609,-83.496,0.000
1727422933.468,-91.797,-130.371,-113.281,-87.891,0.000
1727422933.472,-46.387,-127.441,-124.023,-75.195,0.000
1727422933.476,-44.922,-124.023,-118.164,-68.848,0.000
1727422933.480,-70.312,-125.488,-113.281,-69.336,0.000
1727422933.484,-97.656,-135.742,-106.934,-73.242,0.000
1727422933.488,-95.215,-137.207,-101.562,-74.707,0.000
1727422933.492,-55.176,-130.371,-99.609,-69.824,0.000
1727422933.496,-38.574,-136.719,-103.027,-65.918,0.000
1727422933.500,-65.430,-149.902,-99.609,-69.336,0.000
1727422933.503,-91.309,-145.996,-98.633,-81.055,0.000
1727422933.507,-77.148,-130.371,-104.004,-81.055,0.000
1727422933.511,-39.062,-123.047,-98.633,-56.152,0.000
1727422933.515,-23.926,-129.395,-103.516,-58.594,0.000
1727422933.519,-55.664,-147.461,-111.816,-70.801,0.000
1727422933.523,-92.773,-153.809,-108.887,-67.383,0.000
1727422933.527,-91.797,-147.949,-107.910,-65.918,0.000
1727422933.531,-58.594,-160.645,-112.305,-56.641,0.000
1727422933.535,-27.344,-171.875,-111.816,-41.504,0.000
1727422933.538,-51.270,-164.062,-122.070,-42.480,0.000
1727422933.542,-94.727,-155.273,-128.418,-66.406,0.000
1727422933.546,-92.773,-157.227,-113.281,-74.219,0.000
1727422933.550,-61.523,-162.109,-110.352,-59.570,0.000
1727422933.554,-38.086,-168.457,-108.398,-57.617,0.000
1727422933.558,-43.945,-161.133,-96.680,-54.199,0.000
1727422933.562,-71.777,-152.832,-94.238,-55.176,0.000
1727422933.566,-85.449,-156.250,-89.844,-51.758,0.000
1727422933.570,-50.781,-149.902,-82.520,-36.621,0.000
1727422933.573,-10.254,-142.578,-81.543,-36.133,0.000
1727422933.577,-15.137,-136.719,-82.520,-41.992,0.000
1727422933.581,-53.223,-133.301,-90.820,-48.828,0.000
1727422933.585,-69.824,-136.230,-89.844,-52.734,0.000
1727422933.589,-38.086,-133.301,-77.637,-40.527,0.000
1727422933.593,-12.695,-127.930,-74.219,-30.273,0.000
1727422933.597,-9.766,-131.836,-68.848,-42.480,0.000
1727422933.601,-29.297,-125.000,-53.223,-51.758,0.000
1727422933.604,-65.430,-127.930,-53.223,-39.062,0.000
1727422933.608,-57.129,-124.512,-60.547,-26.367,0.000
1727422933.612,-20.508,-112.305,-64.453,-28.809,0.000
1727422933.616,-15.137,-112.305,-66.406,-46.875,0.000
1727422933.620,-47.852,-111.328,-70.312,-58.594,0.000
1727422933.624,-78.613,-121.582,-74.707,-58.594,0.000
1727422933.628,-70.801,-126.953,-85.449,-53.711,0.000
1727422933.632,-29.785,-136.230,-100.586,-42.969,0.000
1727422933.636,-16.113,-148.438,-100.098,-35.645,0.000
1727422933.640,-52.246,-140.137,-94.238,-31.738,0.000
1727422933.643,-80.566,-124.512,-86.914,-44.434,0.000
1727422933.647,-78.125,-115.723,-90.820,-62.988,0.000
1727422933.651,-41.504,-114.258,-94.238,-47.852,0.000
1727422933.655,-21.973,-108.887,-83.008,-48.340,0.000
1727422933.659,-51.758,-98.633,-75.195,-67.383,0.000
1727422933.663,-83.984,-100.586,-70.312,-60.059,0.000
1727422933.667,-77.637,-109.375,-69.336,-62.012,0.000
1727422933.671,-39.551,-103.516,-76.172,-55.664,0.000
1727422933.675,-19.531,-83.008,-88.379,-40.039,0.000
1727422933.679,-47.363,-75.684,-100.586,-42.480,0.000
1727422933.683,-78.613,-82.520,-95.703,-43.457,0.000
1727422933.687,-70.801,-90.332,-92.285,-45.410,0.000
1727422933.691,-43.457,-82.031,-84.473,-38.086,0.000
1727422933.694,-11.230,-55.664,-68.359,-25.391,0.000
1727422933.698,-13.672,-43.945,-62.500,-30.273,0.000
1727422933.702,-62.988,-46.387,-68.848,-43.945,0.000
1727422933.706,-82.031,-50.293,-75.684,-52.734,0.000
1727422933.710,-45.898,-59.570,-73.242,-45.898,0.000
1727422933.714,-14.648,-57.129,-69.336,-31.250,0.000
1727422933.718,-18.555,-46.387,-67.383,-27.832,0.000
1727422933.722,-52.734,-47.363,-71.777,-40.527,0.000
1727422933.726,-71.289,-41.504,-73.242,-54.199,0.000
1727422933.730,-41.016,-23.438,-64.941,-34.180,0.000
1727422933.734,-3.418,-11.719,-63.965,-22.461,0.000
1727422933.738,-6.348,-12.207,-65.430,-36.133,0.000
1727422933.741,-50.293,-26.855,-61.035,-38.574,0.000
1727422933.745,-80.566,-37.598,-58.105,-43.945,0.000
1727422933.749,-43.945,-29.785,-56.152,-44.922,0.000
1727422933.753,-5.371,-20.996,-50.781,-30.273,0.000
1727422933.757,-12.695,-22.461,-56.152,-20.508,0.000
1727422933.761,-41.504,-24.414,-59.082,-30.762,0.000
1727422933.765,-57.129,-25.879,-46.387,-50.293,0.000
1727422933.769,-35.156,-21.484,-41.504,-54.688,0.000
1727422933.773,-13.672,-19.531,-44.434,-32.715,0.000
1727422933.777,-10.742,-24.414,-46.875,-21.484,0.000
1727422933.781,-30.762,-23.926,-41.504,-46.875,0.000
1727422933.784,-65.430,-28.809,-38.086,-58.594,0.000
1727422933.788,-54.199,-24.902,-36.133,-46.387,0.000
1727422933.792,-14.648,-24.414,-36.133,-43.457,0.000
1727422933.796,-14.648,-35.156,-41.992,-51.758,0.000
1727422933.800,-34.668,-36.621,-36.133,-45.410,0.000
1727422933.804,-62.500,-26.855,-24.902,-49.316,0.000
1727422933.808,-63.965,-30.273,-20.996,-50.781,0.000
1727422933.812,-18.555,-39.551,-28.320,-41.016,0.000
1727422933.816,-8.301,-40.527,-36.133,-42.480,0.000
1727422933.820,-30.762,-37.109,-41.504,-41.992,0.000
1727422933.823,-76.172,-32.715,-40.039,-46.387,0.000
1727422933.827,-81.543,-36.621,-32.227,-49.316,0.000
1727422933.831,-37.598,-43.945,-32.227,-37.109,0.000
1727422933.835,-14.160,-43.945,-31.738,-24.414,0.000
1727422933.839,-11.719,-39.551,-27.832,-28.809,0.000
1727422933.843,-44.922,-41.992,-18.555,-40.527,0.000
1727422933.847,-63.477,-54.688,-10.742,-53.223,0.000
1727422933.851,-33.691,-49.805,-6.836,-39.062,0.000
1727422933.855,-2.441,-32.715,-7.324,-12.695,0.000
1727422933.859,-4.883,-35.645,-18.066,-34.668,0.000
1727422933.862,-43.457,-50.781,-22.949,-49.316,0.000
1727422933.866,-74.219,-57.129,-18.555,-46.875,0.000
1727422933.870,-34.668,-53.223,-9.766,-35.156,0.000
1727422933.874,8.301,-43.945,-5.371,-14.648,0.000
1727422933.878,4.883,-33.691,-5.859,-16.602,0.000
1727422933.882,-19.043,-23.926,-9.277,-22.461,0.000
1727422933.886,-62.012,-34.668,-14.160,-42.969,0.000
1727422933.890,-47.363,-50.293,-18.066,-52.734,0.000
1727422933.894,-1.953,-41.504,-21.484,-37.598,0.000
1727422933.898,-13.672,-36.133,-19.531,-40.039,0.000
1727422933.901,-52.734,-38.574,-25.391,-44.922,0.000
1727422933.905,-76.172,-36.133,-31.250,-49.805,0.000
1727422933.909,-49.316,-32.715,-28.320,-37.598,0.000
1727422933.913,-12.695,-41.016,-21.973,-21.484,0.000
1727422933.917,-11.719,-45.898,-11.719,-36.621,0.000
1727422933.921,-43.457,-43.457,-17.090,-52.734,0.000
1727422933.925,-66.895,-42.969,-22.949,-58.594,0.000
1727422933.929,-53.223,-38.574,-20.020,-55.176,0.000
1727422933.932,-18.555,-35.156,-20.996,-40.039,0.000
1727422933.936,2.930,-29.297,-18.066,-26.367,0.000
1727422933.940,-30.762,-50.293,-18.066,-34.668,0.000
1727422933.944,-71.777,-66.895,-26.367,-51.270,0.000
1727422933.948,-45.410,-48.828,-21.973,-30.273,0.000
1727422933.952,-16.113,-55.664,-20.996,-9.277,0.000
1727422933.956,-13.184,-57.129,-22.461,-12.695,0.000
1727422933.960,-23.926,-44.922,-24.902,-29.297,0.000
1727422933.964,-63.965,-50.781,-35.156,-58.105,0.000
1727422933.968,-63.965,-44.922,-35.645,-57.129,0.000
1727422933.972,-13.672,-33.691,-25.879,-36.133,0.000
1727422933.975,-7.324,-32.715,-23.438,-31.738,0.000
1727422933.979,-28.809,-46.387,-28.320,-35.645,0.000
1727422933.983,-60.547,-54.199,-37.109,-46.387,0.000
1727422933.987,-81.543,-49.805,-36.621,-48.828,0.000
1727422933.991,-39.062,-55.176,-26.367,-28.320,0.000
1727422933.995,4.883,-51.270,-25.391,-0.977,0.000
1727422933.999,0.000,-36.133,-16.602,3.906,0.000
1727422934.003,-33.691,-27.832,-17.578,-31.738,0.000
1727422934.006,-60.547,-34.668,-25.879,-56.152,0.000
1727422934.010,-20.996,-33.691,-22.949,-33.203,0.000
1727422934.014,22.949,-21.973,-25.879,-16.602,0.000
1727422934.018,1.465,-24.902,-26.855,-23.926,0.000
1727422934.022,-32.715,-21.484,-20.508,-27.832,0.000
1727422934.026,-54.688,-23.438,-23.926,-35.645,0.000
1727422934.030,-33.691,-29.785,-30.273,-38.574,0.000
1727422934.034,13.184,-27.832,-20.508,-22.949,0.000
1727422934.038,8.789,-39.551,-19.531,-16.602,0.000
1727422934.042,-25.879,-39.062,-23.438,-10.742,0.000
1727422934.046,-34.668,-22.461,-17.578,-11.719,0.000
1727422934.050,-22.461,-12.207,-14.648,-16.602,0.000
1727422934.054,-4.395,-16.113,-16.113,-30.762,0.000
1727422934.057,-9.277,-17.578,-17.090,-32.227,0.000
1727422934.061,-35.156,-15.137,-21.484,-35.156,0.000
1727422934.065,-69.824,-21.973,-26.367,-52.734,0.000
1727422934.069,-58.594,-32.227,-26.367,-47.852,0.000
1727422934.073,-9.277,-39.551,-24.902,-22.949,0.000
1727422934.077,-18.066,-61.523,-31.250,-20.996,0.000
1727422934.081,-62.988,-69.336,-33.691,-33.203,0.000
1727422934.085,-90.332,-50.781,-25.879,-47.363,0.000
1727422934.089,-72.266,-37.109,-21.973,-45.410,0.000
1727422934.093,-22.461,-36.133,-19.531,-35.645,0.000
1727422934.097,-7.324,-39.062,-18.066,-25.391,0.000
1727422934.101,-39.551,-26.367,-27.832,-29.785,0.000
1727422934.104,-66.406,-25.879,-26.855,-56.641,0.000
1727422934.108,-41.504,-38.086,-10.254,-39.062,0.000
1727422934.112,-6.836,-48.828,-22.461,-22.461,0.000
1727422934.116,-6.836,-55.176,-34.668,-33.203,0.000
1727422934.120,-44.922,-62.988,-27.344,-52.246,0.000
1727422934.124,-83.496,-55.664,-31.738,-76.660,0.000
1727422934.128,-77.637,-37.598,-35.156,-64.941,0.000
1727422934.132,-39.062,-28.320,-30.762,-45.410,0.000
1727422934.136,-8.301,-17.578,-26.855,-31.738,0.000
1727422934.140,-17.578,-31.250,-25.879,-6.836,0.000
1727422934.144,-41.016,-38.086,-28.809,-5.859,0.000
1727422934.147,-37.109,-27.832,-21.973,-19.531,0.000
1727422934.151,-14.160,-38.086,-21.484,-19.043,0.000
1727422934.155,18.066,-41.504,-25.879,-22.461,0.000
1727422934.159,16.602,-24.414,-21.973,-17.090,0.000
1727422934.163,-33.691,-15.137,-25.879,-14.648,0.000
1727422934.167,-57.617,-20.020,-32.227,-20.996,0.000
1727422934.171,-33.691,-27.832,-33.691,-24.414,0.000
1727422934.175,-7.812,-31.738,-29.297,-20.996,0.000
1727422934.179,-11.230,-35.645,-26.855,-24.902,0.000
1727422934.183,-41.016,-33.691,-30.762,-33.691,0.000
1727422934.187,-64.453,-33.203,-33.691,-33.203,0.000
1727422934.190,-23.926,-29.785,-35.156,-22.949,0.000
1727422934.194,16.602,-28.809,-39.062,-5.859,0.000
1727422934.198,1.465,-31.250,-39.551,-9.277,0.000
1727422934.202,-39.551,-39.551,-44.434,-41.016,0.000
1727422934.206,-80.078,-47.852,-38.086,-49.805,0.000
1727422934.210,-58.105,-48.340,-22.949,-39.062,0.000
1727422934.214,0.000,-48.828,-22.461,-39.062,0.000
1727422934.218,0.000,-32.715,-25.391,-36.133,0.000
1727422934.222,0.000,-25.391,-20.508,-25.879,0.000
1727422934.226,0.000,-35.645,-23.926,-41.992,0.000
1727422934.230,0.000,-38.086,-24.414,-42.480,0.000
1727422934.234,0.000,-36.133,-19.531,-23.438,0.000
1727422934.238,0.000,-33.691,-24.902,-39.551,0.000
1727422934.242,0.000,-28.320,-20.020,-41.016,0.000
1727422934.246,0.000,-16.602,-13.184,-37.109,0.000
1727422934.249,0.000,-17.090,-15.625,-33.203,0.000
1727422934.253,0.000,-36.621,-25.391,-34.180,0.000
1727422934.257,0.000,-43.945,-32.715,-50.293,0.000
1727422934.262,-72.754,-48.828,-36.133,-55.176,0.000
1727422934.265,-24.414,-52.246,-35.156,-40.527,0.000
1727422934.269,-4.395,-40.527,-27.344,-26.367,0.000
1727422934.273,-32.227,-47.852,-31.738,-25.879,0.000
1727422934.277,-65.430,-59.082,-37.109,-31.738,0.000
1727422934.281,-57.617,-39.062,-31.738,-32.715,0.000
1727422934.285,-22.461,-20.996,-42.480,-32.227,0.000
1727422934.289,-4.883,-27.832,-44.434,-35.156,0.000
1727422934.293,-13.184,-26.855,-34.668,-17.090,0.000
1727422934.297,-46.387,-28.320,-38.574,-31.738,0.000
1727422934.301,-63.477,-32.715,-49.805,-59.082,0.000
1727422934.305,-26.855,-29.297,-45.410,-33.203,0.000
1727422934.309,0.488,-34.180,-45.898,-25.391,0.000
1727422934.313,-2.930,-41.016,-48.340,-38.574,0.000
1727422934.317,-34.180,-37.109,-38.086,-34.668,0.000
1727422934.320,-61.035,-23.926,-36.621,-31.738,0.000
1727422934.324,-25.879,-25.391,-43.457,-28.320,0.000
1727422934.328,14.648,-31.250,-46.387,-20.996,0.000
1727422934.332,-1.953,-31.738,-41.992,-7.324,0.000
1727422934.336,-35.156,-26.367,-36.133,-12.695,0.000
1727422934.340,-50.293,-13.672,-36.621,-31.738,0.000
1727422934.344,-32.227,-18.066,-40.527,-41.992,0.000
1727422934.348,-6.348,-34.668,-45.898,-41.504,0.000
1727422934.352,-10.254,-29.297,-46.875,-36.133,0.000
1727422934.356,-50.781,-26.367,-48.340,-42.480,0.000
1727422934.360,-76.660,-40.039,-55.176,-65.430,0.000
1727422934.364,-50.781,-46.387,-52.246,-54.688,0.000
1727422934.368,-14.160,-35.156,-50.293,-28.809,0.000
1727422934.371,-12.207,-33.691,-46.875,-31.738,0.000
1727422934.375,-54.199,-43.945,-48.340,-40.527,0.000
1727422934.379,-81.055,-42.480,-56.641,-55.664,0.000
1727422934.383,-55.664,-31.738,-50.781,-51.758,0.000
1727422934.387,-18.066,-27.344,-41.016,-29.297,0.000
1727422934.391,-19.531,-37.598,-53.711,-41.504,0.000
1727422934.395,-44.434,-46.875,-66.895,-61.035,0.000
1727422934.399,-71.289,-50.293,-63.965,-72.754,0.000
1727422934.403,-55.664,-51.270,-53.711,-66.406,0.000
1727422934.407,-15.137,-50.293,-55.176,-37.598,0.000
1727422934.411,-6.836,-44.434,-53.223,-28.320,0.000
1727422934.415,-41.016,-45.410,-49.316,-31.250,0.000
1727422934.419,-70.801,-47.852,-48.340,-29.785,0.000
1727422934.423,-43.457,-39.551,-40.527,-28.809,0.000
1727422934.427,-10.254,-36.621,-44.434,-36.133,0.000
1727422934.431,-7.324,-40.039,-51.758,-34.668,0.000
1727422934.435,-24.902,-38.086,-52.734,-27.832,0.000
1727422934.438,-59.082,-32.715,-57.129,-41.992,0.000
1727422934.442,-63.477,-39.551,-58.594,-53.223,0.000
1727422934.446,-24.414,-44.434,-53.711,-39.062,0.000
1727422934.450,5.371,-44.434,-57.617,-28.320,0.000
1727422934.454,-4.883,-41.992,-54.199,-20.508,0.000
1727422934.458,-20.508,-13.672,-37.109,-17.090,0.000
1727422934.462,-34.668,-8.789,-40.039,-33.691,0.000
1727422934.466,-20.508,-15.625,-48.340,-34.180,0.000
1727422934.470,4.883,-16.113,-46.387,-27.832,0.000
1727422934.474,-6.348,-19.043,-41.016,-21.973,0.000
1727422934.478,-36.133,-18.066,-38.086,-17.578,0.000
1727422934.482,-53.223,-22.949,-34.668,-33.691,0.000
1727422934.485,-15.137,-25.879,-31.250,-31.738,0.000
1727422934.489,11.719,-29.297,-31.250,-9.766,0.000
1727422934.493,-18.555,-30.273,-35.645,-15.625,0.000
1727422934.497,-51.270,-27.832,-47.363,-33.691,0.000
1727422934.501,-57.129,-21.484,-50.293,-36.133,0.000
1727422934.505,-28.320,-17.578,-43.457,-35.156,0.000
1727422934.509,3.906,-30.762,-43.945,-34.180,0.000
1727422934.513,2.930,-41.992,-45.898,-27.832,0.000
1727422934.517,-38.574,-44.434,-46.387,-32.227,0.000
1727422934.521,-68.848,-46.387,-46.875,-38.086,0.000
1727422934.525,-45.898,-39.551,-40.527,-29.785,0.000
1727422934.528,-21.484,-27.832,-42.480,-22.461,0.000
1727422934.532,-18.066,-30.273,-41.504,-23.438,0.000
1727422934.536,-41.016,-33.691,-35.645,-31.250,0.000
1727422934.540,-80.566,-30.762,-36.621,-36.133,0.000
1727422934.544,-70.312,-38.574,-48.828,-34.668,0.000
1727422934.548,-28.809,-35.156,-53.223,-36.621,0.000
1727422934.552,-13.184,-36.133,-42.480,-33.691,0.000
1727422934.556,-41.504,-37.109,-36.621,-37.598,0.000
1727422934.560,-84.961,-38.574,-41.016,-46.387,0.000
1727422934.564,-70.801,-53.711,-45.898,-40.527,0.000
1727422934.568,-30.762,-48.828,-44.434,-37.598,0.000
1727422934.572,-14.648,-44.434,-43.457,-39.551,0.000
1727422934.576,-17.090,-40.527,-31.738,-21.973,0.000
1727422934.580,-57.129,-38.086,-29.297,-30.762,0.000
1727422934.584,-71.289,-42.480,-37.598,-33.691,0.000
1727422934.587,-27.832,-37.598,-41.504,-18.066,0.000
1727422934.592,9.277,-33.203,-36.133,-10.742,0.000
1727422934.596,-12.207,-34.180,-29.785,-22.461,0.000
1727422934.600,-62.012,-39.062,-32.715,-47.852,0.000
1727422934.604,-70.312,-32.715,-47.363,-54.688,0.000
1727422934.608,-26.367,-24.902,-45.410,-38.574,0.000
1727422934.612,-1.953,-31.250,-42.969,-25.391,0.000
1727422934.616,-24.414,-32.227,-49.316,-33.203,0.000
1727422934.620,-61.035,-41.992,-52.246,-43.457,0.000
1727422934.623,-60.547,-32.715,-47.852,-32.227,0.000
1727422934.627,-25.391,-15.625,-38.086,-20.508,0.000
1727422934.631,-1.465,-26.367,-34.668,-21.973,0.000
1727422934.635,-17.578,-30.273,-40.527,-31.738,0.000
1727422934.639,-42.969,-23.438,-43.945,-43.457,0.000
1727422934.643,-57.617,-23.438,-34.668,-35.645,0.000
1727422934.647,-50.293,-34.180,-38.086,-40.039,0.000
1727422934.651,-11.719,-41.504,-43.457,-46.875,0.000
1727422934.655,-12.695,-38.574,-43.457,-40.527,0.000
1727422934.659,-52.246,-46.875,-53.711,-50.781,0.000
1727422934.663,-79.590,-63.965,-56.641,-59.570,0.000
1727422934.667,-57.617,-59.082,-51.758,-53.223,0.000
1727422934.671,-11.719,-35.645,-51.758,-36.621,0.000
1727422934.675,-3.906,-30.273,-48.828,-20.508,0.000
1727422934.678,-42.969,-36.621,-40.039,-31.250,0.000
1727422934.682,-59.570,-39.062,-38.574,-54.199,0.000
1727422934.686,-36.133,-29.297,-35.156,-46.875,0.000
1727422934.690,-11.230,-28.320,-33.691,-27.832,0.000
1727422934.694,-8.301,-50.293,-44.434,-41.504,0.000
1727422934.698,-41.504,-48.828,-45.410,-58.594,0.000
1727422934.702,-73.242,-44.434,-37.598,-57.129,0.000
1727422934.706,-48.828,-40.039,-29.297,-39.062,0.000
1727422934.710,-12.207,-37.109,-31.738,-41.504,0.000
1727422934.714,-3.418,-38.574,-35.645,-39.551,0.000
1727422934.718,-31.250,-47.852,-38.086,-26.855,0.000
1727422934.722,-72.266,-49.316,-38.086,-45.410,0.000
1727422934.725,-51.270,-26.367,-22.949,-42.480,0.000
1727422934.729,-6.836,-20.020,-16.602,-12.207,0.000
1727422934.733,-3.906,-30.273,-24.414,-15.137,0.000
1727422934.737,-36.133,-39.551,-29.297,-25.879,0.000
1727422934.741,-69.336,-45.410,-31.738,-31.738,0.000
1727422934.745,-61.035,-34.668,-36.621,-49.805,0.000
1727422934.749,-26.367,-39.551,-36.133,-43.457,0.000
1727422934.753,-8.301,-48.340,-29.785,-22.461,0.000
1727422934.757,-25.391,-45.898,-33.203,-30.762,0.000
1727422934.761,-57.617,-43.457,-37.598,-47.852,0.000
1727422934.765,-77.148,-38.086,-31.250,-54.688,0.000
1727422934.769,-45.898,-31.250,-31.250,-52.246,0.000
1727422934.772,-3.906,-30.762,-31.250,-30.273,0.000
1727422934.776,-9.766,-26.367,-15.137,-17.578,0.000
1727422934.781,-52.734,-31.250,-23.926,-36.133,0.000
1727422934.785,-75.195,-39.062,-40.039,-48.340,0.000
1727422934.789,-44.434,-30.273,-36.133,-32.227,0.000
1727422934.793,-18.555,-34.668,-45.410,-29.297,0.000
1727422934.796,-31.738,-48.828,-51.270,-25.879,0.000
1727422934.800,-61.035,-50.781,-43.945,-28.320,0.000
1727422934.804,-68.359,-52.734,-41.504,-52.734,0.000
1727422934.808,-37.598,-50.293,-46.387,-53.711,0.000
1727422934.812,-3.906,-42.969,-41.504,-35.645,0.000
1727422934.816,0.488,-42.969,-36.621,-32.227,0.000
1727422934.820,-44.922,-52.246,-41.016,-46.387,0.000
1727422934.824,-82.520,-52.246,-34.668,-46.387,0.000
1727422934.829,0.000,-24.414,-17.090,-29.297,0.000
1727422934.833,0.000,-27.344,-22.461,-27.832,0.000
1727422934.837,0.000,-54.688,-35.156,-37.598,0.000
1727422934.840,0.000,-48.340,-34.180,-33.203,0.000
1727422934.844,0.000,-36.621,-31.738,-36.621,0.000
1727422934.848,0.000,-47.363,-30.273,-35.645,0.000
1727422934.852,0.000,-47.852,-24.414,-34.668,0.000
1727422934.856,0.000,-42.969,-20.020,-38.086,0.000
1727422934.860,0.000,-39.551,-17.090,-19.531,0.000
1727422934.864,0.000,-32.227,-16.602,-10.254,0.000
1727422934.868,0.000,-33.691,-24.902,-13.184,0.000
1727422934.872,0.000,-45.410,-28.809,-20.508,0.000
1727422934.876,-49.316,-43.945,-29.785,-38.086,0.000
1727422934.880,-38.574,-36.133,-35.156,-40.527,0.000
1727422934.884,-7.324,-39.551,-41.504,-31.250,0.000
1727422934.888,-4.395,-54.688,-33.691,-17.090,0.000
1727422934.892,-36.621,-57.617,-29.297,-29.785,0.000
1727422934.895,-57.617,-30.762,-38.574,-49.805,0.000
1727422934.899,-46.387,-22.461,-41.016,-39.551,0.000
1727422934.903,-10.254,-31.738,-37.598,-29.785,0.000
1727422934.907,0.977,-33.203,-34.668,-33.691,0.000
1727422934.911,-37.598,-34.668,-38.574,-34.668,0.000
1727422934.915,-63.965,-33.691,-38.574,-41.504,0.000
1727422934.919,-30.762,-25.879,-34.180,-40.039,0.000
1727422934.923,6.348,-20.020,-29.297,-28.809,0.000
1727422934.927,11.719,-20.996,-24.902,-18.066,0.000
1727422934.931,-22.461,-24.414,-20.508,-3.906,0.000
1727422934.935,-68.359,-36.133,-34.668,-39.062,0.000
1727422934.939,-57.617,-38.086,-35.645,-55.176,0.000
1727422934.943,-16.113,-38.086,-31.738,-36.133,0.000
1727422934.947,-15.625,-44.434,-44.434,-36.621,0.000
1727422934.950,-39.062,-54.688,-43.945,-23.926,0.000
1727422934.954,-64.453,-49.805,-37.598,-34.668,0.000
1727422934.958,-63.477,-28.809,-29.785,-48.340,0.000
1727422934.962,-24.414,-26.367,-31.738,-40.039,0.000
1727422934.966,-2.441,-29.297,-33.691,-27.832,0.000
1727422934.970,-26.855,-41.992,-38.086,-32.715,0.000
1727422934.974,-71.289,-51.270,-37.598,-33.691,0.000
1727422934.978,-73.242,-36.133,-32.715,-25.879,0.000
1727422934.982,-24.414,-20.020,-28.320,-21.484,0.000
1727422934.986,8.301,-28.320,-33.203,-28.320,0.000
1727422934.990,-13.672,-53.711,-44.922,-39.062,0.000
1727422934.994,-56.641,-58.105,-43.457,-44.434,0.000
1727422934.998,-54.688,-42.480,-37.598,-45.410,0.000
1727422935.002,-9.277,-34.180,-40.039,-39.551,0.000
1727422935.005,2.930,-40.039,-44.922,-45.898,0.000
1727422935.009,-16.113,-41.504,-45.898,-45.898,0.000
1727422935.013,-49.805,-35.156,-43.945,-46.875,0.000
1727422935.017,0.000,-37.109,-42.969,-51.758,0.000
1727422935.021,0.000,-35.645,-32.227,-17.578,0.000
1727422935.025,0.000,-31.738,-21.484,3.418,0.000
1727422935.029,0.000,-37.109,-30.273,-9.766,0.000
1727422935.033,0.000,-35.156,-36.133,-27.832,0.000
1727422935.037,0.000,-29.785,-29.297,-51.758,0.000
1727422935.041,0.000,-37.109,-34.668,-48.340,0.000
1727422935.045,0.000,-44.922,-42.480,-41.992,0.000
1727422935.049,0.000,-45.410,-41.016,-40.527,0.000
1727422935.052,0.000,-38.574,-38.574,-43.457,0.000
1727422935.056,0.000,-28.809,-37.598,-56.152,0.000
1727422935.060,0.000,-27.344,-40.039,-55.664,0.000
1727422935.065,-24.414,-37.109,-38.086,-40.527,0.000
1727422935.069,-4.883,-38.086,-30.273,-20.508,0.000
1727422935.073,-32.227,-29.785,-31.250,-30.273,0.000
1727422935.077,-61.035,-20.508,-32.227,-50.781,0.000
1727422935.080,-54.199,-24.902,-34.180,-36.621,0.000
1727422935.084,-26.367,-32.227,-32.227,-28.320,0.000
1727422935.088,-6.836,-30.762,-28.809,-32.715,0.000
1727422935.092,-17.578,-27.344,-31.250,-35.156,0.000
1727422935.096,-62.012,-40.527,-37.109,-43.457,0.000
1727422935.100,-67.871,-51.270,-40.527,-44.922,0.000
1727422935.104,-30.762,-35.156,-38.086,-40.527,0.000
1727422935.108,-3.418,-26.855,-38.574,-30.762,0.000
1727422935.112,-13.672,-40.039,-36.621,-24.414,0.000
1727422935.116,-61.523,-47.363,-37.598,-42.969,0.000
1727422935.120,-74.219,-42.969,-41.992,-48.828,0.000
1727422935.124,-31.250,-39.062,-40.527,-29.785,0.000
1727422935.128,-11.230,-40.039,-45.410,-19.531,0.000
1727422935.132,-29.297,-48.340,-49.316,-27.832,0.000
1727422935.136,-47.852,-48.828,-42.480,-42.480,0.000
1727422935.140,-59.082,-39.551,-34.668,-37.109,0.000
1727422935.143,-31.250,-40.527,-41.504,-28.809,0.000
1727422935.147,9.277,-37.109,-41.992,-18.066,0.000
1727422935.151,1.953,-24.902,-31.250,-9.277,0.000
1727422935.155,-44.434,-29.785,-34.668,-27.344,0.000
1727422935.160,-53.223,-38.574,-36.133,-44.434,0.000
1727422935.163,-19.043,-41.504,-34.668,-29.785,0.000
1727422935.167,1.465,-51.758,-36.621,-23.926,0.000
1727422935.171,-10.254,-51.270,-39.551,-24.414,0.000
1727422935.175,-34.180,-44.434,-45.410,-13.184,0.000
1727422935.179,-48.828,-37.109,-42.969,-25.391,0.000
1727422935.183,-33.691,-22.949,-35.645,-28.809,0.000
1727422935.187,2.930,-17.578,-30.762,-20.020,0.000
1727422935.191,-4.883,-20.996,-35.645,-17.090,0.000
1727422935.195,-50.293,-34.668,-46.387,-28.320,0.000
1727422935.199,-68.848,-50.781,-55.664,-41.504,0.000
1727422935.202,-37.598,-55.664,-50.293,-40.039,0.000
1727422935.207,-5.371,-55.664,-52.734,-40.039,0.000
1727422935.211,-11.230,-47.363,-62.012,-37.598,0.000
1727422935.215,-39.551,-35.645,-54.688,-29.297,0.000
1727422935.218,-60.547,-24.902,-52.246,-24.902,0.000
1727422935.222,-39.551,-25.879,-58.105,-23.926,0.000
1727422935.226,-10.254,-45.410,-45.410,-27.832,0.000
1727422935.230,-6.348,-39.551,-24.902,-5.371,0.000
1727422935.234,-30.273,-34.180,-22.461,-2.930,0.000
1727422935.238,-58.594,-36.133,-31.250,-28.320,0.000
1727422935.242,-47.363,-33.691,-35.156,-35.156,0.000
1727422935.246,-18.555,-40.527,-36.133,-27.832,0.000
1727422935.250,-8.301,-40.527,-40.527,-32.715,0.000
1727422935.254,-22.461,-32.715,-41.016,-39.062,0.000
1727422935.258,-67.871,-47.852,-40.527,-42.969,0.000
1727422935.262,-73.730,-66.406,-42.969,-53.711,0.000
1727422935.266,-20.508,-51.270,-37.109,-44.434,0.000
1727422935.270,-7.812,-41.504,-31.250,-36.621,0.000
1727422935.273,-33.691,-48.340,-38.086,-40.039,0.000
1727422935.277,-68.848,-44.434,-36.621,-35.645,0.000
1727422935.281,-72.266,-49.316,-29.785,-32.227,0.000
1727422935.285,-28.809,-38.574,-24.902,-31.250,0.000
1727422935.289,1.953,-18.555,-20.996,-34.668,0.000
1727422935.293,-16.113,-34.180,-25.391,-34.180,0.000
1727422935.297,-52.734,-52.734,-30.762,-36.621,0.000
1727422935.301,-57.129,-37.598,-24.414,-34.180,0.000
1727422935.305,-29.785,-20.020,-26.855,-23.926,0.000
1727422935.309,-8.301,-33.691,-28.320,-15.137,0.000
1727422935.313,-15.137,-42.969,-20.020,-17.578,0.000
1727422935.317,-49.805,-43.457,-38.574,-25.391,0.000
1727422935.321,-66.406,-38.086,-51.758,-31.250,0.000
1727422935.324,-33.691,-27.832,-44.922,-23.438,0.000
1727422935.328,-1.465,-21.973,-42.480,-8.789,0.000
1727422935.332,-11.719,-23.438,-42.480,-10.254,0.000
1727422935.336,-49.316,-38.574,-48.340,-21.484,0.000
1727422935.340,-63.477,-40.039,-45.410,-38.574,0.000
1727422935.344,-37.109,-35.645,-39.062,-31.738,0.000
1727422935.348,-4.883,-43.457,-45.410,-29.297,0.000
1727422935.352,-11.719,-49.805,-46.387,-27.344,0.000
1727422935.356,-53.223,-43.945,-38.574,-23.926,0.000
1727422935.360,-66.406,-35.156,-35.156,-39.551,0.000
1727422935.364,-43.945,-35.156,-39.062,-36.133,0.000
1727422935.368,-13.672,-33.691,-40.039,-19.043,0.000
1727422935.371,-15.137,-37.109,-39.551,-22.461,0.000
1727422935.375,-45.898,-36.133,-36.621,-25.391,0.000
1727422935.379,-70.801,-37.598,-35.156,-44.922,0.000
1727422935.383,-55.664,-35.156,-35.645,-51.270,0.000
1727422935.387,-14.648,-33.203,-35.156,-35.645,0.000
1727422935.391,-3.906,-41.992,-34.668,-24.902,0.000
1727422935.395,-22.949,-42.480,-32.227,-31.250,0.000
1727422935.399,-56.641,-34.668,-38.574,-41.016,0.000
1727422935.403,-61.035,-29.297,-44.434,-40.527,0.000
1727422935.407,-20.996,-33.691,-41.992,-34.180,0.000
1727422935.411,-3.906,-35.645,-40.527,-19.043,0.000
1727422935.415,-24.414,-32.227,-39.062,-17.090,0.000
1727422935.418,-56.641,-48.828,-46.387,-47.363,0.000
1727422935.422,-52.734,-57.129,-52.246,-59.570,0.000
1727422935.426,-15.625,-48.828,-46.875,-43.945,0.000
1727422935.430,-2.441,-41.504,-35.645,-37.109,0.000
1727422935.434,-25.391,-36.133,-36.133,-32.227,0.000
1727422935.438,-68.359,-42.969,-46.875,-40.039,0.000
1727422935.442,-80.566,-49.316,-47.852,-57.129,0.000
1727422935.446,-33.203,-46.387,-45.898,-49.805,0.000
1727422935.450,-2.441,-49.805,-43.457,-37.109,0.000
1727422935.454,-23.438,-48.828,-40.527,-32.227,0.000
1727422935.458,-52.246,-37.109,-40.527,-29.785,0.000
1727422935.462,-53.223,-34.180,-40.039,-13.672,0.000
1727422935.466,-20.020,-34.180,-42.480,-8.789,0.000
1727422935.470,7.812,-33.691,-42.969,-16.602,0.000
1727422935.474,5.371,-51.270,-45.898,-12.207,0.000
1727422935.478,-21.484,-84.961,-52.246,-22.461,0.000
1727422935.481,-45.898,-82.520,-55.176,-38.574,0.000
1727422935.485,-22.461,-65.918,-56.152,-39.551,0.000
1727422935.490,14.648,-57.617,-54.199,-21.973,0.000
1727422935.494,-1.465,-56.641,-59.570,-18.066,0.000
1727422935.497,-44.434,-64.941,-66.895,-25.879,0.000
1727422935.501,-61.523,-68.359,-62.012,-40.527,0.000
1727422935.505,-38.086,-66.406,-57.129,-57.617,0.000
1727422935.509,-16.602,-62.988,-57.617,-39.062,0.000
1727422935.513,-4.883,-62.500,-56.152,-17.578,0.000
1727422935.517,-41.992,-67.871,-59.082,-41.992,0.000
1727422935.521,-84.961,-73.730,-62.988,-65.918,0.000
1727422935.525,-57.617,-68.848,-64.941,-58.105,0.000
1727422935.529,-25.879,-61.035,-65.918,-56.152,0.000
1727422935.533,-24.414,-65.430,-58.594,-51.758,0.000
1727422935.537,-55.176,-69.824,-62.988,-53.223,0.000
1727422935.541,-87.402,-65.430,-62.500,-54.199,0.000
1727422935.545,-71.289,-54.199,-49.805,-54.199,0.000
1727422935.549,-24.414,-51.270,-48.828,-50.293,0.000
1727422935.553,-11.719,-59.082,-58.105,-35.645,0.000
1727422935.556,-48.828,-61.035,-62.500,-51.758,0.000
1727422935.560,-89.355,-66.406,-61.035,-80.078,0.000
1727422935.564,-77.637,-61.035,-52.734,-75.684,0.000
1727422935.568,-20.020,-42.480,-40.527,-50.781,0.000
1727422935.572,0.000,-35.645,-44.434,-36.133,0.000
1727422935.576,-40.039,-43.945,-62.988,-35.156,0.000
1727422935.580,-82.520,-57.129,-69.824,-50.293,0.000
1727422935.584,-83.984,-65.918,-61.035,-52.734,0.000
1727422935.588,-49.316,-52.734,-45.410,-36.621,0.000
1727422935.592,-24.414,-47.363,-44.434,-32.715,0.000
1727422935.596,-28.809,-53.711,-43.457,-40.527,0.000
1727422935.600,-52.734,-55.664,-30.273,-36.133,0.000
1727422935.604,-67.383,-59.082,-30.762,-45.410,0.000
1727422935.607,-31.738,-44.922,-35.156,-50.781,0.000
1727422935.611,8.789,-23.926,-30.762,-30.762,0.000
1727422935.615,-7.812,-29.785,-33.203,-18.066,0.000
1727422935.619,-47.852,-39.062,-36.621,-14.648,0.000
1727422935.623,-59.082,-35.645,-27.832,-27.344,0.000
1727422935.627,-38.086,-54.688,-36.133,-38.086,0.000
1727422935.631,-13.672,-73.242,-49.316,-41.016,0.000
1727422935.635,-15.137,-62.988,-47.363,-50.781,0.000
1727422935.639,-52.734,-54.688,-41.016,-50.293,0.000
1727422935.643,-84.961,-54.199,-39.062,-51.270,0.000
1727422935.647,-57.129,-47.852,-40.039,-48.828,0.000
1727422935.651,-24.414,-41.504,-35.156,-44.922,0.000
1727422935.655,-29.297,-43.945,-32.715,-45.898,0.000
1727422935.658,-50.293,-51.758,-35.156,-44.434,0.000
1727422935.662,-73.242,-56.641,-34.668,-50.781,0.000
1727422935.666,-56.152,-54.688,-37.109,-44.922,0.000
1727422935.670,-10.742,-45.410,-35.156,-23.438,0.000
1727422935.674,-10.254,-39.062,-36.133,-17.578,0.000
1727422935.678,0.000,-31.250,-41.504,-38.086,0.000
1727422935.682,0.000,-41.504,-40.039,-60.059,0.000
1727422935.686,0.000,-54.199,-44.434,-56.641,0.000
1727422935.690,0.000,-46.387,-47.852,-47.363,0.000
1727422935.694,0.000,-38.574,-37.109,-33.203,0.000
1727422935.698,0.000,-44.922,-40.527,-31.250,0.000
1727422935.702,0.000,-48.340,-42.480,-41.504,0.000
1727422935.706,0.000,-40.527,-38.086,-20.020,0.000
1727422935.709,0.000,-34.668,-42.480,-13.184,0.000
1727422935.713,0.000,-37.109,-44.922,-34.668,0.000
1727422935.717,0.000,-42.969,-42.969,-38.086,0.000
1727422935.721,0.000,-45.410,-37.109,-32.227,0.000
1727422935.725,-53.223,-43.457,-34.180,-28.320,0.000
1727422935.729,-17.578,-45.410,-29.785,-13.672,0.000
1727422935.733,0.000,-47.852,-34.180,-19.531,0.000
1727422935.737,-19.043,-46.387,-43.457,-31.250,0.000
1727422935.741,-62.012,-46.387,-44.434,-25.879,0.000
1727422935.745,-65.918,-57.617,-37.598,-22.949,0.000
1727422935.749,-21.484,-61.035,-29.297,-3.906,0.000
1727422935.752,-1.953,-49.316,-26.855,-6.836,0.000
1727422935.756,-11.719,-46.387,-27.344,-23.926,0.000
1727422935.760,-43.945,-38.086,-26.855,-35.645,0.000
1727422935.764,-60.547,-41.504,-34.180,-42.969,0.000
1727422935.768,-20.508,-44.922,-37.109,-26.367,0.000
1727422935.772,15.625,-38.086,-32.715,-19.043,0.000
1727422935.776,-0.488,-38.086,-32.715,-18.555,0.000
1727422935.780,-34.668,-44.434,-40.527,-24.902,0.000
1727422935.784,-51.758,-44.922,-44.922,-36.133,0.000
1727422935.788,-25.879,-39.551,-44.434,-41.504,0.000
1727422935.792,5.859,-41.992,-47.363,-44.434,0.000
1727422935.795,2.441,-50.293,-50.781,-44.434,0.000
1727422935.799,-33.203,-54.199,-48.828,-41.504,0.000
1727422935.803,-55.176,-51.270,-47.363,-52.246,0.000
1727422935.807,-31.250,-36.621,-45.410,-40.039,0.000
1727422935.811,-11.719,-30.762,-44.922,-24.414,0.000
1727422935.815,-4.883,-35.156,-41.992,-20.996,0.000
1727422935.819,-35.645,-37.109,-43.945,-23.438,0.000
1727422935.823,-71.777,-41.016,-41.992,-36.133,0.000
1727422935.827,-45.410,-44.922,-36.133,-25.391,0.000
1727422935.831,-9.277,-54.199,-44.434,-15.137,0.000
1727422935.835,-2.930,-55.176,-46.875,-22.461,0.000
1727422935.839,-32.227,-52.734,-47.852,-23.438,0.000
1727422935.843,-64.941,-41.016,-48.340,-44.434,0.000
1727422935.847,-54.199,-31.738,-51.270,-47.852,0.000
1727422935.851,-8.301,-41.504,-50.781,-24.414,0.000
1727422935.854,17.578,-48.828,-41.504,-17.578,0.000
1727422935.858,-29.297,-43.945,-41.504,-19.043,0.000
1727422935.862,-62.500,-40.039,-45.898,-31.250,0.000
1727422935.867,-50.781,-45.410,-39.551,-36.621,0.000
1727422935.870,-12.207,-39.062,-41.992,-13.672,0.000
1727422935.874,12.695,-26.855,-43.457,-2.930,0.000
1727422935.878,-7.812,-33.203,-31.738,-16.602,0.000
1727422935.882,-36.133,-37.109,-25.391,-34.668,0.000
1727422935.886,-34.668,-29.297,-21.973,-36.621,0.000
1727422935.890,5.371,-32.715,-21.484,-17.578,0.000
1727422935.894,37.109,-36.621,-19.531,-8.789,0.000
1727422935.898,14.160,-32.715,-16.602,-4.883,0.000
1727422935.902,-40.039,-27.832,-24.902,-26.855,0.000
1727422935.906,-45.898,-21.484,-23.438,-47.363,0.000
1727422935.910,-10.254,-13.672,-11.230,-25.879,0.000
1727422935.914,13.672,-6.836,-2.441,-9.277,0.000
1727422935.918,-6.348,-17.090,-0.977,-21.973,0.000
1727422935.922,-52.246,-33.203,1.465,-43.457,0.000
1727422935.925,-63.965,-34.180,6.348,-43.457,0.000
1727422935.929,-23.926,-29.785,6.836,-34.180,0.000
1727422935.933,7.812,-31.250,-4.395,-28.320,0.000
1727422935.937,-10.742,-39.062,-16.113,-37.598,0.000
1727422935.941,-46.387,-41.016,-13.672,-42.969,0.000
1727422935.945,-61.035,-38.086,-7.812,-39.062,0.000
1727422935.949,-30.273,-34.180,-5.371,-40.527,0.000
1727422935.953,12.207,-25.879,-10.254,-36.133,0.000
1727422935.957,-17.090,-33.203,-18.066,-27.832,0.000
1727422935.961,-63.477,-51.270,-25.391,-31.250,0.000
1727422935.965,-80.078,-54.199,-38.086,-42.969,0.000
1727422935.969,-44.434,-35.156,-39.062,-36.621,0.000
1727422935.973,3.418,-22.949,-37.109,-29.297,0.000
1727422935.976,-11.719,-36.133,-56.152,-49.316,0.000
1727422935.980,-53.223,-38.086,-69.336,-63.965,0.000
1727422935.984,-78.125,-31.250,-68.848,-71.289,0.000
1727422935.988,-57.129,-31.250,-69.824,-66.406,0.000
1727422935.992,-12.207,-32.227,-68.359,-43.945,0.000
1727422935.996,-18.555,-37.598,-62.012,-35.645,0.000
1727422936.000,-42.969,-43.945,-61.035,-25.879,0.000
1727422936.004,-59.570,-58.105,-56.641,-25.391,0.000
1727422936.008,-46.875,-54.199,-48.828,-39.062,0.000
1727422936.012,-8.789,-42.969,-45.898,-39.062,0.000
1727422936.016,2.441,-39.551,-49.316,-41.016,0.000
1727422936.020,-25.879,-36.133,-41.016,-31.738,0.000
1727422936.023,-60.059,-32.227,-29.297,-25.879,0.000
1727422936.027,-58.105,-41.016,-38.086,-42.480,0.000
1727422936.031,-23.926,-53.223,-50.293,-46.387,0.000
1727422936.035,-0.488,-46.387,-53.711,-27.344,0.000
1727422936.039,-19.043,-41.016,-51.270,-22.461,0.000
1727422936.043,-56.152,-48.340,-48.828,-38.086,0.000
1727422936.047,-55.664,-51.758,-47.852,-42.969,0.000
1727422936.051,-18.066,-43.457,-45.410,-32.715,0.000
1727422936.055,4.395,-44.922,-49.316,-21.973,0.000
1727422936.059,-4.395,-55.176,-45.410,-20.996,0.000
1727422936.063,-27.832,-42.480,-34.668,-28.320,0.000
1727422936.067,-41.016,-19.043,-24.414,-28.320,0.000
1727422936.070,-11.230,-16.602,-26.367,-14.160,0.000
1727422936.074,19.531,-14.648,-35.156,-1.465,0.000
1727422936.078,-6.836,-28.320,-39.551,-2.441,0.000
1727422936.082,-45.898,-39.062,-41.016,-7.324,0.000
1727422936.086,-50.293,-40.039,-38.574,-26.367,0.000
1727422936.090,-21.973,-51.270,-38.086,-25.879,0.000
1727422936.094,10.254,-44.434,-32.715,-9.766,0.000
1727422936.098,-4.883,-36.621,-38.574,-27.832,0.000
1727422936.102,-47.363,-43.457,-53.223,-56.641,0.000
1727422936.106,-69.824,-47.852,-51.758,-55.176,0.000
1727422936.110,-48.828,-44.434,-45.898,-25.391,0.000
1727422936.113,-16.602,-32.227,-50.781,-7.324,0.000
1727422936.117,-14.648,-37.109,-55.176,-23.438,0.000
1727422936.121,-46.387,-41.992,-56.641,-36.133,0.000
1727422936.125,-62.012,-28.320,-54.199,-39.062,0.000
1727422936.129,-43.457,-24.414,-47.852,-26.367,0.000
1727422936.133,-15.137,-26.855,-46.387,-15.625,0.000
1727422936.137,-11.719,-28.809,-52.246,-36.621,0.000
1727422936.141,-40.039,-26.855,-48.340,-46.387,0.000
1727422936.145,-66.406,-21.484,-33.691,-31.250,0.000
1727422936.149,-50.781,-23.438,-35.645,-18.555,0.000
1727422936.152,-17.578,-25.879,-42.969,-21.973,0.000
1727422936.156,-5.859,-25.879,-33.691,-25.391,0.000
1727422936.160,-29.297,-35.156,-34.180,-34.668,0.000
1727422936.164,-73.242,-42.969,-38.574,-46.875,0.000
1727422936.168,-54.688,-39.551,-32.715,-31.738,0.000
1727422936.172,-4.395,-42.969,-29.297,-4.883,0.000
1727422936.176,7.324,-32.715,-22.949,-2.930,0.000
1727422936.180,-8.789,-18.555,-20.996,-17.578,0.000
1727422936.184,-47.363,-22.461,-22.461,-26.367,0.000
1727422936.188,-46.387,-26.855,-15.137,-19.531,0.000
1727422936.192,-9.277,-31.738,-16.602,-6.836,0.000
1727422936.196,10.742,-29.297,-18.555,5.371,0.000
1727422936.200,-3.906,-20.996,-15.137,4.395,0.000
1727422936.204,-44.434,-22.461,-17.090,-21.973,0.000
1727422936.208,-42.969,-28.320,-14.648,-28.809,0.000
1727422936.211,-5.371,-30.273,-18.066,-16.113,0.000
1727422936.215,-0.488,-28.809,-25.879,-10.254,0.000
1727422936.219,-16.113,-34.668,-19.531,2.441,0.000
1727422936.223,-46.387,-47.852,-15.137,-8.301,0.000
1727422936.227,-61.523,-53.711,-21.973,-38.086,0.000
1727422936.231,-35.156,-52.246,-25.879,-36.621,0.000
1727422936.235,-11.719,-40.039,-24.414,-29.297,0.000
1727422936.239,-28.320,-42.480,-25.391,-32.227,0.000
1727422936.243,-70.801,-46.875,-35.156,-39.551,0.000
1727422936.247,-86.914,-40.039,-39.551,-48.340,0.000
1727422936.251,-49.316,-41.016,-36.621,-43.945,0.000
1727422936.255,-24.902,-45.898,-41.504,-33.203,0.000
1727422936.259,-42.969,-57.129,-53.223,-36.133,0.000
1727422936.263,-80.078,-57.617,-48.340,-53.711,0.000
1727422936.266,-93.262,-49.316,-29.785,-73.730,0.000
1727422936.270,-52.734,-46.875,-17.090,-60.547,0.000
1727422936.274,-17.090,-34.668,-12.695,-40.527,0.000
1727422936.278,-18.066,-33.691,-11.230,-37.598,0.000
1727422936.282,-59.570,-57.129,-17.578,-45.410,0.000
1727422936.286,-77.148,-60.547,-14.160,-49.316,0.000
1727422936.290,-43.457,-46.387,-4.883,-38.574,0.000
1727422936.294,-18.555,-46.387,-15.625,-38.086,0.000
1727422936.298,-22.949,-42.969,-23.926,-32.715,0.000
1727422936.302,-45.410,-43.457,-22.461,-18.066,0.000
1727422936.306,-62.988,-47.363,-25.391,-46.387,0.000
1727422936.310,-60.547,-46.387,-29.297,-66.895,0.000
1727422936.314,-22.949,-38.574,-29.785,-48.340,0.000
1727422936.318,5.859,-41.504,-27.344,-33.691,0.000
1727422936.321,-23.438,-59.082,-34.180,-33.691,0.000
1727422936.325,-53.711,-47.363,-30.273,-29.785,0.000
1727422936.329,-38.086,-29.785,-19.043,-35.156,0.000
1727422936.333,-11.230,-33.691,-20.508,-35.156,0.000
1727422936.337,-8.789,-35.645,-25.391,-16.113,0.000
1727422936.341,-24.414,-33.691,-26.367,-18.555,0.000
1727422936.345,-48.340,-21.484,-22.461,-41.992,0.000
1727422936.349,-56.152,-26.367,-21.484,-52.246,0.000
1727422936.353,-30.273,-41.504,-33.203,-35.156,0.000
1727422936.357,-1.465,-34.180,-49.805,-29.785,0.000
1727422936.361,-6.348,-25.879,-48.340,-29.785,0.000
1727422936.365,-46.387,-32.227,-51.270,-36.133,0.000
1727422936.368,-64.453,-37.598,-51.758,-37.109,0.000
1727422936.372,-31.250,-41.504,-52.246,-33.203,0.000
1727422936.376,5.371,-45.898,-50.781,-35.645,0.000
1727422936.380,-15.137,-50.781,-46.875,-31.250,0.000
1727422936.384,-53.223,-48.340,-43.945,-31.738,0.000
1727422936.388,-53.223,-37.598,-38.086,-32.227,0.000
1727422936.392,-31.738,-37.109,-33.691,-22.949,0.000
1727422936.396,-16.113,-52.246,-32.715,-13.184,0.000
1727422936.400,-20.508,-62.012,-39.551,-26.367,0.000
1727422936.404,-53.223,-57.617,-43.457,-45.410,0.000
1727422936.408,-73.730,-50.781,-49.316,-49.316,0.000
1727422936.412,-48.340,-47.363,-51.758,-42.480,0.000
1727422936.415,-17.578,-47.363,-42.969,-35.645,0.000
1727422936.419,-24.414,-60.059,-47.363,-37.598,0.000
1727422936.423,-59.082,-66.406,-56.641,-53.223,0.000
1727422936.427,-75.684,-56.641,-55.176,-58.594,0.000
1727422936.431,-52.246,-53.223,-51.758,-45.898,0.000
1727422936.435,-32.227,-52.734,-44.922,-40.039,0.000
1727422936.439,-26.367,-57.129,-44.434,-37.598,0.000
1727422936.443,-54.688,-60.547,-55.176,-45.898,0.000
1727422936.447,-95.215,-48.828,-61.523,-61.035,0.000
1727422936.451,-74.707,-49.805,-62.500,-67.871,0.000
1727422936.455,-25.879,-65.430,-56.152,-61.035,0.000
1727422936.458,-6.348,-67.383,-53.223,-41.016,0.000
1727422936.462,-29.785,-51.270,-51.270,-31.738,0.000
1727422936.466,-73.242,-41.992,-55.176,-36.133,0.000
1727422936.470,-66.895,-44.922,-63.477,-49.805,0.000
1727422936.474,-26.367,-45.410,-65.918,-36.133,0.000
1727422936.478,-17.578,-38.574,-49.805,-23.438,0.000
1727422936.482,-20.020,-33.691,-29.785,-41.992,0.000
1727422936.486,-40.527,-41.016,-23.926,-56.641,0.000
1727422936.490,-52.734,-40.039,-17.578,-51.270,0.000
1727422936.494,-2.930,-30.762,-17.578,-22.949,0.000
1727422936.498,12.695,-35.156,-23.926,-7.812,0.000
1727422936.501,-14.160,-49.805,-17.578,-21.973,0.000
1727422936.505,-45.410,-43.457,-14.160,-41.504,0.000
1727422936.509,-42.969,-32.227,-17.090,-33.203,0.000
1727422936.513,-5.371,-36.133,-17.090,-17.578,0.000
1727422936.517,10.742,-34.180,-15.137,-16.113,0.000
1727422936.521,-10.742,-32.715,-17.578,-12.695,0.000
1727422936.525,-53.711,-41.016,-28.809,-43.945,0.000
1727422936.529,-69.336,-40.039,-37.598,-57.617,0.000
1727422936.533,-26.367,-30.762,-31.738,-36.133,0.000
1727422936.537,3.906,-33.203,-30.273,-22.949,0.000
1727422936.541,-16.113,-49.316,-41.504,-21.973,0.000
1727422936.545,-46.387,-48.340,-49.805,-31.250,0.000
1727422936.549,-69.336,-45.410,-51.758,-44.434,0.000
1727422936.553,-46.875,-52.246,-43.945,-38.574,0.000
1727422936.557,-9.277,-49.316,-36.133,-10.254,0.000
1727422936.560,-14.160,-48.340,-35.645,-15.137,0.000
1727422936.564,-53.223,-45.410,-40.039,-54.688,0.000
1727422936.568,-83.984,-41.992,-40.527,-67.871,0.000
1727422936.572,-52.734,-44.434,-41.992,-53.711,0.000
1727422936.576,-5.371,-36.133,-32.715,-24.414,0.000
1727422936.580,-13.184,-39.551,-37.598,-25.391,0.000
1727422936.584,-62.012,-55.664,-52.246,-41.992,0.000
1727422936.588,-80.566,-58.594,-42.480,-45.410,0.000
1727422936.592,-51.758,-54.199,-37.598,-35.645,0.000
1727422936.595,-12.695,-59.082,-39.551,-29.297,0.000
1727422936.599,-1.953,-58.594,-42.969,-21.973,0.000
1727422936.603,-33.203,-52.734,-46.875,-17.578,0.000
1727422936.607,-67.871,-51.270,-45.898,-35.645,0.000
1727422936.611,-39.062,-46.875,-39.551,-41.504,0.000
1727422936.615,7.812,-40.527,-39.551,-32.227,0.000
1727422936.619,4.883,-36.621,-42.480,-21.973,0.000
1727422936.623,-21.484,-37.109,-43.457,-19.531,0.000
1727422936.627,-51.270,-39.551,-38.574,-36.621,0.000
1727422936.631,-39.062,-35.645,-33.691,-43.457,0.000
1727422936.635,-0.488,-23.926,-32.227,-30.762,0.000
1727422936.639,0.977,-36.133,-34.668,-27.832,0.000
1727422936.643,-28.809,-50.293,-35.156,-24.902,0.000
1727422936.647,-57.129,-47.852,-32.715,-38.086,0.000
1727422936.650,-50.781,-44.434,-30.762,-37.598,0.000
1727422936.654,-15.137,-35.156,-28.320,-31.738,0.000
1727422936.658,-1.953,-36.133,-32.715,-30.762,0.000
1727422936.662,-25.879,-43.945,-39.551,-25.391,0.000
1727422936.666,-55.664,-41.992,-35.645,-46.875,0.000
1727422936.670,-62.012,-38.086,-34.180,-47.852,0.000
1727422936.674,-28.809,-40.527,-38.574,-23.926,0.000
1727422936.678,11.230,-31.250,-26.855,-7.812,0.000
1727422936.682,-0.977,-30.273,-23.926,-11.230,0.000
1727422936.686,-48.340,-43.945,-39.551,-40.039,0.000
1727422936.690,-66.895,-45.410,-51.270,-56.641,0.000
1727422936.694,-29.785,-41.016,-51.270,-55.664,0.000
1727422936.698,3.418,-35.645,-38.574,-33.691,0.000
1727422936.701,-15.625,-40.527,-32.715,-24.414,0.000
1727422936.705,-63.477,-44.434,-35.645,-34.180,0.000
1727422936.709,-70.312,-42.480,-34.668,-48.828,0.000
1727422936.713,-32.715,-48.340,-27.832,-42.969,0.000
1727422936.717,-24.414,-58.105,-25.879,-26.367,0.000
1727422936.721,-31.738,-55.176,-34.668,-29.785,0.000
1727422936.725,-47.852,-42.480,-32.227,-34.668,0.000
1727422936.729,-65.918,-41.504,-26.855,-39.062,0.000
1727422936.733,-45.898,-46.875,-31.250,-40.527,0.000
1727422936.737,-8.301,-45.410,-38.086,-45.898,0.000
1727422936.741,-6.348,-46.387,-38.086,-45.410,0.000
1727422936.745,-40.527,-55.176,-35.156,-31.250,0.000
1727422936.748,-79.102,-54.688,-41.016,-38.086,0.000
1727422936.752,-60.059,-49.805,-40.527,-40.527,0.000
1727422936.756,-12.207,-52.734,-40.039,-32.227,0.000
1727422936.760,-5.371,-52.734,-41.992,-30.273,0.000
1727422936.764,-26.367,-53.223,-41.992,-28.320,0.000
1727422936.768,-39.062,-38.086,-30.762,-37.598,0.000
1727422936.772,-14.160,-20.996,-18.066,-27.344,0.000
1727422936.776,2.441,-33.691,-28.320,-23.438,0.000
1727422936.780,-12.207,-41.504,-38.086,-31.250,0.000
1727422936.784,-42.480,-40.039,-39.062,-41.016,0.000
1727422936.788,-66.895,-35.645,-34.668,-38.086,0.000
