timestamps,TP9,AF7,AF8,TP10,Right AUX
1727423090.233,-35.645,-56.152,-42.969,-26.367,0.000
1727423090.237,-58.105,-65.918,-42.969,-29.297,0.000
1727423090.241,-27.344,-59.570,-49.805,-24.414,0.000
1727423090.245,13.184,-41.016,-48.828,-15.625,0.000
1727423090.249,-4.883,-33.691,-44.922,-15.625,0.000
1727423090.253,-51.270,-41.016,-44.922,-21.973,0.000
1727423090.257,-50.781,-39.551,-40.527,-24.902,0.000
1727423090.261,-19.043,-30.762,-35.156,-17.090,0.000
1727423090.265,4.883,-22.949,-29.297,-10.254,0.000
1727423090.268,-12.207,-36.133,-30.273,-14.648,0.000
1727423090.272,-59.570,-49.316,-33.203,-24.414,0.000
1727423090.276,-77.637,-40.527,-33.203,-33.203,0.000
1727423090.280,-42.480,-40.039,-35.156,-35.645,0.000
1727423090.284,-5.371,-49.805,-29.297,-30.762,0.000
1727423090.288,-14.160,-71.289,-20.508,-28.320,0.000
1727423090.292,-56.152,-71.777,-32.227,-35.156,0.000
1727423090.296,-84.473,-41.016,-42.480,-44.434,0.000
1727423090.299,-41.992,-42.969,-35.645,-34.668,0.000
1727423090.303,-4.883,-61.523,-34.180,-28.809,0.000
1727423090.307,-14.160,-42.480,-31.738,-26.367,0.000
1727423090.311,-44.922,-34.180,-22.461,-26.367,0.000
1727423090.315,-62.500,-38.574,-28.320,-40.039,0.000
1727423090.319,-20.020,-38.574,-22.461,-20.020,0.000
1727423090.323,14.160,-45.898,-22.461,-6.836,0.000
1727423090.326,0.488,-41.504,-43.945,-16.602,0.000
1727423090.330,-38.086,-32.715,-46.875,-30.762,0.000
1727423090.334,-66.406,-26.855,-37.109,-45.410,0.000
1727423090.338,-55.664,-31.738,-35.645,-47.363,0.000
1727423090.342,-18.555,-35.156,-37.109,-34.668,0.000
1727423090.346,-5.859,-31.738,-30.762,-15.137,0.000
1727423090.350,-35.156,-30.273,-33.203,-9.277,0.000
1727423090.354,-58.105,-39.062,-40.039,-22.949,0.000
1727423090.358,-40.039,-38.086,-41.992,-37.598,0.000
1727423090.362,-5.371,-27.832,-41.016,-27.344,0.000
1727423090.366,5.859,-25.879,-41.016,-20.020,0.000
1727423090.369,-21.484,-27.344,-45.410,-29.297,0.000
1727423090.374,0.000,-42.480,-51.758,-35.645,0.000
1727423090.378,0.000,-47.852,-50.293,-43.457,0.000
1727423090.381,0.000,-36.621,-44.434,-39.551,0.000
1727423090.385,0.000,-31.738,-38.086,-31.738,0.000
1727423090.389,0.000,-34.180,-37.109,-37.598,0.000
1727423090.393,0.000,-37.109,-38.086,-46.387,0.000
1727423090.397,0.000,-38.574,-29.785,-45.898,0.000
1727423090.401,0.000,-41.504,-33.691,-42.969,0.000
1727423090.405,0.000,-32.715,-42.969,-31.738,0.000
1727423090.409,0.000,-22.461,-38.086,-23.438,0.000
1727423090.413,0.000,-49.805,-37.598,-41.992,0.000
1727423090.417,0.000,-69.824,-40.039,-54.199,0.000
1727423090.421,-28.809,-48.340,-33.203,-30.273,0.000
1727423090.425,4.395,-38.086,-32.227,-15.137,0.000
1727423090.428,-7.812,-44.922,-35.156,-25.879,0.000
1727423090.432,-45.410,-41.016,-38.574,-40.039,0.000
1727423090.436,-56.152,-45.410,-47.363,-41.016,0.000
1727423090.440,-20.020,-57.617,-52.246,-32.715,0.000
1727423090.444,7.324,-46.875,-53.223,-31.738,0.000
1727423090.448,1.953,-33.203,-51.758,-30.762,0.000
1727423090.452,-33.203,-35.645,-51.758,-34.180,0.000
1727423090.456,-51.270,-44.434,-49.805,-40.527,0.000
1727423090.460,-15.625,-53.711,-48.828,-26.855,0.000
1727423090.464,15.137,-50.781,-48.340,-15.137,0.000
1727423090.468,6.348,-38.086,-45.898,-17.090,0.000
1727423090.472,-37.109,-35.156,-51.270,-20.020,0.000
1727423090.475,-64.941,-36.133,-51.758,-26.855,0.000
1727423090.479,-31.738,-29.785,-45.898,-13.184,0.000
1727423090.483,3.906,-36.621,-47.363,-6.836,0.000
1727423090.487,0.000,-32.227,-50.781,-20.508,0.000
1727423090.491,-39.551,-20.996,-53.711,-37.598,0.000
1727423090.495,-74.707,-29.785,-59.082,-52.734,0.000
1727423090.499,-51.758,-30.273,-54.199,-46.875,0.000
1727423090.503,-10.742,-19.043,-39.551,-34.180,0.000
1727423090.507,-9.766,-27.344,-36.133,-19.043,0.000
1727423090.511,-40.039,-42.480,-33.691,-15.137,0.000
1727423090.514,-66.895,-48.828,-24.902,-24.902,0.000
1727423090.518,-50.781,-35.645,-17.090,-34.668,0.000
1727423090.522,-6.836,-34.668,-18.066,-37.109,0.000
1727423090.526,2.930,-50.293,-26.855,-24.902,0.000
1727423090.530,-41.016,-45.410,-34.180,-12.207,0.000
1727423090.534,-73.730,-45.898,-29.785,-20.020,0.000
1727423090.538,-65.918,-46.387,-22.461,-23.926,0.000
1727423090.542,-31.738,-46.875,-34.668,-18.555,0.000
1727423090.546,-9.277,-54.688,-39.551,-18.555,0.000
1727423090.550,-12.695,-43.457,-31.250,-12.695,0.000
1727423090.554,-36.133,-41.504,-30.273,-15.625,0.000
1727423090.557,-42.969,-53.711,-32.715,-19.043,0.000
1727423090.562,-8.789,-51.758,-34.180,-10.742,0.000
1727423090.566,18.066,-44.922,-28.809,-6.348,0.000
1727423090.570,4.883,-49.316,-23.926,-7.324,0.000
1727423090.574,-33.203,-51.270,-27.832,-22.461,0.000
1727423090.578,-45.898,-31.250,-33.691,-22.949,0.000
1727423090.581,-4.395,-23.438,-32.715,-7.812,0.000
1727423090.585,22.949,-29.297,-29.297,-6.836,0.000
1727423090.589,1.465,-27.832,-37.109,-9.766,0.000
1727423090.593,-39.062,-35.156,-42.480,-19.043,0.000
1727423090.597,-54.688,-41.504,-41.992,-23.926,0.000
1727423090.601,-18.066,-40.527,-42.480,-20.508,0.000
1727423090.605,8.789,-38.574,-37.109,-20.508,0.000
1727423090.609,0.000,-52.246,-38.086,-25.391,0.000
1727423090.613,0.000,-71.777,-47.852,-43.945,0.000
1727423090.616,0.000,-52.734,-41.504,-60.059,0.000
1727423090.620,0.000,-30.273,-32.715,-43.457,0.000
1727423090.624,0.000,-37.109,-38.086,-24.414,0.000
1727423090.628,0.000,-43.945,-38.086,-28.320,0.000
1727423090.632,0.000,-63.477,-27.832,-36.133,0.000
1727423090.636,0.000,-73.730,-25.879,-47.852,0.000
1727423090.640,0.000,-47.852,-45.410,-53.223,0.000
1727423090.644,0.000,-26.855,-62.988,-64.941,0.000
1727423090.648,0.000,-26.855,-63.965,-80.566,0.000
1727423090.652,0.000,-31.250,-65.918,-94.727,0.000
1727423090.655,-103.027,-8.789,-65.430,-95.215,0.000
1727423090.659,-89.355,-3.906,-64.453,-90.820,0.000
1727423090.663,-55.176,-37.109,-71.777,-86.426,0.000
1727423090.667,-33.691,-45.410,-80.078,-86.914,0.000
1727423090.671,-69.824,-26.367,-91.797,-107.910,0.000
1727423090.675,-107.910,-12.695,-105.469,-118.164,0.000
1727423090.679,-89.355,0.488,-108.887,-111.328,0.000
1727423090.683,-40.527,4.395,-108.398,-102.051,0.000
1727423090.687,-8.301,-1.953,-104.004,-85.938,0.000
1727423090.690,-26.367,0.000,-100.098,-76.660,0.000
1727423090.694,-76.172,1.953,-108.398,-100.098,0.000
1727423090.698,-71.777,5.371,-111.328,-103.516,0.000
1727423090.702,-12.695,13.184,-109.863,-62.012,0.000
1727423090.706,7.812,9.277,-109.375,-53.711,0.000
1727423090.710,-20.020,10.254,-93.262,-53.223,0.000
1727423090.714,-52.734,13.184,-88.379,-58.594,0.000
1727423090.717,-50.781,5.371,-87.891,-65.430,0.000
1727423090.721,-19.531,4.883,-81.055,-46.875,0.000
1727423090.725,-10.254,1.465,-86.914,-52.734,0.000
1727423090.729,-32.227,3.418,-83.496,-71.289,0.000
1727423090.733,-71.289,-2.930,-79.590,-81.543,0.000
1727423090.737,-70.312,-5.859,-84.473,-71.289,0.000
1727423090.741,-36.133,-3.906,-83.496,-62.012,0.000
1727423090.745,-22.461,-11.230,-81.055,-59.570,0.000
1727423090.749,-25.391,-17.090,-81.055,-48.828,0.000
1727423090.753,-53.711,-16.113,-79.102,-47.852,0.000
1727423090.757,-62.012,-3.906,-67.383,-59.570,0.000
1727423090.761,-17.578,-7.324,-62.988,-49.316,0.000
1727423090.765,6.348,-20.508,-69.336,-42.480,0.000
1727423090.769,0.488,-1.953,-60.059,-35.645,0.000
1727423090.772,-29.297,7.324,-51.270,-26.367,0.000
1727423090.776,-57.129,-18.555,-54.688,-43.945,0.000
1727423090.780,-20.508,-21.484,-51.758,-40.039,0.000
1727423090.784,18.555,-10.742,-47.363,-18.555,0.000
1727423090.788,3.418,-28.809,-47.363,-13.184,0.000
1727423090.792,-33.691,-40.039,-44.922,-16.602,0.000
1727423090.796,0.000,-38.086,-42.969,-22.949,0.000
1727423090.800,0.000,-43.945,-38.574,-17.090,0.000
1727423090.804,0.000,-44.922,-41.504,-10.254,0.000
1727423090.808,0.000,-41.016,-41.504,-2.441,0.000
1727423090.812,0.000,-44.922,-41.504,-10.254,0.000
1727423090.816,0.000,-47.852,-47.363,-26.855,0.000
1727423090.819,0.000,-47.363,-43.457,-6.348,0.000
1727423090.823,0.000,-35.156,-40.039,2.930,0.000
1727423090.827,0.000,-26.367,-42.480,-6.348,0.000
1727423090.831,0.000,-28.320,-39.551,-12.695,0.000
1727423090.835,0.000,-31.738,-37.598,-28.320,0.000
1727423090.839,0.000,-31.250,-37.109,-25.879,0.000
1727423090.843,-12.207,-26.855,-33.203,-14.648,0.000
1727423090.847,-9.766,-24.414,-42.480,-15.625,0.000
1727423090.851,-41.016,-25.391,-47.363,-22.461,0.000
1727423090.855,-76.172,-37.109,-48.828,-37.109,0.000
1727423090.859,-65.430,-45.898,-50.781,-41.504,0.000
1727423090.862,-22.949,-39.062,-53.711,-46.875,0.000
1727423090.866,-31.250,-46.875,-65.430,-45.898,0.000
1727423090.870,-60.547,-51.758,-72.754,-45.410,0.000
1727423090.874,-83.008,-41.992,-72.266,-57.617,0.000
1727423090.878,-81.543,-35.645,-67.383,-65.430,0.000
1727423090.882,-42.969,-38.086,-70.801,-68.359,0.000
1727423090.886,-17.578,-46.387,-81.543,-51.270,0.000
1727423090.890,-35.156,-45.898,-84.473,-58.105,0.000
1727423090.894,-76.172,-44.434,-84.473,-74.707,0.000
1727423090.898,-73.730,-39.551,-90.820,-66.406,0.000
1727423090.901,-34.668,-43.457,-87.402,-49.805,0.000
1727423090.905,-14.648,-47.852,-79.102,-38.086,0.000
1727423090.909,-25.879,-40.039,-76.172,-39.062,0.000
1727423090.913,-63.965,-35.645,-73.242,-43.457,0.000
1727423090.917,-69.824,-29.785,-72.266,-51.758,0.000
1727423090.921,-37.109,-34.180,-72.754,-47.852,0.000
1727423090.925,-10.254,-40.527,-75.195,-35.645,0.000
1727423090.929,-17.578,-39.551,-71.777,-27.832,0.000
1727423090.933,-48.340,-39.551,-65.430,-33.691,0.000
1727423090.937,-67.871,-47.363,-71.289,-41.016,0.000
1727423090.940,-48.828,-48.828,-80.078,-31.250,0.000
1727423090.944,-11.719,-37.109,-79.102,-22.949,0.000
1727423090.948,-11.230,-34.180,-80.566,-14.648,0.000
1727423090.952,-41.992,-41.016,-78.613,-20.508,0.000
1727423090.956,-60.059,-49.805,-77.637,-50.293,0.000
1727423090.960,-41.504,-55.176,-82.520,-60.547,0.000
1727423090.964,-18.555,-62.500,-83.984,-47.852,0.000
1727423090.968,-20.996,-59.570,-84.473,-43.457,0.000
1727423090.972,-63.477,-51.270,-91.309,-49.316,0.000
1727423090.976,-99.121,-50.293,-96.191,-64.453,0.000
1727423090.980,-71.777,-33.691,-100.586,-62.988,0.000
1727423090.983,-28.809,-23.438,-97.656,-52.734,0.000
1727423090.987,-18.066,-35.645,-87.891,-44.922,0.000
1727423090.991,-57.129,-48.828,-90.820,-44.922,0.000
1727423090.995,-87.402,-43.945,-88.379,-66.895,0.000
1727423090.999,-59.082,-34.668,-78.125,-70.312,0.000
1727423091.003,-16.113,-35.645,-77.637,-59.570,0.000
1727423091.007,-7.324,-41.992,-75.684,-45.898,0.000
1727423091.011,-44.922,-38.086,-75.195,-40.527,0.000
1727423091.014,-82.031,-27.344,-80.566,-63.965,0.000
1727423091.018,-62.988,-30.762,-81.055,-69.336,0.000
1727423091.022,-26.367,-33.203,-85.938,-44.922,0.000
1727423091.026,-16.113,-28.320,-87.891,-36.133,0.000
1727423091.030,-32.715,-33.691,-86.426,-56.152,0.000
1727423091.034,-63.965,-52.246,-83.008,-72.754,0.000
1727423091.038,-52.734,-46.875,-68.359,-61.035,0.000
1727423091.042,-11.719,-32.715,-61.523,-39.062,0.000
1727423091.045,3.418,-34.180,-60.059,-31.738,0.000
1727423091.049,-16.113,-40.039,-65.430,-20.020,0.000
1727423091.053,-48.340,-35.156,-67.383,-27.344,0.000
1727423091.057,-46.875,-41.016,-61.035,-38.574,0.000
1727423091.061,-7.812,-50.293,-67.871,-32.715,0.000
1727423091.065,16.602,-35.645,-65.430,-22.461,0.000
1727423091.069,-1.465,-20.020,-58.105,-13.184,0.000
1727423091.073,-44.434,-26.367,-59.082,-19.043,0.000
1727423091.076,-51.270,-47.852,-56.152,-20.508,0.000
1727423091.080,-11.719,-43.457,-52.734,-16.113,0.000
1727423091.084,8.789,-34.180,-53.711,-23.438,0.000
1727423091.088,-7.812,-34.668,-51.270,-31.250,0.000
1727423091.092,-44.922,-28.320,-55.176,-33.691,0.000
1727423091.096,-66.895,-25.391,-66.895,-37.598,0.000
1727423091.100,-38.574,-25.879,-66.895,-25.879,0.000
1727423091.104,-2.930,-27.344,-68.359,-19.531,0.000
1727423091.108,-18.066,-42.969,-74.219,-28.320,0.000
1727423091.112,-60.059,-51.270,-71.777,-38.574,0.000
1727423091.115,-74.707,-49.316,-71.777,-52.246,0.000
1727423091.119,-49.316,-44.922,-79.102,-44.434,0.000
1727423091.124,-9.766,-41.016,-78.613,-29.297,0.000
1727423091.127,-11.230,-41.016,-80.078,-35.156,0.000
1727423091.131,-55.176,-35.645,-89.844,-49.316,0.000
1727423091.135,-70.312,-34.180,-83.984,-50.781,0.000
1727423091.139,-35.645,-23.926,-69.824,-34.668,0.000
1727423091.143,-15.625,-34.180,-72.754,-14.648,0.000
1727423091.147,-18.555,-45.410,-80.566,-22.461,0.000
1727423091.151,-48.340,-34.668,-77.148,-36.621,0.000
1727423091.155,-74.707,-41.504,-72.754,-48.828,0.000
1727423091.159,-50.293,-30.762,-72.754,-51.270,0.000
1727423091.163,-8.301,-14.648,-70.801,-33.691,0.000
1727423091.167,7.324,-26.367,-72.266,-23.438,0.000
1727423091.171,0.000,-54.688,-66.406,-20.020,0.000
1727423091.175,0.000,-63.477,-68.359,-30.273,0.000
1727423091.178,0.000,-33.691,-67.383,-29.785,0.000
1727423091.182,0.000,-33.203,-55.176,-14.160,0.000
1727423091.186,0.000,-55.664,-58.594,-10.254,0.000
1727423091.190,0.000,-54.199,-66.895,-18.555,0.000
1727423091.194,0.000,-43.457,-71.289,-24.902,0.000
1727423091.198,0.000,-22.949,-55.176,-13.184,0.000
1727423091.202,0.000,-105.469,-39.551,7.812,0.000
1727423091.206,0.000,-162.598,-25.391,26.855,0.000
1727423091.210,0.000,-31.738,-29.297,2.441,0.000
1727423091.214,0.000,32.715,-49.805,-50.293,0.000
1727423091.218,-79.590,6.348,-45.898,-65.430,0.000
1727423091.222,-66.406,-47.363,-43.945,-67.871,0.000
1727423091.225,-28.320,-87.402,-13.184,-51.270,0.000
1727423091.229,35.156,-129.883,16.602,-0.488,0.000
1727423091.233,6.348,-101.074,-27.344,4.395,0.000
1727423091.237,-60.059,-11.230,-2.930,-40.527,0.000
1727423091.241,-59.082,-64.941,53.223,-76.660,0.000
1727423091.245,18.066,-75.195,70.312,-16.602,0.000
1727423091.249,15.625,-4.395,85.449,8.301,0.000
1727423091.253,-60.547,-52.246,107.422,-31.250,0.000
1727423091.257,-48.828,-159.668,94.238,-21.973,0.000
1727423091.261,-5.859,-154.785,84.473,-20.996,0.000
1727423091.264,11.719,-49.316,104.492,-39.062,0.000
1727423091.268,-2.441,-41.016,89.844,-29.297,0.000
1727423091.272,-23.438,-96.680,97.168,-6.836,0.000
1727423091.276,-52.734,-170.898,103.027,-31.250,0.000
1727423091.280,-48.828,-145.020,76.172,-46.387,0.000
1727423091.284,27.344,-151.367,130.371,-5.371,0.000
1727423091.288,35.156,-212.402,148.438,3.418,0.000
1727423091.292,10.254,-241.699,171.387,20.020,0.000
1727423091.296,48.340,-202.637,201.660,74.219,0.000
1727423091.300,39.062,-46.387,127.441,41.992,0.000
1727423091.304,43.457,25.391,110.840,27.832,0.000
1727423091.307,39.551,-30.762,156.250,35.645,0.000
1727423091.311,-17.578,30.273,244.141,12.695,0.000
1727423091.315,-17.090,59.082,287.109,11.230,0.000
1727423091.319,26.855,38.086,314.453,46.875,0.000
1727423091.323,66.406,55.176,311.035,66.406,0.000
1727423091.327,68.359,70.801,280.273,51.758,0.000
1727423091.331,34.668,94.727,303.711,31.250,0.000
1727423091.335,18.066,192.383,327.637,27.344,0.000
1727423091.339,53.711,286.621,327.637,50.781,0.000
1727423091.343,104.492,372.559,346.191,66.895,0.000
1727423091.346,83.008,513.672,384.766,46.387,0.000
1727423091.350,31.250,544.434,404.297,29.785,0.000
1727423091.354,-1.953,521.484,396.973,18.066,0.000
1727423091.358,11.719,529.785,391.113,23.926,0.000
1727423091.362,58.105,510.254,381.836,36.621,0.000
1727423091.366,77.637,465.332,379.883,43.945,0.000
1727423091.370,48.828,451.172,399.414,46.387,0.000
1727423091.374,20.020,470.703,411.133,33.691,0.000
1727423091.378,32.227,489.258,411.133,29.785,0.000
1727423091.381,65.918,479.492,422.363,38.574,0.000
1727423091.385,80.566,445.801,428.711,48.340,0.000
1727423091.389,52.734,416.016,405.762,44.922,0.000
1727423091.393,16.602,398.438,375.000,38.574,0.000
1727423091.397,15.137,387.207,357.910,34.180,0.000
1727423091.401,57.617,372.070,347.656,44.922,0.000
1727423091.405,91.309,346.191,326.660,52.734,0.000
1727423091.409,74.219,321.777,305.176,47.852,0.000
1727423091.412,20.996,297.363,318.848,36.621,0.000
1727423091.416,-3.906,278.320,334.961,24.902,0.000
1727423091.420,20.508,261.230,326.660,27.344,0.000
1727423091.424,45.410,231.934,318.359,38.086,0.000
1727423091.428,41.016,191.406,310.547,27.832,0.000
1727423091.432,6.348,166.016,293.945,4.883,0.000
1727423091.436,-1.465,156.738,270.020,-3.418,0.000
1727423091.440,28.320,143.066,254.883,17.090,0.000
1727423091.444,42.480,126.465,242.188,23.926,0.000
1727423091.448,33.203,109.375,235.840,9.766,0.000
1727423091.451,2.441,87.891,211.914,7.324,0.000
1727423091.455,-25.391,77.148,180.176,-13.184,0.000
1727423091.459,-10.254,72.754,158.691,-23.438,0.000
1727423091.463,11.230,57.617,137.695,-26.367,0.000
1727423091.467,-0.488,35.645,127.441,-36.133,0.000
1727423091.471,-41.016,16.602,115.723,-42.480,0.000
1727423091.475,-72.266,-46.387,109.863,-50.293,0.000
1727423091.479,-53.711,-97.168,96.191,-57.129,0.000
1727423091.482,-17.578,-106.445,79.102,-52.734,0.000
1727423091.486,-15.625,-122.070,64.453,-34.180,0.000
1727423091.490,-59.570,-113.770,47.363,-30.762,0.000
1727423091.494,-91.797,-91.797,33.691,-35.156,0.000
1727423091.498,-60.547,-50.293,18.555,-33.691,0.000
1727423091.502,-19.043,-9.277,-7.324,-44.922,0.000
1727423091.506,-22.461,7.324,-38.086,-37.109,0.000
1727423091.510,-55.664,-5.371,-53.711,-37.109,0.000
1727423091.514,-73.730,-9.766,-57.129,-53.711,0.000
1727423091.518,-56.641,7.324,-77.637,-47.852,0.000
1727423091.522,-19.531,9.277,-105.957,-41.016,0.000
1727423091.526,-6.836,12.695,-125.488,-44.434,0.000
1727423091.530,-31.250,36.621,-145.020,-44.434,0.000
1727423091.533,-60.547,49.316,-160.645,-45.410,0.000
1727423091.537,-52.734,41.992,-187.500,-44.434,0.000
1727423091.541,-13.672,49.316,-248.047,-24.414,0.000
1727423091.545,-0.977,62.500,-312.012,-24.902,0.000
1727423091.549,-35.645,33.691,-344.727,-40.039,0.000
1727423091.553,-83.008,-7.812,-359.863,-60.547,0.000
1727423091.557,-89.355,-22.949,-373.047,-70.312,0.000
1727423091.561,-51.270,-45.410,-375.488,-65.430,0.000
1727423091.565,-28.320,-72.266,-368.164,-72.754,0.000
1727423091.569,-40.039,-86.914,-357.422,-73.730,0.000
1727423091.573,-77.148,-108.887,-350.098,-81.543,0.000
1727423091.577,-100.098,-142.578,-352.051,-89.355,0.000
1727423091.580,-76.172,-167.969,-360.352,-80.566,0.000
1727423091.584,-49.316,-177.734,-361.328,-68.359,0.000
1727423091.588,-54.199,-209.961,-359.863,-51.758,0.000
1727423091.592,-105.469,-216.309,-367.676,-64.453,0.000
1727423091.596,-122.070,-168.457,-352.539,-89.844,0.000
1727423091.600,-77.637,-143.066,-335.938,-81.055,0.000
1727423091.604,-52.246,-134.277,-334.473,-75.195,0.000
1727423091.608,-53.711,-114.258,-331.055,-77.637,0.000
1727423091.612,-83.496,-111.328,-327.148,-77.148,0.000
1727423091.616,-111.328,-110.352,-329.590,-90.820,0.000
1727423091.620,-88.379,-120.605,-335.449,-86.426,0.000
1727423091.624,-40.527,-114.258,-323.730,-60.059,0.000
1727423091.627,-44.434,-83.984,-324.219,-69.824,0.000
1727423091.631,-87.891,-80.078,-338.867,-81.055,0.000
1727423091.635,-97.168,-70.312,-341.797,-70.801,0.000
1727423091.639,-61.523,-62.012,-341.309,-67.383,0.000
1727423091.643,-27.832,-72.754,-354.492,-39.551,0.000
1727423091.647,-25.391,-60.059,-378.906,-27.344,0.000
1727423091.651,-66.406,-59.570,-407.227,-64.453,0.000
1727423091.655,-107.422,-63.477,-431.152,-78.125,0.000
1727423091.659,-73.242,-47.852,-421.387,-60.547,0.000
1727423091.663,-31.738,-86.426,-408.203,-53.223,0.000
1727423091.667,-31.250,-114.746,-417.480,-50.781,0.000
1727423091.670,-65.430,-97.168,-424.805,-52.246,0.000
1727423091.674,-86.914,-107.910,-404.785,-54.199,0.000
1727423091.678,-64.941,-127.930,-376.953,-39.062,0.000
1727423091.682,-18.066,-107.910,-357.422,-24.902,0.000
1727423091.686,-19.043,-79.102,-352.539,-24.414,0.000
1727423091.690,-79.102,-82.520,-345.703,-61.035,0.000
1727423091.694,-110.352,-87.402,-298.828,-76.660,0.000
1727423091.698,-93.750,-75.195,-274.902,-81.055,0.000
1727423091.702,-51.758,-72.754,-272.461,-88.867,0.000
1727423091.706,-39.062,-75.684,-263.672,-72.754,0.000
1727423091.709,-55.664,-82.031,-265.137,-67.871,0.000
1727423091.713,-86.426,-97.656,-263.672,-70.801,0.000
1727423091.717,-90.820,-91.797,-250.488,-74.707,0.000
1727423091.721,-49.805,-66.895,-238.770,-52.734,0.000
1727423091.725,-26.855,-67.871,-227.051,-41.504,0.000
1727423091.729,-50.781,-75.195,-221.191,-62.012,0.000
1727423091.733,-95.703,-77.637,-225.586,-76.660,0.000
1727423091.737,-93.750,-95.215,-217.285,-63.477,0.000
1727423091.740,-50.293,-82.520,-204.590,-48.340,0.000
1727423091.744,-23.438,-54.199,-203.613,-38.574,0.000
1727423091.748,-38.086,-57.617,-205.566,-33.203,0.000
1727423091.752,-68.848,-63.965,-191.895,-41.016,0.000
1727423091.756,-81.055,-53.711,-177.246,-61.035,0.000
1727423091.760,-44.922,-56.152,-170.410,-42.480,0.000
1727423091.764,-7.812,-62.500,-165.039,-21.484,0.000
1727423091.768,-29.297,-53.711,-162.109,-40.039,0.000
1727423091.772,-70.312,-43.945,-162.109,-51.758,0.000
1727423091.776,-87.891,-45.410,-159.180,-59.082,0.000
1727423091.779,-47.363,-42.969,-153.809,-46.875,0.000
1727423091.783,-7.324,-35.156,-146.484,-33.691,0.000
1727423091.787,-15.137,-32.227,-147.949,-35.645,0.000
1727423091.791,-46.875,-34.180,-146.484,-43.457,0.000
1727423091.795,-54.199,-43.945,-133.789,-48.340,0.000
1727423091.799,-35.156,-54.199,-125.000,-43.945,0.000
1727423091.803,-16.602,-32.227,-124.512,-32.715,0.000
1727423091.807,-11.230,-20.996,-120.605,-33.691,0.000
1727423091.811,-41.016,-37.109,-116.699,-36.133,0.000
1727423091.814,-77.637,-41.992,-119.629,-50.781,0.000
1727423091.818,-61.035,-41.504,-120.605,-55.664,0.000
1727423091.822,-16.113,-29.297,-113.281,-31.250,0.000
1727423091.826,-20.996,-20.508,-107.422,-28.809,0.000
1727423091.830,-57.617,-38.574,-114.746,-49.805,0.000
1727423091.834,-84.473,-43.945,-120.117,-66.406,0.000
1727423091.838,-70.312,-38.086,-117.676,-50.781,0.000
1727423091.841,-22.949,-49.805,-117.188,-33.691,0.000
1727423091.845,-17.090,-42.480,-127.441,-42.969,0.000
1727423091.849,-52.734,-29.297,-134.277,-46.387,0.000
1727423091.853,-73.730,-29.785,-127.441,-47.363,0.000
1727423091.857,-58.594,-31.738,-116.699,-38.086,0.000
1727423091.861,-20.020,-39.551,-115.234,-21.484,0.000
1727423091.865,-9.766,-47.852,-113.770,-39.551,0.000
1727423091.869,-39.551,-41.016,-100.098,-43.457,0.000
1727423091.873,-68.359,-28.809,-97.168,-36.621,0.000
1727423091.877,-57.617,-21.484,-103.516,-48.828,0.000
1727423091.881,-20.996,-32.715,-97.168,-44.434,0.000
1727423091.885,-7.324,-41.016,-93.262,-44.434,0.000
1727423091.889,-23.926,-30.273,-91.309,-39.551,0.000
1727423091.893,-56.641,-26.367,-90.820,-29.297,0.000
1727423091.896,-59.082,-15.625,-89.355,-27.344,0.000
1727423091.900,-11.230,-15.137,-83.984,-24.902,0.000
1727423091.904,10.742,-28.320,-89.355,-9.766,0.000
1727423091.908,-10.254,-37.109,-93.750,-10.254,0.000
1727423091.912,-52.246,-53.223,-95.703,-41.016,0.000
1727423091.916,-65.430,-56.152,-91.797,-54.688,0.000
1727423091.920,-27.344,-39.062,-88.867,-33.203,0.000
1727423091.924,5.371,-19.043,-84.473,-10.254,0.000
1727423091.928,0.000,-22.461,-72.754,-9.277,0.000
1727423091.932,-42.969,-30.273,-67.383,-12.207,0.000
1727423091.936,-63.477,-22.949,-77.148,-36.621,0.000
1727423091.940,-45.410,-34.668,-88.379,-45.898,0.000
1727423091.944,-17.578,-34.668,-83.984,-33.203,0.000
1727423091.947,-8.789,-12.207,-81.055,-40.527,0.000
1727423091.951,-48.340,-18.066,-87.402,-48.828,0.000
1727423091.955,-79.590,-47.852,-82.031,-56.641,0.000
1727423091.959,-56.641,-35.645,-74.219,-59.570,0.000
1727423091.963,-30.273,-21.973,-81.543,-67.871,0.000
1727423091.967,-31.738,-33.203,-81.055,-58.105,0.000
1727423091.971,-57.617,-40.527,-76.660,-38.574,0.000
1727423091.975,-83.008,-53.223,-81.543,-76.172,0.000
1727423091.979,-56.152,-45.898,-76.660,-70.801,0.000
1727423091.983,-7.812,-21.484,-67.383,-22.461,0.000
1727423091.987,-7.812,-39.062,-75.195,-20.508,0.000
1727423091.991,-50.781,-68.848,-83.984,-31.738,0.000
1727423091.994,-69.336,-58.105,-82.520,-53.711,0.000
1727423091.998,-39.551,-35.645,-71.777,-50.781,0.000
1727423092.002,4.883,-11.719,-58.594,-24.414,0.000
1727423092.006,17.090,-9.766,-56.641,-12.695,0.000
1727423092.010,-20.508,-16.113,-62.988,-17.578,0.000
1727423092.014,-53.711,-24.902,-62.012,-26.855,0.000
1727423092.018,-30.273,-49.805,-57.617,-34.180,0.000
1727423092.022,4.883,-52.246,-55.664,3.418,0.000
1727423092.026,8.789,-45.410,-52.734,16.113,0.000
1727423092.030,-18.066,-40.527,-49.805,-11.719,0.000
1727423092.033,-48.340,-24.902,-48.340,-14.160,0.000
1727423092.037,-42.969,-13.184,-45.898,-27.344,0.000
1727423092.041,-13.184,-19.531,-53.711,-20.508,0.000
1727423092.045,4.395,-31.738,-55.176,-0.977,0.000
1727423092.049,-14.648,-36.133,-37.598,-5.859,0.000
1727423092.053,-50.781,-37.598,-32.715,-19.043,0.000
1727423092.057,-65.918,-41.016,-36.133,-21.484,0.000
1727423092.061,-22.461,-39.062,-34.180,-19.043,0.000
1727423092.065,-2.930,-47.363,-40.527,-33.203,0.000
1727423092.069,-31.738,-66.895,-47.852,-41.992,0.000
1727423092.073,-67.871,-81.543,-53.711,-45.898,0.000
1727423092.076,-81.543,-75.195,-52.246,-50.293,0.000
1727423092.080,-45.898,-59.082,-42.480,-42.480,0.000
1727423092.084,-15.137,-67.383,-40.039,-42.969,0.000
1727423092.088,-36.133,-47.363,-40.527,-51.270,0.000
1727423092.092,-83.008,-19.043,-43.457,-72.266,0.000
1727423092.096,-96.680,-31.250,-55.664,-77.637,0.000
1727423092.100,-62.988,-45.898,-59.082,-55.176,0.000
1727423092.104,-20.508,-47.363,-51.758,-46.387,0.000
1727423092.108,-25.879,-44.922,-46.387,-47.363,0.000
1727423092.111,-67.871,-41.016,-47.363,-44.922,0.000
1727423092.115,-84.961,-45.410,-46.875,-57.129,0.000
1727423092.119,-46.387,-50.781,-34.668,-40.527,0.000
1727423092.123,-13.672,-54.688,-29.785,-26.367,0.000
1727423092.127,-25.879,-56.152,-40.527,-46.875,0.000
1727423092.131,-54.199,-47.852,-46.387,-53.223,0.000
1727423092.135,-72.754,-29.297,-36.133,-53.223,0.000
1727423092.139,-52.734,-16.602,-34.180,-49.805,0.000
1727423092.143,-10.742,-18.555,-39.062,-42.480,0.000
1727423092.147,-9.766,-21.484,-40.527,-38.574,0.000
1727423092.150,-49.805,-22.949,-38.574,-23.438,0.000
1727423092.154,-69.824,-31.250,-34.180,-24.902,0.000
1727423092.158,-40.039,-25.879,-35.156,-36.133,0.000
1727423092.162,-6.348,-33.691,-37.598,-33.691,0.000
1727423092.166,-9.277,-65.918,-39.062,-37.109,0.000
1727423092.170,-35.645,-62.012,-47.852,-34.180,0.000
1727423092.174,-68.848,-54.688,-59.570,-37.109,0.000
1727423092.178,-58.594,-39.551,-49.316,-21.484,0.000
1727423092.182,-18.555,-11.230,-35.645,-12.695,0.000
1727423092.185,-9.766,-12.695,-7.324,-38.086,0.000
1727423092.189,-39.062,-20.996,23.438,-52.246,0.000
1727423092.193,-70.312,-24.902,30.762,-45.410,0.000
1727423092.197,-55.176,-20.508,32.227,-34.668,0.000
1727423092.201,-15.625,-20.996,21.484,-28.320,0.000
1727423092.205,4.883,-32.227,21.484,-38.086,0.000
1727423092.209,-29.297,-45.898,17.090,-50.781,0.000
1727423092.212,-72.754,-33.691,15.137,-44.922,0.000
1727423092.216,-53.223,-17.578,26.855,-33.691,0.000
1727423092.220,-10.742,-22.461,16.113,-30.762,0.000
1727423092.224,-0.977,-24.902,0.977,-31.738,0.000
1727423092.228,-34.180,-27.344,-6.836,-46.875,0.000
1727423092.232,-74.707,-35.645,-8.301,-44.922,0.000
1727423092.236,-61.523,-47.852,1.465,-30.762,0.000
1727423092.240,-16.113,-29.297,10.742,-29.297,0.000
1727423092.244,-7.324,-9.766,3.906,-37.598,0.000
1727423092.248,-30.273,-20.508,-6.836,-33.691,0.000
1727423092.252,-68.359,-33.203,-12.695,-45.410,0.000
1727423092.256,-66.406,-27.344,-8.789,-42.480,0.000
1727423092.260,-32.227,-18.066,-8.301,-15.137,0.000
1727423092.264,-13.184,-19.531,-13.672,-28.809,0.000
1727423092.267,-22.461,-34.180,-11.230,-32.227,0.000
1727423092.271,-53.223,-43.457,-8.301,-20.020,0.000
1727423092.275,-68.848,-33.691,-7.324,-35.156,0.000
1727423092.279,-35.156,-30.762,-5.371,-40.527,0.000
1727423092.283,-0.488,-41.016,-13.672,-32.715,0.000
1727423092.287,-7.324,-46.387,-13.184,-39.551,0.000
1727423092.291,-45.898,-60.059,-17.578,-47.852,0.000
1727423092.295,-80.078,-63.477,-24.414,-48.340,0.000
1727423092.299,-46.875,-49.316,-13.672,-44.922,0.000
1727423092.303,-5.859,-51.758,-20.996,-29.785,0.000
1727423092.307,-15.625,-61.035,-30.762,-29.785,0.000
1727423092.311,-44.922,-48.340,-25.391,-35.645,0.000
1727423092.315,-68.359,-31.250,-19.531,-31.250,0.000
1727423092.318,-54.199,-24.414,-22.461,-43.945,0.000
1727423092.322,-7.812,-35.156,-19.043,-48.340,0.000
1727423092.326,8.301,-48.340,-16.113,-34.668,0.000
1727423092.330,-26.367,-34.180,-22.949,-27.344,0.000
1727423092.334,-61.035,-25.391,-21.973,-49.316,0.000
1727423092.338,-53.223,-39.551,-21.973,-61.523,0.000
1727423092.342,-17.578,-53.223,-25.879,-23.438,0.000
1727423092.346,-7.324,-49.805,-27.832,-19.531,0.000
1727423092.350,-40.527,-45.898,-26.367,-53.223,0.000
1727423092.354,-88.379,-49.316,-28.809,-63.965,0.000
1727423092.358,-74.707,-45.410,-32.227,-60.059,0.000
1727423092.362,-25.879,-50.293,-32.715,-45.410,0.000
1727423092.365,-14.160,-69.824,-32.227,-34.668,0.000
1727423092.369,-36.621,-66.895,-40.527,-32.227,0.000
1727423092.373,-74.219,-64.453,-49.316,-37.598,0.000
1727423092.377,-70.801,-60.059,-43.457,-47.363,0.000
1727423092.381,-33.691,-60.059,-44.922,-48.340,0.000
1727423092.385,0.488,-66.406,-49.805,-34.180,0.000
1727423092.389,-13.672,-35.645,-49.805,-24.902,0.000
1727423092.393,-61.523,-29.297,-56.641,-32.227,0.000
1727423092.397,-63.965,-34.180,-59.082,-34.180,0.000
1727423092.401,-28.320,-19.043,-61.523,-34.180,0.000
1727423092.405,-5.859,-33.203,-66.895,-35.645,0.000
1727423092.408,-13.672,-51.270,-74.219,-29.297,0.000
1727423092.412,-33.203,-38.086,-62.500,-14.160,0.000
1727423092.416,-46.875,-24.902,-56.641,-20.020,0.000
1727423092.420,-25.391,-25.391,-68.359,-31.250,0.000
1727423092.424,-7.812,-60.059,-82.520,-27.832,0.000
1727423092.428,-16.113,-63.965,-85.449,-25.391,0.000
1727423092.432,-41.992,-29.785,-74.707,-30.273,0.000
1727423092.436,-59.082,-22.949,-81.055,-49.316,0.000
1727423092.440,-35.156,-39.062,-100.586,-43.945,0.000
1727423092.444,-10.742,-53.223,-106.445,-30.273,0.000
1727423092.448,-15.137,-56.152,-106.445,-36.621,0.000
1727423092.451,-56.152,-51.758,-111.328,-45.410,0.000
1727423092.455,-80.078,-46.387,-105.469,-42.480,0.000
1727423092.459,-42.969,-62.012,-99.121,-24.902,0.000
1727423092.463,-0.488,-77.637,-95.703,-13.184,0.000
1727423092.467,-14.160,-71.289,-99.121,-23.926,0.000
1727423092.471,-48.828,-65.430,-98.633,-33.691,0.000
1727423092.475,-64.453,-55.176,-87.402,-27.832,0.000
1727423092.479,-42.969,-68.848,-86.426,-28.320,0.000
1727423092.483,-8.301,-87.891,-91.797,-29.297,0.000
1727423092.486,-15.625,-90.820,-100.586,-39.062,0.000
1727423092.490,-43.457,-100.098,-83.496,-38.086,0.000
1727423092.494,-66.895,-95.215,-62.500,-35.156,0.000
1727423092.498,-61.035,-101.562,-63.965,-47.363,0.000
1727423092.502,-18.066,-103.027,-62.012,-41.504,0.000
1727423092.506,-0.488,-95.703,-57.617,-20.996,0.000
1727423092.510,-33.691,-84.961,-61.523,-16.602,0.000
1727423092.514,-60.547,-69.824,-62.988,-42.480,0.000
1727423092.518,-45.898,-66.895,-53.223,-41.992,0.000
1727423092.522,-17.090,-70.312,-49.316,-25.391,0.000
1727423092.526,2.930,-72.754,-42.480,-24.902,0.000
1727423092.529,0.000,-80.566,-46.875,-24.414,0.000
1727423092.533,0.000,-98.633,-62.988,-44.922,0.000
1727423092.537,0.000,-94.727,-44.922,-47.852,0.000
1727423092.541,0.000,-80.566,-28.320,-36.621,0.000
1727423092.545,0.000,-87.402,-38.086,-35.156,0.000
1727423092.549,0.000,-115.234,-46.875,-35.156,0.000
1727423092.553,0.000,-113.281,-45.410,-27.832,0.000
1727423092.557,0.000,-80.566,-36.621,-24.902,0.000
1727423092.560,0.000,-68.848,-27.832,-52.734,0.000
1727423092.564,0.000,-60.059,-19.531,-44.922,0.000
1727423092.568,0.000,-66.895,-18.066,-25.879,0.000
1727423092.572,0.000,-87.891,-19.531,-35.645,0.000
1727423092.576,-59.082,-89.355,-25.879,-48.828,0.000
1727423092.580,-28.320,-83.984,-22.461,-25.391,0.000
1727423092.584,0.000,-88.379,-19.043,-14.160,0.000
1727423092.587,-24.414,-74.219,-23.438,-34.180,0.000
1727423092.591,-66.406,-54.199,-22.461,-33.691,0.000
1727423092.595,-79.102,-56.152,-26.367,-46.875,0.000
1727423092.599,-52.246,-55.176,-28.320,-51.270,0.000
1727423092.603,-26.855,-53.223,-28.320,-40.039,0.000
1727423092.607,-33.203,-60.059,-27.344,-45.898,0.000
1727423092.611,-55.176,-60.059,-22.949,-40.039,0.000
1727423092.615,-69.336,-65.430,-19.531,-43.945,0.000
1727423092.619,-42.480,-70.801,-18.066,-43.457,0.000
1727423092.623,-6.348,-72.266,-19.531,-26.367,0.000
1727423092.627,-14.648,-84.961,-22.949,-29.297,0.000
1727423092.631,-42.969,-69.336,-22.949,-48.340,0.000
1727423092.635,-69.824,-53.711,-32.715,-65.918,0.000
1727423092.639,-49.805,-41.016,-34.180,-44.434,0.000
1727423092.642,-3.418,-39.551,-30.762,-28.809,0.000
1727423092.646,7.812,-58.594,-33.691,-22.461,0.000
1727423092.650,-26.367,-56.641,-33.203,-30.273,0.000
1727423092.654,-60.547,-65.430,-34.668,-53.711,0.000
1727423092.658,-45.410,-64.453,-34.180,-51.758,0.000
1727423092.662,-4.395,-35.645,-34.180,-40.039,0.000
1727423092.666,3.906,-35.156,-34.668,-24.902,0.000
1727423092.670,-36.621,-40.039,-36.621,-23.926,0.000
1727423092.674,-66.406,-39.551,-40.039,-36.133,0.000
1727423092.678,-45.410,-54.199,-39.062,-39.551,0.000
1727423092.682,-5.371,-54.688,-33.203,-25.391,0.000
1727423092.686,5.859,-41.504,-35.645,-28.809,0.000
1727423092.690,-15.137,-39.551,-41.016,-34.668,0.000
1727423092.693,-54.199,-41.016,-38.086,-48.340,0.000
1727423092.697,-50.781,-46.875,-30.273,-53.223,0.000
1727423092.701,1.465,-60.059,-23.926,-17.578,0.000
1727423092.705,20.996,-31.250,-23.438,-3.418,0.000
1727423092.709,-18.555,-19.043,-29.785,-27.832,0.000
1727423092.713,-65.918,-43.457,-39.551,-57.617,0.000
1727423092.717,-57.617,-44.922,-44.434,-55.176,0.000
1727423092.721,-16.602,-54.199,-44.434,-31.250,0.000
1727423092.725,-2.930,-64.941,-37.598,-36.621,0.000
1727423092.729,-21.973,-66.406,-38.086,-36.621,0.000
1727423092.733,-53.223,-62.012,-39.551,-32.715,0.000
1727423092.737,-56.152,-48.340,-32.715,-49.316,0.000
1727423092.740,-33.203,-53.711,-30.762,-54.688,0.000
1727423092.744,-6.348,-58.594,-33.691,-39.062,0.000
1727423092.748,-20.996,-41.016,-32.227,-28.320,0.000
1727423092.752,-61.523,-26.855,-27.344,-42.969,0.000
1727423092.756,-72.266,-25.391,-32.227,-57.617,0.000
1727423092.760,-46.875,-29.297,-44.434,-50.293,0.000
1727423092.764,-18.066,-36.621,-44.922,-36.621,0.000
1727423092.768,-23.438,-48.828,-40.039,-33.203,0.000
1727423092.772,-57.617,-53.223,-40.039,-47.363,0.000
1727423092.776,-68.848,-35.156,-39.551,-44.434,0.000
1727423092.780,-33.203,-46.875,-41.504,-24.414,0.000
1727423092.783,10.254,-59.570,-42.969,-26.367,0.000
1727423092.787,12.207,-36.133,-38.086,-30.762,0.000
1727423092.791,-20.020,-26.855,-32.715,-16.602,0.000
1727423092.795,-45.898,-28.320,-17.090,-24.902,0.000
1727423092.799,-39.062,-31.738,34.180,-30.762,0.000
1727423092.803,-14.648,-67.383,60.547,-22.461,0.000
1727423092.807,-18.066,-78.613,44.922,-26.367,0.000
1727423092.811,-39.062,-50.293,36.133,-29.785,0.000
1727423092.815,-64.941,-58.594,30.762,-33.691,0.000
1727423092.819,-36.133,-69.336,29.785,-28.320,0.000
1727423092.822,14.648,-50.781,32.227,-14.160,0.000
1727423092.826,2.930,-38.574,25.391,-7.324,0.000
1727423092.830,-31.250,-37.109,18.555,-23.438,0.000
1727423092.834,-62.500,-52.734,18.066,-40.527,0.000
1727423092.838,-53.223,-47.852,21.484,-21.973,0.000
1727423092.842,-9.766,-29.785,20.508,-14.160,0.000
1727423092.846,-4.883,-33.691,7.812,-31.738,0.000
1727423092.850,-43.945,-39.551,-8.789,-36.133,0.000
1727423092.854,-83.984,-49.805,-15.137,-53.711,0.000
1727423092.857,-69.336,-57.617,-10.742,-68.359,0.000
1727423092.861,-17.090,-48.828,-12.207,-30.762,0.000
1727423092.865,-13.184,-36.621,-15.625,-19.531,0.000
1727423092.869,-44.434,-57.129,-16.113,-48.828,0.000
1727423092.873,-71.289,-71.777,-17.578,-47.852,0.000
1727423092.877,-71.777,-43.457,-15.137,-39.062,0.000
1727423092.881,-29.785,-29.785,-13.184,-41.992,0.000
1727423092.885,-5.371,-33.691,-11.230,-33.691,0.000
1727423092.889,-22.949,-32.715,-6.836,-41.016,0.000
1727423092.893,-53.223,-33.691,-4.883,-46.875,0.000
1727423092.897,-61.035,-28.320,-5.859,-43.457,0.000
1727423092.900,-35.156,-31.250,-14.160,-34.668,0.000
1727423092.904,-10.742,-38.086,-16.602,-31.738,0.000
1727423092.908,-21.973,-44.922,-18.555,-37.109,0.000
1727423092.912,-55.664,-41.504,-17.090,-43.457,0.000
1727423092.916,-60.547,-41.504,-9.766,-42.480,0.000
1727423092.920,-29.297,-45.410,-5.371,-25.391,0.000
1727423092.924,0.488,-40.039,-8.301,-8.789,0.000
1727423092.928,-0.977,-49.805,-12.695,-10.742,0.000
1727423092.931,-35.156,-39.551,-14.160,-25.879,0.000
1727423092.935,-40.527,-13.184,-8.789,-18.555,0.000
1727423092.939,-2.441,-24.414,-7.812,-19.531,0.000
1727423092.943,10.254,-47.363,-29.297,-33.691,0.000
1727423092.947,-4.883,-36.621,-36.621,-23.926,0.000
1727423092.951,-39.062,-42.480,-34.668,-26.367,0.000
1727423092.955,-55.176,-42.969,-29.297,-41.504,0.000
1727423092.959,-32.227,-29.297,-26.367,-29.297,0.000
1727423092.963,-10.742,-42.969,-32.227,-18.555,0.000
1727423092.967,-6.836,-37.598,-32.227,-16.602,0.000
1727423092.971,-38.086,-31.738,-35.156,-28.809,0.000
1727423092.975,-74.707,-30.762,-38.086,-56.641,0.000
1727423092.979,-53.223,-13.672,-40.039,-62.500,0.000
1727423092.983,-12.695,-17.578,-42.969,-41.992,0.000
1727423092.987,-18.555,-36.133,-44.922,-23.926,0.000
1727423092.990,-62.500,-43.457,-59.082,-41.016,0.000
1727423092.994,-84.473,-42.969,-68.359,-61.035,0.000
1727423092.999,-56.641,-40.527,-61.523,-52.734,0.000
1727423093.002,-14.648,-45.410,-61.035,-51.758,0.000
1727423093.006,-12.695,-51.270,-62.500,-53.223,0.000
1727423093.010,-43.945,-57.617,-54.199,-42.969,0.000
1727423093.014,-71.777,-52.734,-41.504,-58.594,0.000
1727423093.018,-64.941,-37.109,-38.574,-68.848,0.000
1727423093.022,-29.297,-36.133,-46.875,-51.270,0.000
1727423093.026,-2.930,-47.852,-44.922,-40.527,0.000
1727423093.030,-26.855,-45.898,-48.340,-39.551,0.000
1727423093.034,-64.941,-26.855,-49.805,-49.805,0.000
1727423093.038,-54.688,-4.883,-48.340,-49.316,0.000
1727423093.041,-7.812,-12.695,-45.898,-41.504,0.000
1727423093.046,5.859,-23.438,-39.551,-34.180,0.000
1727423093.050,-17.090,-14.160,-37.598,-25.391,0.000
1727423093.053,-53.711,-25.879,-43.457,-18.066,0.000
1727423093.057,-52.246,-36.621,-28.809,-11.719,0.000
1727423093.061,-5.859,-28.320,-13.672,-5.859,0.000
1727423093.065,-2.930,-30.762,-29.297,-28.320,0.000
1727423093.069,-28.809,-35.156,-41.016,-44.434,0.000
1727423093.073,-56.641,-41.992,-32.715,-35.156,0.000
1727423093.077,-52.246,-38.086,-18.066,-27.832,0.000
1727423093.081,-10.254,-26.367,-14.648,-21.484,0.000
1727423093.085,9.766,-27.832,-16.602,-19.531,0.000
1727423093.089,-17.090,-37.109,-19.043,-25.879,0.000
1727423093.093,-50.293,-30.273,0.000,-35.156,0.000
1727423093.096,-63.477,-26.855,0.000,-50.781,0.000
1727423093.100,-45.898,-49.805,0.000,-52.734,0.000
1727423093.104,-17.090,-66.895,0.000,-27.344,0.000
1727423093.108,-20.020,-65.430,0.000,-20.996,0.000
1727423093.112,-57.129,-52.246,0.000,-50.293,0.000
1727423093.116,-72.266,-41.992,0.000,-55.176,0.000
1727423093.120,-40.527,-39.551,0.000,-43.457,0.000
1727423093.124,-4.395,-29.297,0.000,-35.645,0.000
1727423093.128,-11.230,-26.855,0.000,-20.508,0.000
1727423093.132,-54.199,-44.434,0.000,-29.785,0.000
1727423093.136,-68.848,-42.480,0.000,-41.504,0.000
1727423093.139,-31.738,-38.574,15.625,-18.066,0.000
1727423093.143,4.395,-39.551,13.184,-13.672,0.000
1727423093.147,5.371,-38.086,4.883,-26.367,0.000
1727423093.151,-26.367,-47.852,0.488,-28.809,0.000
1727423093.155,-61.523,-42.969,0.000,-39.551,0.000
1727423093.159,-38.086,-29.785,4.395,-39.551,0.000
1727423093.163,-0.488,-35.645,10.742,-27.832,0.000
1727423093.167,3.418,-44.434,11.230,-19.043,0.000
1727423093.171,-23.926,-42.480,7.812,-20.020,0.000
1727423093.175,-58.105,-38.574,3.418,-31.738,0.000
1727423093.179,-43.945,-28.320,-2.441,-31.250,0.000
1727423093.182,-0.488,-15.137,1.953,-25.391,0.000
1727423093.186,4.395,-15.625,8.789,-16.602,0.000
1727423093.190,-20.020,-29.297,3.906,-15.625,0.000
1727423093.194,-57.617,-38.086,0.000,-44.434,0.000
1727423093.198,-60.059,-34.180,-4.395,-57.617,0.000
1727423093.202,-2.930,-36.133,-2.441,-26.367,0.000
1727423093.206,23.438,-41.016,-3.906,0.488,0.000
1727423093.210,-11.719,-37.109,-16.113,-9.766,0.000
1727423093.214,-59.082,-28.320,-29.785,-27.832,0.000
1727423093.218,-66.895,-28.320,-36.133,-40.527,0.000
1727423093.221,-31.738,-28.809,-38.086,-34.668,0.000
1727423093.225,-3.906,-33.203,-46.387,-19.043,0.000
1727423093.229,-13.184,-43.457,-44.922,-21.973,0.000
1727423093.234,-52.734,-47.363,-37.109,-40.039,0.000
1727423093.238,-66.895,-39.551,-44.434,-44.922,0.000
1727423093.242,-32.227,-41.016,-55.176,-42.969,0.000
1727423093.245,0.488,-59.082,-48.828,-26.855,0.000
1727423093.249,-6.836,-54.199,-30.762,-12.207,0.000
1727423093.253,-53.223,-30.762,-28.320,-35.156,0.000
1727423093.257,-83.008,-24.902,-41.992,-39.062,0.000
1727423093.261,-58.105,-33.203,-42.480,-41.992,0.000
1727423093.265,-16.602,-45.898,-41.504,-55.664,0.000
1727423093.269,-11.230,-53.711,-46.875,-40.039,0.000
1727423093.273,-48.340,-47.363,-50.293,-33.203,0.000
1727423093.277,-69.336,-32.715,-46.875,-41.504,0.000
1727423093.280,-35.645,-21.484,-45.410,-30.273,0.000
1727423093.284,-0.488,-23.438,-48.828,-16.602,0.000
1727423093.288,-2.930,-27.344,-52.734,-18.555,0.000
1727423093.292,-38.574,-33.203,-57.617,-31.738,0.000
1727423093.296,-63.965,-27.344,-65.430,-41.016,0.000
1727423093.300,-42.969,-16.113,-68.848,-28.320,0.000
1727423093.304,-15.137,-26.367,-66.895,-22.461,0.000
1727423093.308,-15.137,-39.062,-68.848,-40.039,0.000
1727423093.312,-45.410,-39.551,-64.941,-46.387,0.000
1727423093.315,-63.477,-29.297,-56.152,-50.293,0.000
1727423093.319,-42.969,-22.949,-62.012,-46.875,0.000
1727423093.323,-9.766,-18.066,-67.383,-43.457,0.000
1727423093.327,-1.953,-13.184,-64.941,-33.203,0.000
1727423093.331,-40.527,-12.207,-62.500,-33.691,0.000
1727423093.335,-78.613,-17.578,-59.570,-46.875,0.000
1727423093.339,-58.594,-30.273,-58.105,-33.691,0.000
1727423093.342,-14.648,-56.641,-52.734,-35.156,0.000
1727423093.346,-6.836,-48.340,-56.152,-29.297,0.000
1727423093.350,-35.156,-20.020,-54.199,-23.438,0.000
1727423093.354,-71.289,-27.832,-47.852,-45.410,0.000
1727423093.358,-60.547,-42.969,-52.246,-38.086,0.000
1727423093.362,-9.766,-42.969,-54.199,-26.855,0.000
1727423093.366,-6.348,-53.223,-57.129,-27.832,0.000
1727423093.370,-30.762,-59.082,-52.246,-25.879,0.000
1727423093.374,-60.547,-48.828,-49.805,-39.062,0.000
1727423093.378,-63.477,-48.828,-55.176,-44.922,0.000
1727423093.382,-30.762,-45.898,-60.059,-31.250,0.000
1727423093.386,-24.902,-42.969,-64.453,-31.738,0.000
1727423093.390,-53.223,-54.688,-65.430,-44.922,0.000
1727423093.393,-89.355,-66.406,-62.988,-49.316,0.000
1727423093.397,-80.566,-55.176,-57.617,-59.570,0.000
1727423093.401,-29.785,-46.875,-51.758,-51.758,0.000
1727423093.405,-3.906,-49.805,-50.781,-24.902,0.000
1727423093.409,-17.578,-35.156,-47.363,-26.367,0.000
1727423093.413,-58.594,-31.250,-51.270,-33.203,0.000
1727423093.417,-65.918,-45.410,-56.641,-40.527,0.000
1727423093.421,-33.203,-47.852,-55.664,-49.316,0.000
1727423093.425,-11.230,-33.691,-57.129,-31.738,0.000
1727423093.429,-26.367,-33.691,-65.918,-20.020,0.000
1727423093.433,-58.105,-33.203,-69.336,-37.598,0.000
1727423093.437,-79.102,-28.809,-62.500,-59.570,0.000
1727423093.440,-52.246,-28.320,-57.617,-48.828,0.000
1727423093.444,-10.742,-28.320,-62.500,-36.621,0.000
1727423093.448,-17.578,-26.855,-64.453,-32.227,0.000
1727423093.452,-69.824,-30.762,-72.754,-37.598,0.000
1727423093.456,-100.098,-37.598,-77.148,-58.594,0.000
1727423093.460,-64.941,-31.250,-58.105,-48.828,0.000
1727423093.464,-15.137,-25.879,-48.340,-28.320,0.000
1727423093.468,-19.531,-32.227,-62.012,-42.480,0.000
1727423093.472,-56.641,-36.621,-71.777,-64.941,0.000
1727423093.476,-70.312,-41.016,-61.035,-58.105,0.000
1727423093.480,-40.527,-55.664,-50.781,-35.645,0.000
1727423093.484,6.348,-63.965,-43.457,-31.250,0.000
1727423093.487,1.953,-65.918,-45.898,-38.574,0.000
1727423093.491,-30.762,-39.551,-47.363,-32.715,0.000
1727423093.495,-48.340,-14.160,-42.480,-30.762,0.000
1727423093.499,-45.898,-25.391,-44.922,-24.414,0.000
1727423093.503,-10.742,-37.598,-47.852,-15.137,0.000
1727423093.507,-0.488,-45.898,-54.199,-26.367,0.000
1727423093.511,-27.344,-39.062,-53.223,-31.738,0.000
1727423093.515,-54.688,-31.738,-44.434,-29.785,0.000
1727423093.519,-46.387,-36.621,-43.457,-16.113,0.000
1727423093.523,-13.672,-47.852,-46.875,-8.301,0.000
1727423093.526,-18.066,-56.641,-47.852,-20.996,0.000
1727423093.530,-41.016,-50.293,-38.086,-18.066,0.000
1727423093.534,-72.266,-40.527,-35.156,-13.672,0.000
1727423093.538,-63.477,-27.832,-36.621,-29.297,0.000
1727423093.542,-19.531,-47.852,-40.039,-39.062,0.000
1727423093.546,-4.883,-58.105,-38.574,-25.391,0.000
1727423093.550,-26.855,-31.250,-42.969,-13.672,0.000
1727423093.554,-74.219,-37.109,-60.059,-31.738,0.000
1727423093.558,-79.102,-39.551,-62.012,-49.805,0.000
1727423093.561,-32.227,-24.902,-56.641,-47.852,0.000
1727423093.565,0.488,-28.320,-53.223,-43.945,0.000
1727423093.569,-23.438,-30.762,-56.641,-41.504,0.000
1727423093.573,-66.895,-21.973,-62.500,-51.758,0.000
1727423093.577,-70.801,-24.902,-59.570,-73.242,0.000
1727423093.581,-32.227,-39.551,-58.105,-63.965,0.000
1727423093.585,2.441,-28.809,-52.734,-41.504,0.000
1727423093.589,-15.625,-25.391,-52.734,-25.879,0.000
1727423093.593,-60.547,-45.410,-58.105,-30.762,0.000
1727423093.597,-66.895,-40.527,-53.223,-45.410,0.000
1727423093.601,-25.391,-34.668,-50.293,-33.203,0.000
1727423093.604,-7.324,-59.082,-51.758,-40.039,0.000
1727423093.608,-23.926,-59.082,-57.129,-34.668,0.000
1727423093.612,-54.199,-24.902,-62.012,-35.645,0.000
1727423093.616,-83.496,-23.926,-56.641,-53.711,0.000
1727423093.620,-58.105,-24.902,-52.734,-36.133,0.000
1727423093.624,-17.090,-21.484,-41.992,-23.438,0.000
1727423093.628,-13.184,-41.016,-39.062,-20.996,0.000
1727423093.632,-48.828,-44.922,-46.387,-20.020,0.000
1727423093.635,-76.660,-32.715,-41.992,-30.273,0.000
1727423093.639,-40.527,-25.391,-31.738,-26.367,0.000
1727423093.643,-0.977,-30.762,-36.133,-16.602,0.000
1727423093.647,2.441,-28.320,-39.551,-12.695,0.000
1727423093.651,-24.902,-31.250,-41.016,-10.254,0.000
1727423093.655,-58.105,-40.039,-41.016,-20.996,0.000
1727423093.659,-42.969,-42.480,-35.645,-15.625,0.000
1727423093.663,-0.488,-57.129,-39.551,0.488,0.000
1727423093.666,13.672,-70.801,-47.363,-1.953,0.000
1727423093.670,-20.020,-56.641,-43.457,-4.883,0.000
1727423093.674,-57.617,-34.668,-35.645,-12.695,0.000
1727423093.678,-43.945,-27.832,-39.062,-25.391,0.000
1727423093.682,-3.906,-30.273,-40.039,-26.855,0.000
1727423093.686,-11.230,-43.457,-46.387,-38.086,0.000
1727423093.690,-50.293,-50.293,-53.711,-38.086,0.000
1727423093.694,-80.566,-47.363,-52.246,-57.129,0.000
1727423093.698,-79.102,-51.758,-54.688,-67.383,0.000
1727423093.702,-40.527,-59.570,-57.129,-45.898,0.000
1727423093.706,-25.391,-57.617,-56.152,-44.922,0.000
1727423093.710,-46.875,-45.898,-52.246,-43.945,0.000
1727423093.714,-84.473,-34.668,-62.012,-48.340,0.000
1727423093.718,-83.008,-30.762,-62.012,-50.293,0.000
1727423093.721,-28.320,-35.156,-46.387,-30.273,0.000
1727423093.725,-0.977,-35.156,-50.781,-24.414,0.000
1727423093.729,-31.250,-32.227,-57.617,-40.527,0.000
1727423093.733,-69.824,-46.387,-54.199,-59.082,0.000
1727423093.737,-63.965,-54.199,-44.922,-45.898,0.000
1727423093.741,-30.762,-55.664,-46.875,-32.227,0.000
1727423093.745,-10.742,-52.734,-50.293,-42.480,0.000
1727423093.749,-12.207,-42.969,-39.551,-36.133,0.000
1727423093.753,-56.152,-36.621,-36.133,-34.180,0.000
1727423093.757,-76.660,-38.574,-43.945,-39.062,0.000
1727423093.761,-37.598,-36.133,-42.969,-26.367,0.000
1727423093.765,-0.488,-34.180,-37.598,-10.254,0.000
1727423093.769,-3.906,-39.062,-41.016,-11.719,0.000
1727423093.772,-34.668,-41.504,-50.293,-29.297,0.000
1727423093.776,-44.434,-36.621,-43.945,-48.340,0.000
1727423093.780,-19.531,-34.668,-36.133,-38.574,0.000
1727423093.784,17.090,-22.461,-34.180,-15.625,0.000
1727423093.788,6.348,-16.602,-29.785,-15.137,0.000
1727423093.792,-33.691,-26.367,-33.691,-17.090,0.000
1727423093.796,-41.504,-24.414,-26.367,-24.902,0.000
1727423093.800,-16.602,-39.062,-17.090,-19.043,0.000
1727423093.804,9.277,-38.086,-17.090,-5.859,0.000
1727423093.808,10.254,-26.367,-25.391,-7.812,0.000
1727423093.812,-25.879,-48.340,-32.715,-13.672,0.000
1727423093.816,-47.363,-60.547,-34.668,-21.484,0.000
1727423093.819,-17.090,-36.133,-24.414,-15.625,0.000
1727423093.823,16.113,-33.203,-20.020,-0.977,0.000
1727423093.827,21.484,-29.785,-21.484,3.418,0.000
1727423093.831,-17.578,-22.461,-29.297,-19.531,0.000
1727423093.835,-60.547,-32.227,-37.598,-48.340,0.000
1727423093.839,-53.223,-46.387,-41.504,-36.621,0.000
1727423093.843,-21.484,-52.734,-42.969,-33.691,0.000
1727423093.847,-12.695,-57.617,-43.945,-49.316,0.000
1727423093.851,-40.527,-43.945,-51.270,-53.711,0.000
1727423093.855,-72.266,-41.016,-53.711,-61.035,0.000
1727423093.859,-57.129,-53.711,-51.758,-54.199,0.000
1727423093.862,-7.324,-35.645,-46.875,-44.434,0.000
1727423093.866,-1.465,-31.250,-45.898,-47.363,0.000
1727423093.870,-41.016,-36.621,-50.781,-44.922,0.000
1727423093.874,-69.336,-38.086,-58.594,-50.781,0.000
1727423093.878,-56.152,-33.691,-52.246,-48.340,0.000
1727423093.882,-14.648,-41.016,-39.062,-24.414,0.000
1727423093.886,3.418,-53.223,-39.551,-21.484,0.000
1727423093.890,-26.367,-52.246,-40.527,-19.043,0.000
1727423093.894,-61.523,-55.176,-42.480,-20.508,0.000
1727423093.898,-69.824,-51.270,-47.852,-36.621,0.000
1727423093.901,-41.016,-50.781,-44.434,-37.109,0.000
1727423093.905,-14.648,-44.922,-48.828,-32.227,0.000
1727423093.909,-6.836,-41.016,-41.016,-26.855,0.000
1727423093.913,-40.527,-50.293,-36.133,-29.785,0.000
1727423093.917,-59.570,-49.805,-39.062,-32.227,0.000
1727423093.921,-15.137,-36.133,-37.598,-22.949,0.000
1727423093.925,11.719,-29.297,-35.645,-11.230,0.000
1727423093.929,-0.977,-32.227,-37.598,-17.578,0.000
1727423093.933,-38.086,-43.945,-41.504,-35.156,0.000
1727423093.937,0.000,-37.598,-23.438,-27.344,0.000
1727423093.940,0.000,-32.227,-18.066,-20.020,0.000
1727423093.944,0.000,-43.457,-35.156,-18.066,0.000
1727423093.948,0.000,-43.457,-41.992,-27.344,0.000
1727423093.952,0.000,-36.621,-43.457,-34.668,0.000
1727423093.956,0.000,-32.227,-45.898,-32.715,0.000
1727423093.960,0.000,-28.809,-42.969,-30.762,0.000
1727423093.964,0.000,-29.297,-41.016,-26.855,0.000
1727423093.968,0.000,-32.227,-31.250,-35.156,0.000
1727423093.972,0.000,-41.504,-23.438,-35.645,0.000
1727423093.976,0.000,-57.129,-27.832,-46.387,0.000
1727423093.980,0.000,-58.594,-41.992,-59.082,0.000
1727423093.983,-11.230,-45.410,-48.340,-47.363,0.000
1727423093.987,-20.996,-44.922,-44.922,-38.086,0.000
1727423093.991,-51.270,-51.758,-43.945,-45.898,0.000
1727423093.995,-69.824,-52.246,-36.621,-55.664,0.000
1727423093.999,-65.918,-53.711,-36.133,-56.641,0.000
1727423094.003,-35.156,-59.570,-49.316,-57.129,0.000
1727423094.007,-10.742,-54.688,-48.828,-40.039,0.000
1727423094.011,-34.180,-50.293,-49.316,-23.926,0.000
1727423094.015,-69.336,-50.781,-58.105,-51.270,0.000
1727423094.018,-45.898,-46.875,-49.805,-57.129,0.000
1727423094.022,-7.812,-47.363,-42.969,-43.457,0.000
1727423094.026,-3.418,-37.598,-48.340,-31.250,0.000
1727423094.030,-24.414,-41.016,-47.363,-20.020,0.000
1727423094.034,-61.523,-37.109,-47.852,-29.297,0.000
1727423094.038,-57.617,-21.973,-46.387,-37.598,0.000
1727423094.042,-15.625,-22.949,-44.434,-21.973,0.000
1727423094.045,4.395,-29.785,-42.969,-6.836,0.000
1727423094.049,-9.766,-31.738,-40.039,-4.883,0.000
1727423094.053,-47.363,-41.016,-50.293,-16.602,0.000
1727423094.057,-56.152,-36.133,-54.688,-41.504,0.000
1727423094.061,-20.020,-29.785,-60.547,-36.133,0.000
1727423094.065,9.277,-33.203,-68.359,-14.160,0.000
1727423094.069,-2.930,-27.344,-59.082,-13.184,0.000
1727423094.073,-36.133,-26.855,-49.805,-12.695,0.000
1727423094.076,-40.039,-32.227,-52.734,-17.090,0.000
1727423094.080,-13.184,-25.879,-51.270,-21.973,0.000
1727423094.084,10.742,-35.645,-52.734,-28.809,0.000
1727423094.088,1.465,-48.828,-53.711,-23.438,0.000
1727423094.092,-33.691,-32.227,-46.875,-21.484,0.000
1727423094.096,-47.852,-23.438,-48.340,-39.062,0.000
1727423094.100,-28.320,-33.691,-61.035,-57.617,0.000
1727423094.104,-13.184,-34.180,-64.941,-62.988,0.000
1727423094.108,-21.973,-33.691,-79.102,-47.852,0.000
1727423094.112,-58.594,-45.410,-9.766,-49.316,0.000
1727423094.115,-78.613,-45.898,109.863,-63.477,0.000
1727423094.119,-50.293,-58.594,129.395,-45.898,0.000
1727423094.124,-16.113,-62.500,114.258,-27.344,0.000
1727423094.127,-16.113,-38.086,99.609,-31.250,0.000
1727423094.131,-49.316,-20.996,96.191,-48.340,0.000
1727423094.135,-75.195,-26.855,95.215,-58.594,0.000
1727423094.139,-49.805,-37.598,83.984,-44.434,0.000
1727423094.143,-17.090,-48.340,62.988,-36.133,0.000
1727423094.147,-20.508,-72.266,52.734,-27.832,0.000
1727423094.151,-49.805,-78.125,45.410,-20.996,0.000
1727423094.155,-71.777,-60.059,35.645,-48.828,0.000
1727423094.159,-55.176,-25.391,41.992,-58.594,0.000
1727423094.163,-22.949,-18.555,38.574,-47.363,0.000
1727423094.166,-17.090,-42.480,27.832,-52.246,0.000
1727423094.171,-25.879,-54.199,33.203,-47.363,0.000
1727423094.174,-44.922,-62.988,30.762,-40.527,0.000
1727423094.178,-46.875,-53.711,17.090,-53.711,0.000
1727423094.182,-13.672,-32.227,12.207,-38.574,0.000
1727423094.186,1.465,-26.367,12.695,-21.973,0.000
1727423094.190,-29.785,-35.645,2.930,-27.832,0.000
1727423094.194,-68.848,-59.082,-1.953,-42.969,0.000
1727423094.198,-56.152,-52.734,1.953,-48.828,0.000
1727423094.202,-3.418,-42.480,6.836,-25.391,0.000
1727423094.206,22.461,-38.574,12.207,-6.348,0.000
1727423094.210,-11.230,-32.715,12.695,-13.672,0.000
1727423094.214,-60.059,-40.039,12.695,-26.855,0.000
1727423094.217,-49.805,-31.250,13.672,-19.531,0.000
1727423094.221,-2.441,-18.066,14.648,-2.441,0.000
1727423094.225,9.277,-27.832,12.207,-1.953,0.000
1727423094.229,-20.508,-42.969,9.277,-21.484,0.000
1727423094.233,-59.570,-46.875,16.113,-32.227,0.000
1727423094.237,-59.570,-46.387,14.160,-28.320,0.000
1727423094.241,-22.949,-37.109,0.977,-35.645,0.000
1727423094.245,-0.977,-41.992,-8.301,-50.781,0.000
1727423094.249,-13.672,-52.246,-9.277,-41.992,0.000
1727423094.253,-55.664,-51.758,-12.207,-41.504,0.000
1727423094.257,-75.684,-50.781,-20.508,-66.406,0.000
1727423094.260,-44.922,-49.316,-25.391,-70.312,0.000
1727423094.264,-21.484,-43.945,-34.180,-62.500,0.000
1727423094.268,-28.320,-38.086,-40.039,-54.688,0.000
1727423094.272,-64.941,-48.340,-41.016,-58.594,0.000
1727423094.276,-79.590,-50.293,-31.250,-58.594,0.000
1727423094.280,-44.434,-46.387,-29.785,-46.875,0.000
1727423094.284,-9.277,-51.270,-29.297,-20.508,0.000
1727423094.288,-2.441,-62.988,-18.555,-18.066,0.000
1727423094.292,-37.109,-64.941,-22.949,-34.668,0.000
1727423094.296,-73.242,-60.547,-32.715,-44.922,0.000
1727423094.299,-63.477,-62.012,-39.062,-63.477,0.000
1727423094.303,-32.227,-47.852,-34.180,-46.875,0.000
1727423094.307,-24.414,-43.457,-29.297,-26.855,0.000
1727423094.311,-53.223,-51.270,-37.109,-48.340,0.000
1727423094.315,-80.078,-44.434,-36.621,-54.688,0.000
1727423094.319,-51.270,-39.551,-34.180,-32.715,0.000
1727423094.323,-7.324,-44.922,-34.180,-26.367,0.000
1727423094.327,-11.230,-47.363,-26.367,-29.297,0.000
1727423094.331,-37.109,-48.828,-22.461,-32.715,0.000
1727423094.335,-57.129,-52.246,-20.996,-46.387,0.000
1727423094.338,-41.504,-34.180,-14.160,-40.039,0.000
1727423094.342,-2.441,-17.578,-17.578,-27.832,0.000
1727423094.346,8.789,-28.320,-20.996,-14.648,0.000
1727423094.350,-18.555,-40.039,-20.020,-4.883,0.000
1727423094.354,-49.805,-27.832,-25.391,-21.973,0.000
1727423094.358,-36.133,-10.254,-23.438,-33.203,0.000
1727423094.362,-2.930,-24.414,-32.715,-29.297,0.000
1727423094.366,7.324,-46.387,-39.062,-23.926,0.000
1727423094.370,-17.578,-41.992,-32.715,-21.484,0.000
1727423094.373,-56.152,-39.551,-34.668,-29.297,0.000
1727423094.377,-48.340,-36.621,-37.109,-30.762,0.000
1727423094.381,-12.695,-23.926,-34.668,-17.090,0.000
1727423094.385,-3.418,-32.715,-31.250,-15.137,0.000
1727423094.389,-26.367,-53.223,-32.715,-17.090,0.000
1727423094.393,-71.289,-58.105,-41.992,-25.879,0.000
1727423094.397,-77.148,-55.176,-41.016,-34.668,0.000
1727423094.401,-30.762,-44.434,-32.715,-33.691,0.000
1727423094.404,-1.465,-42.969,-32.715,-26.855,0.000
1727423094.408,-21.484,-42.969,-29.297,-19.043,0.000
1727423094.412,-68.848,-35.156,-29.785,-39.062,0.000
1727423094.416,-82.520,-37.598,-41.504,-55.664,0.000
1727423094.420,-40.527,-27.344,-40.039,-52.246,0.000
1727423094.424,-12.695,-25.391,-31.250,-49.316,0.000
1727423094.428,-26.855,-43.945,-35.156,-45.898,0.000
1727423094.432,-56.152,-43.945,-40.039,-54.688,0.000
1727423094.436,-78.613,-44.922,-40.039,-83.008,0.000
1727423094.440,-47.852,-42.969,-38.086,-69.824,0.000
1727423094.444,-15.625,-44.922,-43.457,-34.180,0.000
1727423094.447,-30.273,-69.824,-49.316,-31.250,0.000
1727423094.451,-59.570,-76.172,-48.828,-46.875,0.000
1727423094.455,-62.500,-67.871,-42.480,-45.898,0.000
1727423094.459,-28.320,-62.988,-40.039,-35.156,0.000
1727423094.463,1.953,-54.688,-47.363,-31.250,0.000
1727423094.467,4.883,-38.086,-46.875,-27.344,0.000
1727423094.471,-34.180,-36.621,-47.852,-31.738,0.000
1727423094.474,-66.406,-48.340,-46.875,-32.715,0.000
1727423094.478,-37.598,-46.387,-39.062,-14.160,0.000
1727423094.482,16.113,-50.293,-29.297,-2.441,0.000
1727423094.486,30.762,-43.457,-20.996,3.418,0.000
1727423094.490,-22.461,-31.738,-31.250,5.371,0.000
1727423094.494,-66.406,-45.898,-41.504,-16.602,0.000
1727423094.498,-53.223,-61.035,-42.480,-27.832,0.000
1727423094.502,-19.531,-46.875,-41.992,-19.531,0.000
1727423094.506,-8.789,-32.227,-40.039,-20.508,0.000
1727423094.510,-32.715,-36.133,-39.551,-29.785,0.000
1727423094.514,-75.684,-40.527,-46.387,-49.805,0.000
1727423094.518,-84.961,-41.992,-53.223,-54.199,0.000
1727423094.522,-38.574,-35.156,-42.480,-30.762,0.000
1727423094.525,-23.926,-45.410,-45.898,-20.996,0.000
1727423094.529,-59.570,-55.664,-56.152,-35.645,0.000
1727423094.533,-80.566,-52.734,-55.664,-52.734,0.000
1727423094.537,-69.824,-44.922,-53.223,-47.852,0.000
1727423094.541,-34.668,-32.227,-51.270,-26.367,0.000
1727423094.545,-7.324,-33.203,-46.387,-20.508,0.000
1727423094.549,-25.391,-41.016,-44.922,-27.832,0.000
1727423094.553,-67.871,-44.922,-51.758,-38.574,0.000
1727423094.557,-67.871,-39.551,-46.875,-36.133,0.000
1727423094.561,-24.414,-40.039,-41.504,-31.250,0.000
1727423094.565,-4.395,-36.621,-42.480,-32.715,0.000
1727423094.569,-36.133,-32.227,-49.316,-42.969,0.000
1727423094.573,-77.637,-41.992,-54.688,-50.781,0.000
1727423094.576,-78.125,-47.852,-49.316,-56.641,0.000
1727423094.580,-39.062,-34.668,-43.945,-38.086,0.000
1727423094.584,-8.301,-36.133,-42.969,-19.531,0.000
1727423094.588,-16.602,-46.387,-46.875,-33.203,0.000
1727423094.592,-57.617,-50.293,-55.176,-44.434,0.000
1727423094.596,-70.801,-40.527,-52.246,-42.480,0.000
1727423094.600,-36.621,-38.086,-50.293,-42.480,0.000
1727423094.604,-0.977,-52.734,-49.316,-38.574,0.000
1727423094.608,-3.906,-51.758,-41.992,-38.574,0.000
1727423094.612,-42.969,-41.992,-40.527,-38.086,0.000
1727423094.616,-62.012,-32.715,-37.109,-43.945,0.000
1727423094.619,-27.344,-40.039,-30.762,-35.156,0.000
1727423094.623,11.230,-49.805,-27.344,-19.043,0.000
1727423094.627,9.766,-33.691,-26.367,-6.836,0.000
1727423094.631,-26.855,-31.738,-27.832,-3.906,0.000
1727423094.635,-63.477,-46.875,-30.273,-25.391,0.000
1727423094.639,-44.434,-37.598,-29.297,-30.273,0.000
1727423094.643,-11.719,-23.438,-32.227,-24.902,0.000
1727423094.647,-17.090,-26.855,-40.039,-35.156,0.000
1727423094.651,-44.434,-35.156,-41.992,-44.434,0.000
1727423094.655,-71.289,-32.715,-36.621,-46.387,0.000
1727423094.659,-54.199,-28.320,-30.762,-35.645,0.000
1727423094.662,-12.207,-39.062,-31.250,-29.297,0.000
1727423094.666,-1.465,-55.664,-40.039,-33.691,0.000
1727423094.670,-36.621,-65.918,-44.922,-26.855,0.000
1727423094.674,-71.777,-47.852,-41.016,-41.992,0.000
1727423094.678,-34.180,-27.344,-34.668,-41.504,0.000
1727423094.682,14.648,-28.809,-34.668,-19.043,0.000
1727423094.686,2.441,-29.297,-39.551,-22.949,0.000
1727423094.690,-27.832,-41.504,-40.039,-28.809,0.000
1727423094.694,-51.758,-47.363,-42.969,-37.109,0.000
1727423094.698,-55.176,-32.715,-41.992,-37.598,0.000
1727423094.701,-30.273,-20.996,-38.086,-23.438,0.000
1727423094.705,-22.461,-32.715,-43.457,-38.574,0.000
1727423094.709,-56.152,-51.758,-55.176,-54.688,0.000
1727423094.713,-89.844,-58.105,-57.129,-53.223,0.000
1727423094.717,-88.379,-49.316,-51.270,-59.570,0.000
1727423094.721,-54.199,-41.016,-50.293,-53.711,0.000
1727423094.725,-34.180,-38.086,-49.316,-51.758,0.000
1727423094.729,-51.758,-35.156,-45.898,-58.105,0.000
1727423094.733,-75.195,-42.480,-40.527,-60.547,0.000
1727423094.736,-79.590,-46.875,-34.668,-69.336,0.000
1727423094.740,-49.805,-43.945,-38.086,-64.941,0.000
1727423094.744,-19.043,-41.016,-48.340,-65.918,0.000
1727423094.748,-34.668,-55.176,-51.758,-62.500,0.000
1727423094.752,-61.035,-50.293,-46.875,-55.664,0.000
1727423094.756,-63.477,-33.691,-39.062,-54.688,0.000
1727423094.760,-40.527,-34.668,-36.133,-40.039,0.000
1727423094.764,-18.555,-45.898,-39.062,-30.273,0.000
1727423094.768,-18.555,-51.270,-39.551,-37.109,0.000
1727423094.772,-43.457,-35.645,-37.598,-40.039,0.000
1727423094.776,-65.918,-35.645,-44.434,-44.434,0.000
1727423094.779,-47.852,-46.387,-39.551,-44.434,0.000
1727423094.783,-3.906,-52.246,-31.738,-30.762,0.000
1727423094.787,-13.672,-51.270,-39.062,-33.203,0.000
1727423094.791,-57.129,-46.387,-40.527,-40.527,0.000
1727423094.795,-69.824,-36.133,-35.645,-37.598,0.000
1727423094.799,-49.316,-38.086,-34.668,-36.133,0.000
1727423094.803,-13.672,-40.527,-31.250,-25.879,0.000
1727423094.807,-17.578,-35.645,-38.086,-36.133,0.000
1727423094.810,-53.711,-47.852,-48.828,-53.711,0.000
1727423094.814,-75.684,-46.387,-47.852,-44.434,0.000
1727423094.818,-44.922,-31.250,-40.039,-26.855,0.000
1727423094.822,-7.324,-23.926,-49.805,-33.691,0.000
1727423094.826,-7.324,-33.203,-65.430,-42.480,0.000
1727423094.830,-39.551,-47.852,-66.406,-36.621,0.000
1727423094.834,-67.383,-45.410,-66.406,-44.434,0.000
1727423094.838,-50.781,-40.039,-64.453,-48.340,0.000
1727423094.841,-15.137,-44.922,-72.266,-36.621,0.000
1727423094.845,-8.301,-49.805,-77.148,-41.016,0.000
1727423094.849,-35.645,-41.016,-71.289,-41.992,0.000
1727423094.853,-60.059,-25.879,-59.570,-42.480,0.000
1727423094.857,-43.945,-12.695,-60.059,-43.457,0.000
1727423094.861,-12.695,-36.133,-75.195,-45.898,0.000
1727423094.865,-7.324,-58.594,-75.195,-37.109,0.000
1727423094.869,-33.691,-52.246,-69.336,-35.645,0.000
1727423094.873,-62.500,-41.504,-63.477,-54.688,0.000
1727423094.877,-54.199,-33.691,-59.570,-49.805,0.000
1727423094.881,-22.949,-34.180,-52.246,-25.879,0.000
1727423094.885,-3.418,-36.621,-44.922,-22.949,0.000
1727423094.889,-13.672,-46.387,-48.340,-30.762,0.000
1727423094.892,-60.059,-55.176,-52.734,-40.527,0.000
1727423094.896,-71.289,-48.340,-50.293,-45.898,0.000
1727423094.900,-23.438,-40.527,-46.387,-33.203,0.000
1727423094.904,8.301,-36.621,-51.758,-28.320,0.000
1727423094.908,-13.184,-39.062,-52.734,-28.809,0.000
1727423094.912,-50.293,-46.875,-48.340,-26.367,0.000
1727423094.916,-59.082,-49.805,-44.922,-29.297,0.000
1727423094.920,-31.738,-48.828,-42.480,-28.320,0.000
1727423094.924,1.465,-41.016,-41.992,-16.602,0.000
1727423094.928,-0.977,-46.875,-41.504,-15.625,0.000
1727423094.932,-37.109,-52.734,-42.480,-17.578,0.000
1727423094.936,-59.082,-64.941,-54.199,-26.367,0.000
1727423094.940,-25.879,-62.988,-57.617,-20.020,0.000
1727423094.943,8.789,-31.250,-52.734,-21.484,0.000
1727423094.947,-2.930,-25.879,-58.105,-35.645,0.000
1727423094.951,-41.016,-27.344,-59.082,-33.203,0.000
1727423094.955,-65.430,-24.414,-56.152,-55.664,0.000
1727423094.959,-41.016,-33.203,-56.152,-52.734,0.000
1727423094.963,-1.465,-41.504,-55.176,-31.738,0.000
1727423094.967,9.277,-37.598,-51.758,-31.250,0.000
1727423094.971,-35.645,-44.922,-56.152,-37.598,0.000
1727423094.975,-71.289,-44.434,-57.129,-38.574,0.000
1727423094.979,-36.621,-27.344,-42.969,-14.648,0.000
1727423094.983,2.930,-40.039,-42.969,-15.625,0.000
1727423094.987,0.488,-64.453,-51.758,-24.902,0.000
1727423094.990,-34.180,-70.312,-52.734,-26.855,0.000
1727423094.994,-61.035,-57.617,-48.340,-42.480,0.000
1727423094.998,-47.852,-34.668,-42.969,-45.410,0.000
1727423095.002,-11.230,-22.461,-39.551,-36.621,0.000
1727423095.006,-4.395,-36.133,-43.457,-38.574,0.000
1727423095.010,-32.227,-51.270,-41.992,-40.527,0.000
1727423095.014,-61.035,-39.062,-36.133,-44.434,0.000
1727423095.018,-51.758,-22.461,-34.180,-34.180,0.000
1727423095.022,-15.137,-21.484,-36.621,-34.668,0.000
1727423095.026,-2.930,-30.273,-45.898,-42.969,0.000
1727423095.029,-27.832,-38.574,-50.293,-32.227,0.000
1727423095.033,-66.406,-50.293,-51.270,-48.828,0.000
1727423095.037,-54.688,-52.734,-46.875,-55.664,0.000
1727423095.041,-3.906,-33.203,-41.992,-25.391,0.000
1727423095.045,12.695,-22.949,-43.457,-12.207,0.000
1727423095.049,-15.625,-31.250,-44.434,-22.949,0.000
1727423095.053,-57.129,-45.898,-45.898,-35.645,0.000
1727423095.057,-59.082,-35.156,-40.039,-43.457,0.000
1727423095.061,-20.508,-26.367,-34.668,-22.461,0.000
1727423095.065,-13.672,-47.363,-34.668,-6.836,0.000
1727423095.068,-35.156,-62.988,-37.109,-24.414,0.000
1727423095.072,-61.523,-49.316,-42.969,-53.223,0.000
1727423095.076,-62.012,-37.598,-40.527,-55.176,0.000
1727423095.080,-19.531,-35.645,-34.668,-38.574,0.000
1727423095.084,5.859,-40.039,-37.598,-30.762,0.000
1727423095.088,-13.184,-30.762,-34.180,-6.836,0.000
1727423095.092,-47.852,-16.113,-30.762,-9.277,0.000
1727423095.096,-62.500,-20.508,-37.598,-34.180,0.000
1727423095.100,-30.762,-25.879,-38.086,-37.109,0.000
1727423095.104,-0.977,-28.320,-38.574,-37.598,0.000
1727423095.107,-21.973,-36.133,-46.875,-41.992,0.000
1727423095.111,-64.453,-32.227,-51.758,-48.340,0.000
1727423095.115,-80.566,-26.855,-47.363,-52.734,0.000
1727423095.119,-44.922,-28.809,-34.180,-38.086,0.000
1727423095.123,-2.441,-26.855,-32.715,-27.344,0.000
1727423095.127,-5.859,-36.621,-49.316,-41.504,0.000
1727423095.131,-47.852,-49.805,-53.711,-42.480,0.000
1727423095.135,-73.242,-44.922,-42.969,-40.039,0.000
1727423095.139,-49.805,-30.762,-39.551,-40.039,0.000
1727423095.143,-6.348,-37.109,-35.645,-46.387,0.000
1727423095.146,-10.254,-55.664,-23.438,-56.641,0.000
1727423095.150,-36.621,-43.945,-15.625,-44.434,0.000
1727423095.154,-53.711,-40.527,-13.672,-44.434,0.000
1727423095.158,-34.180,-44.434,-15.137,-39.062,0.000
1727423095.162,4.395,-26.367,-16.602,-11.719,0.000
1727423095.166,7.812,-17.578,-15.625,-7.812,0.000
1727423095.170,-19.531,-28.320,-15.625,-23.926,0.000
1727423095.174,-53.711,-35.156,-15.137,-32.227,0.000
1727423095.177,-48.340,-26.367,-16.602,-37.109,0.000
1727423095.181,-5.859,-21.973,-14.648,-35.645,0.000
1727423095.185,8.789,-31.738,-12.695,-27.344,0.000
1727423095.189,-25.879,-43.945,-22.461,-26.367,0.000
1727423095.193,-60.547,-31.250,-25.391,-33.691,0.000
1727423095.197,-55.664,-37.598,-25.879,-52.734,0.000
1727423095.201,-18.555,-60.547,-30.273,-45.898,0.000
1727423095.205,-0.977,-51.758,-38.574,-36.621,0.000
1727423095.208,-33.203,-41.992,-35.156,-42.480,0.000
1727423095.212,-67.871,-32.715,-26.855,-51.758,0.000
1727423095.216,-58.105,-27.832,-26.367,-54.199,0.000
1727423095.220,-23.438,-44.434,-28.809,-32.227,0.000
1727423095.224,-0.977,-48.828,-25.879,-10.254,0.000
1727423095.228,-10.254,-32.715,-20.020,-16.602,0.000
1727423095.232,-60.059,-39.062,-28.320,-38.574,0.000
1727423095.236,-72.266,-40.527,-32.227,-43.945,0.000
1727423095.240,-18.555,-32.715,-24.414,-25.391,0.000
1727423095.244,8.789,-40.039,-23.438,-18.066,0.000
1727423095.248,-20.996,-33.691,-31.250,-29.785,0.000
1727423095.252,-62.012,-25.391,-31.738,-39.062,0.000
1727423095.256,-75.684,-31.738,-31.738,-41.992,0.000
1727423095.260,-39.551,-46.875,-35.156,-38.086,0.000
1727423095.263,-7.324,-44.922,-31.250,-20.508,0.000
1727423095.267,-14.160,-30.762,-25.879,-4.883,0.000
1727423095.271,-40.527,-45.410,-24.902,-29.785,0.000
1727423095.275,-66.406,-49.316,-28.320,-46.875,0.000
1727423095.279,-35.645,-28.320,-22.949,-14.160,0.000
1727423095.283,3.418,-27.832,-23.926,-1.465,0.000
1727423095.287,-9.766,-36.133,-30.273,-19.043,0.000
1727423095.291,-53.711,-51.270,-39.551,-32.227,0.000
1727423095.295,-64.941,-49.805,-42.480,-42.480,0.000
1727423095.299,-33.203,-30.273,-35.156,-47.852,0.000
1727423095.303,12.207,-19.531,-26.855,-37.598,0.000
1727423095.307,20.508,-23.438,-25.391,-16.602,0.000
1727423095.310,-28.809,-29.297,-28.809,-23.926,0.000
1727423095.314,-67.871,-28.809,-36.133,-44.434,0.000
1727423095.318,-48.828,-15.137,-32.715,-30.762,0.000
1727423095.322,-6.836,-8.789,-26.367,-20.020,0.000
1727423095.326,-3.418,-28.809,-30.273,-22.949,0.000
1727423095.330,-36.133,-49.316,-31.250,-29.785,0.000
1727423095.334,-56.152,-38.574,-29.297,-53.223,0.000
1727423095.338,-52.246,-20.020,-30.273,-47.363,0.000
1727423095.342,-21.973,-19.043,-34.180,-33.203,0.000
1727423095.346,-10.254,-32.227,-36.621,-35.645,0.000
1727423095.350,-44.922,-30.762,-40.039,-39.551,0.000
1727423095.354,-72.266,-19.043,-42.480,-49.316,0.000
1727423095.357,-60.059,-21.484,-43.457,-54.688,0.000
1727423095.361,-10.742,-23.926,-42.969,-39.062,0.000
1727423095.365,6.348,-21.484,-41.016,-31.250,0.000
1727423095.369,-35.645,-32.227,-41.016,-45.898,0.000
1727423095.373,-67.871,-39.551,-40.527,-55.176,0.000
1727423095.377,-54.199,-28.320,-41.992,-55.176,0.000
1727423095.381,-11.230,-26.855,-42.969,-53.711,0.000
1727423095.385,10.742,-30.273,-36.621,-27.832,0.000
1727423095.389,-19.531,-24.414,-37.598,-19.531,0.000
1727423095.393,-54.199,-33.203,-46.387,-35.645,0.000
1727423095.397,-48.340,-41.992,-47.363,-41.016,0.000
1727423095.400,-21.973,-39.062,-42.969,-33.203,0.000
1727423095.404,-0.488,-28.809,-41.504,-32.227,0.000
1727423095.408,-5.859,-23.438,-37.109,-30.762,0.000
1727423095.412,-47.363,-28.320,-31.738,-36.133,0.000
1727423095.416,-60.547,-37.598,-33.203,-40.527,0.000
1727423095.420,-21.973,-29.297,-31.738,-28.320,0.000
1727423095.424,4.883,-17.578,-31.250,-20.508,0.000
1727423095.428,-6.836,-20.996,-31.738,-17.578,0.000
1727423095.432,-46.387,-20.996,-32.227,-7.812,0.000
1727423095.436,-64.941,-22.461,-36.621,-12.695,0.000
1727423095.439,-26.367,-24.902,-41.016,-30.273,0.000
1727423095.443,10.742,-38.574,-41.504,-17.578,0.000
1727423095.447,2.930,-32.227,-35.156,-5.371,0.000
1727423095.451,-41.504,-25.391,-34.668,-22.949,0.000
1727423095.455,-68.848,-37.109,-41.016,-43.945,0.000
1727423095.459,-35.645,-31.250,-41.016,-40.039,0.000
1727423095.463,-5.371,-36.621,-40.527,-25.879,0.000
1727423095.467,-14.648,-42.969,-38.086,-19.531,0.000
1727423095.471,-55.176,-40.039,-39.062,-19.531,0.000
1727423095.475,-71.289,-31.738,-39.062,-34.668,0.000
1727423095.479,-46.387,-33.691,-35.645,-41.016,0.000
1727423095.482,-17.578,-34.668,-33.203,-28.320,0.000
1727423095.486,-13.184,-30.762,-30.762,-24.902,0.000
1727423095.490,-51.270,-43.457,-35.645,-38.086,0.000
1727423095.494,-88.379,-48.340,-43.457,-51.270,0.000
1727423095.498,-64.453,-32.715,-41.504,-49.805,0.000
1727423095.502,-19.043,-38.574,-39.062,-59.082,0.000
1727423095.506,-10.742,-63.965,-42.480,-60.059,0.000
1727423095.510,-36.133,-57.617,-45.410,-49.316,0.000
1727423095.514,-60.547,-49.805,-44.922,-45.410,0.000
1727423095.517,-57.617,-44.922,-42.969,-49.316,0.000
1727423095.521,-26.367,-40.527,-45.410,-37.109,0.000
1727423095.525,-10.742,-50.781,-41.504,-23.926,0.000
1727423095.529,-32.715,-49.316,-41.504,-31.250,0.000
1727423095.533,-63.477,-46.875,-45.410,-37.598,0.000
1727423095.537,-62.012,-48.340,-42.480,-45.898,0.000
1727423095.541,-20.996,-38.086,-42.480,-45.898,0.000
1727423095.545,-4.883,-36.133,-53.711,-39.551,0.000
1727423095.548,-23.438,-42.480,-53.711,-39.062,0.000
1727423095.552,-52.734,-38.574,-45.410,-39.062,0.000
1727423095.556,-47.363,-35.645,-50.781,-36.133,0.000
1727423095.560,-10.254,-45.898,-59.082,-37.598,0.000
1727423095.564,-3.906,-47.363,-62.500,-24.902,0.000
1727423095.568,-22.949,-33.691,-60.059,-24.902,0.000
1727423095.572,-60.547,-28.809,-55.664,-48.828,0.000
1727423095.576,-61.523,-33.691,-55.664,-40.039,0.000
1727423095.579,-22.949,-35.156,-55.176,-29.297,0.000
1727423095.583,12.207,-33.691,-52.734,-26.367,0.000
1727423095.587,2.930,-35.645,-52.734,-19.043,0.000
1727423095.591,-47.852,-43.457,-55.176,-25.391,0.000
1727423095.595,-63.965,-41.016,-62.988,-41.016,0.000
1727423095.599,-39.062,-39.551,-67.383,-58.594,0.000
1727423095.603,-11.230,-42.969,-67.871,-56.152,0.000
1727423095.607,-18.066,-44.434,-69.336,-43.457,0.000
1727423095.611,-62.012,-51.758,-67.871,-57.617,0.000
1727423095.615,-86.914,-41.504,-59.570,-56.152,0.000
1727423095.619,-51.270,-34.180,-50.781,-49.316,0.000
1727423095.623,-9.277,-35.645,-57.129,-50.781,0.000
1727423095.627,-13.184,-38.574,-65.430,-49.316,0.000
1727423095.631,-47.852,-46.387,-70.312,-65.430,0.000
1727423095.634,-73.730,-52.734,-71.777,-54.199,0.000
1727423095.638,-42.480,-57.617,-65.430,-38.086,0.000
1727423095.642,-4.883,-50.293,-65.918,-30.273,0.000
1727423095.646,-3.418,-44.922,-73.730,-24.902,0.000
1727423095.650,-41.016,-47.363,-77.148,-37.598,0.000
1727423095.654,-77.148,-42.969,-73.730,-55.176,0.000
1727423095.658,-60.059,-48.340,-67.871,-42.969,0.000
1727423095.662,-9.277,-48.828,-58.594,-16.602,0.000
1727423095.666,12.207,-39.551,-53.223,-26.367,0.000
1727423095.670,-34.668,-32.227,-54.688,-38.574,0.000
1727423095.674,-71.289,-21.973,-50.293,-33.203,0.000
1727423095.678,-51.758,-28.809,-45.898,-34.668,0.000
1727423095.681,-12.207,-51.270,-45.898,-36.621,0.000
1727423095.685,0.977,-66.895,-50.293,-40.039,0.000
1727423095.689,-29.785,-58.594,-63.965,-36.621,0.000
1727423095.693,-57.617,-38.574,-65.918,-46.875,0.000
1727423095.697,-52.246,-50.781,-61.523,-61.523,0.000
1727423095.701,-9.766,-54.688,-52.734,-38.574,0.000
1727423095.705,-4.395,-36.133,-47.852,-21.973,0.000
1727423095.709,-48.340,-32.715,-50.293,-27.344,0.000
1727423095.713,-63.965,-58.105,-41.504,-23.926,0.000
1727423095.717,-42.969,-98.145,-39.062,-25.879,0.000
1727423095.721,-14.160,-116.211,-48.828,-24.414,0.000
1727423095.725,28.809,-37.598,-29.785,15.137,0.000
1727423095.728,24.902,-38.574,-38.574,15.625,0.000
1727423095.732,-38.086,-151.367,-81.543,-28.320,0.000
1727423095.736,-54.688,-122.559,-69.824,-20.020,0.000
1727423095.740,53.223,-81.055,-38.086,46.387,0.000
1727423095.744,111.328,-146.484,0.977,71.777,0.000
1727423095.748,72.266,-165.039,73.242,74.707,0.000
1727423095.752,29.297,2.441,78.613,75.684,0.000
1727423095.756,35.645,-38.574,-52.246,51.270,0.000
1727423095.760,43.457,-159.180,-71.777,37.109,0.000
1727423095.764,91.309,-134.766,107.422,66.895,0.000
1727423095.768,100.586,-120.117,160.156,56.641,0.000
1727423095.771,16.602,-222.656,59.570,21.484,0.000
1727423095.775,86.914,42.480,49.805,122.070,0.000
1727423095.779,32.227,149.902,216.797,47.363,0.000
1727423095.783,-29.785,-36.133,283.691,-56.641,0.000
1727423095.787,108.398,187.988,236.816,76.172,0.000
1727423095.791,42.969,321.777,312.500,58.594,0.000
1727423095.795,-78.125,536.133,493.652,-71.289,0.000
1727423095.799,-65.430,908.203,589.355,-82.031,0.000
1727423095.803,-28.809,971.680,564.453,-14.160,0.000
1727423095.807,5.859,957.520,488.281,28.320,0.000
1727423095.810,31.738,967.773,522.461,57.129,0.000
1727423095.814,31.250,966.797,561.035,67.383,0.000
1727423095.818,30.762,966.797,604.004,49.316,0.000
1727423095.822,123.047,966.797,554.199,111.328,0.000
1727423095.826,179.199,966.309,500.000,158.691,0.000
1727423095.830,166.016,966.797,528.809,175.293,0.000
1727423095.834,139.648,966.797,524.902,170.898,0.000
1727423095.838,161.621,966.309,548.340,175.293,0.000
1727423095.842,206.055,966.797,762.207,193.848,0.000
1727423095.846,212.891,966.797,833.984,205.078,0.000
1727423095.850,181.152,966.797,782.715,196.777,0.000
1727423095.853,145.020,966.797,847.168,190.918,0.000
1727423095.857,145.996,966.309,882.812,179.199,0.000
1727423095.861,180.664,966.309,891.113,172.363,0.000
1727423095.865,189.453,966.797,869.141,176.758,0.000
1727423095.869,154.785,966.797,821.777,171.387,0.000
1727423095.873,111.328,966.797,824.707,152.344,0.000
1727423095.877,105.469,966.797,813.477,137.207,0.000
1727423095.881,134.766,966.309,775.391,125.000,0.000
1727423095.885,144.043,966.797,787.109,128.906,0.000
1727423095.888,109.863,966.797,793.945,140.625,0.000
1727423095.892,71.777,968.262,667.969,103.027,0.000
1727423095.896,69.824,955.566,518.066,74.219,0.000
1727423095.900,83.496,958.984,421.875,82.031,0.000
1727423095.904,73.242,898.926,248.047,67.871,0.000
1727423095.908,42.969,267.090,48.828,47.852,0.000
1727423095.912,-7.812,-610.352,-67.871,38.574,0.000
1727423095.916,-21.973,-962.891,-145.996,19.531,0.000
1727423095.919,14.648,-989.746,-200.684,20.996,0.000
1727423095.923,23.438,-994.629,-248.047,27.344,0.000
1727423095.927,-3.418,-1000.000,-334.473,19.043,0.000
1727423095.931,-50.781,-1000.000,-399.902,-5.371,0.000
1727423095.935,-81.055,-1000.000,-424.805,-34.180,0.000
1727423095.939,-57.617,-1000.000,-459.961,-39.062,0.000
1727423095.943,-38.086,-1000.000,-511.719,-51.270,0.000
1727423095.947,-48.828,-1000.000,-525.879,-48.828,0.000
1727423095.950,-79.102,-1000.000,-481.445,-37.598,0.000
1727423095.954,-107.422,-1000.000,-460.938,-62.500,0.000
1727423095.958,-96.191,-1000.000,-504.395,-54.688,0.000
1727423095.962,-65.918,-1000.000,-516.113,-45.898,0.000
1727423095.966,-60.059,-1000.000,-505.859,-69.824,0.000
1727423095.970,-101.562,-1000.000,-528.809,-81.543,0.000
1727423095.974,-138.184,-1000.000,-547.363,-88.867,0.000
1727423095.978,-113.281,-1000.000,-565.918,-87.891,0.000
1727423095.982,-74.219,-1000.000,-585.449,-83.496,0.000
1727423095.986,-65.430,-1000.000,-609.863,-88.379,0.000
1727423095.990,-99.609,-1000.000,-589.844,-98.145,0.000
1727423095.993,-137.695,-1000.000,-546.875,-110.352,0.000
1727423095.998,-120.605,-1000.000,-535.645,-105.957,0.000
1727423096.002,-74.707,-1000.000,-549.805,-88.867,0.000
1727423096.005,-68.359,-1000.000,-564.453,-84.473,0.000
1727423096.009,-103.027,-1000.000,-563.965,-86.914,0.000
1727423096.013,-133.301,-998.535,-585.449,-100.586,0.000
1727423096.017,-115.234,-1000.000,-600.098,-91.797,0.000
1727423096.021,-68.848,-995.605,-594.727,-65.918,0.000
1727423096.025,-51.758,-926.270,-584.961,-83.008,0.000
1727423096.029,-85.449,-861.328,-564.453,-104.980,0.000
1727423096.033,-122.070,-811.523,-535.645,-97.656,0.000
1727423096.037,-113.281,-762.695,-506.348,-92.285,0.000
1727423096.041,-82.031,-741.699,-508.789,-79.102,0.000
1727423096.045,-62.500,-701.172,-515.137,-79.590,0.000
1727423096.049,-80.566,-681.152,-514.160,-91.309,0.000
1727423096.052,-105.957,-685.059,-497.559,-85.938,0.000
1727423096.056,-97.656,-630.859,-443.359,-84.961,0.000
1727423096.060,-68.359,-533.691,-426.758,-83.008,0.000
1727423096.064,-50.293,-471.191,-435.059,-69.824,0.000
1727423096.068,-84.961,-446.289,-424.805,-86.914,0.000
1727423096.072,-126.953,-457.031,-410.156,-115.234,0.000
1727423096.076,-126.953,-473.145,-402.344,-107.422,0.000
1727423096.080,-95.703,-437.988,-379.883,-81.055,0.000
1727423096.084,-66.406,-394.043,-354.492,-63.477,0.000
1727423096.088,-71.777,-385.254,-347.168,-76.172,0.000
1727423096.092,-100.586,-384.277,-353.027,-99.121,0.000
1727423096.096,-121.582,-388.184,-352.051,-101.562,0.000
1727423096.099,-92.285,-396.484,-324.219,-84.473,0.000
1727423096.103,-52.734,-381.348,-285.645,-71.777,0.000
1727423096.107,-61.035,-368.652,-257.812,-81.543,0.000
1727423096.111,-92.285,-359.375,-237.793,-83.496,0.000
1727423096.115,-104.492,-324.219,-225.098,-87.402,0.000
1727423096.119,-76.172,-307.617,-203.125,-74.707,0.000
1727423096.123,-36.133,-298.828,-177.246,-48.340,0.000
1727423096.127,-46.387,-283.203,-173.828,-64.453,0.000
1727423096.131,-86.914,-272.461,-175.781,-71.777,0.000
1727423096.135,-109.863,-269.043,-177.246,-76.660,0.000
1727423096.139,-82.520,-250.977,-160.156,-88.867,0.000
1727423096.142,-30.762,-241.211,-156.250,-79.102,0.000
1727423096.146,-28.320,-255.371,-163.086,-78.613,0.000
1727423096.150,-72.754,-266.113,-151.855,-71.777,0.000
1727423096.154,-87.891,-249.023,-138.672,-69.336,0.000
1727423096.158,-64.941,-216.309,-129.883,-66.406,0.000
1727423096.162,-37.598,-205.566,-128.418,-62.012,0.000
1727423096.166,-34.180,-210.938,-123.047,-39.551,0.000
1727423096.170,-66.895,-211.914,-111.328,-29.297,0.000
1727423096.174,-95.215,-218.262,-103.027,-58.594,0.000
1727423096.178,-81.543,-225.098,-96.191,-69.336,0.000
1727423096.182,-40.527,-198.730,-82.520,-63.965,0.000
1727423096.185,-22.949,-173.828,-67.383,-42.480,0.000
1727423096.189,-54.688,-170.898,-53.711,-44.922,0.000
1727423096.193,-89.844,-172.852,-46.875,-65.918,0.000
1727423096.197,-64.941,-166.504,-25.391,-46.875,0.000
1727423096.201,-17.090,-158.203,-19.043,-33.203,0.000
1727423096.205,-4.395,-154.785,-44.922,-35.645,0.000
1727423096.209,-37.598,-154.785,-51.758,-41.504,0.000
1727423096.213,-77.148,-146.973,-43.945,-63.965,0.000
1727423096.217,-68.848,-125.488,-44.434,-74.707,0.000
1727423096.221,-34.180,-118.652,-58.105,-55.664,0.000
1727423096.224,-13.184,-123.535,-65.918,-48.828,0.000
1727423096.228,-33.691,-127.930,-68.359,-43.457,0.000
1727423096.232,-79.102,-127.930,-69.336,-41.992,0.000
1727423096.236,-85.449,-112.793,-69.336,-67.871,0.000
1727423096.240,-53.223,-111.816,-69.336,-59.082,0.000
1727423096.244,-24.414,-123.535,-60.547,-31.738,0.000
1727423096.248,-34.668,-126.465,-53.223,-43.457,0.000
1727423096.252,-83.984,-135.254,-45.410,-68.848,0.000
1727423096.256,-99.609,-135.742,-37.109,-72.754,0.000
1727423096.260,-53.223,-127.441,-27.344,-57.129,0.000
1727423096.263,-11.719,-124.512,-21.973,-30.273,0.000
1727423096.267,-19.043,-103.516,-31.738,-21.484,0.000
1727423096.271,-61.035,-104.492,-44.434,-45.410,0.000
1727423096.275,-86.914,-129.883,-53.223,-64.453,0.000
1727423096.279,-54.199,-132.812,-50.781,-64.941,0.000
1727423096.283,-17.090,-132.812,-49.805,-60.547,0.000
1727423096.287,-33.203,-136.719,-54.688,-52.246,0.000
1727423096.291,-70.312,-128.906,-55.664,-56.152,0.000
1727423096.295,-84.961,-118.164,-52.734,-76.660,0.000
1727423096.298,-60.059,-128.906,-43.945,-67.383,0.000
1727423096.302,-19.043,-131.348,-38.086,-41.016,0.000
1727423096.306,-22.949,-109.863,-45.410,-27.832,0.000
1727423096.310,-52.734,-103.027,-47.363,-24.902,0.000
1727423096.314,-72.266,-104.004,-34.668,-25.879,0.000
1727423096.318,-53.711,-97.656,-36.621,-28.809,0.000
1727423096.322,-18.555,-81.055,-41.504,-48.340,0.000
1727423096.326,-22.949,-85.938,-29.785,-49.316,0.000
1727423096.329,-58.105,-99.121,-18.555,-47.363,0.000
1727423096.333,-92.773,-106.934,-19.531,-58.594,0.000
1727423096.337,-69.824,-92.285,-17.090,-56.641,0.000
1727423096.341,-24.414,-56.641,-18.555,-39.062,0.000
1727423096.345,-13.184,-43.945,-26.855,-30.273,0.000
1727423096.349,-40.039,-47.852,-26.855,-36.133,0.000
1727423096.353,-73.730,-49.805,-20.996,-47.363,0.000
1727423096.357,-62.500,-55.664,-15.625,-44.434,0.000
1727423096.361,-10.742,-71.777,-10.254,-29.297,0.000
1727423096.365,15.625,-67.871,0.488,-14.648,0.000
1727423096.369,-21.484,-49.805,-6.836,-32.715,0.000
1727423096.373,-65.918,-37.598,-24.902,-61.523,0.000
1727423096.377,-67.871,-44.922,-33.203,-60.059,0.000
1727423096.381,-28.320,-59.082,-35.156,-44.922,0.000
1727423096.384,5.859,-48.828,-32.227,-35.645,0.000
1727423096.388,-21.484,-44.922,-39.551,-40.527,0.000
1727423096.392,-74.219,-43.457,-52.734,-53.223,0.000
1727423096.396,-72.266,-29.785,-65.918,-48.340,0.000
1727423096.400,-29.785,-30.762,-72.266,-45.898,0.000
1727423096.404,-11.230,-50.293,-73.730,-46.875,0.000
1727423096.408,-28.320,-52.734,-84.473,-41.992,0.000
1727423096.412,-66.406,-35.156,-101.074,-58.594,0.000
1727423096.416,-81.543,-41.992,-117.188,-71.777,0.000
1727423096.420,-45.898,-50.781,-126.465,-67.871,0.000
1727423096.424,-12.207,-50.293,-131.348,-58.594,0.000
1727423096.428,-18.066,-49.316,-129.395,-49.805,0.000
1727423096.432,-59.570,-61.035,-122.070,-49.805,0.000
1727423096.435,-82.520,-82.031,-119.141,-50.293,0.000
1727423096.439,-37.109,-85.449,-112.793,-41.992,0.000
1727423096.443,5.371,-64.941,-106.445,-34.668,0.000
1727423096.447,-18.066,-58.105,-110.352,-54.688,0.000
1727423096.451,-62.012,-70.312,-117.188,-53.223,0.000
1727423096.455,-73.242,-55.176,-98.633,-40.039,0.000
1727423096.459,-39.062,-63.477,-73.730,-51.270,0.000
1727423096.463,3.418,-83.008,-71.289,-39.551,0.000
1727423096.467,-4.395,-64.453,-73.730,-23.438,0.000
1727423096.471,-51.270,-57.617,-70.801,-34.668,0.000
1727423096.475,-67.383,-57.617,-69.824,-32.715,0.000
1727423096.479,-42.480,-73.242,-75.684,-33.203,0.000
1727423096.482,-5.859,-98.633,-82.520,-48.828,0.000
1727423096.486,-12.207,-81.543,-79.102,-43.945,0.000
1727423096.490,-51.270,-66.406,-67.871,-39.062,0.000
1727423096.494,-72.266,-78.613,-50.293,-30.273,0.000
1727423096.498,-54.688,-81.543,-51.758,-27.344,0.000
1727423096.502,-8.789,-92.285,-48.828,-26.855,0.000
1727423096.506,5.859,-88.379,-36.133,-18.555,0.000
1727423096.510,-33.691,-71.777,-48.828,-21.484,0.000
1727423096.514,-77.148,-59.082,-55.176,-25.879,0.000
1727423096.518,-62.988,-43.945,-46.875,-31.250,0.000
1727423096.522,-18.066,-48.340,-46.875,-42.480,0.000
1727423096.525,-10.254,-56.641,-40.039,-45.410,0.000
1727423096.529,-41.992,-65.918,-25.879,-47.363,0.000
1727423096.533,-76.660,-80.078,-19.043,-46.875,0.000
1727423096.537,-62.988,-70.801,-17.090,-38.086,0.000
1727423096.541,-12.207,-53.223,-25.879,-18.066,0.000
1727423096.545,8.789,-49.316,-33.203,-0.977,0.000
1727423096.549,-21.973,-49.805,-34.668,-27.832,0.000
1727423096.553,-59.082,-67.871,-41.016,-51.758,0.000
1727423096.557,-64.941,-67.871,-40.527,-47.363,0.000
1727423096.561,0.000,-58.105,-48.828,-35.645,0.000
1727423096.564,0.000,-76.660,-62.988,-32.227,0.000
1727423096.568,0.000,-91.309,-62.500,-42.480,0.000
1727423096.572,0.000,-97.168,-57.129,-48.340,0.000
1727423096.576,0.000,-77.148,-54.199,-46.387,0.000
1727423096.580,0.000,-58.594,-46.875,-41.016,0.000
1727423096.584,0.000,-83.496,-43.945,-49.316,0.000
1727423096.588,0.000,-93.262,-39.062,-34.668,0.000
1727423096.592,0.000,-65.430,-19.043,-40.039,0.000
1727423096.596,0.000,-62.988,-15.137,-66.406,0.000
1727423096.600,0.000,-75.195,-20.508,-61.523,0.000
1727423096.604,0.000,-90.820,-12.207,-43.945,0.000
1727423096.607,-23.438,-88.379,-10.254,-43.457,0.000
1727423096.611,-68.848,-84.473,-15.625,-53.711,0.000
1727423096.615,-74.219,-80.078,-5.371,-49.316,0.000
1727423096.619,-44.434,-73.730,-1.465,-38.086,0.000
1727423096.623,-23.438,-82.031,-4.883,-25.391,0.000
1727423096.627,-20.996,-83.984,0.488,-27.344,0.000
1727423096.631,-44.434,-79.102,6.836,-30.762,0.000
1727423096.635,-56.152,-58.105,14.160,-26.367,0.000
1727423096.639,-35.156,-62.012,11.719,-31.738,0.000
1727423096.642,-16.602,-78.613,0.000,-34.668,0.000
1727423096.646,-13.184,-51.758,-4.395,-20.020,0.000
1727423096.650,-42.969,-43.945,-3.418,-19.531,0.000
1727423096.654,-69.336,-58.594,12.207,-36.621,0.000
1727423096.658,-48.340,-63.477,19.531,-48.340,0.000
1727423096.662,-19.043,-50.781,3.906,-37.598,0.000
1727423096.666,-15.625,-42.969,-5.859,-27.832,0.000
1727423096.670,-34.668,-36.133,-1.953,-41.504,0.000
1727423096.674,-63.477,-41.992,-3.418,-46.875,0.000
1727423096.677,-57.129,-43.457,-8.301,-28.809,0.000
1727423096.681,-24.414,-45.898,-6.836,-22.461,0.000
1727423096.685,-19.043,-52.246,-6.348,-41.504,0.000
1727423096.689,-38.086,-41.992,-0.488,-47.363,0.000
1727423096.693,-57.617,-46.387,4.395,-52.734,0.000
1727423096.697,-61.035,-57.617,9.766,-52.734,0.000
1727423096.701,-34.668,-67.383,3.418,-44.434,0.000
1727423096.705,-21.973,-72.266,0.000,-44.434,0.000
1727423096.708,-39.062,-49.805,9.277,-35.156,0.000
1727423096.712,-77.148,-55.176,5.371,-38.086,0.000
1727423096.716,-85.449,-70.801,-2.441,-58.105,0.000
1727423096.720,-33.203,-54.688,-5.859,-54.688,0.000
1727423096.724,0.000,-38.086,-6.348,-41.016,0.000
1727423096.728,-12.695,-39.551,0.000,-32.715,0.000
1727423096.732,-48.340,-49.316,-0.488,-37.109,0.000
1727423096.736,-51.758,-41.016,0.977,-41.016,0.000
1727423096.740,-6.348,-45.410,7.812,-23.438,0.000
1727423096.744,13.672,-63.477,0.488,-12.695,0.000
1727423096.748,-5.859,-63.477,1.953,-7.812,0.000
1727423096.752,-45.898,-56.641,8.301,-26.855,0.000
1727423096.756,-55.664,-38.086,-2.930,-47.852,0.000
1727423096.760,-36.133,-35.156,-23.438,-51.758,0.000
1727423096.763,-2.930,-42.480,-25.879,-37.598,0.000
1727423096.767,-4.395,-32.715,-12.207,-28.809,0.000
1727423096.771,-55.176,-51.758,-9.277,-29.297,0.000
1727423096.775,-62.012,-67.383,-2.930,-27.832,0.000
1727423096.779,-21.484,-44.922,6.836,-21.973,0.000
1727423096.783,10.254,-23.926,5.859,-11.230,0.000
1727423096.787,-4.883,-15.137,-6.836,-10.742,0.000
1727423096.791,-50.293,-31.250,-15.137,-32.227,0.000
1727423096.795,-60.059,-38.086,-13.672,-44.434,0.000
1727423096.799,-30.762,-24.902,-12.695,-33.203,0.000
1727423096.803,6.836,-18.555,-15.625,-20.996,0.000
1727423096.807,3.418,-32.227,-17.578,-25.879,0.000
1727423096.810,-38.574,-41.992,-17.090,-33.691,0.000
1727423096.814,-69.824,-38.086,-15.625,-33.691,0.000
1727423096.818,-58.594,-32.715,-13.184,-36.133,0.000
1727423096.822,-7.324,-10.254,-6.348,-28.320,0.000
1727423096.826,3.418,-17.578,-4.883,-9.277,0.000
1727423096.830,-21.484,-36.621,-10.742,-16.602,0.000
1727423096.834,-33.203,-18.555,-9.766,-41.016,0.000
1727423096.838,-24.902,-15.625,-4.395,-34.180,0.000
1727423096.842,-8.301,-37.598,-12.695,-23.926,0.000
1727423096.846,0.977,-31.250,-16.113,-20.996,0.000
1727423096.850,-23.438,-18.066,-5.371,-20.996,0.000
1727423096.854,-63.965,-24.902,-9.766,-39.551,0.000
1727423096.857,-45.410,-38.574,-16.113,-42.480,0.000
1727423096.861,1.953,-38.086,-10.254,-16.113,0.000
1727423096.865,8.789,-28.320,-16.602,-26.367,0.000
1727423096.869,-27.832,-15.625,-27.344,-34.668,0.000
1727423096.873,-65.918,-23.438,-20.996,-45.410,0.000
1727423096.877,-49.805,-40.039,-10.254,-52.734,0.000
1727423096.881,-15.137,-35.645,-9.277,-44.434,0.000
1727423096.885,-14.160,-23.438,-18.066,-36.621,0.000
1727423096.889,-38.086,-22.461,-18.066,-37.598,0.000
1727423096.893,-75.684,-38.574,-28.320,-39.551,0.000
1727423096.897,-81.055,-37.598,-23.438,-41.992,0.000
1727423096.900,-35.156,-19.043,38.574,-37.598,0.000
1727423096.904,0.000,-18.066,72.266,-28.320,0.000
1727423096.908,-11.719,-22.461,63.965,-34.668,0.000
1727423096.912,-42.480,-20.508,61.035,-37.109,0.000
1727423096.916,-59.082,-22.949,69.824,-35.645,0.000
1727423096.920,-28.320,-13.672,74.219,-31.738,0.000
1727423096.924,6.348,-18.066,66.895,-34.180,0.000
1727423096.928,-11.719,-18.066,69.336,-37.598,0.000
1727423096.932,-50.293,0.000,63.965,-38.574,0.000
1727423096.936,-57.129,-0.977,0.000,-31.738,0.000
1727423096.940,-23.438,-13.184,0.000,-23.438,0.000
1727423096.943,0.977,-16.113,0.000,-22.949,0.000
1727423096.947,-8.789,-3.418,0.000,-28.320,0.000
1727423096.951,-51.758,-14.648,0.000,-46.387,0.000
1727423096.955,-72.754,-32.227,0.000,-57.129,0.000
1727423096.959,-42.480,-30.762,0.000,-45.410,0.000
1727423096.963,4.883,-25.879,0.000,-20.508,0.000
1727423096.967,-0.977,-19.043,0.000,-17.090,0.000
1727423096.971,-45.898,-15.625,0.000,-26.367,0.000
1727423096.975,-65.430,-17.578,0.000,-34.668,0.000
1727423096.979,-50.781,-24.902,0.000,-33.691,0.000
1727423096.982,-22.461,-42.969,19.043,-24.414,0.000
1727423096.986,-7.812,-49.316,24.414,-31.738,0.000
1727423096.990,-32.715,-31.738,19.043,-38.574,0.000
1727423096.994,-61.523,-20.996,9.277,-41.504,0.000
1727423096.998,-42.969,-23.926,9.766,-29.297,0.000
1727423097.002,-14.648,-23.926,4.395,-20.508,0.000
1727423097.006,-14.648,-31.250,-4.395,-39.062,0.000
1727423097.010,-43.457,-39.551,6.836,-46.387,0.000
1727423097.014,-73.730,-40.039,14.648,-53.223,0.000
1727423097.018,-64.941,-39.551,6.836,-57.129,0.000
1727423097.021,-17.090,-23.926,5.371,-32.227,0.000
1727423097.025,0.000,-34.668,0.977,-18.066,0.000
1727423097.029,-23.926,-42.480,-10.254,-30.273,0.000
1727423097.033,-52.734,-42.480,-13.672,-42.969,0.000
1727423097.037,-57.617,-52.734,-16.113,-42.480,0.000
1727423097.041,-22.949,-41.016,-19.531,-47.363,0.000
1727423097.045,-5.371,-25.391,-19.531,-44.434,0.000
1727423097.049,-34.180,-17.090,-11.719,-41.504,0.000
1727423097.052,-71.777,-29.297,-11.719,-44.922,0.000
1727423097.056,-74.219,-27.832,-18.555,-42.969,0.000
1727423097.060,-33.203,-27.832,-22.461,-25.391,0.000
1727423097.064,1.953,-33.691,-22.461,-26.855,0.000
1727423097.068,-23.926,-42.480,-27.344,-42.969,0.000
1727423097.072,-77.148,-49.805,-32.227,-48.340,0.000
1727423097.076,-82.031,-35.645,-27.344,-58.105,0.000
1727423097.080,-27.832,-42.969,-22.949,-39.551,0.000
1727423097.083,3.418,-47.852,-17.578,-25.879,0.000
1727423097.087,-20.020,-23.926,-17.090,-31.738,0.000
1727423097.091,-55.664,-8.789,-23.926,-39.551,0.000
1727423097.095,-66.406,-10.254,-25.879,-40.039,0.000
1727423097.099,-41.016,-18.066,-27.832,-32.227,0.000
1727423097.103,-11.719,-13.672,-26.367,-29.297,0.000
1727423097.107,-10.254,-16.602,-18.555,-29.785,0.000
1727423097.111,-44.922,-28.320,-20.508,-28.809,0.000
1727423097.115,-62.988,-27.344,-12.695,-11.230,0.000
1727423097.119,-30.273,-47.363,-8.301,-23.926,0.000
1727423097.123,10.254,-47.363,-11.719,-39.551,0.000
1727423097.127,0.977,-18.555,-15.625,-25.391,0.000
1727423097.131,-32.715,1.953,-13.672,-25.879,0.000
1727423097.135,-58.105,-5.859,-20.996,-38.574,0.000
1727423097.138,-48.340,-36.133,-34.180,-44.922,0.000
1727423097.142,-18.555,-43.945,-29.785,-42.969,0.000
1727423097.146,-13.672,-37.598,-37.109,-30.762,0.000
1727423097.150,-34.180,-25.879,-39.062,-21.484,0.000
1727423097.154,-55.176,-24.902,-21.484,-22.461,0.000
1727423097.158,-61.523,-36.621,-28.320,-44.922,0.000
1727423097.162,-20.996,-32.227,-37.109,-51.758,0.000
1727423097.166,9.766,-29.297,-23.438,-28.320,0.000
1727423097.170,-34.180,-33.691,-20.508,-34.180,0.000
1727423097.174,-79.590,-27.344,-33.203,-71.777,0.000
1727423097.178,-57.617,-19.043,-30.273,-62.988,0.000
1727423097.182,-15.137,-27.832,-22.949,-38.086,0.000
1727423097.186,-18.555,-52.246,-38.086,-52.246,0.000
1727423097.189,-41.992,-48.828,-44.434,-54.199,0.000
1727423097.193,-64.941,-19.531,-38.574,-42.480,0.000
1727423097.197,-62.500,-6.348,-41.992,-33.203,0.000
1727423097.201,-23.926,-26.367,-41.992,-24.414,0.000
1727423097.205,-3.906,-25.391,-44.434,-26.367,0.000
1727423097.209,-27.832,-20.508,-55.176,-42.480,0.000
1727423097.213,-54.688,-23.438,-55.664,-56.641,0.000
1727423097.217,-46.875,-8.301,-59.082,-36.133,0.000
1727423097.221,-19.043,-17.578,-66.406,-30.762,0.000
1727423097.225,5.371,-21.973,-58.105,-43.945,0.000
1727423097.229,-8.789,-8.301,-56.641,-33.691,0.000
1727423097.233,-46.387,-14.648,-64.453,-31.250,0.000
1727423097.236,-61.035,-22.949,-77.148,-35.645,0.000
1727423097.240,-19.043,-33.203,-78.613,-29.297,0.000
1727423097.244,15.625,-41.504,-67.871,-15.137,0.000
1727423097.248,-11.719,-29.297,-73.242,-27.832,0.000
1727423097.252,-43.457,-3.906,-83.496,-40.039,0.000
1727423097.256,-51.758,0.977,-93.262,-42.969,0.000
1727423097.260,-24.414,-18.066,-101.074,-41.016,0.000
1727423097.264,2.930,-17.090,-93.262,-20.508,0.000
1727423097.268,-4.883,-2.930,-79.102,-11.230,0.000
1727423097.272,-44.922,-14.160,-73.730,-24.902,0.000
1727423097.276,-70.801,-40.527,-67.383,-34.180,0.000
1727423097.279,-42.969,-45.898,-65.430,-21.973,0.000
1727423097.283,-11.230,-35.645,-72.754,-29.785,0.000
1727423097.287,-21.484,-33.691,-76.660,-33.203,0.000
1727423097.291,-59.570,-38.574,-80.078,-34.180,0.000
1727423097.295,-59.570,-28.320,-69.336,-36.621,0.000
1727423097.299,-31.250,-18.066,-62.988,-36.133,0.000
1727423097.303,-12.207,-43.945,-69.336,-36.621,0.000
1727423097.307,-8.789,-50.293,-57.617,-21.484,0.000
1727423097.311,0.000,-44.922,-54.688,-32.227,0.000
1727423097.315,0.000,-36.621,-53.711,-44.434,0.000
1727423097.319,0.000,-17.090,-35.156,-27.344,0.000
1727423097.322,0.000,-25.391,-37.109,-20.996,0.000
1727423097.326,0.000,-30.273,-42.480,-22.461,0.000
1727423097.330,0.000,-32.227,-38.086,-41.504,0.000
1727423097.334,0.000,-44.922,-44.922,-58.594,0.000
1727423097.338,0.000,-43.945,-51.270,-51.270,0.000
1727423097.342,0.000,-46.387,-52.734,-47.852,0.000
1727423097.346,0.000,-64.453,-59.082,-51.758,0.000
1727423097.350,0.000,-55.664,-62.500,-43.457,0.000
1727423097.354,0.000,-48.828,-53.223,-36.621,0.000
1727423097.357,-64.453,-62.500,-58.105,-45.410,0.000
1727423097.361,-32.715,-54.199,-61.035,-52.734,0.000
1727423097.365,-12.207,-40.039,-52.246,-35.156,0.000
1727423097.369,-30.273,-33.203,-47.363,-25.879,0.000
1727423097.373,-65.430,-32.227,-46.875,-42.969,0.000
1727423097.377,-71.289,-21.973,-50.293,-43.457,0.000
1727423097.381,-33.203,-27.832,-53.223,-33.203,0.000
1727423097.385,-4.883,-32.715,-49.805,-34.180,0.000
1727423097.389,-20.020,-36.133,-46.387,-40.527,0.000
1727423097.393,-54.199,-47.363,-41.992,-43.457,0.000
1727423097.397,-53.223,-39.062,-35.645,-50.293,0.000
1727423097.400,-15.137,-26.367,-31.738,-45.410,0.000
1727423097.404,8.789,-31.738,-31.250,-39.062,0.000
1727423097.408,-6.836,-32.715,-29.785,-36.621,0.000
1727423097.412,-51.758,-23.926,-25.391,-36.133,0.000
1727423097.416,-66.406,-25.879,-20.020,-41.016,0.000
1727423097.420,-26.367,-30.762,-18.066,-40.527,0.000
1727423097.424,0.488,-45.898,-24.414,-27.832,0.000
1727423097.428,-12.207,-50.293,-22.461,-10.254,0.000
1727423097.432,-57.617,-43.945,-20.508,-29.297,0.000
1727423097.435,-70.801,-38.574,-14.648,-44.922,0.000
1727423097.439,-28.320,-38.086,-11.230,-38.574,0.000
1727423097.443,-9.277,-50.293,-18.066,-45.898,0.000
1727423097.447,-19.531,-55.176,-18.066,-47.852,0.000
1727423097.451,-48.828,-45.898,-12.207,-42.480,0.000
1727423097.455,-69.336,-45.898,-20.508,-51.270,0.000
1727423097.459,-41.504,-52.734,-22.461,-57.617,0.000
1727423097.462,-10.742,-43.457,-19.043,-48.828,0.000
1727423097.466,-17.090,-38.574,-24.902,-30.273,0.000
1727423097.470,-54.199,-50.293,-27.344,-39.062,0.000
1727423097.474,-80.566,-49.805,-23.438,-44.922,0.000
1727423097.478,-55.664,-41.992,-21.484,-34.668,0.000
1727423097.482,-15.625,-47.852,-27.344,-42.969,0.000
1727423097.486,-10.742,-45.410,-22.461,-40.527,0.000
1727423097.490,-38.086,-31.738,-16.113,-41.016,0.000
1727423097.494,-65.430,-45.898,-25.879,-56.152,0.000
1727423097.498,-48.340,-59.570,-19.531,-39.551,0.000
1727423097.502,-18.555,-40.039,-18.555,-15.625,0.000
1727423097.506,-17.090,-26.855,-35.645,-20.508,0.000
1727423097.510,-45.898,-27.344,-38.574,-45.898,0.000
1727423097.514,-69.824,-27.832,-40.527,-47.363,0.000
1727423097.517,-52.246,-21.484,-42.969,-44.922,0.000
1727423097.521,-9.766,-25.391,-37.598,-38.086,0.000
1727423097.525,11.719,-36.133,-36.621,5.371,0.000
1727423097.529,-15.625,-37.598,-51.270,-12.207,0.000
1727423097.533,-48.828,-29.785,-49.805,-34.668,0.000
1727423097.537,-45.410,-24.414,-39.551,-25.391,0.000
1727423097.541,-8.301,-26.367,-41.504,-30.273,0.000
1727423097.545,9.277,-30.762,-37.109,-26.855,0.000
1727423097.549,-16.113,-43.945,-41.016,-34.180,0.000
1727423097.553,-36.621,-30.762,-24.414,-37.109,0.000
1727423097.557,-34.180,-17.090,-1.465,-41.016,0.000
1727423097.561,-16.602,-18.066,-3.418,-35.645,0.000
1727423097.565,-6.836,-5.859,-19.531,-27.344,0.000
1727423097.568,-25.879,-13.184,-24.902,-27.344,0.000
1727423097.572,-62.500,-34.668,-23.438,-52.734,0.000
1727423097.576,-67.383,-32.715,-20.996,-62.012,0.000
1727423097.580,-41.016,-41.016,-19.531,-39.551,0.000
1727423097.584,-12.695,-33.691,-12.695,-23.926,0.000
1727423097.588,-28.809,-26.855,-18.555,-33.203,0.000
1727423097.592,-64.453,-52.246,-33.691,-52.734,0.000
1727423097.596,-62.500,-52.246,-29.785,-53.223,0.000
1727423097.600,-36.621,-29.785,-24.902,-38.086,0.000
1727423097.604,-12.207,-24.902,-21.973,-29.785,0.000
1727423097.608,-23.926,-36.133,-21.484,-40.527,0.000
1727423097.611,-56.641,-40.527,-25.879,-57.129,0.000
1727423097.615,-72.266,-42.480,-22.949,-53.711,0.000
1727423097.619,-41.504,-50.781,-19.043,-32.227,0.000
1727423097.623,-5.859,-49.805,-17.578,-17.090,0.000
1727423097.627,-19.531,-51.270,-19.043,-13.184,0.000
1727423097.631,-53.223,-53.711,-27.344,-39.062,0.000
1727423097.635,-62.988,-59.082,-31.250,-59.082,0.000
1727423097.639,-42.480,-67.871,-32.715,-42.969,0.000
1727423097.643,-11.719,-42.969,-25.879,-27.832,0.000
1727423097.647,-11.230,-33.203,-22.461,-22.949,0.000
1727423097.651,-47.363,-36.133,-30.273,-31.738,0.000
1727423097.654,-71.289,-30.762,-20.996,-39.551,0.000
1727423097.658,-39.551,-33.691,-6.836,-37.598,0.000
1727423097.662,-1.465,-41.992,-19.531,-39.062,0.000
1727423097.666,-11.719,-49.805,-30.273,-31.250,0.000
1727423097.670,-46.875,-34.668,-19.531,-33.691,0.000
1727423097.674,-74.219,-24.414,-11.230,-42.969,0.000
1727423097.678,-57.617,-39.062,-15.625,-40.039,0.000
1727423097.682,-21.484,-47.852,-16.113,-38.086,0.000
1727423097.686,1.953,-33.203,-8.301,-28.809,0.000
1727423097.690,-12.207,-23.926,-1.953,-20.020,0.000
1727423097.693,-64.941,-42.480,-20.996,-43.945,0.000
1727423097.697,-63.965,-38.086,-21.973,-45.898,0.000
1727423097.701,-20.020,-20.508,-10.254,-31.738,0.000
1727423097.705,-5.859,-41.016,-9.766,-36.133,0.000
1727423097.709,-24.414,-53.711,-8.301,-39.062,0.000
1727423097.713,-61.523,-44.922,-16.113,-44.434,0.000
1727423097.717,-67.383,-47.852,-21.484,-29.785,0.000
1727423097.721,-19.531,-55.176,-9.766,0.488,0.000
1727423097.725,14.648,-44.922,-2.930,-1.465,0.000
1727423097.729,-13.672,-32.715,-20.508,-30.762,0.000
1727423097.732,-71.777,-38.574,-36.133,-53.223,0.000
1727423097.736,-70.801,-33.203,-26.367,-52.734,0.000
1727423097.740,-20.996,-37.109,-10.254,-44.922,0.000
1727423097.744,4.395,-58.105,-9.766,-19.531,0.000
1727423097.748,-27.832,-50.293,-14.648,-9.766,0.000
1727423097.752,-65.430,-32.715,-22.461,-41.504,0.000
1727423097.756,-74.219,-40.527,-29.785,-56.641,0.000
1727423097.760,-48.828,-51.270,-27.344,-52.734,0.000
1727423097.764,-21.973,-41.504,-25.391,-41.016,0.000
1727423097.768,-31.738,-41.504,-29.785,-22.461,0.000
1727423097.772,-55.664,-48.340,-30.762,-28.809,0.000
1727423097.775,-66.406,-42.969,-30.273,-47.363,0.000
1727423097.779,-37.109,-27.832,-30.273,-41.504,0.000
1727423097.783,4.395,-19.531,-26.367,-22.949,0.000
1727423097.787,-0.977,-23.926,-26.855,-21.484,0.000
1727423097.791,-47.363,-37.109,-32.715,-26.367,0.000
1727423097.795,-69.336,-52.734,-34.668,-37.109,0.000
1727423097.799,-30.762,-63.477,-32.715,-41.016,0.000
1727423097.803,6.836,-54.688,-33.691,-42.480,0.000
1727423097.806,-2.441,-33.203,-37.109,-23.438,0.000
1727423097.810,-41.016,-15.625,-32.715,-25.391,0.000
1727423097.814,-55.664,-9.277,-20.996,-41.016,0.000
1727423097.818,-29.785,-10.742,-18.555,-28.809,0.000
1727423097.822,0.488,-28.320,-24.902,-22.461,0.000
1727423097.826,-2.930,-38.574,-27.832,-21.973,0.000
1727423097.830,-31.738,-31.250,-26.855,-28.809,0.000
1727423097.834,-59.570,-41.992,-29.297,-44.922,0.000
1727423097.837,-52.246,-56.152,-27.344,-40.527,0.000
1727423097.841,-2.441,-59.082,-23.926,-32.715,0.000
1727423097.845,4.395,-68.359,-35.645,-34.180,0.000
1727423097.849,-34.668,-47.852,-37.598,-31.738,0.000
1727423097.853,-57.129,-20.996,-25.391,-37.109,0.000
1727423097.857,-51.758,-20.996,-34.668,-40.039,0.000
1727423097.861,-21.484,-26.367,-38.574,-32.227,0.000
1727423097.865,0.488,-25.391,-20.996,-26.855,0.000
1727423097.869,-22.461,-43.457,-19.531,-19.043,0.000
1727423097.873,-70.801,-69.824,-34.180,-22.461,0.000
1727423097.877,-65.430,-57.129,-35.645,-40.039,0.000
1727423097.881,-19.531,-34.180,-30.273,-35.645,0.000
1727423097.885,-15.137,-42.480,-34.668,-30.762,0.000
1727423097.889,-34.668,-45.410,-34.180,-28.809,0.000
1727423097.892,-57.129,-41.992,-36.133,-24.414,0.000
1727423097.896,-61.523,-38.574,-43.457,-25.879,0.000
1727423097.900,-22.461,-29.297,-40.527,-24.414,0.000
1727423097.904,1.465,-33.691,-41.016,-28.809,0.000
1727423097.908,-21.484,-43.457,-51.758,-34.180,0.000
1727423097.912,-66.895,-52.246,-62.012,-38.574,0.000
1727423097.916,-58.105,-46.875,-48.340,-26.855,0.000
1727423097.920,0.000,-38.086,-33.203,-22.461,0.000
1727423097.924,0.000,-35.156,-43.457,-28.320,0.000
1727423097.928,0.000,-24.414,-48.340,-22.461,0.000
1727423097.932,0.000,-27.344,-47.852,-41.992,0.000
1727423097.936,0.000,-33.691,-47.852,-42.969,0.000
1727423097.940,0.000,-36.621,-44.922,-24.902,0.000
1727423097.943,0.000,-26.367,-39.551,-22.949,0.000
1727423097.947,0.000,-22.949,-35.645,-22.949,0.000
1727423097.951,0.000,-39.062,-43.945,-24.902,0.000
1727423097.955,0.000,-42.480,-44.922,-21.973,0.000
1727423097.959,0.000,-35.645,-41.016,-30.762,0.000
1727423097.963,0.000,-30.762,-36.621,-16.113,0.000
1727423097.967,-7.812,-32.715,-35.645,-12.695,0.000
1727423097.971,-43.945,-39.062,-36.621,-40.527,0.000
1727423097.975,-62.988,-40.039,-37.598,-44.922,0.000
1727423097.979,-31.250,-33.203,-40.527,-34.668,0.000
1727423097.983,-4.395,-49.316,-47.363,-31.738,0.000
1727423097.987,-3.906,-45.898,-41.016,-16.113,0.000
1727423097.990,-28.320,-20.996,-28.320,-9.277,0.000
1727423097.994,-68.359,-27.344,-43.945,-47.852,0.000
1727423097.998,-54.199,-37.109,-52.734,-52.246,0.000
1727423098.002,-15.625,-31.738,-41.992,-32.715,0.000
1727423098.006,-16.113,-56.641,-42.480,-36.621,0.000
1727423098.010,-40.039,-74.707,-46.875,-32.227,0.000
1727423098.014,-59.082,-55.176,-46.387,-31.738,0.000
1727423098.018,-41.992,-35.156,-46.387,-43.457,0.000
1727423098.022,0.000,-27.344,-38.086,-27.344,0.000
1727423098.026,-3.418,-27.832,-35.645,-15.137,0.000
1727423098.030,-41.016,-45.898,-45.898,-28.809,0.000
1727423098.033,-73.242,-45.898,-57.129,-50.293,0.000
1727423098.037,-68.359,-42.969,-76.172,-57.617,0.000
1727423098.041,-15.625,-46.387,-69.336,-25.391,0.000
1727423098.045,1.465,-20.020,-57.129,-19.043,0.000
1727423098.049,-38.574,-14.648,-74.707,-47.852,0.000
1727423098.053,-75.195,-27.832,-77.637,-58.105,0.000
1727423098.057,-72.266,-27.344,-71.777,-41.504,0.000
1727423098.061,-30.273,-31.738,-73.730,-43.457,0.000
1727423098.065,-0.977,-44.922,-73.242,-47.363,0.000
1727423098.069,-21.973,-44.922,-81.055,-43.945,0.000
1727423098.072,-67.383,-48.340,-85.938,-57.617,0.000
1727423098.076,-70.801,-59.082,-77.637,-60.547,0.000
1727423098.080,-26.855,-53.223,-75.195,-45.898,0.000
1727423098.084,1.465,-25.391,-75.195,-34.668,0.000
1727423098.088,-19.043,-10.742,-65.918,-42.480,0.000
1727423098.092,-60.059,-14.648,-62.012,-57.617,0.000
1727423098.096,-61.035,-18.555,-57.617,-48.828,0.000
1727423098.100,-15.137,-24.414,-51.758,-29.297,0.000
1727423098.104,7.812,-43.945,-49.805,-24.902,0.000
1727423098.107,0.977,-57.129,-37.598,-10.254,0.000
1727423098.111,-40.039,-61.523,-40.527,-22.949,0.000
1727423098.115,-66.406,-58.594,-51.270,-47.363,0.000
1727423098.119,-39.062,-38.574,-45.410,-40.527,0.000
1727423098.123,-9.766,-23.438,-41.504,-31.250,0.000
1727423098.127,-14.648,-21.973,-43.945,-24.902,0.000
1727423098.131,-48.340,-31.250,-40.527,-37.109,0.000
1727423098.135,-75.684,-41.016,-36.621,-51.270,0.000
1727423098.139,-43.457,-27.344,-25.391,-42.480,0.000
1727423098.143,-1.953,-51.758,-24.902,-29.297,0.000
1727423098.147,-11.230,-80.078,-42.969,-23.438,0.000
1727423098.150,-53.223,-57.129,-47.852,-37.109,0.000
1727423098.154,-72.266,-53.223,-43.945,-53.223,0.000
1727423098.158,-41.504,-49.316,-41.992,-43.457,0.000
1727423098.162,-14.648,-34.668,-41.016,-30.762,0.000
1727423098.166,-14.160,-32.715,-44.922,-21.973,0.000
1727423098.170,-43.945,-31.738,-55.664,-40.039,0.000
1727423098.174,-68.359,-51.270,-42.969,-48.340,0.000
1727423098.178,-44.922,-61.523,-23.926,-19.043,0.000
1727423098.181,-11.230,-31.250,-36.133,-14.648,0.000
1727423098.185,-11.230,-13.672,-47.852,-33.203,0.000
1727423098.189,-46.875,-26.855,-47.852,-44.434,0.000
1727423098.193,-82.520,-48.828,-48.340,-57.617,0.000
1727423098.197,-57.617,-43.457,-38.574,-47.852,0.000
1727423098.201,-4.883,-35.156,-27.344,-21.973,0.000
1727423098.205,-1.953,-34.180,-33.203,-25.391,0.000
1727423098.209,-34.180,-49.316,-41.504,-33.203,0.000
1727423098.213,-62.988,-56.152,-36.133,-29.297,0.000
1727423098.217,-52.246,-33.203,-32.715,-17.578,0.000
1727423098.221,0.000,-27.344,-34.668,-13.672,0.000
1727423098.225,7.812,-37.598,-46.387,-28.809,0.000
1727423098.229,-33.203,-44.434,-61.035,-57.617,0.000
1727423098.233,-62.012,-44.922,-62.012,-70.801,0.000
1727423098.237,-57.617,-38.574,-46.875,-60.059,0.000
1727423098.240,-10.742,-38.086,-34.668,-38.574,0.000
1727423098.244,6.348,-52.246,-36.133,-34.180,0.000
1727423098.249,-19.531,-62.500,-34.180,-27.832,0.000
1727423098.252,-46.875,-51.270,-33.691,-24.414,0.000
1727423098.256,-53.711,-29.297,-35.156,-32.715,0.000
1727423098.260,-31.250,-22.461,-45.898,-32.715,0.000
1727423098.264,-9.766,-37.109,-50.781,-29.785,0.000
1727423098.268,-14.160,-33.691,-49.805,-20.996,0.000
1727423098.272,-47.852,-40.039,-52.246,-29.297,0.000
1727423098.276,-51.758,-53.711,-42.480,-38.574,0.000
1727423098.280,-20.020,-42.969,-38.574,-39.551,0.000
1727423098.284,1.465,-35.156,-42.969,-39.551,0.000
1727423098.288,-4.883,-10.742,-39.062,-29.297,0.000
1727423098.292,-40.039,-15.137,-39.062,-31.738,0.000
1727423098.296,-57.617,-54.199,-40.039,-45.410,0.000
1727423098.299,-20.996,-48.340,-40.527,-30.762,0.000
1727423098.303,18.066,-18.555,-42.969,-20.020,0.000
1727423098.307,13.184,-4.883,-41.992,-31.738,0.000
1727423098.311,-34.668,-31.250,-50.293,-41.016,0.000
1727423098.315,-61.035,-52.734,-59.082,-49.316,0.000
1727423098.319,-24.902,-40.527,-50.293,-28.320,0.000
1727423098.323,2.441,-37.598,-47.363,-8.301,0.000
1727423098.327,-4.883,-38.574,-50.781,-21.484,0.000
1727423098.331,-38.086,-42.969,-48.340,-41.992,0.000
1727423098.335,-57.129,-33.691,-41.016,-54.199,0.000
1727423098.339,-35.645,-24.902,-36.133,-47.363,0.000
1727423098.343,-0.977,-39.551,-39.062,-35.645,0.000
1727423098.346,20.020,-55.664,-36.133,-11.230,0.000
1727423098.350,-12.207,-39.062,-41.992,-2.441,0.000
1727423098.354,-61.523,-30.762,-49.316,-40.039,0.000
1727423098.358,-42.480,-43.945,-43.945,-46.875,0.000
1727423098.362,6.836,-44.434,-36.621,-30.762,0.000
1727423098.366,2.441,-53.223,-39.062,-33.691,0.000
1727423098.370,-24.414,-45.410,-41.504,-32.227,0.000
1727423098.374,-50.293,-44.922,-47.363,-45.410,0.000
1727423098.378,-57.129,-41.992,-48.340,-47.852,0.000
1727423098.382,-20.508,-23.926,-38.086,-38.574,0.000
1727423098.386,14.160,-23.926,-32.227,-31.738,0.000
1727423098.389,0.488,-11.719,-31.738,-16.602,0.000
1727423098.393,-48.340,-17.578,-34.668,-22.461,0.000
1727423098.397,-55.664,-35.156,-35.156,-27.344,0.000
1727423098.401,-17.578,-37.598,-42.969,-31.250,0.000
1727423098.405,-3.418,-49.805,-50.781,-42.480,0.000
1727423098.409,-24.902,-65.430,-45.898,-41.504,0.000
1727423098.413,-61.035,-51.270,-40.039,-40.039,0.000
1727423098.417,-65.430,-48.828,-30.273,-36.133,0.000
1727423098.421,-17.578,-55.176,-24.902,-33.691,0.000
1727423098.425,9.766,-54.688,-30.762,-41.504,0.000
1727423098.428,-7.324,-60.547,-35.156,-36.133,0.000
1727423098.432,-35.156,-32.715,-29.297,-22.949,0.000
1727423098.436,-48.828,-30.762,-33.203,-32.227,0.000
1727423098.440,-38.086,-57.617,-49.805,-46.387,0.000
1727423098.444,-18.066,-61.035,-50.293,-39.551,0.000
1727423098.448,-24.902,-50.781,-40.527,-27.832,0.000
1727423098.452,-58.105,-39.551,-36.133,-36.133,0.000
1727423098.456,-64.453,-26.855,-35.156,-28.320,0.000
1727423098.460,-25.879,-19.043,-26.367,-12.207,0.000
1727423098.464,9.277,-36.133,-31.738,-26.367,0.000
1727423098.468,-0.488,-60.059,-38.086,-23.926,0.000
1727423098.471,-34.668,-62.500,-30.762,-20.020,0.000
1727423098.475,-62.012,-43.945,-30.762,-32.227,0.000
1727423098.479,-41.016,-34.180,-31.250,-28.809,0.000
1727423098.483,-7.324,-32.227,-32.715,-36.133,0.000
1727423098.487,-22.949,-38.574,-43.457,-47.363,0.000
1727423098.491,-52.246,-48.828,-49.316,-43.945,0.000
1727423098.495,-72.754,-40.527,-42.480,-50.781,0.000
1727423098.499,-49.316,-29.297,-34.180,-47.852,0.000
1727423098.503,-7.812,-33.691,-28.320,-23.926,0.000
1727423098.506,0.488,-49.316,-35.156,-20.996,0.000
1727423098.510,-24.902,-47.363,-37.598,-25.879,0.000
1727423098.514,-65.918,-48.828,-32.715,-44.922,0.000
1727423098.518,-54.688,-58.105,-28.809,-44.922,0.000
1727423098.522,-0.488,-42.480,-22.461,-26.367,0.000
1727423098.526,1.953,-41.016,-32.715,-20.020,0.000
1727423098.530,-42.969,-50.293,-48.340,-26.855,0.000
1727423098.534,-75.684,-50.781,-51.758,-56.152,0.000
1727423098.538,-66.406,-44.434,-41.992,-58.594,0.000
1727423098.541,-24.414,-33.691,-37.598,-40.527,0.000
1727423098.545,-6.836,-40.039,-42.969,-40.527,0.000
1727423098.549,-30.762,-52.246,-46.387,-42.969,0.000
1727423098.553,-56.152,-46.387,-41.992,-33.691,0.000
1727423098.557,-48.828,-34.180,-40.039,-44.434,0.000
1727423098.561,-29.297,-31.738,-53.223,-55.664,0.000
1727423098.565,-16.113,-27.344,-42.969,-31.250,0.000
1727423098.569,-25.879,-20.508,-39.062,-18.555,0.000
1727423098.573,-69.336,-24.414,-56.641,-41.992,0.000
1727423098.576,-84.961,-36.621,-54.688,-60.547,0.000
1727423098.580,-41.504,-53.711,-41.016,-50.781,0.000
1727423098.584,-15.625,-54.688,-41.504,-38.574,0.000
1727423098.588,-29.785,-41.992,-43.945,-39.551,0.000
1727423098.592,-50.781,-33.203,-40.039,-43.945,0.000
1727423098.596,-57.617,-43.457,-41.992,-37.109,0.000
1727423098.600,-28.809,-45.410,-40.039,-16.602,0.000
1727423098.604,1.465,-33.691,-43.945,-11.719,0.000
1727423098.608,-5.371,-33.203,-46.875,-20.508,0.000
1727423098.611,-43.457,-41.504,-50.293,-35.645,0.000
1727423098.615,-49.316,-49.316,-45.898,-42.969,0.000
1727423098.619,-14.160,-58.105,-36.621,-37.109,0.000
1727423098.623,0.000,-54.688,-50.781,-35.645,0.000
1727423098.627,0.000,-46.387,-54.688,-32.227,0.000
1727423098.631,0.000,-41.504,-42.969,-31.250,0.000
1727423098.635,0.000,-29.785,-40.527,-41.016,0.000
1727423098.639,0.000,-24.414,-40.039,-35.645,0.000
1727423098.643,0.000,-25.879,-40.039,-17.090,0.000
1727423098.647,0.000,-36.621,-43.457,-19.531,0.000
1727423098.651,0.000,-52.246,-43.945,-31.738,0.000
1727423098.655,0.000,-63.965,-47.363,-51.758,0.000
1727423098.659,0.000,-63.965,-41.504,-45.898,0.000
1727423098.663,0.000,-47.363,-28.809,-15.625,0.000
1727423098.666,0.000,-40.527,-31.738,-12.207,0.000
1727423098.669,-0.488,-34.668,-35.645,-24.902,0.000
1727423098.673,-12.207,-21.973,-32.715,-33.691,0.000
1727423098.677,-51.270,-7.812,-36.133,-32.715,0.000
1727423098.681,-65.430,-18.066,-40.039,-25.391,0.000
1727423098.684,-27.344,-37.598,-38.086,-22.949,0.000
1727423098.688,0.977,-49.805,-40.527,-27.344,0.000
1727423098.692,-11.230,-38.574,-39.062,-27.344,0.000
1727423098.696,-53.711,-24.414,-39.551,-23.926,0.000
1727423098.700,-81.055,-38.574,-45.898,-19.043,0.000
1727423098.704,-55.176,-37.598,-44.922,-11.719,0.000
1727423098.708,-11.230,-30.762,-40.527,-20.508,0.000
1727423098.712,1.465,-27.344,-36.621,-30.762,0.000
1727423098.716,-42.969,-15.625,-27.832,-33.691,0.000
1727423098.720,-7.812,-20.020,-30.273,-21.973,0.000
1727423098.724,5.371,-31.738,-39.551,-16.113,0.000
1727423098.728,-11.230,-36.621,-42.480,-18.066,0.000
1727423098.732,-47.363,-34.668,-42.480,-16.602,0.000
1727423098.735,-62.500,-42.480,-43.457,-42.480,0.000
1727423098.739,-24.902,-49.316,-47.363,-48.340,0.000
1727423098.743,9.766,-31.250,-35.156,-19.531,0.000
1727423098.747,-12.207,-21.484,-31.250,-11.719,0.000
1727423098.751,-57.129,-40.039,-40.527,-28.809,0.000
1727423098.755,-62.012,-59.082,-32.715,-41.016,0.000
1727423098.759,-22.461,-53.711,-32.715,-39.551,0.000
1727423098.763,11.719,-34.668,-38.086,-30.273,0.000
1727423098.767,-13.184,-31.250,-48.340,-30.762,0.000
1727423098.771,-63.965,-48.828,-69.336,-50.781,0.000
1727423098.775,-77.148,-45.898,-66.406,-62.012,0.000
1727423098.778,-40.039,-35.645,-53.223,-50.781,0.000
1727423098.782,-8.301,-34.180,-49.805,-20.508,0.000
1727423098.786,-22.949,-35.645,-48.828,-17.090,0.000
1727423098.790,-47.363,-41.992,-47.852,-35.156,0.000
1727423098.794,-69.824,-55.664,-49.805,-46.387,0.000
1727423098.798,-41.992,-47.852,-43.945,-40.527,0.000
1727423098.802,5.859,-30.762,-44.434,-25.879,0.000
1727423098.806,-2.930,-43.945,-51.758,-16.113,0.000
1727423098.810,-40.527,-49.805,-50.293,-11.719,0.000
1727423098.814,-58.105,-39.062,-50.293,-33.203,0.000
1727423098.818,-42.480,-39.062,-54.688,-47.363,0.000
1727423098.821,-8.789,-42.480,-48.828,-30.273,0.000
1727423098.825,-3.418,-44.922,-47.363,-20.996,0.000
1727423098.829,-29.785,-59.570,-53.711,-39.551,0.000
1727423098.833,-53.223,-57.129,-48.340,-37.109,0.000
1727423098.837,-38.574,-41.016,-47.363,-30.273,0.000
1727423098.841,-11.230,-33.203,-53.711,-38.574,0.000
1727423098.845,-15.137,-37.109,-68.359,-38.574,0.000
1727423098.849,-39.551,-37.109,-63.965,-35.645,0.000
1727423098.853,-66.406,-35.156,-57.617,-37.109,0.000
1727423098.857,-66.406,-39.551,-62.500,-41.504,0.000
1727423098.860,-29.785,-51.758,-67.871,-36.621,0.000
1727423098.864,-13.184,-52.246,-76.660,-29.297,0.000
1727423098.868,-47.363,-42.480,-78.125,-36.621,0.000
1727423098.872,-76.660,-41.992,-73.730,-28.809,0.000
1727423098.876,-55.664,-46.387,-68.359,-28.809,0.000
1727423098.880,-18.555,-56.641,-70.312,-45.898,0.000
1727423098.884,-5.371,-37.598,-63.965,-33.691,0.000
1727423098.888,-26.855,-17.090,-64.941,-29.785,0.000
1727423098.892,-62.012,-22.949,-65.918,-45.898,0.000
1727423098.896,-67.383,-40.527,-62.012,-44.922,0.000
1727423098.899,-30.762,-46.387,-62.012,-27.344,0.000
1727423098.903,-9.766,-45.410,-61.035,-35.156,0.000
1727423098.907,-30.762,-47.363,-59.082,-33.691,0.000
1727423098.911,-57.129,-30.273,-57.617,-33.691,0.000
1727423098.915,-73.242,-17.578,-66.895,-55.664,0.000
1727423098.919,-48.828,-27.832,-68.848,-51.758,0.000
1727423098.923,-28.809,-50.781,-63.965,-31.250,0.000
1727423098.927,-42.480,-60.059,-67.383,-27.344,0.000
1727423098.931,-55.664,-45.898,-59.570,-37.109,0.000
1727423098.934,-60.547,-42.480,-48.340,-43.945,0.000
1727423098.938,-33.691,-45.898,-52.246,-33.203,0.000
1727423098.942,-7.812,-33.691,-55.176,-19.531,0.000
1727423098.946,-16.113,-23.438,-46.387,-15.137,0.000
1727423098.950,-56.152,-40.527,-50.293,-38.574,0.000
1727423098.954,-77.637,-50.293,-54.199,-50.293,0.000
1727423098.958,-34.668,-35.645,-42.969,-26.855,0.000
1727423098.962,7.324,-22.461,-44.922,-15.625,0.000
1727423098.965,-7.812,-29.785,-53.711,-28.320,0.000
1727423098.969,-55.176,-51.758,-53.711,-41.504,0.000
1727423098.973,-80.566,-58.594,-49.805,-41.504,0.000
1727423098.977,-46.387,-45.410,-41.992,-35.645,0.000
1727423098.981,-2.441,-33.691,-45.410,-27.344,0.000
1727423098.985,-0.977,-32.715,-53.711,-33.203,0.000
1727423098.989,-35.645,-34.668,-53.223,-36.621,0.000
1727423098.993,-62.988,-36.621,-46.875,-27.832,0.000
1727423098.997,0.000,-36.621,-47.852,-41.992,0.000
1727423099.001,0.000,-39.551,-52.246,-52.734,0.000
1727423099.005,0.000,-41.016,-53.711,-41.016,0.000
1727423099.009,0.000,-38.086,-52.734,-39.062,0.000
1727423099.013,0.000,-38.086,-55.176,-51.758,0.000
1727423099.017,0.000,-29.297,-52.734,-48.340,0.000
1727423099.021,0.000,-24.414,-40.039,-31.250,0.000
1727423099.024,0.000,-23.438,-33.203,-17.090,0.000
1727423099.028,0.000,-40.039,-36.133,-26.367,0.000
1727423099.032,0.000,-54.688,-44.922,-44.434,0.000
1727423099.036,0.000,-31.250,-50.781,-48.828,0.000
1727423099.040,0.000,-23.438,-50.781,-48.340,0.000
1727423099.044,-9.277,-35.645,-46.387,-43.457,0.000
1727423099.048,-38.574,-40.039,-48.828,-35.645,0.000
1727423099.052,-76.660,-31.738,-48.828,-50.781,0.000
1727423099.056,-71.777,-28.320,-43.945,-66.406,0.000
1727423099.060,-22.949,-34.668,-45.898,-46.875,0.000
1727423099.064,2.930,-35.645,-46.387,-23.926,0.000
1727423099.068,-27.832,-42.480,-34.180,-14.648,0.000
1727423099.072,-57.617,-39.551,-35.645,-37.109,0.000
1727423099.075,-63.965,-35.156,-48.828,-59.570,0.000
1727423099.079,-30.762,-37.598,-53.223,-48.340,0.000
1727423099.083,-3.418,-39.062,-53.223,-49.316,0.000
1727423099.087,-19.531,-32.227,-51.270,-55.664,0.000
1727423099.091,-57.129,-21.484,-55.176,-57.129,0.000
1727423099.095,-76.172,-20.508,-51.270,-55.664,0.000
1727423099.099,-41.504,-28.809,-45.898,-47.363,0.000
1727423099.103,-8.789,-32.715,-49.805,-41.504,0.000
1727423099.107,-17.090,-31.738,-44.434,-33.203,0.000
1727423099.111,-45.410,-41.992,-39.062,-26.855,0.000
1727423099.115,-63.477,-42.480,-45.410,-38.086,0.000
1727423099.119,-42.480,-44.922,-50.781,-52.246,0.000
1727423099.122,-9.766,-45.410,-46.387,-37.109,0.000
1727423099.126,-18.066,-35.645,-43.945,-29.785,0.000
1727423099.130,-59.570,-46.875,-47.363,-42.480,0.000
1727423099.134,-67.383,-59.082,-47.363,-43.457,0.000
1727423099.138,-33.691,-63.965,-51.270,-31.738,0.000
1727423099.142,5.859,-49.805,-48.828,-21.973,0.000
