timestamps,TP9,AF7,AF8,TP10,Right AUX
1727361791.699,-9.277,-41.016,-23.926,-26.367,0.000
1727361791.703,-101.074,-33.203,-24.414,-32.715,0.000
1727361791.706,-93.262,-39.551,-21.484,-24.902,0.000
1727361791.710,40.039,-46.875,-26.367,-13.184,0.000
1727361791.714,104.004,-41.992,-33.691,-10.254,0.000
1727361791.718,15.137,-46.387,-40.039,-5.859,0.000
1727361791.722,-103.516,-47.852,-38.574,-19.531,0.000
1727361791.726,-110.352,-41.504,-27.344,-27.344,0.000
1727361791.730,2.441,-41.504,-24.414,-4.883,0.000
1727361791.734,73.730,-38.574,-23.926,-1.953,0.000
1727361791.738,-1.465,-32.227,-21.484,-17.578,0.000
1727361791.742,-102.539,-19.531,-26.855,-34.180,0.000
1727361791.746,-139.648,-15.625,-27.832,-42.969,0.000
1727361791.749,-55.176,-23.926,-23.438,-36.621,0.000
1727361791.753,58.594,-16.602,-26.855,-36.621,0.000
1727361791.757,23.926,-22.949,-30.762,-32.715,0.000
1727361791.761,-91.797,-27.344,-38.574,-43.457,0.000
1727361791.765,-148.438,-27.344,-48.340,-55.664,0.000
1727361791.769,-59.082,-41.992,-46.875,-41.016,0.000
1727361791.773,57.129,-47.852,-40.527,-21.973,0.000
1727361791.777,23.926,-41.016,-28.809,-27.344,0.000
1727361791.781,-94.727,-31.738,-19.531,-46.387,0.000
1727361791.785,-133.301,-26.367,-20.020,-60.547,0.000
1727361791.788,-64.453,-31.738,-26.855,-57.617,0.000
1727361791.792,38.574,-39.551,-33.203,-48.340,0.000
1727361791.796,58.105,-36.621,-33.691,-49.805,0.000
1727361791.800,-43.457,-29.297,-31.738,-41.992,0.000
1727361791.804,-116.699,-26.855,-31.250,-34.180,0.000
1727361791.808,-52.734,-20.508,-31.738,-9.277,0.000
1727361791.812,56.152,-20.020,-37.109,-11.230,0.000
1727361791.816,57.617,-29.297,-37.109,-41.016,0.000
1727361791.820,-41.504,-35.645,-32.715,-45.410,0.000
1727361791.824,-122.559,-31.738,-29.785,-53.223,0.000
1727361791.828,-78.125,-25.879,-28.809,-43.945,0.000
1727361791.831,47.852,-25.879,-30.273,-15.625,0.000
1727361791.835,85.449,-26.855,-24.902,-2.930,0.000
1727361791.839,-28.320,-19.531,-20.020,-4.883,0.000
1727361791.843,-131.348,-6.836,-9.277,-7.812,0.000
1727361791.847,-75.684,-16.113,-13.672,-9.766,0.000
1727361791.851,53.711,-55.176,-31.738,-1.953,0.000
1727361791.855,75.684,-58.594,-27.832,-1.953,0.000
1727361791.859,-30.762,-29.297,-23.926,-20.996,0.000
1727361791.863,-131.348,-25.879,-24.902,-51.270,0.000
1727361791.867,-109.863,-23.438,-26.855,-63.965,0.000
1727361791.871,8.301,-8.301,-34.180,-34.668,0.000
1727361791.874,58.594,-3.906,-36.621,-16.602,0.000
1727361791.878,-12.695,-7.324,-35.645,-25.391,0.000
1727361791.882,-119.141,0.000,-32.227,-49.805,0.000
1727361791.886,-132.812,-3.906,-39.062,-53.711,0.000
1727361791.890,-17.090,-20.508,-46.875,-31.250,0.000
1727361791.894,63.477,-24.902,-42.480,-18.066,0.000
1727361791.898,-3.906,-36.621,-44.922,-21.973,0.000
1727361791.902,-128.418,-40.039,-53.711,-32.715,0.000
1727361791.906,-141.113,-21.484,-53.223,-35.156,0.000
1727361791.910,-10.254,-21.484,-41.504,-33.691,0.000
1727361791.914,82.031,-26.855,-44.922,-32.227,0.000
1727361791.917,20.508,-22.949,-47.852,-27.832,0.000
1727361791.921,-109.863,-22.949,-39.551,-40.039,0.000
1727361791.925,-140.625,-29.785,-33.203,-48.828,0.000
1727361791.929,-29.785,-41.504,-37.598,-25.879,0.000
1727361791.933,81.543,-39.551,-47.363,-7.812,0.000
1727361791.937,50.293,-40.527,-37.109,-9.277,0.000
1727361791.941,-85.449,-42.969,-31.738,-23.438,0.000
1727361791.945,-139.160,-37.598,-37.109,-23.926,0.000
1727361791.949,-48.340,-43.457,-34.668,-22.949,0.000
1727361791.953,83.496,-54.199,-27.832,-20.020,0.000
1727361791.957,95.703,-47.852,-23.438,-5.371,0.000
1727361791.960,-32.715,-24.414,-19.043,-13.672,0.000
1727361791.964,-112.305,-21.973,-19.531,-30.762,0.000
1727361791.968,-33.203,-37.109,-24.902,-23.438,0.000
1727361791.972,70.801,-29.297,-17.578,1.953,0.000
1727361791.976,50.293,-25.391,-7.324,-2.441,0.000
1727361791.980,-65.918,-28.320,-15.137,-19.531,0.000
1727361791.984,-135.254,-33.203,-21.484,-29.297,0.000
1727361791.988,-63.965,-38.574,-23.926,-17.090,0.000
1727361791.992,76.172,-30.762,-32.227,-3.906,0.000
1727361791.996,84.961,-20.508,-28.809,3.418,0.000
1727361791.999,-39.062,-13.672,-15.625,-1.465,0.000
1727361792.003,-113.770,-26.855,-17.090,-39.551,0.000
1727361792.007,-81.543,-41.016,-32.227,-53.223,0.000
1727361792.011,21.973,-25.391,-45.410,-52.734,0.000
1727361792.015,48.828,-21.484,-45.898,-55.176,0.000
1727361792.019,-53.223,-28.809,-45.898,-47.852,0.000
1727361792.023,-147.949,-40.527,-47.363,-54.688,0.000
1727361792.027,-106.934,-55.176,-43.457,-54.199,0.000
1727361792.031,36.621,-48.828,-39.551,-33.203,0.000
1727361792.035,65.918,-34.180,-39.062,-29.297,0.000
1727361792.039,-32.227,-26.855,-36.621,-33.203,0.000
1727361792.042,-130.859,-29.785,-28.809,-50.781,0.000
1727361792.046,-121.094,-31.250,-30.762,-56.152,0.000
1727361792.050,-1.465,-44.922,-41.016,-36.621,0.000
1727361792.054,69.336,-53.711,-41.504,-38.086,0.000
1727361792.058,-3.418,-43.457,-40.039,-52.246,0.000
1727361792.062,-112.305,-43.457,-40.527,-73.242,0.000
1727361792.066,-117.188,-53.711,-43.945,-79.590,0.000
1727361792.070,-9.766,-49.805,-39.062,-54.199,0.000
1727361792.074,76.172,-40.039,-21.973,-16.113,0.000
1727361792.078,17.578,-36.621,-10.742,6.348,0.000
1727361792.082,-103.516,-26.855,-4.395,-9.766,0.000
1727361792.085,-111.816,-29.297,-6.348,-32.227,0.000
1727361792.089,0.488,-36.133,-15.137,-29.785,0.000
1727361792.093,64.941,-41.992,-12.207,-27.344,0.000
1727361792.097,22.949,-35.645,0.977,-3.418,0.000
1727361792.101,-88.379,-31.738,-6.836,-3.418,0.000
1727361792.105,-128.418,-36.133,-14.160,-31.250,0.000
1727361792.109,-12.695,-31.250,-8.789,-18.066,0.000
1727361792.113,90.332,-31.250,-6.348,0.000,0.000
1727361792.117,33.203,-35.645,-9.277,-7.812,0.000
1727361792.121,-82.520,-28.320,-16.113,-29.785,0.000
1727361792.124,-124.023,-21.484,-25.879,-51.270,0.000
1727361792.128,-44.434,-28.320,-25.391,-36.621,0.000
1727361792.132,77.637,-31.250,-22.461,-8.789,0.000
1727361792.136,49.805,-32.715,-25.391,-19.531,0.000
1727361792.140,-85.938,-39.062,-29.297,-42.480,0.000
1727361792.144,-148.926,-30.762,-37.598,-65.430,0.000
1727361792.148,-59.082,-30.273,-46.875,-48.340,0.000
1727361792.152,58.594,-32.227,-50.293,-21.484,0.000
1727361792.156,69.824,-14.160,-41.504,-16.113,0.000
1727361792.160,-37.598,-9.766,-33.691,-20.508,0.000
1727361792.164,-142.090,-22.461,-42.480,-43.945,0.000
1727361792.167,-77.637,-28.320,-42.969,-34.668,0.000
1727361792.171,62.988,-28.320,-31.738,-2.441,0.000
1727361792.175,62.500,-26.367,-29.785,1.465,0.000
1727361792.179,-40.039,-25.879,-31.250,-19.043,0.000
1727361792.183,-125.000,-22.461,-43.457,-31.738,0.000
1727361792.187,-76.172,-31.738,-44.922,-20.996,0.000
1727361792.191,54.688,-39.551,-34.668,-8.301,0.000
1727361792.195,60.059,-36.621,-33.203,-13.672,0.000
1727361792.199,-39.062,-50.781,-33.203,-22.949,0.000
1727361792.203,-112.793,-62.500,-32.715,-28.809,0.000
1727361792.207,-97.656,-59.570,-35.645,-32.715,0.000
1727361792.210,10.254,-46.875,-38.574,-18.066,0.000
1727361792.214,57.617,-38.086,-36.133,-6.348,0.000
1727361792.218,-30.762,-40.527,-25.391,-19.531,0.000
1727361792.222,-118.164,-41.504,-20.996,-51.270,0.000
1727361792.226,-94.727,-51.758,-26.367,-64.941,0.000
1727361792.230,24.902,-55.176,-27.832,-44.434,0.000
1727361792.234,82.520,-50.781,-29.297,-32.715,0.000
1727361792.238,-2.930,-54.199,-29.785,-43.945,0.000
1727361792.242,-125.000,-50.293,-29.297,-46.387,0.000
1727361792.246,-122.559,-43.945,-24.902,-37.109,0.000
1727361792.250,5.371,-37.109,-22.461,-12.695,0.000
1727361792.253,69.824,-35.645,-23.926,-5.859,0.000
1727361792.257,16.113,-32.715,-15.137,-14.648,0.000
1727361792.261,-93.750,-38.574,-18.555,-20.020,0.000
1727361792.265,-139.160,-40.527,-20.508,-29.785,0.000
1727361792.269,-22.949,-39.551,-25.391,-20.996,0.000
1727361792.273,73.242,-34.180,-35.156,-4.395,0.000
1727361792.277,17.090,-23.438,-28.809,0.000,0.000
1727361792.281,-81.543,-26.855,-27.344,-27.344,0.000
1727361792.285,-118.652,-29.297,-33.691,-55.176,0.000
1727361792.289,-23.438,-26.855,-34.668,-40.527,0.000
1727361792.293,87.891,-24.414,-38.574,-35.156,0.000
1727361792.296,41.504,-26.367,-28.809,-29.785,0.000
1727361792.300,-79.102,-33.203,-20.508,-38.086,0.000
1727361792.304,-140.625,-34.180,-26.367,-57.129,0.000
1727361792.308,-56.641,-32.227,-41.016,-54.199,0.000
1727361792.312,72.754,-28.809,-43.457,-36.133,0.000
1727361792.316,41.992,-23.438,-33.691,-15.137,0.000
1727361792.320,-87.402,-19.531,-41.504,-32.715,0.000
1727361792.324,-127.441,-9.277,-34.668,-55.176,0.000
1727361792.328,-36.621,-15.625,-24.414,-49.316,0.000
1727361792.332,60.547,-33.203,-31.738,-37.109,0.000
1727361792.335,44.434,-36.133,-36.621,-32.227,0.000
1727361792.339,-75.195,-34.180,-31.250,-41.504,0.000
1727361792.343,-162.598,-45.410,-30.762,-55.176,0.000
1727361792.347,-95.215,-53.223,-34.180,-34.180,0.000
1727361792.351,30.273,-47.363,-23.438,-2.441,0.000
1727361792.355,36.621,-52.246,-31.738,-19.043,0.000
1727361792.359,-60.059,-45.898,-40.527,-33.691,0.000
1727361792.363,-139.648,-43.945,-33.691,-39.062,0.000
1727361792.367,-97.168,-54.199,-36.621,-41.504,0.000
1727361792.371,16.602,-51.270,-44.434,-33.691,0.000
1727361792.375,40.039,-57.129,-42.480,-44.434,0.000
1727361792.378,-55.176,-61.523,-33.691,-38.086,0.000
1727361792.382,-151.855,-57.129,-32.227,-46.387,0.000
1727361792.386,-106.934,-58.594,-28.320,-52.734,0.000
1727361792.390,31.250,-55.664,-26.855,-27.344,0.000
1727361792.394,77.637,-46.387,-33.203,-16.113,0.000
1727361792.398,-14.160,-38.086,-31.738,-17.578,0.000
1727361792.402,-128.418,-39.062,-28.809,-25.391,0.000
1727361792.406,-116.699,-53.223,-34.180,-41.992,0.000
1727361792.410,11.719,-47.852,-25.391,-31.738,0.000
1727361792.414,69.336,-36.621,-19.043,-16.113,0.000
1727361792.418,-10.742,-42.480,-26.855,-28.320,0.000
1727361792.421,-112.793,-50.293,-30.762,-46.387,0.000
1727361792.425,-118.164,-53.223,-39.062,-51.270,0.000
1727361792.429,-3.906,-46.387,-42.480,-40.527,0.000
1727361792.433,81.055,-34.668,-36.133,-31.250,0.000
1727361792.437,7.324,-37.109,-32.715,-34.668,0.000
1727361792.441,-124.512,-47.363,-32.227,-50.781,0.000
1727361792.445,-137.695,-45.898,-32.227,-49.805,0.000
1727361792.449,-20.020,-37.598,-26.855,-24.414,0.000
1727361792.453,66.895,-36.621,-24.902,-8.301,0.000
1727361792.457,11.230,-37.598,-25.391,-23.438,0.000
1727361792.460,-91.309,-24.902,-24.414,-37.598,0.000
1727361792.464,-102.051,-12.207,-20.996,-40.527,0.000
1727361792.468,-20.020,-16.602,-24.414,-40.527,0.000
1727361792.472,50.781,-20.508,-39.062,-38.086,0.000
1727361792.476,4.883,-24.902,-45.898,-40.039,0.000
1727361792.480,-87.891,-21.973,-34.668,-49.316,0.000
1727361792.484,-128.906,-23.438,-29.297,-45.410,0.000
1727361792.488,-40.039,-36.621,-31.250,-26.855,0.000
1727361792.492,70.312,-38.086,-31.738,-19.531,0.000
1727361792.496,32.227,-39.551,-27.832,-12.207,0.000
1727361792.500,-72.266,-43.945,-20.020,-16.602,0.000
1727361792.503,-131.348,-44.434,-20.020,-34.668,0.000
1727361792.507,-71.289,-49.805,-23.438,-36.621,0.000
1727361792.511,45.410,-53.223,-22.461,-30.762,0.000
1727361792.515,42.969,-42.480,-23.438,-13.184,0.000
1727361792.519,-58.594,-45.898,-28.809,-17.090,0.000
1727361792.523,-137.695,-51.758,-33.691,-42.480,0.000
1727361792.527,-97.168,-51.270,-32.715,-47.852,0.000
1727361792.531,26.367,-44.922,-33.203,-43.945,0.000
1727361792.535,49.316,-29.785,-30.762,-39.062,0.000
1727361792.539,-60.547,-24.902,-29.785,-27.832,0.000
1727361792.543,-124.023,-31.250,-29.297,-24.902,0.000
1727361792.546,-64.453,-32.715,-33.691,-36.133,0.000
1727361792.550,30.762,-38.086,-35.156,-35.645,0.000
1727361792.554,36.133,-47.363,-35.156,-27.344,0.000
1727361792.558,-50.781,-46.387,-36.133,-19.043,0.000
1727361792.562,-119.141,-41.992,-36.133,-29.297,0.000
1727361792.566,-81.055,-31.738,-38.574,-38.086,0.000
1727361792.570,27.344,-20.508,-37.109,-13.184,0.000
1727361792.574,73.242,-7.324,-37.109,19.043,0.000
1727361792.578,-9.277,-5.371,-31.738,13.672,0.000
1727361792.582,-104.492,-16.602,-21.484,-20.996,0.000
1727361792.586,-94.727,-31.250,-21.484,-18.555,0.000
1727361792.589,25.879,-38.086,-26.367,0.488,0.000
1727361792.593,83.008,-36.621,-32.227,-14.648,0.000
1727361792.597,-6.348,-38.574,-44.434,-28.320,0.000
1727361792.601,-103.027,-34.668,-41.016,-35.645,0.000
1727361792.605,-85.938,-14.648,-23.926,-33.691,0.000
1727361792.609,35.645,-2.930,-34.180,-26.367,0.000
1727361792.613,83.496,-17.090,-47.852,-25.391,0.000
1727361792.617,4.395,-27.832,-44.922,-11.719,0.000
1727361792.621,-101.074,-26.855,-36.133,-12.695,0.000
1727361792.625,-109.863,-35.156,-31.250,-36.621,0.000
1727361792.628,4.883,-29.785,-25.879,-21.973,0.000
1727361792.632,88.379,-21.484,-26.855,-1.953,0.000
1727361792.636,20.508,-25.391,-30.762,-0.977,0.000
1727361792.640,-95.215,-32.227,-23.438,-21.484,0.000
1727361792.644,-117.676,-38.574,-21.484,-48.828,0.000
1727361792.648,-13.672,-41.504,-30.273,-41.992,0.000
1727361792.652,79.102,-33.203,-33.691,-24.414,0.000
1727361792.656,43.945,-23.926,-23.926,-19.531,0.000
1727361792.660,-84.961,-41.016,-29.297,-35.156,0.000
1727361792.664,-150.879,-52.734,-40.039,-49.316,0.000
1727361792.668,-62.988,-50.781,-43.457,-33.691,0.000
1727361792.671,50.293,-50.293,-53.223,-8.301,0.000
1727361792.675,43.945,-40.039,-48.340,-19.531,0.000
1727361792.679,-62.012,-37.598,-39.062,-44.434,0.000
1727361792.683,-134.277,-40.527,-40.039,-54.688,0.000
1727361792.687,-65.918,-51.270,-38.086,-41.992,0.000
1727361792.691,66.895,-58.105,-36.133,-17.578,0.000
1727361792.695,53.711,-59.082,-45.410,-20.020,0.000
1727361792.699,-57.129,-43.945,-45.898,-30.762,0.000
1727361792.703,-128.906,-28.809,-43.945,-41.504,0.000
1727361792.707,-86.426,-38.574,-51.270,-51.270,0.000
1727361792.711,41.992,-41.016,-41.992,-25.391,0.000
1727361792.714,44.434,-27.344,-31.738,2.930,0.000
1727361792.718,-80.566,-25.391,-29.785,-14.160,0.000
1727361792.722,-149.414,-34.180,-29.785,-35.645,0.000
1727361792.726,-95.703,-38.574,-41.504,-25.391,0.000
1727361792.730,33.691,-32.227,-49.316,-13.184,0.000
1727361792.734,85.938,-18.555,-45.898,-19.531,0.000
1727361792.738,8.789,-16.113,-36.621,-34.668,0.000
1727361792.742,-71.777,-16.602,-29.785,-48.828,0.000
1727361792.746,-57.617,-24.902,-39.062,-40.039,0.000
1727361792.750,35.645,-41.504,-45.410,-32.715,0.000
1727361792.754,71.777,-41.504,-39.551,-18.066,0.000
1727361792.757,-16.602,-21.973,-43.457,-12.695,0.000
1727361792.761,-101.074,-26.367,-49.805,-43.457,0.000
1727361792.765,-84.961,-36.133,-33.203,-38.086,0.000
1727361792.769,22.461,-23.926,-24.414,-5.859,0.000
1727361792.773,71.777,-20.020,-34.668,-16.602,0.000
1727361792.777,1.465,-21.484,-31.738,-15.625,0.000
1727361792.781,-104.492,-22.461,-27.832,-28.320,0.000
1727361792.785,-127.441,-26.855,-30.273,-57.617,0.000
1727361792.789,-17.578,-32.715,-26.367,-27.344,0.000
1727361792.793,62.012,-42.969,-26.855,-10.742,0.000
1727361792.796,-10.742,-43.457,-27.344,-29.785,0.000
1727361792.800,-115.234,-39.062,-29.785,-41.992,0.000
1727361792.804,-121.094,-42.969,-35.645,-53.223,0.000
1727361792.808,-20.508,-58.105,-43.945,-42.969,0.000
1727361792.812,73.242,-52.246,-39.551,-17.090,0.000
1727361792.816,5.371,-23.926,-28.320,-40.039,0.000
1727361792.820,-136.719,-32.227,-35.156,-78.125,0.000
1727361792.824,-164.062,-42.480,-42.969,-75.195,0.000
1727361792.828,-49.316,-50.293,-34.180,-44.922,0.000
1727361792.832,56.152,-58.594,-26.367,-12.207,0.000
1727361792.836,19.043,-41.016,-24.414,-3.906,0.000
1727361792.839,-97.656,-37.598,-26.855,-25.879,0.000
1727361792.843,-148.926,-40.527,-35.645,-62.012,0.000
1727361792.847,-48.828,-34.668,-48.340,-62.012,0.000
1727361792.851,59.570,-41.992,-51.758,-46.875,0.000
1727361792.855,35.156,-35.156,-40.039,-35.645,0.000
1727361792.859,-61.035,-14.648,-31.738,-33.203,0.000
1727361792.863,-117.188,-14.160,-34.180,-58.105,0.000
1727361792.867,-54.688,0.977,-26.855,-46.387,0.000
1727361792.871,35.156,12.695,-30.762,-27.344,0.000
1727361792.875,24.414,-34.180,-39.062,-34.180,0.000
1727361792.879,-43.945,-60.059,-18.066,-17.578,0.000
1727361792.882,-94.238,-55.176,-4.883,-8.301,0.000
1727361792.886,-34.668,-57.617,-18.555,-25.391,0.000
1727361792.890,56.641,-21.484,-36.621,-29.785,0.000
1727361792.894,10.742,-19.043,-54.688,-49.316,0.000
1727361792.898,-72.754,-87.402,-46.875,-44.434,0.000
1727361792.902,-152.832,-90.820,-37.598,-44.434,0.000
1727361792.906,-130.371,-84.961,-41.992,-50.293,0.000
1727361792.910,34.180,-143.555,-30.762,-19.043,0.000
1727361792.914,62.500,-192.871,-31.738,-20.020,0.000
1727361792.918,-72.266,-169.922,-52.246,-67.383,0.000
1727361792.922,-161.133,-182.129,-58.594,-97.168,0.000
1727361792.925,-117.676,-221.191,-53.223,-66.406,0.000
1727361792.929,4.883,-271.484,-50.293,-28.320,0.000
1727361792.933,62.500,-295.898,-42.480,-14.648,0.000
1727361792.937,-6.348,-345.215,-29.785,-12.695,0.000
1727361792.941,-134.277,-399.902,-35.645,-36.133,0.000
1727361792.945,-146.973,-424.805,-62.500,-57.129,0.000
1727361792.949,-10.254,-508.789,-69.824,-37.109,0.000
1727361792.953,37.598,-577.148,-83.984,-47.363,0.000
1727361792.957,-43.945,-581.543,-98.145,-76.660,0.000
1727361792.961,-106.934,-621.094,-70.801,-67.383,0.000
1727361792.965,-122.070,-691.895,-56.641,-60.059,0.000
1727361792.968,-15.137,-696.777,-61.523,-40.527,0.000
1727361792.972,61.035,-707.520,-80.078,-33.691,0.000
1727361792.976,-0.977,-758.301,-90.332,-39.551,0.000
1727361792.980,-108.398,-864.746,-83.008,-54.199,0.000
1727361792.984,-146.484,-982.422,-81.543,-61.035,0.000
1727361792.988,-33.691,-1000.000,-70.801,-42.480,0.000
1727361792.992,64.941,-997.070,-60.059,-33.203,0.000
1727361792.996,2.930,-1000.000,-68.848,-37.109,0.000
1727361793.000,-85.449,-1000.000,-65.430,-25.391,0.000
1727361793.004,-133.789,-1000.000,-82.031,-62.500,0.000
1727361793.007,-38.086,-1000.000,-88.867,-69.336,0.000
1727361793.011,92.773,-1000.000,-51.270,-18.066,0.000
1727361793.015,44.922,-1000.000,-39.062,-6.836,0.000
1727361793.019,-86.914,-1000.000,-35.645,-25.879,0.000
1727361793.023,-153.320,-998.535,-49.805,-43.945,0.000
1727361793.027,-62.988,-1000.000,-70.801,-26.855,0.000
1727361793.031,60.059,-988.770,-64.941,-25.879,0.000
1727361793.035,32.715,-932.129,-61.035,-41.992,0.000
1727361793.039,-85.449,-855.957,-67.383,-58.105,0.000
1727361793.043,-134.766,-767.578,-69.336,-70.312,0.000
1727361793.047,-53.711,-692.871,-62.012,-57.617,0.000
1727361793.050,81.055,-631.836,-54.688,-48.828,0.000
1727361793.054,62.988,-581.055,-54.688,-53.711,0.000
1727361793.058,-79.590,-525.879,-53.711,-62.012,0.000
1727361793.062,-147.461,-471.680,-48.340,-73.242,0.000
1727361793.066,-80.078,-392.578,-44.434,-54.199,0.000
1727361793.070,47.363,-286.621,-45.898,-43.457,0.000
1727361793.074,52.734,-180.664,-43.457,-55.176,0.000
1727361793.078,-55.664,-73.242,-50.293,-61.035,0.000
1727361793.082,-125.488,-63.477,-60.059,-74.707,0.000
1727361793.086,-65.918,-107.910,-50.781,-37.109,0.000
1727361793.090,60.547,-106.934,-36.621,-8.301,0.000
1727361793.093,81.055,-56.641,-33.203,-17.578,0.000
1727361793.097,0.488,22.461,-37.109,-18.066,0.000
1727361793.101,-91.797,124.023,-32.227,-36.133,0.000
1727361793.105,-80.078,201.660,-18.066,-24.414,0.000
1727361793.109,50.781,259.766,-13.672,-6.348,0.000
1727361793.113,97.656,316.895,-24.414,-12.207,0.000
1727361793.117,-3.418,346.680,-33.203,-17.578,0.000
1727361793.121,-101.562,368.164,-32.715,-23.926,0.000
1727361793.125,-58.594,397.949,-27.344,-20.020,0.000
1727361793.129,69.336,453.125,-22.461,5.371,0.000
1727361793.132,101.562,574.707,-18.066,27.832,0.000
1727361793.136,18.066,663.086,-17.090,19.531,0.000
1727361793.140,-67.871,670.410,-7.812,10.742,0.000
1727361793.144,-64.453,651.367,0.000,19.043,0.000
1727361793.148,45.898,622.559,-11.719,21.973,0.000
1727361793.152,105.469,589.355,-26.855,17.090,0.000
1727361793.156,21.484,553.711,-32.227,17.578,0.000
1727361793.160,-84.961,523.438,-34.668,-10.742,0.000
1727361793.164,-95.703,507.324,-35.156,-33.691,0.000
1727361793.168,13.184,490.234,-29.297,-10.254,0.000
1727361793.172,96.680,479.004,-29.297,1.465,0.000
1727361793.175,37.598,456.543,-23.438,14.160,0.000
1727361793.179,-63.965,438.477,-12.695,16.602,0.000
1727361793.183,-82.031,426.758,-8.301,-1.953,0.000
1727361793.187,15.625,403.320,-8.789,-3.906,0.000
1727361793.191,84.473,366.211,-15.137,-0.488,0.000
1727361793.195,50.781,349.609,-18.555,1.953,0.000
1727361793.199,-40.527,368.652,-14.648,-2.441,0.000
1727361793.203,-109.863,342.773,-26.367,-25.391,0.000
1727361793.207,-40.527,306.152,-36.133,-28.809,0.000
1727361793.211,66.406,306.641,-26.367,-2.930,0.000
1727361793.215,47.363,320.801,-20.508,-4.395,0.000
1727361793.218,-49.805,310.059,-21.484,-28.320,0.000
1727361793.222,-102.539,280.273,-22.461,-44.922,0.000
1727361793.226,-39.062,257.324,-23.438,-27.344,0.000
1727361793.230,67.383,248.047,-28.809,-18.066,0.000
1727361793.234,60.547,231.445,-33.691,-29.785,0.000
1727361793.238,-46.875,219.238,-31.250,-33.203,0.000
1727361793.242,-118.652,224.609,-32.227,-30.273,0.000
1727361793.246,-57.129,219.238,-38.574,-36.133,0.000
1727361793.250,59.082,213.867,-38.086,-40.039,0.000
1727361793.254,64.941,226.562,-31.738,-19.531,0.000
1727361793.258,-32.227,220.215,-27.344,-17.578,0.000
1727361793.261,-131.348,196.777,-28.809,-42.969,0.000
1727361793.265,-110.352,179.199,-27.832,-35.645,0.000
1727361793.269,18.066,167.480,-27.832,-6.348,0.000
1727361793.273,53.711,171.387,-35.156,-6.836,0.000
1727361793.277,-48.828,169.434,-32.715,-21.484,0.000
1727361793.281,-127.441,165.527,-19.043,-29.297,0.000
1727361793.285,-81.055,137.695,-17.578,-37.598,0.000
1727361793.289,41.016,113.770,-27.832,-26.855,0.000
1727361793.293,74.219,123.535,-25.879,-1.465,0.000
1727361793.297,-7.324,130.371,-17.578,0.488,0.000
1727361793.300,-92.773,129.395,-16.113,-3.906,0.000
1727361793.304,-73.242,124.023,-12.695,-0.977,0.000
1727361793.308,44.434,118.164,-6.348,-13.184,0.000
1727361793.312,113.770,121.094,-5.371,-16.602,0.000
1727361793.316,41.016,127.930,-13.672,-13.672,0.000
1727361793.320,-90.820,114.258,-20.996,-22.461,0.000
1727361793.324,-99.121,90.820,-21.973,-32.715,0.000
1727361793.328,48.340,95.703,-20.508,-12.207,0.000
1727361793.332,124.512,112.305,-21.484,-13.184,0.000
1727361793.336,22.461,95.215,-22.949,-19.531,0.000
1727361793.340,-102.051,76.172,-27.832,-38.574,0.000
1727361793.343,-111.816,92.773,-23.926,-46.387,0.000
1727361793.347,-12.695,84.961,-19.531,-5.371,0.000
1727361793.351,62.988,65.430,-25.879,-4.395,0.000
1727361793.355,7.324,63.477,-36.133,-17.578,0.000
1727361793.359,-97.168,63.477,-38.574,-24.902,0.000
1727361793.363,-129.883,69.336,-39.062,-49.805,0.000
1727361793.367,-46.387,77.637,-39.062,-49.805,0.000
1727361793.371,57.617,77.637,-39.551,-31.250,0.000
1727361793.375,16.113,60.059,-36.621,-18.066,0.000
1727361793.379,-94.727,48.828,-22.949,-23.438,0.000
1727361793.383,-134.766,37.598,-24.414,-42.969,0.000
1727361793.386,-34.668,20.020,-27.832,-30.762,0.000
1727361793.390,67.383,36.621,-25.391,2.930,0.000
1727361793.394,28.809,56.152,-32.227,-14.160,0.000
1727361793.398,-85.449,37.598,-32.715,-42.480,0.000
1727361793.402,-158.691,25.879,-35.156,-47.363,0.000
1727361793.406,-79.590,36.621,-40.039,-44.922,0.000
1727361793.410,40.039,33.203,-35.156,-27.832,0.000
1727361793.414,31.738,15.137,-42.480,-34.668,0.000
1727361793.418,-64.941,13.672,-44.922,-40.527,0.000
1727361793.422,-125.000,30.273,-34.668,-31.738,0.000
1727361793.426,-56.152,30.762,-31.738,-22.461,0.000
1727361793.429,68.359,17.578,-31.250,-21.973,0.000
1727361793.433,79.102,18.066,-27.832,-25.391,0.000
1727361793.437,-26.367,15.625,-22.949,-28.809,0.000
1727361793.441,-101.074,7.812,-24.414,-47.363,0.000
1727361793.445,-39.062,2.441,-25.879,-29.785,0.000
1727361793.449,75.195,10.254,-20.996,0.977,0.000
1727361793.453,80.078,13.672,-18.555,15.625,0.000
1727361793.457,-35.645,0.000,-17.578,7.324,0.000
1727361793.461,-122.070,-4.883,-15.625,-18.066,0.000
1727361793.465,-87.891,3.906,-12.695,-11.719,0.000
1727361793.468,44.434,20.020,-12.207,0.977,0.000
1727361793.472,110.352,32.227,-20.020,-5.371,0.000
1727361793.476,-4.395,20.020,-30.762,-9.766,0.000
1727361793.480,-128.418,2.441,-39.062,-23.438,0.000
1727361793.484,-127.441,-2.930,-46.387,-42.480,0.000
1727361793.488,-13.672,-15.625,-46.875,-35.156,0.000
1727361793.492,67.871,-18.066,-42.969,-34.180,0.000
1727361793.496,-12.207,-14.160,-35.156,-39.062,0.000
1727361793.500,-138.672,-17.578,-35.645,-56.641,0.000
1727361793.504,-140.137,-19.531,-44.922,-65.918,0.000
1727361793.508,4.395,-26.855,-45.898,-31.250,0.000
1727361793.511,80.566,-25.879,-38.086,-3.418,0.000
1727361793.515,2.441,-19.043,-38.086,-11.230,0.000
1727361793.519,-109.375,-13.672,-43.945,-35.156,0.000
1727361793.523,-149.414,-12.695,-49.805,-51.758,0.000
1727361793.527,-30.762,-25.391,-56.152,-51.270,0.000
1727361793.531,65.430,-41.992,-54.688,-39.062,0.000
1727361793.535,8.301,-31.738,-43.945,-34.668,0.000
1727361793.539,-93.750,-4.883,-39.062,-42.969,0.000
1727361793.543,-127.930,2.441,-35.156,-43.457,0.000
1727361793.547,-13.672,7.812,-27.832,-22.949,0.000
1727361793.551,94.238,-5.859,-25.879,-12.695,0.000
1727361793.554,52.734,-11.719,-21.973,-16.602,0.000
1727361793.558,-58.105,-3.906,-24.414,-33.203,0.000
1727361793.562,-114.746,-6.836,-20.020,-29.785,0.000
1727361793.566,-33.691,1.465,-19.531,-13.672,0.000
1727361793.570,72.266,5.371,-29.297,-0.488,0.000
1727361793.574,52.246,9.766,-22.949,15.137,0.000
1727361793.578,-43.457,9.277,-17.578,-0.488,0.000
1727361793.582,-113.770,-18.066,-20.996,-22.949,0.000
1727361793.586,-54.688,-31.738,-32.715,-22.461,0.000
1727361793.590,67.871,-21.484,-31.250,-3.418,0.000
1727361793.594,58.594,-18.066,-18.555,22.461,0.000
1727361793.597,-51.270,-21.484,-19.531,6.836,0.000
1727361793.601,-105.957,-7.324,-20.996,-20.020,0.000
1727361793.605,-58.594,-6.836,-15.625,-21.484,0.000
1727361793.609,47.363,-21.973,-5.371,-1.953,0.000
1727361793.613,56.641,-16.602,-4.883,11.230,0.000
1727361793.617,-61.035,-20.508,-20.508,-12.207,0.000
1727361793.621,-137.695,-26.367,-20.508,-41.992,0.000
1727361793.625,-85.449,-27.344,-22.949,-38.574,0.000
1727361793.629,55.664,-31.250,-27.832,-34.180,0.000
1727361793.633,81.055,-30.762,-25.879,-23.438,0.000
1727361793.636,-26.367,-26.367,-33.203,-15.137,0.000
1727361793.640,-108.398,-20.996,-24.414,-20.020,0.000
1727361793.644,-87.891,-18.066,-19.531,-20.020,0.000
1727361793.648,29.297,-27.344,-31.738,-27.832,0.000
1727361793.652,85.449,-30.762,-40.527,-20.508,0.000
1727361793.656,-26.367,-20.996,-38.574,-21.973,0.000
1727361793.660,-153.809,-19.531,-43.457,-53.711,0.000
1727361793.664,-123.535,-22.461,-38.086,-41.504,0.000
1727361793.668,17.090,-37.109,-24.902,-15.625,0.000
1727361793.672,94.238,-39.551,-24.902,-20.020,0.000
1727361793.676,14.160,-27.344,-28.320,-17.578,0.000
1727361793.679,-109.375,-9.277,-36.621,-40.039,0.000
1727361793.683,-117.188,6.348,-38.086,-60.059,0.000
1727361793.687,18.066,6.836,-32.227,-40.527,0.000
1727361793.691,103.516,-1.465,-34.668,-30.762,0.000
1727361793.695,19.531,-6.348,-36.133,-31.738,0.000
1727361793.699,-105.469,-19.531,-38.086,-43.945,0.000
1727361793.703,-121.582,-34.668,-32.227,-32.227,0.000
1727361793.707,0.977,-27.832,-35.156,-4.883,0.000
1727361793.711,101.562,-10.742,-33.203,9.766,0.000
1727361793.715,24.414,-9.766,-26.855,8.789,0.000
1727361793.719,-99.609,-16.113,-36.133,-15.625,0.000
1727361793.722,-107.422,-2.930,-27.344,-20.996,0.000
1727361793.726,-19.043,-9.277,-21.973,-12.207,0.000
1727361793.730,78.613,-53.711,-31.738,-12.207,0.000
1727361793.734,53.711,-57.617,-24.902,-6.348,0.000
1727361793.738,-62.988,-22.461,-19.531,-11.230,0.000
1727361793.742,-135.254,-15.137,-24.902,-25.879,0.000
1727361793.746,-55.664,-26.855,-33.691,-8.301,0.000
1727361793.750,59.082,-44.434,-36.621,4.395,0.000
1727361793.754,46.387,-50.293,-29.297,-12.207,0.000
1727361793.758,-58.105,-48.340,-26.367,-26.855,0.000
1727361793.762,-127.441,-48.828,-28.320,-44.922,0.000
1727361793.765,-52.246,-38.574,-32.227,-43.945,0.000
1727361793.769,63.965,-31.738,-33.691,-27.344,0.000
1727361793.773,50.293,-41.504,-38.086,-20.508,0.000
1727361793.777,-67.383,-55.176,-41.504,-35.156,0.000
1727361793.781,-139.160,-41.504,-31.738,-40.039,0.000
1727361793.785,-83.496,-33.691,-29.297,-34.180,0.000
1727361793.789,40.039,-54.199,-35.645,-20.508,0.000
1727361793.793,45.898,-65.430,-36.133,-7.324,0.000
1727361793.797,-65.430,-69.336,-39.551,-17.578,0.000
1727361793.801,-123.535,-67.383,-34.668,-34.180,0.000
1727361793.804,-82.520,-51.270,-34.668,-49.805,0.000
1727361793.808,25.391,-51.758,-48.828,-44.922,0.000
1727361793.812,63.477,-42.969,-57.129,-44.434,0.000
1727361793.816,-37.109,-35.156,-44.434,-43.457,0.000
1727361793.820,-121.094,-47.852,-30.273,-42.969,0.000
1727361793.824,-72.266,-39.062,-33.203,-39.062,0.000
1727361793.828,38.086,-22.949,-32.227,-25.391,0.000
1727361793.832,50.293,-27.832,-26.367,-18.555,0.000
1727361793.836,-35.645,-41.016,-30.273,-1.953,0.000
1727361793.840,-125.977,-41.016,-32.227,-21.484,0.000
1727361793.844,-109.375,-37.109,-27.344,-31.250,0.000
1727361793.847,20.508,-39.062,-26.855,2.441,0.000
1727361793.851,98.633,-24.414,-29.297,8.789,0.000
1727361793.855,22.949,-22.461,-19.531,2.441,0.000
1727361793.859,-82.520,-31.250,-17.578,-26.367,0.000
1727361793.863,-77.148,-41.016,-24.902,-55.176,0.000
1727361793.867,41.504,-47.363,-32.715,-38.574,0.000
1727361793.871,110.840,-22.461,-29.785,-6.348,0.000
1727361793.875,10.742,-27.344,-34.180,-8.301,0.000
1727361793.879,-100.586,-35.645,-36.621,-35.156,0.000
1727361793.883,-102.051,-26.855,-22.949,-28.809,0.000
1727361793.887,14.160,-24.414,-18.066,-20.508,0.000
1727361793.890,104.980,-24.902,-19.043,-17.578,0.000
1727361793.894,53.711,-8.789,-19.531,-12.695,0.000
1727361793.898,-64.941,0.000,-27.344,-35.156,0.000
1727361793.902,-120.117,-15.137,-39.062,-43.945,0.000
1727361793.906,-35.156,-25.879,-39.551,-36.621,0.000
1727361793.910,83.008,-43.457,-36.133,-23.438,0.000
1727361793.914,51.270,-64.941,-33.691,-16.113,0.000
1727361793.918,-89.844,-52.734,-35.645,-34.668,0.000
1727361793.922,-129.395,-43.945,-28.809,-57.617,0.000
1727361793.926,-40.527,-45.898,-25.391,-40.039,0.000
1727361793.930,44.922,-35.156,-30.273,-6.348,0.000
1727361793.933,16.602,-35.645,-27.344,1.465,0.000
1727361793.937,-93.262,-39.062,-26.367,-13.184,0.000
1727361793.941,-150.391,-44.434,-31.738,-36.133,0.000
1727361793.945,-61.035,-57.617,-41.504,-36.133,0.000
1727361793.949,70.312,-61.523,-52.734,-21.484,0.000
1727361793.953,61.523,-46.875,-42.969,7.812,0.000
1727361793.957,-51.758,-49.805,-31.738,4.883,0.000
1727361793.961,-133.301,-61.035,-35.156,-41.504,0.000
1727361793.965,-61.035,-47.363,-40.039,-56.641,0.000
1727361793.969,56.152,-38.086,-49.316,-40.527,0.000
1727361793.972,46.387,-29.297,-51.270,-24.902,0.000
1727361793.976,-45.898,-20.020,-45.410,-36.133,0.000
1727361793.980,-118.164,-34.180,-42.480,-48.828,0.000
1727361793.984,-86.914,-43.457,-50.781,-38.574,0.000
1727361793.988,25.391,-46.387,-53.711,-28.320,0.000
1727361793.992,56.641,-40.527,-41.016,-12.207,0.000
1727361793.996,-13.184,-29.297,-36.133,-5.859,0.000
1727361794.000,-87.891,-31.738,-35.645,-22.461,0.000
1727361794.004,-89.355,-32.715,-36.621,-30.273,0.000
1727361794.008,19.531,-31.250,-38.574,2.441,0.000
1727361794.012,67.871,-19.043,-39.062,8.789,0.000
1727361794.015,-12.207,-16.113,-43.457,-3.418,0.000
1727361794.019,-119.629,-30.273,-36.621,-1.953,0.000
1727361794.023,-108.398,-56.152,-23.926,-18.066,0.000
1727361794.027,27.344,-50.293,-33.203,-26.855,0.000
1727361794.031,92.285,-30.273,-48.828,-25.391,0.000
1727361794.035,0.977,-48.340,-47.852,-27.344,0.000
1727361794.039,-100.586,-31.738,-47.852,-44.434,0.000
1727361794.043,-107.422,-13.672,-47.363,-38.574,0.000
1727361794.047,-22.949,-29.785,-37.109,-23.438,0.000
1727361794.051,62.012,-26.855,-33.691,-14.160,0.000
1727361794.055,3.418,-29.785,-34.668,-18.066,0.000
1727361794.058,-114.258,-43.945,-39.062,-53.223,0.000
1727361794.062,-124.512,-43.457,-44.922,-61.035,0.000
1727361794.066,-33.203,-47.852,-46.875,-41.992,0.000
1727361794.070,50.781,-52.734,-53.223,-22.949,0.000
1727361794.074,20.508,-47.363,-43.457,-7.812,0.000
1727361794.078,-92.773,-41.992,-36.133,-30.273,0.000
1727361794.082,-148.438,-48.340,-49.316,-51.270,0.000
1727361794.086,-46.875,-57.129,-56.152,-46.875,0.000
1727361794.090,67.383,-60.059,-49.316,-22.949,0.000
1727361794.094,28.809,-57.129,-41.992,-10.742,0.000
1727361794.098,-64.453,-45.898,-41.016,-39.062,0.000
1727361794.101,-129.395,-46.875,-45.898,-48.828,0.000
1727361794.105,-62.500,-46.875,-53.711,-33.691,0.000
1727361794.109,55.664,-35.156,-51.270,-21.973,0.000
1727361794.113,33.203,-40.527,-50.293,-13.184,0.000
1727361794.117,-65.918,-43.457,-49.805,-21.484,0.000
1727361794.121,-117.676,-46.875,-45.410,-30.762,0.000
1727361794.125,-48.828,-56.152,-44.434,-16.602,0.000
1727361794.129,62.988,-58.594,-52.246,-26.367,0.000
1727361794.133,45.898,-49.805,-50.781,-25.391,0.000
1727361794.137,-56.641,-37.598,-40.527,-19.043,0.000
1727361794.141,-132.812,-42.969,-41.504,-48.340,0.000
1727361794.144,-81.055,-45.898,-47.852,-46.875,0.000
1727361794.148,38.574,-47.852,-54.199,-19.043,0.000
1727361794.152,49.316,-41.504,-43.945,-6.836,0.000
1727361794.156,-46.875,-58.594,-42.969,-20.508,0.000
1727361794.160,-110.840,-66.895,-42.480,-40.527,0.000
1727361794.164,-45.410,-36.133,-24.902,-20.508,0.000
1727361794.168,69.824,-19.531,-21.973,4.395,0.000
1727361794.172,78.125,-17.578,-24.902,-2.441,0.000
1727361794.176,-24.902,-26.855,-24.414,-0.488,0.000
1727361794.180,-118.164,-41.016,-22.949,-14.160,0.000
1727361794.183,-84.961,-66.895,-31.250,-38.574,0.000
1727361794.187,26.367,-73.730,-42.480,-23.926,0.000
1727361794.191,68.359,-47.852,-30.273,-4.883,0.000
1727361794.195,-17.090,-36.133,-23.438,-15.137,0.000
1727361794.199,-111.816,-31.250,-25.879,-40.039,0.000
1727361794.203,-85.938,-35.645,-21.484,-26.367,0.000
1727361794.207,23.438,-48.340,-28.320,-7.812,0.000
1727361794.211,58.105,-49.316,-41.504,-10.254,0.000
1727361794.215,-21.484,-44.434,-47.363,-23.926,0.000
1727361794.219,-138.184,-48.828,-48.828,-46.875,0.000
1727361794.223,-159.180,-62.500,-50.293,-45.898,0.000
1727361794.226,-19.531,-68.848,-51.270,-31.250,0.000
1727361794.230,78.125,-68.848,-48.340,-20.508,0.000
1727361794.234,3.418,-56.152,-45.898,-23.438,0.000
1727361794.238,-106.934,-40.039,-42.969,-30.273,0.000
1727361794.242,-111.328,-28.809,-35.156,-33.203,0.000
1727361794.246,-3.906,-43.457,-34.668,-26.367,0.000
1727361794.250,68.848,-61.523,-41.016,-26.855,0.000
1727361794.254,11.719,-50.293,-44.922,-35.156,0.000
1727361794.258,-94.238,-53.711,-39.551,-24.414,0.000
1727361794.262,-126.953,-52.246,-30.762,-33.203,0.000
1727361794.266,-21.973,-50.293,-30.762,-29.785,0.000
1727361794.269,73.730,-59.570,-29.297,-3.418,0.000
1727361794.273,28.320,-48.340,-30.762,-13.184,0.000
1727361794.277,-84.961,-33.203,-34.180,-42.480,0.000
1727361794.281,-132.812,-36.621,-30.273,-46.387,0.000
1727361794.285,-32.227,-40.039,-32.715,-21.973,0.000
1727361794.289,84.473,-39.062,-31.738,-5.371,0.000
1727361794.293,49.316,-41.504,-32.227,-13.184,0.000
1727361794.297,-65.430,-41.504,-25.391,-16.602,0.000
1727361794.301,-95.703,-53.223,-15.625,-10.254,0.000
1727361794.305,-16.113,-48.340,-14.160,-8.789,0.000
1727361794.308,67.871,-35.156,-20.508,-10.742,0.000
1727361794.312,63.477,-29.297,-28.320,-3.906,0.000
1727361794.316,-40.039,-28.809,-25.391,1.953,0.000
1727361794.320,-121.582,-25.391,-23.926,-7.324,0.000
1727361794.324,-60.547,-27.832,-22.949,-15.625,0.000
1727361794.328,64.941,-48.340,-25.391,-8.789,0.000
1727361794.332,82.520,-53.711,-28.809,-5.371,0.000
1727361794.336,-13.672,-52.246,-20.996,-26.367,0.000
1727361794.340,-125.488,-50.781,-22.461,-51.758,0.000
1727361794.344,-104.492,-48.828,-32.715,-50.293,0.000
1727361794.348,24.902,-44.434,-37.598,-27.344,0.000
1727361794.351,47.852,-37.598,-37.598,-14.648,0.000
1727361794.355,-44.922,-30.273,-30.762,-21.484,0.000
1727361794.359,-124.023,-35.156,-27.832,-31.738,0.000
1727361794.363,-92.773,-57.617,-35.645,-20.996,0.000
1727361794.367,38.574,-51.758,-43.457,-9.766,0.000
1727361794.371,88.867,-33.691,-40.527,-16.602,0.000
1727361794.375,-4.395,-24.902,-38.086,-21.973,0.000
1727361794.379,-95.703,-21.484,-38.086,-44.922,0.000
1727361794.383,-93.262,-24.414,-38.086,-50.293,0.000
1727361794.387,19.043,-1.953,-38.086,-28.809,0.000
1727361794.391,98.633,11.719,-32.715,-11.230,0.000
1727361794.394,7.324,-2.441,-37.598,-15.625,0.000
1727361794.398,-97.168,-0.977,-34.180,-35.156,0.000
1727361794.402,-86.426,0.977,-30.273,-29.785,0.000
1727361794.406,28.320,15.137,-29.297,-6.348,0.000
1727361794.410,96.191,25.391,-30.273,0.000,0.000
1727361794.414,21.484,8.789,-36.133,-8.789,0.000
1727361794.418,-86.914,-16.602,-33.691,-20.020,0.000
1727361794.422,-102.539,-24.902,-29.785,-40.039,0.000
1727361794.426,5.371,2.441,-27.344,-39.062,0.000
1727361794.430,92.773,15.625,-32.715,-16.113,0.000
1727361794.434,21.484,5.371,-36.133,-11.230,0.000
1727361794.437,-99.121,-4.395,-34.180,-25.391,0.000
1727361794.441,-118.164,-7.324,-28.809,-27.832,0.000
1727361794.445,-2.441,-13.672,-26.855,-21.973,0.000
1727361794.449,90.332,-10.254,-26.855,-30.273,0.000
1727361794.453,21.484,-8.301,-27.832,-28.809,0.000
1727361794.457,-83.496,-25.879,-28.320,-43.945,0.000
1727361794.461,-134.766,-32.715,-23.438,-51.270,0.000
1727361794.465,-53.223,-15.137,-21.973,-27.832,0.000
1727361794.469,82.031,-17.090,-31.250,-17.578,0.000
1727361794.473,69.824,-20.996,-28.809,-9.766,0.000
1727361794.476,-59.570,-26.367,-22.949,-21.973,0.000
1727361794.480,-131.836,-34.180,-32.227,-42.480,0.000
1727361794.484,-65.430,-38.086,-36.133,-31.250,0.000
1727361794.488,51.270,-36.133,-31.738,-14.160,0.000
1727361794.492,50.293,-32.715,-33.691,-9.766,0.000
1727361794.496,-61.035,-25.391,-38.086,-17.578,0.000
1727361794.500,-144.043,-15.625,-43.945,-36.133,0.000
1727361794.504,-83.496,-36.133,-42.480,-55.664,0.000
1727361794.508,71.289,-58.594,-34.668,-48.340,0.000
1727361794.512,74.707,-56.641,-37.598,-28.320,0.000
1727361794.516,-53.711,-41.016,-37.109,-28.320,0.000
1727361794.519,-140.137,-30.273,-23.926,-33.691,0.000
1727361794.523,-87.891,-30.273,-23.438,-33.203,0.000
1727361794.527,41.016,-35.156,-23.926,-23.926,0.000
1727361794.531,62.012,-41.504,-27.344,-2.441,0.000
1727361794.535,-25.879,-53.223,-34.180,-9.277,0.000
1727361794.539,-122.559,-56.152,-40.527,-46.875,0.000
1727361794.543,-89.355,-34.668,-36.621,-29.785,0.000
1727361794.547,52.246,-28.320,-34.180,1.465,0.000
1727361794.551,76.172,-34.180,-44.434,-17.090,0.000
1727361794.555,-24.414,-28.320,-44.922,-27.832,0.000
1727361794.559,-119.629,-44.922,-44.922,-40.527,0.000
1727361794.562,-107.910,-55.176,-45.410,-57.617,0.000
1727361794.566,20.508,-44.434,-41.504,-52.734,0.000
1727361794.570,71.289,-39.062,-36.133,-40.527,0.000
1727361794.574,-6.836,-44.922,-31.738,-24.414,0.000
1727361794.578,-98.633,-40.527,-30.762,-29.785,0.000
1727361794.582,-108.398,-30.762,-35.645,-25.879,0.000
1727361794.586,-5.859,-33.691,-37.598,2.441,0.000
1727361794.590,61.035,-33.691,-29.297,18.555,0.000
1727361794.594,16.113,-31.738,-22.949,-7.324,0.000
1727361794.598,-91.797,-44.434,-37.598,-47.852,0.000
1727361794.602,-127.930,-61.523,-51.758,-60.547,0.000
1727361794.605,-16.113,-67.383,-50.293,-44.434,0.000
1727361794.609,71.777,-55.664,-44.434,-31.250,0.000
1727361794.613,1.953,-45.898,-42.480,-36.133,0.000
1727361794.617,-112.305,-38.574,-45.410,-59.570,0.000
1727361794.621,-131.836,-37.109,-42.969,-63.965,0.000
1727361794.625,-25.879,-41.504,-37.598,-40.527,0.000
1727361794.629,74.707,-45.898,-41.016,-27.344,0.000
1727361794.633,25.879,-57.617,-41.016,-14.648,0.000
1727361794.637,-90.332,-56.641,-39.062,-9.766,0.000
1727361794.641,-143.555,-41.992,-42.480,-32.715,0.000
1727361794.644,-55.176,-42.969,-43.945,-46.875,0.000
1727361794.648,67.383,-62.012,-46.387,-35.645,0.000
1727361794.652,45.410,-61.523,-35.645,-26.367,0.000
1727361794.656,-68.848,-39.551,-23.926,-26.367,0.000
1727361794.660,-144.531,-29.785,-28.809,-33.203,0.000
1727361794.664,-74.219,-32.715,-42.969,-29.297,0.000
1727361794.668,34.180,-39.062,-51.270,-15.137,0.000
1727361794.672,17.090,-36.133,-50.293,-15.137,0.000
1727361794.676,-84.473,-44.434,-43.457,-25.879,0.000
1727361794.680,-139.648,-53.711,-37.109,-38.086,0.000
1727361794.684,-74.707,-56.641,-33.691,-39.062,0.000
1727361794.687,32.227,-58.594,-39.062,-15.625,0.000
1727361794.691,54.688,-39.551,-41.504,-10.254,0.000
1727361794.695,-29.785,-15.625,-26.855,-24.902,0.000
1727361794.699,-117.188,-18.066,-26.367,-37.598,0.000
1727361794.703,-81.543,-31.738,-35.156,-39.551,0.000
1727361794.707,59.570,-25.879,-29.297,-23.926,0.000
1727361794.711,84.961,-38.574,-24.902,-8.789,0.000
1727361794.715,-43.945,-65.918,-16.602,-13.184,0.000
1727361794.719,-122.070,-57.129,-12.695,-29.297,0.000
1727361794.723,-81.055,-47.363,-26.367,-24.902,0.000
1727361794.727,22.461,-36.621,-37.598,-19.043,0.000
1727361794.730,70.801,-10.254,-28.809,-13.672,0.000
1727361794.734,-10.742,-11.719,-12.207,-14.648,0.000
1727361794.738,-116.211,-25.391,-3.418,-23.438,0.000
1727361794.742,-99.609,-33.691,0.977,-27.344,0.000
1727361794.746,20.508,-50.293,-6.836,-20.020,0.000
1727361794.750,86.426,-51.758,-14.160,-18.066,0.000
1727361794.754,17.090,-43.945,-12.207,-24.902,0.000
1727361794.758,-104.004,-64.453,-13.184,-25.391,0.000
1727361794.762,-122.070,-61.035,-17.090,-28.809,0.000
1727361794.766,4.395,-41.992,-20.996,-23.438,0.000
1727361794.770,80.078,-51.758,-23.926,-10.742,0.000
1727361794.773,0.488,-59.082,-29.785,-21.484,0.000
1727361794.777,-97.168,-49.805,-17.578,-32.715,0.000
1727361794.781,-115.723,-49.805,-14.160,-37.109,0.000
1727361794.785,-16.602,-56.152,-22.949,-25.391,0.000
1727361794.789,83.496,-51.758,-24.902,-22.461,0.000
1727361794.793,26.367,-49.805,-27.832,-29.297,0.000
1727361794.797,-86.914,-54.199,-20.996,-42.480,0.000
1727361794.801,-127.930,-76.172,-23.926,-56.641,0.000
1727361794.805,-37.109,-78.613,-31.250,-30.273,0.000
1727361794.809,83.008,-64.453,-25.879,-14.648,0.000
1727361794.813,47.363,-65.430,-20.508,-24.414,0.000
1727361794.816,-79.590,-67.871,-23.926,-36.133,0.000
1727361794.820,-126.953,-64.941,-30.273,-39.551,0.000
1727361794.824,-35.156,-62.500,-22.949,-26.367,0.000
1727361794.828,77.637,-59.570,-22.461,-13.184,0.000
1727361794.832,63.965,-63.965,-24.414,-17.090,0.000
1727361794.836,-55.664,-68.848,-13.672,-40.527,0.000
1727361794.840,-125.488,-63.965,-7.324,-46.387,0.000
1727361794.844,-48.340,-63.965,-11.230,-32.715,0.000
1727361794.848,81.543,-58.105,-12.695,-23.926,0.000
1727361794.852,73.242,-59.570,-6.836,-14.648,0.000
1727361794.856,-50.293,-49.316,-1.465,-9.766,0.000
1727361794.859,-128.418,-40.527,-3.906,-27.344,0.000
1727361794.863,-76.660,-58.105,-11.230,-29.297,0.000
1727361794.867,59.082,-63.477,-16.113,-15.137,0.000
1727361794.871,88.379,-53.711,-9.766,-8.789,0.000
1727361794.875,-37.109,-58.105,-1.953,-7.324,0.000
1727361794.879,-143.555,-66.406,-1.953,-31.738,0.000
1727361794.883,-89.844,-55.664,-6.836,-48.828,0.000
1727361794.887,41.992,-47.363,-5.859,-23.926,0.000
1727361794.891,69.824,-48.340,-11.719,-17.090,0.000
1727361794.895,-39.551,-55.176,-19.531,-26.855,0.000
1727361794.898,-149.414,-59.570,-22.461,-44.434,0.000
1727361794.902,-108.887,-69.336,-22.949,-55.664,0.000
1727361794.906,23.926,-75.684,-20.508,-29.297,0.000
1727361794.910,57.617,-72.266,-20.020,-3.418,0.000
1727361794.914,-34.180,-67.871,-28.320,-16.602,0.000
1727361794.918,-131.348,-54.199,-29.785,-41.016,0.000
1727361794.922,-104.492,-56.641,-25.391,-35.645,0.000
1727361794.926,3.906,-63.477,-23.926,-27.344,0.000
1727361794.930,48.828,-54.199,-25.879,-27.832,0.000
1727361794.934,-17.090,-50.781,-24.902,-22.949,0.000
1727361794.938,-104.492,-52.734,-21.973,-28.320,0.000
1727361794.941,-103.027,-60.059,-30.762,-35.156,0.000
1727361794.945,-6.348,-67.383,-43.945,-26.855,0.000
1727361794.949,63.477,-59.570,-40.039,-9.766,0.000
1727361794.953,10.254,-48.828,-30.762,-3.418,0.000
1727361794.957,-108.398,-52.246,-29.297,-33.203,0.000
1727361794.961,-129.395,-50.293,-26.855,-33.203,0.000
1727361794.965,0.000,-30.762,-13.184,5.371,0.000
1727361794.969,98.633,-29.785,-16.113,-1.953,0.000
1727361794.973,41.016,-43.945,-26.855,-14.648,0.000
1727361794.977,-91.309,-42.480,-31.738,-28.320,0.000
1727361794.981,-133.301,-40.527,-41.016,-35.156,0.000
1727361794.984,-36.621,-46.875,-43.457,-10.742,0.000
1727361794.988,79.590,-39.062,-37.598,1.953,0.000
1727361794.992,55.176,-48.828,-38.086,-12.207,0.000
1727361794.996,-87.402,-74.219,-33.691,-30.762,0.000
1727361795.000,-141.113,-58.105,-25.879,-42.969,0.000
1727361795.004,-38.574,-34.180,-22.949,-38.574,0.000
1727361795.008,74.707,-32.715,-14.160,-6.348,0.000
1727361795.012,50.781,-36.621,-18.066,-2.930,0.000
1727361795.016,-70.312,-41.992,-25.391,-34.668,0.000
1727361795.020,-146.973,-48.340,-23.926,-43.945,0.000
1727361795.023,-62.500,-46.875,-27.344,-21.973,0.000
1727361795.027,64.453,-44.434,-33.203,-5.371,0.000
1727361795.031,51.758,-41.016,-34.180,1.953,0.000
1727361795.035,-61.523,-41.016,-32.227,-21.484,0.000
1727361795.039,-127.930,-41.016,-26.855,-48.340,0.000
1727361795.043,-70.312,-34.180,-22.949,-40.039,0.000
1727361795.047,47.363,-37.598,-22.461,-25.391,0.000
1727361795.051,48.828,-49.316,-23.438,-6.836,0.000
1727361795.055,-69.336,-60.547,-36.133,-21.484,0.000
1727361795.059,-148.926,-54.688,-47.363,-47.363,0.000
1727361795.063,-93.262,-63.477,-41.016,-35.645,0.000
1727361795.066,14.648,-71.289,-47.852,-27.832,0.000
1727361795.070,39.062,-57.129,-57.129,-31.738,0.000
1727361795.074,-41.992,-41.992,-56.152,-29.785,0.000
1727361795.078,-133.789,-40.039,-54.199,-32.227,0.000
1727361795.082,-96.191,-47.363,-43.457,-41.016,0.000
1727361795.086,32.715,-45.898,-43.945,-33.691,0.000
1727361795.090,63.965,-48.340,-56.152,-18.555,0.000
1727361795.094,-3.906,-42.969,-51.758,-9.277,0.000
1727361795.098,-96.680,-32.715,-41.992,-26.855,0.000
1727361795.102,-113.770,-28.809,-41.016,-31.738,0.000
1727361795.106,5.859,-28.809,-39.551,-10.742,0.000
1727361795.109,91.797,-24.414,-29.785,-8.301,0.000
1727361795.113,29.297,-27.832,-31.738,-14.160,0.000
1727361795.117,-90.332,-41.504,-40.527,-20.996,0.000
1727361795.121,-112.793,-36.133,-39.551,-23.438,0.000
1727361795.125,10.742,-13.672,-46.387,-18.555,0.000
1727361795.129,108.887,-20.996,-56.641,-10.254,0.000
1727361795.133,35.156,-41.016,-52.734,-15.625,0.000
1727361795.137,-82.520,-34.180,-45.898,-36.621,0.000
1727361795.141,-107.910,-22.461,-36.133,-38.086,0.000
1727361795.145,8.301,-23.438,-24.414,-3.906,0.000
1727361795.149,96.191,-38.086,-27.344,10.254,0.000
1727361795.152,17.578,-44.922,-28.809,-7.812,0.000
1727361795.156,-89.844,-28.809,-21.973,-21.484,0.000
1727361795.160,-117.188,-21.484,-22.461,-35.156,0.000
1727361795.164,-18.066,-26.855,-28.320,-20.996,0.000
1727361795.168,82.520,-32.227,-35.645,-10.742,0.000
1727361795.172,30.273,-31.738,-33.203,-16.113,0.000
1727361795.176,-83.496,-27.832,-24.902,-16.113,0.000
1727361795.180,-120.605,-34.668,-26.855,-33.203,0.000
1727361795.184,-35.645,-43.945,-33.691,-36.133,0.000
1727361795.188,70.312,-48.340,-38.574,-19.531,0.000
1727361795.191,40.039,-46.875,-41.016,-16.602,0.000
1727361795.195,-81.055,-54.199,-44.434,-40.527,0.000
1727361795.199,-129.883,-53.711,-52.246,-43.457,0.000
1727361795.203,-44.922,-48.340,-59.570,-23.926,0.000
1727361795.207,54.688,-54.199,-55.176,-20.020,0.000
1727361795.211,43.457,-50.781,-47.363,-15.625,0.000
1727361795.215,-46.387,-34.668,-43.457,-29.297,0.000
1727361795.219,-143.066,-31.738,-51.758,-61.035,0.000
1727361795.223,-105.957,-36.133,-58.594,-56.641,0.000
1727361795.227,27.344,-41.504,-48.340,-30.273,0.000
1727361795.231,39.551,-39.551,-40.527,-21.973,0.000
1727361795.234,-52.246,-31.738,-46.387,-34.180,0.000
1727361795.238,-119.629,-33.691,-51.270,-40.039,0.000
1727361795.242,-68.359,-42.969,-52.246,-33.203,0.000
1727361795.246,48.340,-44.434,-48.340,-17.090,0.000
1727361795.250,73.242,-42.969,-48.340,-7.324,0.000
1727361795.254,-22.949,-34.180,-47.363,-11.230,0.000
1727361795.258,-117.188,-29.785,-38.574,-23.926,0.000
1727361795.262,-77.637,-38.574,-39.551,-22.949,0.000
1727361795.266,41.016,-44.434,-42.969,-14.160,0.000
1727361795.270,72.266,-41.016,-47.363,-17.090,0.000
1727361795.274,-20.508,-38.086,-57.129,-27.832,0.000
1727361795.277,-120.117,-39.551,-60.059,-39.551,0.000
1727361795.281,-99.121,-42.969,-55.176,-41.504,0.000
1727361795.285,35.645,-41.992,-56.152,-14.160,0.000
1727361795.289,97.168,-44.434,-58.105,7.324,0.000
1727361795.293,5.859,-47.852,-45.898,6.348,0.000
1727361795.297,-90.332,-30.762,-29.785,-3.906,0.000
1727361795.301,-98.633,-21.973,-32.715,-35.645,0.000
1727361795.305,21.973,-26.855,-37.109,-34.668,0.000
1727361795.309,98.145,-20.020,-34.668,-14.160,0.000
1727361795.313,10.254,-20.996,-35.156,-2.441,0.000
1727361795.317,-94.238,-42.480,-32.715,-24.414,0.000
1727361795.320,-103.027,-42.480,-18.555,-32.227,0.000
1727361795.324,10.742,-32.227,-18.066,-11.719,0.000
1727361795.328,86.426,-34.180,-37.109,-4.395,0.000
1727361795.332,9.277,-33.691,-47.363,-22.949,0.000
1727361795.336,-110.352,-39.062,-36.133,-25.391,0.000
1727361795.340,-130.859,-49.805,-32.715,-28.809,0.000
1727361795.344,-34.668,-58.105,-37.598,-34.180,0.000
1727361795.348,50.781,-62.500,-41.992,-15.137,0.000
1727361795.352,23.438,-52.246,-51.758,-11.719,0.000
1727361795.356,-98.145,-38.574,-59.570,-38.086,0.000
1727361795.360,-153.809,-40.527,-54.688,-67.871,0.000
1727361795.363,-46.875,-50.781,-42.969,-44.434,0.000
1727361795.367,68.848,-53.711,-36.621,-13.672,0.000
1727361795.371,24.902,-47.363,-41.992,-36.133,0.000
1727361795.375,-97.656,-36.621,-48.828,-54.688,0.000
1727361795.379,-158.203,-40.527,-50.293,-61.035,0.000
1727361795.383,-72.266,-56.152,-50.781,-53.711,0.000
1727361795.387,41.992,-48.828,-47.852,-39.551,0.000
1727361795.391,31.738,-33.691,-42.969,-26.367,0.000
1727361795.395,-66.895,-31.738,-40.039,-25.391,0.000
1727361795.399,-151.367,-23.926,-46.875,-45.898,0.000
1727361795.403,-84.961,-31.250,-54.688,-41.016,0.000
1727361795.406,47.852,-42.480,-58.105,-17.578,0.000
1727361795.410,46.387,-34.668,-55.176,-2.441,0.000
1727361795.414,-49.316,-36.133,-49.316,-16.113,0.000
1727361795.418,-113.770,-36.133,-47.852,-48.340,0.000
1727361795.422,-68.359,-28.320,-46.387,-49.316,0.000
1727361795.426,52.734,-23.438,-41.992,-15.625,0.000
1727361795.430,90.332,-14.160,-36.133,13.184,0.000
1727361795.434,-15.137,-11.719,-40.527,-2.930,0.000
1727361795.438,-98.145,-25.879,-43.457,-29.297,0.000
1727361795.442,-51.758,-37.598,-33.691,-15.625,0.000
1727361795.445,52.246,-29.785,-26.367,7.324,0.000
1727361795.449,85.938,-22.461,-31.738,0.488,0.000
1727361795.453,9.277,-19.043,-32.227,-4.395,0.000
1727361795.457,-93.262,-20.996,-21.484,-14.160,0.000
1727361795.461,-105.957,-22.949,-20.996,-16.602,0.000
1727361795.465,15.137,-28.809,-32.227,-3.906,0.000
1727361795.469,83.984,-33.691,-28.809,-6.836,0.000
1727361795.473,1.953,-37.598,-26.855,-14.160,0.000
1727361795.477,-104.004,-51.270,-26.855,-27.344,0.000
1727361795.481,-113.770,-59.082,-24.902,-41.016,0.000
1727361795.485,0.000,-54.199,-34.180,-31.250,0.000
1727361795.488,72.754,-51.270,-46.387,-28.809,0.000
1727361795.492,2.441,-40.527,-46.387,-33.691,0.000
1727361795.496,-110.352,-41.992,-40.039,-35.156,0.000
1727361795.500,-130.371,-59.082,-36.133,-41.992,0.000
1727361795.504,-29.785,-58.594,-41.992,-35.645,0.000
1727361795.508,56.641,-45.898,-45.898,-25.391,0.000
1727361795.512,27.832,-36.621,-34.180,-20.996,0.000
1727361795.516,-68.848,-52.246,-32.715,-31.250,0.000
1727361795.520,-128.906,-57.129,-36.133,-45.410,0.000
1727361795.524,-48.340,-41.016,-37.109,-29.785,0.000
1727361795.527,63.965,-33.203,-37.598,-15.625,0.000
1727361795.531,27.344,-28.320,-34.180,-18.066,0.000
1727361795.535,-83.008,-27.344,-29.785,-26.367,0.000
1727361795.539,-113.770,-21.973,-27.344,-31.250,0.000
1727361795.543,-38.574,-21.484,-31.738,-3.418,0.000
1727361795.547,67.871,-18.066,-45.410,9.277,0.000
1727361795.551,48.828,-11.230,-54.199,1.953,0.000
1727361795.555,-58.594,-19.043,-52.734,-22.461,0.000
1727361795.559,-112.305,-13.184,-44.922,-40.039,0.000
1727361795.563,-43.457,-9.277,-43.457,-19.043,0.000
1727361795.567,68.359,-20.508,-40.039,6.836,0.000
1727361795.570,65.430,-21.484,-29.297,12.695,0.000
1727361795.574,-42.969,-27.832,-34.668,-0.488,0.000
1727361795.578,-120.605,-35.156,-43.945,-22.461,0.000
1727361795.582,-62.012,-28.320,-42.480,-20.508,0.000
1727361795.586,49.316,-14.160,-40.527,-4.395,0.000
1727361795.590,75.684,0.488,-33.691,12.207,0.000
1727361795.594,-7.812,-7.812,-21.973,3.906,0.000
1727361795.598,-116.699,-26.855,-26.855,-33.203,0.000
1727361795.602,-87.402,-34.668,-32.715,-26.367,0.000
1727361795.606,43.945,-48.340,-35.645,-9.277,0.000
1727361795.610,75.684,-44.434,-31.738,-13.184,0.000
1727361795.613,-28.320,-35.645,-24.414,-13.672,0.000
1727361795.617,-130.859,-36.133,-28.809,-37.598,0.000
1727361795.621,-99.609,-41.016,-29.785,-50.781,0.000
1727361795.625,39.551,-48.340,-30.762,-34.180,0.000
1727361795.629,71.777,-45.898,-39.551,-31.738,0.000
1727361795.633,-17.578,-50.293,-41.504,-39.551,0.000
1727361795.637,-128.418,-54.199,-37.598,-38.574,0.000
1727361795.641,-146.484,-65.918,-38.086,-31.250,0.000
1727361795.645,-14.160,-76.660,-38.086,-38.086,0.000
1727361795.649,51.270,-71.777,-36.133,-34.668,0.000
1727361795.653,-16.602,-65.430,-36.621,-30.273,0.000
1727361795.656,-110.352,-65.918,-33.203,-56.152,0.000
1727361795.660,-142.578,-59.570,-28.809,-52.734,0.000
1727361795.664,-25.879,-41.504,-31.250,-18.555,0.000
1727361795.668,67.871,-30.273,-36.133,-16.602,0.000
1727361795.672,-8.301,-31.738,-41.992,-21.973,0.000
1727361795.676,-105.469,-32.715,-35.645,-21.973,0.000
1727361795.680,-101.074,-22.949,-35.156,-30.273,0.000
1727361795.684,6.348,-16.602,-33.691,-16.602,0.000
1727361795.688,97.656,-16.602,-33.203,-4.883,0.000
1727361795.692,55.176,-14.160,-47.852,-7.812,0.000
1727361795.696,-86.914,-8.301,-42.969,-22.949,0.000
1727361795.699,-104.004,-11.719,-37.598,-41.992,0.000
1727361795.703,6.836,-13.184,-49.805,-28.809,0.000
1727361795.707,66.406,-12.695,-50.293,-25.879,0.000
1727361795.711,40.527,-16.113,-44.434,-35.645,0.000
1727361795.715,-50.781,-6.348,-45.410,-34.668,0.000
1727361795.719,-96.680,6.348,-37.109,-35.645,0.000
1727361795.723,-29.785,5.859,-33.203,-16.113,0.000
1727361795.727,66.406,-0.488,-43.457,-2.441,0.000
1727361795.731,52.246,-5.371,-44.922,-15.625,0.000
1727361795.735,-53.223,-9.766,-43.457,-23.438,0.000
1727361795.739,-101.074,-6.348,-39.062,-20.996,0.000
1727361795.742,-44.922,-13.184,-31.738,-18.555,0.000
1727361795.746,44.922,-34.180,-36.133,-22.461,0.000
1727361795.750,46.387,-28.809,-36.133,-33.203,0.000
1727361795.754,-51.758,-14.160,-32.227,-39.551,0.000
1727361795.758,-126.953,-18.066,-35.645,-48.340,0.000
1727361795.762,-65.918,-16.113,-33.203,-36.621,0.000
1727361795.766,71.289,-15.137,-24.902,-13.184,0.000
1727361795.770,79.102,-30.273,-27.832,-11.719,0.000
1727361795.774,-31.250,-28.320,-25.391,-24.902,0.000
1727361795.778,-122.070,-30.273,-19.531,-44.434,0.000
1727361795.781,-75.684,-39.062,-20.508,-36.621,0.000
1727361795.785,47.363,-35.156,-25.391,-23.438,0.000
1727361795.789,62.012,-44.922,-27.832,-31.250,0.000
1727361795.793,-40.527,-42.969,-23.926,-29.785,0.000
1727361795.797,-141.113,-27.344,-28.320,-40.039,0.000
1727361795.801,-119.629,-29.785,-20.508,-27.344,0.000
1727361795.805,-2.930,-44.922,-23.926,-20.508,0.000
1727361795.809,34.668,-54.199,-37.109,-32.227,0.000
1727361795.813,-46.875,-59.082,-31.738,-33.691,0.000
1727361795.817,-137.207,-62.012,-31.738,-52.734,0.000
1727361795.821,-134.277,-64.453,-31.250,-55.176,0.000
1727361795.824,-12.695,-61.035,-32.227,-35.156,0.000
1727361795.828,41.504,-39.062,-48.828,-20.508,0.000
1727361795.832,-31.738,-20.508,-53.223,-19.043,0.000
1727361795.836,-121.094,-28.809,-47.363,-47.363,0.000
1727361795.840,-115.723,-27.344,-42.480,-71.777,0.000
1727361795.844,-9.766,-19.043,-37.598,-55.664,0.000
1727361795.848,70.801,-30.273,-40.527,-35.645,0.000
1727361795.852,4.883,-36.621,-41.992,-37.109,0.000
1727361795.856,-117.676,-30.762,-39.062,-45.898,0.000
1727361795.860,-116.211,-23.926,-31.250,-28.809,0.000
1727361795.864,-17.090,-15.625,-35.645,-25.879,0.000
1727361795.867,55.664,-6.836,-42.969,-39.551,0.000
1727361795.871,9.277,-10.254,-44.434,-20.020,0.000
1727361795.875,-96.191,-36.133,-43.945,-20.020,0.000
1727361795.879,-126.953,-37.598,-31.738,-44.434,0.000
1727361795.883,-32.227,-21.973,-30.762,-29.297,0.000
1727361795.887,71.777,-19.531,-35.156,-15.625,0.000
1727361795.891,34.668,-33.203,-31.738,-10.254,0.000
1727361795.895,-72.266,-44.922,-26.855,-15.137,0.000
1727361795.899,-131.836,-24.902,-21.973,-35.156,0.000
1727361795.903,-48.828,-12.695,-24.902,-34.668,0.000
1727361795.906,79.590,-20.020,-30.273,-26.855,0.000
1727361795.910,60.547,-12.695,-27.832,-16.113,0.000
1727361795.914,-60.059,-6.836,-29.785,-23.438,0.000
1727361795.918,-125.488,-22.949,-37.598,-51.758,0.000
1727361795.922,-42.969,-27.832,-40.527,-42.480,0.000
1727361795.926,58.105,-22.461,-38.574,-23.438,0.000
1727361795.930,36.621,-15.625,-37.109,-33.691,0.000
1727361795.934,-61.035,-14.648,-43.945,-47.852,0.000
1727361795.938,-137.207,-32.227,-44.434,-62.012,0.000
1727361795.942,-94.727,-37.109,-40.039,-61.523,0.000
1727361795.946,28.809,-31.250,-44.434,-39.062,0.000
1727361795.949,45.410,-31.738,-48.828,-26.367,0.000
1727361795.953,-49.316,-40.039,-46.875,-34.180,0.000
1727361795.957,-137.207,-51.758,-39.551,-48.340,0.000
1727361795.961,-102.051,-43.945,-34.668,-49.805,0.000
1727361795.965,26.855,-27.832,-34.180,-28.320,0.000
1727361795.969,62.012,-29.297,-30.273,-15.625,0.000
1727361795.973,-38.574,-39.062,-26.855,-22.461,0.000
1727361795.977,-120.605,-37.109,-32.715,-41.992,0.000
1727361795.981,-78.125,-29.785,-36.133,-36.621,0.000
1727361795.985,28.809,-35.156,-37.598,-35.645,0.000
1727361795.989,53.711,-29.297,-43.945,-42.480,0.000
1727361795.992,-26.367,-16.602,-43.945,-22.461,0.000
1727361795.996,-108.398,-23.926,-37.109,-27.344,0.000
1727361796.000,-97.168,-27.832,-27.344,-35.645,0.000
1727361796.004,16.602,-21.973,-30.273,-25.879,0.000
1727361796.008,72.266,-15.625,-33.691,-16.602,0.000
1727361796.012,0.000,-14.160,-35.156,-22.949,0.000
1727361796.016,0.000,-20.508,-38.086,-39.062,0.000
1727361796.020,0.000,-26.855,-35.645,-26.855,0.000
1727361796.024,0.000,-24.414,-37.598,-15.625,0.000
1727361796.028,0.000,-18.066,-39.062,-14.648,0.000
1727361796.032,0.000,-21.484,-30.762,-12.695,0.000
1727361796.035,0.000,-30.762,-26.855,-36.621,0.000
1727361796.039,0.000,-38.086,-29.297,-42.480,0.000
1727361796.043,0.000,-32.715,-29.785,-9.277,0.000
1727361796.047,0.000,-35.645,-15.625,11.230,0.000
1727361796.051,0.000,-37.598,-4.883,-4.395,0.000
1727361796.055,0.000,-24.902,-14.160,-26.367,0.000
1727361796.059,-118.652,-40.527,-24.902,-34.668,0.000
1727361796.063,-33.691,-62.500,-35.645,-35.156,0.000
1727361796.067,67.871,-53.223,-45.410,-26.855,0.000
1727361796.071,0.000,-45.410,-51.270,-40.039,0.000
1727361796.075,-116.699,-46.387,-44.434,-59.082,0.000
1727361796.078,-152.344,-54.199,-36.133,-58.594,0.000
1727361796.082,-72.266,-61.035,-31.738,-53.223,0.000
1727361796.086,35.645,-48.340,-23.926,-45.410,0.000
1727361796.090,20.508,-46.875,-18.066,-39.551,0.000
1727361796.094,-83.496,-49.316,-27.344,-36.621,0.000
1727361796.098,-131.348,-51.758,-29.785,-34.180,0.000
1727361796.102,-61.523,-61.035,-29.785,-52.246,0.000
1727361796.106,38.086,-59.082,-37.598,-55.664,0.000
1727361796.110,27.344,-54.199,-35.645,-19.531,0.000
1727361796.114,-62.500,-57.129,-36.621,-13.672,0.000
1727361796.117,-125.000,-51.270,-41.992,-60.059,0.000
1727361796.121,-73.242,-46.875,-44.434,-61.035,0.000
1727361796.125,50.293,-43.945,-47.363,-42.480,0.000
1727361796.129,49.316,-21.973,-41.016,-37.598,0.000
1727361796.133,-61.035,-17.578,-33.691,-34.180,0.000
1727361796.137,-138.184,-36.133,-34.668,-43.945,0.000
1727361796.141,-78.613,-40.527,-36.621,-49.316,0.000
1727361796.145,46.387,-26.855,-40.039,-46.387,0.000
1727361796.149,38.574,-15.625,-49.805,-56.152,0.000
1727361796.153,-60.059,-19.043,-51.270,-53.711,0.000
1727361796.157,-153.809,16.602,-55.176,-61.523,0.000
1727361796.160,-163.574,22.461,-67.871,-78.125,0.000
1727361796.164,-1.465,-15.625,-60.059,-38.574,0.000
1727361796.168,68.359,-13.184,-41.016,-3.906,0.000
1727361796.172,-39.551,-28.809,-25.391,-4.395,0.000
1727361796.176,-118.164,-47.852,-21.484,-15.625,0.000
1727361796.180,-134.766,-1.953,-45.410,-49.316,0.000
1727361796.184,-14.648,-13.672,-54.199,-59.082,0.000
1727361796.188,116.211,-107.910,-20.996,-18.555,0.000
1727361796.192,25.879,-119.141,-20.508,-2.441,0.000
1727361796.196,-126.953,-145.020,-40.527,-15.625,0.000
1727361796.200,-95.703,-251.953,-29.785,-25.879,0.000
1727361796.203,46.875,-335.449,-27.832,-13.672,0.000
1727361796.207,86.426,-382.324,-29.785,-6.348,0.000
1727361796.211,-2.930,-406.738,-49.316,-20.508,0.000
1727361796.215,-105.957,-451.172,-86.914,-62.500,0.000
1727361796.219,-114.258,-546.875,-64.453,-56.152,0.000
1727361796.223,19.043,-614.746,-34.180,-15.137,0.000
1727361796.227,80.078,-603.027,-55.664,-29.297,0.000
1727361796.231,-26.367,-639.648,-76.172,-30.273,0.000
1727361796.235,-122.070,-770.020,-60.059,-17.578,0.000
1727361796.239,-133.789,-870.117,-66.406,-40.039,0.000
1727361796.242,-45.410,-913.574,-82.031,-33.203,0.000
1727361796.246,80.566,-979.980,-70.312,1.953,0.000
1727361796.250,41.016,-1000.000,-76.172,-7.324,0.000
1727361796.254,-87.402,-998.047,-86.426,-41.992,0.000
1727361796.258,-124.023,-1000.000,-80.078,-41.992,0.000
1727361796.262,-34.180,-1000.000,-83.984,-13.672,0.000
1727361796.266,89.355,-1000.000,-86.914,2.930,0.000
1727361796.270,77.148,-1000.000,-77.148,18.066,0.000
1727361796.274,-27.344,-998.535,-70.801,11.230,0.000
1727361796.278,-90.820,-1000.000,-70.312,-5.859,0.000
1727361796.282,-24.902,-991.699,-68.848,8.301,0.000
1727361796.285,83.984,-938.965,-63.477,21.973,0.000
1727361796.289,88.867,-881.348,-56.641,28.809,0.000
1727361796.293,-0.977,-824.219,-50.781,20.508,0.000
1727361796.297,-74.219,-762.695,-48.340,-6.348,0.000
1727361796.301,-22.949,-640.625,-46.875,-20.996,0.000
1727361796.305,90.820,-523.438,-49.805,-7.812,0.000
1727361796.309,122.559,-466.309,-37.598,5.859,0.000
1727361796.313,26.855,-416.016,-20.996,0.488,0.000
1727361796.317,-86.426,-367.188,-8.789,-8.789,0.000
1727361796.321,-57.617,-298.828,11.230,3.906,0.000
1727361796.325,76.660,-174.316,22.949,8.301,0.000
1727361796.328,108.887,-69.336,35.645,10.254,0.000
1727361796.332,0.977,25.879,44.434,8.789,0.000
1727361796.336,-100.098,166.016,41.992,-22.949,0.000
1727361796.340,-67.871,260.742,41.992,-20.996,0.000
1727361796.344,67.383,326.660,48.828,-1.953,0.000
1727361796.348,124.512,388.672,53.711,-1.953,0.000
1727361796.352,3.418,451.172,48.828,-10.254,0.000
1727361796.356,-140.625,489.258,33.691,-41.504,0.000
1727361796.360,-135.742,508.301,13.184,-52.246,0.000
1727361796.364,-2.441,548.828,-2.441,-32.715,0.000
1727361796.368,61.035,574.707,-4.883,-25.391,0.000
1727361796.371,-0.488,576.660,-2.930,-29.297,0.000
1727361796.375,-110.840,550.293,-19.043,-49.316,0.000
1727361796.379,-141.602,532.227,-24.902,-60.547,0.000
1727361796.383,-30.762,542.480,-14.160,-35.645,0.000
1727361796.387,42.480,525.879,-6.348,-30.273,0.000
1727361796.391,0.977,492.188,-6.836,-43.457,0.000
1727361796.395,-110.352,462.402,-22.949,-64.941,0.000
1727361796.399,-160.645,463.379,-23.438,-75.195,0.000
1727361796.403,-45.898,479.004,-18.555,-49.316,0.000
1727361796.407,54.199,481.445,-24.414,-20.996,0.000
1727361796.411,-1.953,467.773,-24.414,-14.160,0.000
1727361796.414,-107.422,439.453,-22.461,-30.273,0.000
1727361796.418,-132.324,429.199,-18.066,-42.969,0.000
1727361796.422,-33.691,413.086,-10.742,-29.297,0.000
1727361796.426,64.453,376.953,-3.906,-5.371,0.000
1727361796.430,47.363,367.676,1.465,-12.695,0.000
1727361796.434,-49.805,370.117,-1.953,-27.832,0.000
1727361796.438,-115.723,357.422,-5.371,-38.086,0.000
1727361796.442,-26.855,339.355,-13.184,-34.668,0.000
1727361796.446,91.309,327.148,-12.207,-11.719,0.000
1727361796.450,54.688,311.523,-2.930,0.977,0.000
1727361796.454,-65.918,291.504,-2.930,-8.789,0.000
1727361796.457,-125.977,277.344,-3.418,-18.066,0.000
1727361796.461,-43.945,270.996,-7.324,-2.441,0.000
1727361796.465,82.520,254.395,-12.207,3.418,0.000
1727361796.469,64.941,225.586,-17.090,-5.859,0.000
1727361796.473,-57.129,217.285,-12.207,2.930,0.000
1727361796.477,-124.512,225.586,0.488,-5.371,0.000
1727361796.481,-48.828,235.352,-6.348,-16.602,0.000
1727361796.485,77.148,214.844,-11.230,2.930,0.000
1727361796.489,76.660,183.594,-8.301,3.418,0.000
1727361796.493,-23.926,200.684,-9.766,-4.395,0.000
1727361796.496,-122.559,198.242,-9.766,-26.855,0.000
1727361796.500,-93.750,166.992,-11.230,-32.715,0.000
1727361796.504,31.738,142.578,-20.020,-20.996,0.000
1727361796.508,53.223,138.672,-22.949,-6.836,0.000
1727361796.512,-45.410,135.254,-24.414,-27.344,0.000
1727361796.516,-136.230,108.887,-29.785,-68.848,0.000
1727361796.520,-107.910,107.422,-35.156,-71.777,0.000
1727361796.524,11.719,114.746,-49.805,-61.523,0.000
1727361796.528,37.109,102.539,-53.223,-52.246,0.000
1727361796.532,-47.363,71.289,-51.270,-59.570,0.000
1727361796.536,-124.023,53.223,-42.480,-66.406,0.000
1727361796.539,-121.582,62.500,-39.062,-60.547,0.000
1727361796.543,-10.254,66.895,-43.945,-37.109,0.000
1727361796.547,64.453,66.895,-41.016,-30.762,0.000
1727361796.551,-11.230,69.336,-33.691,-27.832,0.000
1727361796.555,-127.441,46.875,-32.715,-33.203,0.000
1727361796.559,-141.113,27.344,-41.504,-43.945,0.000
1727361796.563,-23.438,46.387,-44.922,-27.832,0.000
1727361796.567,63.965,65.918,-35.645,-10.254,0.000
1727361796.571,10.742,65.918,-27.344,-2.930,0.000
1727361796.575,-110.840,64.453,-29.785,-36.133,0.000
1727361796.579,-134.277,51.270,-26.367,-44.434,0.000
1727361796.582,8.301,32.227,-26.367,-22.949,0.000
1727361796.586,87.402,37.109,-33.691,-20.996,0.000
1727361796.590,12.207,46.875,-32.715,-19.043,0.000
1727361796.594,-95.703,41.016,-34.668,-29.785,0.000
1727361796.598,-142.578,14.160,-40.527,-40.039,0.000
1727361796.602,-37.109,6.836,-41.016,-36.133,0.000
1727361796.606,74.707,17.578,-37.598,-22.949,0.000
1727361796.610,43.945,28.809,-29.785,-7.324,0.000
1727361796.614,-62.012,23.926,-14.160,-15.625,0.000
1727361796.618,-128.418,6.348,-12.695,-33.691,0.000
1727361796.622,-44.434,3.418,-11.719,-4.395,0.000
1727361796.625,93.262,20.020,-0.977,15.625,0.000
1727361796.629,59.082,12.695,-9.277,-21.484,0.000
1727361796.633,-66.406,-7.324,-20.020,-50.293,0.000
1727361796.637,-121.094,1.953,-14.160,-59.082,0.000
1727361796.641,-61.523,13.672,-17.090,-45.410,0.000
1727361796.645,44.922,17.090,-21.973,-31.738,0.000
1727361796.649,31.738,7.812,-21.484,-25.879,0.000
1727361796.653,-73.242,-3.906,-27.344,-29.785,0.000
1727361796.657,-145.996,-14.648,-29.297,-48.828,0.000
1727361796.661,-93.262,-18.555,-31.738,-42.969,0.000
1727361796.664,31.738,-14.648,-38.086,-15.625,0.000
1727361796.668,39.551,-18.555,-40.527,-22.461,0.000
1727361796.672,-54.199,-27.344,-37.598,-45.410,0.000
1727361796.676,-113.770,-27.832,-28.320,-43.457,0.000
1727361796.680,-68.359,-28.320,-27.832,-38.086,0.000
1727361796.684,34.668,-29.785,-31.250,-30.273,0.000
1727361796.688,43.945,-34.180,-28.320,-31.250,0.000
1727361796.692,-48.828,-35.645,-35.156,-47.363,0.000
1727361796.696,-145.996,-32.715,-44.922,-66.895,0.000
1727361796.700,-138.184,-33.691,-43.457,-61.035,0.000
1727361796.704,-16.602,-44.922,-43.457,-36.621,0.000
1727361796.707,42.969,-46.875,-45.898,-28.320,0.000
1727361796.711,-35.156,-42.480,-43.457,-32.715,0.000
1727361796.715,-136.719,-46.387,-41.016,-39.551,0.000
1727361796.719,-127.441,-45.410,-47.852,-33.203,0.000
1727361796.723,-5.859,-44.434,-51.270,-38.574,0.000
1727361796.727,50.293,-55.664,-42.480,-40.039,0.000
1727361796.731,-26.855,-50.781,-35.156,-43.945,0.000
1727361796.735,-130.859,-22.461,-30.762,-65.430,0.000
1727361796.739,-126.953,-16.602,-31.738,-68.848,0.000
1727361796.743,-13.184,-23.926,-34.180,-49.805,0.000
1727361796.747,76.172,-27.344,-31.738,-17.578,0.000
1727361796.750,31.250,-32.715,-29.297,-10.742,0.000
1727361796.754,-93.750,-38.574,-31.250,-40.527,0.000
1727361796.758,-126.465,-45.410,-33.203,-51.270,0.000
1727361796.762,-21.973,-38.086,-31.738,-22.949,0.000
1727361796.766,71.777,-25.391,-38.086,-19.043,0.000
1727361796.770,23.926,-23.926,-34.180,-23.438,0.000
1727361796.774,-95.215,-34.668,-24.414,-10.742,0.000
1727361796.778,-111.816,-42.480,-28.320,-25.879,0.000
1727361796.782,4.883,-46.875,-24.414,-33.203,0.000
1727361796.786,100.586,-44.922,-29.297,-23.438,0.000
1727361796.790,40.527,-37.109,-44.922,-25.391,0.000
1727361796.793,-89.844,-43.945,-49.805,-36.621,0.000
1727361796.797,-136.719,-47.852,-42.969,-47.363,0.000
1727361796.801,-54.688,-37.109,-36.621,-37.598,0.000
1727361796.805,52.246,-35.156,-40.527,-35.156,0.000
1727361796.809,30.762,-46.875,-44.922,-38.086,0.000
1727361796.813,-83.984,-72.266,-44.434,-53.711,0.000
1727361796.817,-144.531,-69.336,-36.621,-67.871,0.000
1727361796.821,-84.961,-47.363,-38.574,-46.875,0.000
1727361796.825,15.137,-46.875,-44.922,-27.344,0.000
1727361796.829,19.531,-41.504,-47.852,-25.391,0.000
1727361796.832,-76.660,-43.945,-44.434,-53.223,0.000
1727361796.836,-152.832,-62.012,-40.039,-71.289,0.000
1727361796.840,-101.074,-63.477,-37.598,-53.711,0.000
1727361796.844,19.531,-61.523,-38.086,-39.551,0.000
1727361796.848,24.902,-64.453,-44.434,-33.691,0.000
1727361796.852,-77.637,-62.988,-52.246,-47.363,0.000
1727361796.856,-147.949,-54.688,-50.293,-49.805,0.000
1727361796.860,-104.492,-35.645,-44.922,-33.691,0.000
1727361796.864,11.719,-25.391,-45.410,-24.902,0.000
1727361796.868,59.570,-26.855,-49.316,-21.973,0.000
1727361796.872,-20.020,-37.598,-52.734,-26.367,0.000
1727361796.875,-102.051,-41.992,-44.434,-43.457,0.000
1727361796.879,-76.660,-41.504,-36.133,-43.945,0.000
1727361796.883,30.762,-40.039,-27.344,-18.555,0.000
1727361796.887,66.895,-41.016,-31.250,-2.930,0.000
1727361796.891,-17.578,-41.504,-37.109,-13.184,0.000
1727361796.895,-103.516,-15.137,-31.250,-33.691,0.000
1727361796.899,-91.797,-7.812,-33.203,-31.738,0.000
1727361796.903,12.695,-23.438,-30.762,-15.625,0.000
1727361796.907,82.031,-29.785,-26.367,1.953,0.000
1727361796.911,30.762,-38.574,-26.367,15.137,0.000
1727361796.915,-73.730,-40.527,-26.367,-7.324,0.000
1727361796.918,-109.375,-33.203,-28.809,-33.203,0.000
1727361796.922,4.395,-30.273,-24.414,-8.301,0.000
1727361796.926,93.262,-34.668,-30.762,4.883,0.000
1727361796.930,19.531,-41.016,-34.668,-10.742,0.000
1727361796.934,-105.957,-33.203,-28.320,-30.273,0.000
1727361796.938,-119.141,-29.785,-34.180,-44.922,0.000
1727361796.942,-1.465,-29.785,-45.410,-39.551,0.000
1727361796.946,81.055,-24.902,-41.992,-27.344,0.000
1727361796.950,20.996,-36.133,-35.156,-22.461,0.000
1727361796.954,-92.285,-41.016,-40.527,-32.715,0.000
1727361796.958,-142.578,-32.715,-46.875,-58.105,0.000
1727361796.961,-56.152,-41.504,-54.688,-57.129,0.000
1727361796.965,66.406,-41.992,-61.035,-38.574,0.000
1727361796.969,15.625,-40.039,-60.059,-49.805,0.000
1727361796.973,-119.141,-44.434,-55.664,-61.523,0.000
1727361796.977,-162.109,-46.387,-51.758,-78.125,0.000
1727361796.981,-74.219,-45.898,-48.828,-72.266,0.000
1727361796.985,43.945,-48.340,-54.688,-45.410,0.000
1727361796.989,19.043,-49.805,-57.129,-40.527,0.000
1727361796.993,-89.844,-57.129,-47.363,-48.340,0.000
1727361796.997,-143.066,-56.641,-42.480,-52.246,0.000
1727361797.000,-77.637,-62.012,-41.504,-38.086,0.000
1727361797.004,45.410,-70.312,-44.922,-29.297,0.000
1727361797.008,53.223,-63.965,-43.457,-18.555,0.000
1727361797.012,-64.941,-46.387,-30.273,-2.930,0.000
1727361797.016,-155.273,-35.645,-34.180,-4.395,0.000
1727361797.020,-88.867,-31.738,-40.039,-23.438,0.000
1727361797.024,51.758,-24.414,-41.016,-26.367,0.000
1727361797.028,63.965,-45.898,-50.781,-22.949,0.000
1727361797.032,-30.762,-67.871,-37.598,-18.066,0.000
1727361797.036,-119.629,-50.293,-32.715,-30.762,0.000
1727361797.040,-79.590,-30.273,-39.551,-30.273,0.000
1727361797.043,48.828,-20.508,-27.832,6.836,0.000
1727361797.047,65.918,-24.414,-24.414,19.043,0.000
1727361797.051,-21.973,-20.020,-24.902,-12.207,0.000
1727361797.055,-105.957,-7.324,-18.066,-42.480,0.000
1727361797.059,-92.285,-12.695,-20.996,-26.367,0.000
1727361797.063,27.344,-26.367,-26.855,-8.789,0.000
1727361797.067,77.148,-33.203,-32.227,-6.836,0.000
1727361797.071,-13.184,-44.434,-33.203,-12.207,0.000
1727361797.075,-121.094,-62.012,-32.715,-39.551,0.000
1727361797.079,-109.863,-46.875,-37.598,-24.902,0.000
1727361797.083,14.648,-33.203,-34.180,-14.648,0.000
1727361797.086,66.406,-42.480,-27.344,-24.414,0.000
1727361797.090,-14.648,-32.715,-23.438,-17.578,0.000
1727361797.094,-128.418,-16.602,-20.508,-47.852,0.000
1727361797.098,-134.766,-18.555,-20.508,-67.383,0.000
1727361797.102,-0.977,-24.414,-19.043,-40.039,0.000
1727361797.106,66.895,-40.527,-23.438,-24.902,0.000
1727361797.110,-19.531,-49.805,-26.367,-32.715,0.000
1727361797.114,-128.418,-40.039,-31.738,-46.387,0.000
1727361797.118,-130.371,-33.691,-33.203,-50.293,0.000
1727361797.122,-17.578,-29.785,-31.738,-22.949,0.000
1727361797.126,64.941,-29.297,-32.715,-28.809,0.000
1727361797.129,14.160,-33.203,-25.391,-50.781,0.000
1727361797.133,-67.871,-33.203,-20.508,-56.152,0.000
1727361797.137,-93.262,-26.855,-19.531,-57.617,0.000
1727361797.141,-39.551,-21.484,-21.484,-38.086,0.000
1727361797.145,51.758,-24.414,-34.180,-30.273,0.000
1727361797.149,23.926,-46.875,-41.992,-28.320,0.000
1727361797.153,-89.844,-43.945,-37.598,-24.414,0.000
1727361797.157,-125.977,-27.832,-35.645,-39.551,0.000
1727361797.161,-28.809,-34.180,-35.156,-29.297,0.000
1727361797.165,77.637,-32.715,-31.738,4.395,0.000
1727361797.169,66.406,-30.273,-30.762,-2.930,0.000
1727361797.172,-42.480,-33.691,-31.250,-30.273,0.000
1727361797.176,-117.676,-28.320,-24.902,-45.898,0.000
1727361797.180,-51.758,-28.809,-22.949,-32.715,0.000
1727361797.184,71.777,-36.133,-24.414,-17.090,0.000
1727361797.188,67.871,-37.109,-28.809,-10.742,0.000
1727361797.192,-43.945,-37.109,-32.227,-17.090,0.000
1727361797.196,-124.512,-30.762,-35.645,-27.344,0.000
1727361797.200,-55.664,-25.391,-37.109,-10.254,0.000
1727361797.204,99.121,-21.484,-36.621,14.160,0.000
1727361797.208,102.051,-14.160,-30.273,11.719,0.000
1727361797.211,-23.926,-14.648,-21.973,-0.977,0.000
1727361797.215,-111.328,-25.391,-28.809,-23.438,0.000
1727361797.219,-86.914,-40.039,-40.527,-49.316,0.000
1727361797.223,15.137,-40.527,-45.410,-37.109,0.000
1727361797.227,62.988,-30.273,-43.457,-26.367,0.000
1727361797.231,-24.902,-32.227,-36.133,-24.902,0.000
1727361797.235,-127.930,-42.480,-40.039,-39.062,0.000
1727361797.239,-83.984,-46.387,-47.363,-56.641,0.000
1727361797.243,57.129,-54.199,-49.316,-48.828,0.000
1727361797.247,70.801,-62.988,-47.852,-34.668,0.000
1727361797.251,-36.133,-52.734,-53.223,-36.133,0.000
1727361797.254,-127.930,-45.410,-57.129,-51.758,0.000
1727361797.258,-108.398,-63.477,-52.246,-40.039,0.000
1727361797.262,9.766,-65.918,-52.246,-29.297,0.000
1727361797.266,64.453,-52.246,-55.664,-39.551,0.000
1727361797.270,-6.348,-49.316,-60.547,-38.574,0.000
1727361797.274,-119.141,-48.340,-57.129,-53.711,0.000
1727361797.278,-119.141,-40.039,-51.270,-53.223,0.000
1727361797.282,1.953,-39.062,-48.340,-17.578,0.000
1727361797.286,74.219,-41.992,-42.969,1.465,0.000
1727361797.290,8.301,-38.574,-40.039,3.906,0.000
1727361797.294,-104.980,-32.715,-44.434,-8.789,0.000
1727361797.297,-107.910,-29.785,-44.434,-25.879,0.000
1727361797.301,-2.930,-38.574,-41.504,-11.719,0.000
1727361797.305,69.336,-41.504,-46.387,-9.766,0.000
1727361797.309,28.320,-40.527,-54.688,-19.043,0.000
1727361797.313,-50.781,-43.457,-60.547,-25.391,0.000
1727361797.317,-73.242,-52.734,-52.246,-32.227,0.000
1727361797.321,3.906,-41.992,-38.574,-7.324,0.000
1727361797.325,97.168,-6.348,-38.086,15.625,0.000
1727361797.329,64.453,-5.371,-46.875,2.930,0.000
1727361797.333,-50.293,-24.414,-41.992,-12.207,0.000
1727361797.337,-121.094,-31.738,-37.109,-20.020,0.000
1727361797.340,-50.293,-38.086,-43.457,-10.742,0.000
1727361797.344,64.941,-37.109,-45.898,12.207,0.000
1727361797.348,53.711,-28.809,-44.922,26.855,0.000
1727361797.352,-48.828,-29.785,-41.016,-2.441,0.000
1727361797.356,-93.750,-39.062,-43.945,-48.340,0.000
1727361797.360,-20.020,-35.156,-56.641,-42.969,0.000
1727361797.364,57.617,-32.715,-62.500,-26.367,0.000
1727361797.368,34.668,-35.156,-61.523,-37.109,0.000
1727361797.372,-66.895,-33.691,-63.477,-58.105,0.000
1727361797.376,-138.672,-27.832,-58.105,-54.199,0.000
1727361797.379,-76.172,-31.738,-60.059,-42.969,0.000
1727361797.383,47.852,-56.152,-71.777,-39.551,0.000
1727361797.387,45.898,-58.594,-78.125,-38.086,0.000
1727361797.391,-44.922,-47.363,-79.590,-37.598,0.000
1727361797.395,-127.441,-54.199,-83.008,-63.965,0.000
1727361797.399,-106.934,-55.664,-80.078,-77.148,0.000
1727361797.403,42.480,-60.547,-74.707,-47.852,0.000
1727361797.407,84.473,-64.453,-72.754,-34.180,0.000
1727361797.411,-40.039,-51.758,-70.801,-43.457,0.000
1727361797.415,-134.766,-44.922,-68.359,-45.898,0.000
1727361797.419,-103.516,-56.641,-60.059,-33.203,0.000
1727361797.422,22.949,-67.383,-62.500,-25.879,0.000
1727361797.426,68.848,-64.453,-68.848,-16.113,0.000
1727361797.430,-35.645,-47.852,-70.312,-11.719,0.000
1727361797.434,-114.258,-40.527,-70.801,-47.363,0.000
1727361797.438,-100.098,-57.617,-70.312,-64.941,0.000
1727361797.442,4.883,-66.895,-69.336,-45.410,0.000
1727361797.446,81.055,-53.711,-61.523,-17.090,0.000
1727361797.450,15.137,-32.227,-53.223,-7.324,0.000
1727361797.454,-92.773,-29.785,-60.059,-21.973,0.000
1727361797.458,-99.609,-39.062,-61.523,-23.926,0.000
1727361797.462,32.715,-40.039,-63.965,-19.531,0.000
1727361797.465,103.027,-43.945,-78.125,-15.625,0.000
1727361797.469,32.715,-34.668,-70.312,-7.324,0.000
1727361797.473,-73.730,-29.297,-54.199,-13.184,0.000
1727361797.477,-98.145,-31.738,-61.035,-21.484,0.000
1727361797.481,1.465,-28.320,-66.895,-8.301,0.000
1727361797.485,92.285,-23.438,-67.383,-10.742,0.000
1727361797.489,51.270,-21.484,-77.148,-23.438,0.000
1727361797.493,-83.008,-20.020,-69.336,-20.508,0.000
1727361797.497,-128.906,-22.949,-61.523,-27.832,0.000
1727361797.501,-36.133,-41.992,-84.961,-23.926,0.000
1727361797.505,62.012,-47.852,-85.938,-2.441,0.000
1727361797.508,35.156,-39.062,-70.312,-14.648,0.000
1727361797.512,-82.520,-41.992,-67.383,-38.086,0.000
1727361797.516,-139.648,-53.711,-72.754,-31.250,0.000
1727361797.520,-53.223,-52.734,-87.402,-24.414,0.000
1727361797.524,44.922,-44.922,-93.262,-36.621,0.000
1727361797.528,28.809,-45.410,-93.750,-34.668,0.000
1727361797.532,-78.125,-51.758,-96.680,-27.832,0.000
1727361797.536,-156.250,-63.477,-99.121,-57.129,0.000
1727361797.540,-80.078,-64.453,-96.191,-65.918,0.000
1727361797.544,53.223,-54.688,-86.426,-35.156,0.000
1727361797.547,41.504,-61.523,-86.426,-20.020,0.000
1727361797.551,-72.754,-65.918,-91.797,-34.180,0.000
1727361797.555,-129.883,-62.500,-95.703,-62.988,0.000
1727361797.559,-78.613,-56.152,-101.074,-69.336,0.000
1727361797.563,20.996,-48.340,-99.609,-28.320,0.000
1727361797.567,53.711,-47.363,-95.215,-13.184,0.000
1727361797.571,-49.805,-48.828,-99.121,-57.129,0.000
1727361797.575,-166.504,-48.828,-100.586,-77.637,0.000
1727361797.579,-101.562,-47.852,-91.309,-60.547,0.000
1727361797.583,14.160,-55.176,-86.914,-34.668,0.000
1727361797.587,43.457,-48.340,-81.543,-14.648,0.000
1727361797.590,-26.367,-29.785,-79.102,-4.883,0.000
1727361797.594,-112.793,-38.086,-81.055,-25.391,0.000
1727361797.598,-79.590,-49.805,-80.566,-24.414,0.000
1727361797.602,39.551,-44.434,-83.008,3.906,0.000
1727361797.606,88.867,-39.062,-85.449,7.812,0.000
1727361797.610,-2.930,-27.832,-85.938,-4.395,0.000
1727361797.614,-109.863,-25.391,-87.402,-33.691,0.000
1727361797.618,-90.332,-41.992,-85.938,-47.363,0.000
1727361797.622,35.156,-56.641,-81.543,-27.344,0.000
1727361797.626,81.543,-52.734,-78.125,-16.602,0.000
1727361797.630,7.324,-41.016,-73.242,-13.672,0.000
1727361797.633,-103.027,-39.551,-74.219,-16.602,0.000
1727361797.637,-117.188,-41.016,-76.172,-30.762,0.000
1727361797.641,3.418,-35.645,-77.148,-28.320,0.000
1727361797.645,65.918,-34.180,-88.379,-20.508,0.000
1727361797.649,-3.906,-47.852,-93.262,-37.109,0.000
1727361797.653,-108.887,-52.246,-87.891,-62.500,0.000
1727361797.657,-141.602,-50.293,-83.496,-63.477,0.000
1727361797.661,-35.645,-54.199,-82.520,-28.320,0.000
1727361797.665,57.617,-54.688,-91.797,-25.879,0.000
1727361797.669,8.301,-63.477,-96.191,-30.762,0.000
1727361797.673,-94.727,-69.336,-96.680,-48.340,0.000
1727361797.676,-139.160,-73.730,-95.215,-49.805,0.000
1727361797.680,-54.199,-79.590,-99.609,-12.207,0.000
1727361797.684,45.410,-62.988,-105.957,-28.809,0.000
1727361797.688,21.973,-53.223,-98.633,-41.504,0.000
1727361797.692,-95.703,-58.594,-96.680,-28.809,0.000
1727361797.696,-139.160,-56.641,-97.656,-42.480,0.000
1727361797.700,-51.758,-59.082,-103.516,-51.270,0.000
1727361797.704,61.035,-57.129,-106.445,-23.438,0.000
1727361797.708,51.758,-44.434,-102.539,-7.324,0.000
1727361797.712,-62.500,-43.945,-97.656,-20.508,0.000
1727361797.716,-138.184,-52.246,-94.238,-35.645,0.000
1727361797.719,-61.523,-66.406,-99.609,-33.203,0.000
1727361797.723,71.777,-60.059,-100.098,-8.789,0.000
1727361797.727,40.039,-44.434,-90.820,-1.953,0.000
1727361797.731,-64.941,-46.387,-96.680,-26.367,0.000
1727361797.735,-119.629,-45.898,-109.375,-44.434,0.000
1727361797.739,-64.941,-32.715,-104.004,-21.484,0.000
1727361797.743,55.664,-22.949,-95.215,-1.465,0.000
1727361797.747,61.035,-28.320,-84.473,9.766,0.000
1727361797.751,-27.832,-40.039,-83.984,12.695,0.000
1727361797.755,-91.309,-46.875,-87.402,-14.160,0.000
1727361797.758,-55.176,-33.203,-86.914,-28.320,0.000
1727361797.762,48.340,-19.531,-83.496,-17.578,0.000
1727361797.766,76.660,-26.855,-75.684,-5.859,0.000
1727361797.770,-14.160,-37.598,-82.031,-6.348,0.000
1727361797.774,-115.234,-41.016,-88.867,-20.020,0.000
1727361797.778,-89.844,-42.969,-85.449,-22.949,0.000
1727361797.782,43.945,-44.922,-93.262,-12.695,0.000
1727361797.786,100.586,-37.109,-101.562,-3.906,0.000
1727361797.790,13.184,-32.227,-104.004,-0.977,0.000
1727361797.794,-101.074,-44.434,-103.027,-10.742,0.000
1727361797.798,-110.352,-49.316,-99.609,-31.250,0.000
1727361797.801,0.488,-40.039,-91.797,-21.484,0.000
1727361797.805,67.383,-39.551,-75.195,-7.812,0.000
1727361797.809,-12.695,-59.082,-83.984,-23.438,0.000
1727361797.813,-117.188,-78.125,-98.633,-42.480,0.000
1727361797.817,-124.512,-73.730,-105.957,-49.316,0.000
1727361797.821,-15.137,-61.523,-113.770,-32.227,0.000
1727361797.825,50.293,-60.059,-113.281,-22.461,0.000
1727361797.829,-10.742,-58.594,-101.074,-18.555,0.000
1727361797.833,-87.891,-55.664,-89.844,-34.180,0.000
1727361797.837,-121.582,-71.289,-100.586,-61.523,0.000
1727361797.841,-44.434,-74.219,-101.562,-44.434,0.000
1727361797.844,54.688,-57.617,-90.332,-19.043,0.000
1727361797.848,3.906,-42.969,-88.867,-27.344,0.000
1727361797.852,-99.609,-47.852,-88.379,-41.016,0.000
1727361797.856,-116.699,-68.359,-86.914,-33.691,0.000
1727361797.860,-20.996,-65.918,-89.844,-18.555,0.000
1727361797.864,83.496,-56.152,-85.449,-5.371,0.000
1727361797.868,58.105,-44.434,-67.871,6.836,0.000
1727361797.872,-48.828,-19.531,-65.430,2.441,0.000
1727361797.876,-71.289,-5.859,-69.336,-11.719,0.000
1727361797.880,19.531,-8.301,-74.219,-6.348,0.000
1727361797.883,99.609,-16.113,-68.848,4.395,0.000
1727361797.887,62.500,-23.438,-55.664,10.742,0.000
1727361797.891,-57.617,-32.715,-66.406,-4.395,0.000
1727361797.895,-123.535,-44.922,-73.730,-19.531,0.000
1727361797.899,-51.758,-49.805,-70.312,-10.742,0.000
1727361797.903,80.078,-39.062,-66.895,-6.348,0.000
1727361797.907,75.684,-18.555,-54.688,4.395,0.000
1727361797.911,-46.875,-21.484,-53.711,1.953,0.000
1727361797.915,-104.492,-27.832,-57.129,-7.812,0.000
1727361797.919,-30.273,-16.113,-57.129,7.324,0.000
1727361797.923,70.312,-23.926,-66.406,0.000,0.000
1727361797.926,80.566,-53.223,-66.406,-7.812,0.000
1727361797.930,-25.879,-58.105,-64.941,0.000,0.000
1727361797.934,-121.582,-40.039,-65.430,-24.902,0.000
1727361797.938,-83.496,-34.668,-62.500,-26.855,0.000
1727361797.942,37.598,-25.879,-62.500,6.348,0.000
1727361797.946,65.430,-13.184,-67.871,2.930,0.000
1727361797.950,0.488,-20.020,-76.172,-25.879,0.000
1727361797.954,-78.613,-23.926,-69.336,-33.691,0.000
1727361797.958,-97.656,-18.066,-59.082,-20.996,0.000
1727361797.962,15.137,-30.762,-65.430,-4.395,0.000
1727361797.966,67.383,-43.945,-71.777,-6.836,0.000
1727361797.969,-22.949,-46.387,-71.777,-21.484,0.000
1727361797.973,-115.234,-49.805,-68.359,-39.062,0.000
1727361797.977,-124.023,-49.805,-72.754,-47.852,0.000
1727361797.981,-24.902,-51.270,-81.543,-23.438,0.000
1727361797.985,52.734,-62.012,-76.172,0.977,0.000
1727361797.989,-1.953,-67.383,-75.195,-18.555,0.000
1727361797.993,-97.168,-49.316,-77.148,-47.852,0.000
1727361797.997,-106.934,-40.039,-62.500,-43.945,0.000
1727361798.001,3.906,-38.086,-58.594,-21.484,0.000
1727361798.005,74.707,-35.156,-62.012,-15.625,0.000
1727361798.009,-13.184,-44.922,-68.848,-10.254,0.000
1727361798.012,-118.164,-53.711,-78.125,-20.996,0.000
1727361798.016,-122.070,-46.875,-74.219,-31.738,0.000
1727361798.020,-21.973,-37.598,-75.195,-14.648,0.000
1727361798.024,76.660,-55.664,-81.543,-8.789,0.000
1727361798.028,33.691,-73.242,-82.031,-10.742,0.000
1727361798.032,-87.402,-49.805,-72.754,-13.184,0.000
1727361798.036,-118.164,-28.320,-62.012,-29.297,0.000
1727361798.040,-24.902,-34.180,-57.617,-19.531,0.000
1727361798.044,71.777,-38.086,-62.500,9.766,0.000
1727361798.048,48.340,-38.574,-59.082,-4.395,0.000
1727361798.052,-55.176,-32.715,-48.340,-18.555,0.000
1727361798.055,-117.676,-23.926,-48.828,-9.766,0.000
1727361798.059,-33.203,-25.879,-51.758,-3.906,0.000
1727361798.063,87.402,-39.551,-56.152,-7.324,0.000
1727361798.067,58.594,-39.551,-53.223,-11.719,0.000
1727361798.071,-51.758,-35.645,-53.223,-22.949,0.000
1727361798.075,-110.840,-27.344,-51.270,-39.062,0.000
1727361798.079,-42.969,-29.297,-43.945,-24.414,0.000
1727361798.083,64.941,-37.598,-51.758,-9.766,0.000
1727361798.087,53.223,-34.180,-57.617,-14.648,0.000
1727361798.091,-36.133,-30.273,-55.176,-21.484,0.000
1727361798.094,-110.840,-21.973,-51.270,-40.039,0.000
1727361798.098,-79.102,-26.367,-50.781,-31.738,0.000
1727361798.102,42.969,-42.969,-57.129,-5.371,0.000
1727361798.106,61.523,-42.480,-44.922,5.859,0.000
1727361798.110,-46.875,-30.762,-32.715,-14.648,0.000
1727361798.114,-140.137,-37.109,-38.086,-53.223,0.000
1727361798.118,-93.750,-50.293,-36.621,-42.480,0.000
1727361798.122,23.926,-37.109,-42.969,-22.949,0.000
1727361798.126,47.363,-38.086,-49.805,-31.250,0.000
1727361798.130,-33.203,-57.617,-42.480,-20.508,0.000
1727361798.134,-123.535,-62.500,-41.504,-35.156,0.000
1727361798.137,-120.605,-63.965,-44.922,-41.992,0.000
1727361798.141,7.324,-54.688,-53.223,-15.625,0.000
1727361798.145,62.500,-46.387,-50.781,-4.883,0.000
1727361798.149,-38.086,-42.969,-48.828,-9.766,0.000
1727361798.153,-142.090,-51.270,-57.129,-30.762,0.000
1727361798.157,-138.672,-66.406,-60.059,-53.711,0.000
1727361798.161,-3.906,-67.871,-61.035,-41.016,0.000
1727361798.165,75.684,-52.246,-53.711,-12.695,0.000
1727361798.169,-2.930,-43.945,-48.340,-10.254,0.000
1727361798.173,-107.422,-26.367,-47.363,-38.574,0.000
1727361798.177,-99.609,-7.324,-45.410,-45.410,0.000
1727361798.180,19.531,-12.207,-38.086,-10.254,0.000
1727361798.184,87.402,-16.602,-37.598,-2.930,0.000
1727361798.188,13.184,-23.438,-46.875,-28.809,0.000
1727361798.192,-95.703,-18.555,-51.758,-48.828,0.000
1727361798.196,-100.098,-7.324,-45.410,-51.758,0.000
1727361798.200,-7.812,-15.137,-43.945,-29.785,0.000
1727361798.204,66.406,-30.762,-45.898,-6.836,0.000
1727361798.208,39.062,-32.227,-43.457,6.348,0.000
1727361798.212,-60.547,-24.414,-39.551,-18.555,0.000
1727361798.216,-116.699,-25.879,-37.109,-40.039,0.000
1727361798.220,-30.762,-32.227,-35.156,-18.555,0.000
1727361798.223,74.219,-24.902,-33.203,2.441,0.000
1727361798.227,42.969,-17.090,-28.320,-11.719,0.000
1727361798.231,-71.289,-34.668,-22.461,-25.879,0.000
1727361798.235,-134.277,-43.945,-20.508,-29.297,0.000
1727361798.239,-39.551,-41.504,-21.973,-22.461,0.000
1727361798.243,72.266,-47.852,-25.879,-6.836,0.000
1727361798.247,39.062,-54.688,-16.602,2.441,0.000
1727361798.251,-64.941,-47.363,-0.488,5.371,0.000
1727361798.255,-123.047,-25.879,0.977,8.301,0.000
1727361798.259,-57.129,-34.668,-10.254,-1.953,0.000
1727361798.263,71.777,-48.340,-10.742,-6.836,0.000
1727361798.266,55.176,-59.082,-10.254,-9.766,0.000
1727361798.270,-64.941,-73.242,-19.043,-33.203,0.000
1727361798.274,-105.469,-69.824,-19.043,-48.828,0.000
1727361798.278,-64.941,-60.059,-17.578,-24.902,0.000
1727361798.282,42.480,-48.828,-19.531,-19.043,0.000
1727361798.286,79.590,-30.762,-18.555,-24.902,0.000
1727361798.290,-23.438,-28.320,-17.090,-27.832,0.000
1727361798.294,-109.863,-34.180,-16.602,-42.969,0.000
1727361798.298,-75.684,-29.785,-26.855,-53.711,0.000
1727361798.302,51.758,-24.902,-33.691,-23.926,0.000
1727361798.305,93.262,-20.020,-29.297,7.812,0.000
1727361798.309,4.395,-15.625,-22.949,-14.648,0.000
1727361798.313,-93.750,-24.902,-28.320,-53.711,0.000
1727361798.317,-76.660,-28.320,-13.184,-53.223,0.000
1727361798.321,44.434,-20.508,12.695,-18.555,0.000
1727361798.325,90.332,-12.207,18.066,0.000,0.000
1727361798.329,22.949,-4.883,23.438,-0.977,0.000
1727361798.333,-72.266,-16.602,19.531,-7.812,0.000
1727361798.337,-68.848,-19.531,21.484,1.953,0.000
1727361798.341,44.434,0.000,24.902,32.227,0.000
1727361798.345,106.445,16.602,20.508,43.945,0.000
1727361798.348,38.086,16.602,27.832,34.180,0.000
1727361798.352,-75.195,9.766,33.203,14.648,0.000
1727361798.356,-87.891,-11.719,28.809,-4.883,0.000
1727361798.360,37.109,-16.602,28.809,4.883,0.000
1727361798.364,128.906,6.836,31.738,20.508,0.000
1727361798.368,66.406,6.348,31.250,9.766,0.000
1727361798.372,-60.059,-9.277,31.250,-6.348,0.000
1727361798.376,-96.191,-12.207,28.809,-16.602,0.000
1727361798.380,21.973,-10.254,28.809,-0.488,0.000
1727361798.384,121.094,-9.766,26.855,23.438,0.000
1727361798.388,60.547,-10.254,23.438,27.344,0.000
1727361798.391,-65.918,-20.508,28.809,7.812,0.000
1727361798.395,-93.262,-37.598,22.949,-18.066,0.000
1727361798.399,25.879,-20.508,19.043,-2.441,0.000
1727361798.403,103.516,-13.672,18.555,15.137,0.000
1727361798.407,37.109,-24.902,13.184,2.930,0.000
1727361798.411,-69.336,-11.719,19.531,-8.789,0.000
1727361798.415,-126.953,-7.812,20.996,-17.578,0.000
1727361798.419,-41.504,-11.719,13.184,-12.695,0.000
1727361798.423,84.961,-16.602,11.230,0.977,0.000
1727361798.427,52.246,-23.438,17.090,17.578,0.000
1727361798.431,-57.129,-14.160,23.926,18.066,0.000
1727361798.434,-117.188,-18.555,22.461,-3.906,0.000
1727361798.438,-45.410,-39.062,16.602,0.488,0.000
1727361798.442,63.965,-35.156,15.137,8.789,0.000
1727361798.446,52.734,-29.297,7.324,-0.488,0.000
1727361798.450,-30.762,-34.180,-11.719,-11.719,0.000
1727361798.454,-110.840,-37.109,-13.184,-17.090,0.000
1727361798.458,-44.922,-15.625,8.301,-5.371,0.000
1727361798.462,92.773,-2.930,13.184,-5.371,0.000
1727361798.466,88.867,-15.625,8.789,0.488,0.000
1727361798.470,-15.625,-17.090,9.766,1.953,0.000
1727361798.473,-95.703,-17.578,9.766,-12.207,0.000
1727361798.477,-55.664,-20.020,3.418,-1.953,0.000
1727361798.481,61.035,-27.832,-8.301,6.348,0.000
1727361798.485,79.590,-32.715,-3.418,4.395,0.000
1727361798.489,1.465,-23.438,13.672,7.324,0.000
1727361798.493,-78.613,-3.418,9.277,-5.859,0.000
1727361798.497,-60.059,6.836,2.930,-7.812,0.000
1727361798.501,76.172,7.812,7.324,10.254,0.000
1727361798.505,134.277,0.000,17.578,20.996,0.000
1727361798.509,40.039,-7.812,24.902,13.672,0.000
1727361798.513,-73.730,-2.930,19.043,-7.324,0.000
1727361798.516,-70.801,-12.695,13.184,-9.277,0.000
1727361798.520,50.293,-20.508,9.766,2.930,0.000
1727361798.524,106.445,-13.184,10.254,9.766,0.000
1727361798.528,42.480,-3.418,18.066,19.043,0.000
1727361798.532,-58.105,2.441,17.578,0.977,0.000
1727361798.536,-92.773,-19.043,18.555,0.977,0.000
1727361798.540,12.207,-24.414,26.855,31.738,0.000
1727361798.544,94.727,-17.090,30.273,26.367,0.000
1727361798.548,31.250,-20.508,26.367,16.113,0.000
1727361798.552,-79.102,-27.832,19.531,1.953,0.000
1727361798.556,-105.469,-45.898,18.555,-14.160,0.000
1727361798.559,5.371,-56.641,14.648,-9.277,0.000
1727361798.563,90.820,-48.340,10.742,9.277,0.000
1727361798.567,36.621,-27.344,6.348,10.742,0.000
1727361798.571,-60.059,-15.137,4.395,-8.301,0.000
1727361798.575,-85.938,-20.996,10.254,-17.090,0.000
1727361798.579,-12.695,-38.574,15.137,-9.766,0.000
1727361798.583,60.547,-57.129,6.348,4.395,0.000
1727361798.587,27.832,-45.898,4.883,17.090,0.000
1727361798.591,-63.965,-25.879,2.930,-6.836,0.000
1727361798.595,-106.934,-26.367,0.488,-31.250,0.000
1727361798.599,-38.574,-27.832,2.441,-17.578,0.000
1727361798.602,72.266,-27.344,-3.906,8.789,0.000
1727361798.606,62.012,-12.695,-2.930,23.438,0.000
1727361798.610,-36.133,5.371,4.883,8.789,0.000
1727361798.614,-80.566,0.000,6.836,-5.371,0.000
1727361798.618,-5.859,-10.254,7.324,-9.277,0.000
1727361798.622,96.191,-21.973,-5.859,1.953,0.000
1727361798.626,88.379,-14.648,-6.348,26.367,0.000
1727361798.630,-10.254,-0.977,3.906,20.020,0.000
1727361798.634,-83.496,5.859,9.766,-1.953,0.000
1727361798.638,-33.691,5.859,17.090,-4.883,0.000
1727361798.642,101.562,1.465,18.555,16.602,0.000
1727361798.645,142.090,8.789,17.578,29.297,0.000
1727361798.649,33.691,17.578,23.926,25.879,0.000
1727361798.653,-65.430,28.809,32.227,17.578,0.000
1727361798.657,-43.457,38.086,35.156,12.207,0.000
1727361798.661,60.547,32.227,37.598,19.043,0.000
1727361798.665,104.980,16.602,39.062,31.738,0.000
1727361798.669,15.625,6.836,34.180,29.297,0.000
1727361798.673,-87.891,3.906,37.598,2.930,0.000
1727361798.677,-48.828,6.836,44.434,-0.488,0.000
1727361798.681,78.125,-1.465,33.203,11.230,0.000
1727361798.685,112.793,-10.254,20.996,14.160,0.000
1727361798.688,32.227,-8.789,24.902,4.883,0.000
1727361798.692,-71.289,-2.930,21.973,-16.602,0.000
1727361798.696,-82.031,2.441,20.996,-1.465,0.000
1727361798.700,44.434,-1.953,25.391,18.066,0.000
1727361798.704,118.164,-20.508,11.719,-2.930,0.000
1727361798.708,29.297,-31.738,10.742,3.418,0.000
1727361798.712,-102.051,-27.344,15.137,-5.859,0.000
1727361798.716,-111.816,-33.203,9.277,-22.949,0.000
1727361798.720,22.461,-33.691,11.230,7.812,0.000
1727361798.724,92.285,-19.043,18.555,35.156,0.000
1727361798.727,4.883,-19.043,17.578,14.160,0.000
1727361798.731,-105.469,-23.926,18.066,-20.996,0.000
1727361798.735,-122.559,-26.855,9.766,-34.668,0.000
1727361798.739,-16.602,-39.551,1.953,-24.414,0.000
1727361798.743,71.777,-62.500,0.977,-19.531,0.000
1727361798.747,17.578,-67.871,5.371,-19.531,0.000
1727361798.751,-87.891,-61.035,6.836,-27.344,0.000
1727361798.755,-119.141,-67.871,2.441,-30.273,0.000
1727361798.759,-21.973,-74.219,-4.395,-13.672,0.000
1727361798.763,80.566,-51.758,-3.418,-5.859,0.000
1727361798.767,52.734,-24.414,-1.465,-3.906,0.000
1727361798.770,-55.176,-37.598,-18.555,-25.879,0.000
1727361798.774,-120.117,-54.688,-12.207,-41.504,0.000
1727361798.778,-28.320,-41.992,-2.930,-27.832,0.000
1727361798.782,83.008,-46.387,-16.113,-16.113,0.000
1727361798.786,52.734,-48.828,-19.043,-12.207,0.000
1727361798.790,-48.828,-36.133,-14.648,-27.344,0.000
1727361798.794,-114.746,-46.875,-16.113,-47.852,0.000
1727361798.798,-61.035,-48.828,-19.531,-36.621,0.000
1727361798.802,48.340,-39.062,-20.020,-22.949,0.000
1727361798.806,41.504,-34.180,-22.461,-12.207,0.000
1727361798.810,-62.500,-41.016,-18.555,-13.672,0.000
1727361798.813,-136.719,-61.035,-14.160,-42.969,0.000
1727361798.817,-66.895,-58.594,-16.113,-42.969,0.000
1727361798.821,51.758,-41.016,-1.953,-9.277,0.000
1727361798.825,51.270,-40.039,6.348,-13.184,0.000
1727361798.829,-41.504,-53.711,2.930,-27.832,0.000
1727361798.833,-124.023,-45.898,6.348,-24.902,0.000
1727361798.837,-95.703,-39.551,8.301,-26.367,0.000
1727361798.841,30.273,-54.199,8.301,-14.648,0.000
1727361798.845,77.148,-59.082,7.324,-8.301,0.000
1727361798.849,-10.254,-64.453,6.836,-6.348,0.000
1727361798.852,-109.375,-53.711,5.859,-14.160,0.000
1727361798.856,-99.609,-39.062,2.441,-42.969,0.000
1727361798.860,22.949,-34.668,5.859,-36.133,0.000
1727361798.864,82.520,-33.203,4.883,-24.414,0.000
1727361798.868,-6.836,-48.340,2.930,-31.738,0.000
1727361798.872,-122.070,-47.852,1.953,-41.504,0.000
1727361798.876,-115.723,-32.715,2.930,-43.457,0.000
1727361798.880,6.836,-42.969,5.859,-18.066,0.000
1727361798.884,70.801,-54.199,6.348,-3.906,0.000
1727361798.888,-6.836,-50.293,0.977,-25.391,0.000
1727361798.892,-122.559,-44.922,-4.883,-48.828,0.000
1727361798.895,-123.535,-34.180,-0.488,-47.363,0.000
1727361798.899,18.066,-32.227,-0.977,-49.805,0.000
1727361798.903,80.078,-35.156,-3.906,-35.156,0.000
1727361798.907,-17.090,-36.133,-1.465,-20.508,0.000
1727361798.911,-118.652,-43.457,-9.766,-43.457,0.000
1727361798.915,-115.234,-47.363,-17.090,-52.246,0.000
1727361798.919,-11.719,-41.016,-12.695,-27.344,0.000
1727361798.923,72.266,-31.738,-7.324,-17.090,0.000
1727361798.927,31.250,-19.043,-3.906,-15.137,0.000
1727361798.931,-83.008,-3.906,1.465,-19.043,0.000
1727361798.935,-97.656,0.488,5.859,-11.230,0.000
1727361798.938,15.137,-6.836,5.371,4.395,0.000
1727361798.942,105.957,-18.555,3.418,-5.859,0.000
1727361798.946,73.730,-16.602,9.766,-8.789,0.000
1727361798.950,-36.621,-3.418,15.137,-5.371,0.000
1727361798.954,-97.656,-14.160,13.184,-14.160,0.000
1727361798.958,-22.461,-27.344,5.859,-9.766,0.000
1727361798.962,105.469,-17.578,6.348,8.789,0.000
1727361798.966,88.867,-7.324,15.137,14.160,0.000
1727361798.970,-58.594,-18.066,8.789,-10.254,0.000
1727361798.974,-140.625,-35.645,11.230,-29.297,0.000
1727361798.978,-60.059,-44.922,22.461,-12.207,0.000
1727361798.981,78.125,-39.551,30.762,2.930,0.000
1727361798.985,86.914,-29.785,32.227,13.672,0.000
1727361798.989,-25.391,-28.809,33.691,10.742,0.000
1727361798.993,-103.027,-24.902,32.715,-26.367,0.000
1727361798.997,-52.734,-32.715,21.973,-30.273,0.000
1727361799.001,67.871,-40.039,16.602,-0.977,0.000
1727361799.005,75.684,-37.109,11.230,-2.930,0.000
1727361799.009,-40.039,-34.668,4.395,-26.367,0.000
1727361799.013,-116.211,-42.480,5.371,-46.387,0.000
1727361799.017,-80.078,-47.852,13.672,-51.270,0.000
1727361799.021,29.785,-42.969,19.531,-23.926,0.000
1727361799.024,69.336,-44.434,18.066,-11.230,0.000
1727361799.028,-56.641,-45.410,8.301,-43.945,0.000
1727361799.032,-156.738,-49.805,-5.859,-75.684,0.000
1727361799.036,-112.793,-50.293,-4.883,-73.730,0.000
1727361799.040,-0.977,-42.969,-1.953,-44.434,0.000
1727361799.044,45.410,-35.156,-3.906,-24.414,0.000
1727361799.048,-39.551,-29.297,-2.441,-31.250,0.000
1727361799.052,-143.555,-36.621,-4.883,-59.082,0.000
1727361799.056,-127.930,-41.992,-10.742,-64.453,0.000
1727361799.060,-4.395,-35.645,-11.719,-22.949,0.000
1727361799.064,63.965,-22.461,-16.602,-17.090,0.000
1727361799.067,0.000,-14.160,-13.672,-39.551,0.000
1727361799.071,-99.121,-9.277,1.953,-36.133,0.000
1727361799.075,-98.145,-12.695,5.371,-39.062,0.000
1727361799.079,7.324,-18.066,1.953,-24.902,0.000
1727361799.083,82.520,-5.371,8.301,-8.301,0.000
1727361799.087,34.180,6.836,14.648,-10.254,0.000
1727361799.091,-74.707,5.859,14.160,-32.227,0.000
1727361799.095,-98.145,-1.465,18.555,-26.855,0.000
1727361799.099,-1.465,-5.859,11.230,-4.883,0.000
1727361799.103,77.148,-11.719,-1.465,-4.883,0.000
1727361799.106,38.086,-28.320,-0.488,-2.930,0.000
1727361799.110,-60.059,-35.156,11.719,-9.277,0.000
1727361799.114,-100.098,-38.086,16.113,-26.367,0.000
1727361799.118,-8.789,-49.316,18.066,-1.465,0.000
1727361799.122,81.543,-61.523,14.648,7.812,0.000
1727361799.126,48.340,-58.594,3.906,-13.672,0.000
1727361799.130,-55.664,-50.293,5.859,-34.668,0.000
1727361799.134,-137.695,-39.062,21.484,-38.086,0.000
1727361799.138,-67.383,-31.738,25.879,-19.043,0.000
1727361799.142,57.129,-42.480,18.555,-3.906,0.000
1727361799.146,40.039,-60.059,12.695,-4.883,0.000
1727361799.149,-71.777,-60.059,9.277,-32.715,0.000
1727361799.153,-138.184,-46.387,4.395,-64.453,0.000
1727361799.157,-84.473,-42.480,1.953,-50.781,0.000
1727361799.161,47.363,-44.922,4.395,-36.133,0.000
1727361799.165,58.105,-48.340,5.371,-35.156,0.000
1727361799.169,-75.684,-43.945,3.906,-42.969,0.000
1727361799.173,-168.945,-47.852,5.859,-66.406,0.000
1727361799.177,-119.629,-72.754,11.230,-54.199,0.000
1727361799.181,4.883,-66.406,9.277,-23.438,0.000
1727361799.185,28.320,-43.457,7.324,-21.484,0.000
1727361799.189,-58.105,-46.875,1.953,-48.828,0.000
1727361799.192,-140.137,-43.457,-3.906,-75.684,0.000
1727361799.196,-123.047,-44.434,-7.812,-81.543,0.000
1727361799.200,26.367,-48.340,-14.160,-62.012,0.000
1727361799.204,63.477,-38.086,-4.883,-33.691,0.000
1727361799.208,-54.199,-29.297,-2.930,-22.461,0.000
1727361799.212,-135.254,-24.902,-8.301,-44.922,0.000
1727361799.216,-99.121,-22.949,0.000,-47.363,0.000
1727361799.220,28.809,-27.832,7.324,-12.207,0.000
1727361799.224,97.656,-27.832,8.301,-11.230,0.000
1727361799.228,10.254,-21.973,3.906,-33.203,0.000
1727361799.231,-120.605,-23.926,-3.418,-49.316,0.000
1727361799.235,-120.117,-24.902,-12.207,-42.480,0.000
1727361799.239,4.395,-23.438,-13.672,-29.297,0.000
1727361799.243,67.383,-14.160,-2.441,-32.715,0.000
1727361799.247,-6.348,-5.371,5.859,-23.926,0.000
1727361799.251,-99.609,-4.395,8.789,-31.250,0.000
1727361799.255,-106.934,-17.090,4.395,-50.293,0.000
1727361799.259,15.625,-29.297,8.301,-10.742,0.000
1727361799.263,106.934,-26.855,18.066,27.832,0.000
1727361799.267,41.992,-28.809,13.672,20.508,0.000
1727361799.271,-79.590,-23.926,9.277,-6.836,0.000
1727361799.274,-109.375,-3.906,24.902,-17.090,0.000
1727361799.278,-0.977,-2.930,29.785,-3.418,0.000
1727361799.282,89.355,-18.066,17.090,-0.977,0.000
1727361799.286,41.992,-22.461,11.230,-7.324,0.000
1727361799.290,-62.500,-20.020,16.602,-21.973,0.000
1727361799.294,-104.980,-22.461,20.508,-31.738,0.000
1727361799.298,-35.645,-35.156,19.531,-13.672,0.000
1727361799.302,50.781,-42.480,15.625,-6.836,0.000
1727361799.306,11.719,-32.715,9.277,-22.949,0.000
1727361799.310,-83.984,-34.180,6.836,-28.809,0.000
1727361799.314,-148.438,-39.551,4.883,-40.527,0.000
1727361799.317,-78.125,-41.016,-3.906,-42.969,0.000
1727361799.321,47.363,-34.668,-12.207,-30.762,0.000
1727361799.325,34.180,-30.273,-11.230,-32.227,0.000
1727361799.329,-68.848,-44.434,-8.789,-45.898,0.000
1727361799.333,-148.438,-47.363,-12.695,-70.801,0.000
1727361799.337,-83.496,-39.062,-16.113,-67.383,0.000
1727361799.341,34.668,-31.250,-12.695,-41.504,0.000
1727361799.345,18.555,-31.738,-8.789,-30.762,0.000
1727361799.349,-80.078,-35.645,-8.789,-42.969,0.000
1727361799.353,-156.250,-39.551,-15.137,-62.500,0.000
1727361799.357,-97.168,-32.715,-20.508,-59.082,0.000
1727361799.360,35.156,-22.461,-23.438,-38.086,0.000
1727361799.364,48.340,-22.949,-23.438,-28.809,0.000
1727361799.368,-47.852,-24.414,-21.973,-49.316,0.000
1727361799.372,-138.672,-26.367,-20.020,-60.059,0.000
1727361799.376,-99.121,-17.578,-20.996,-44.434,0.000
1727361799.380,35.645,-1.465,-20.508,-29.785,0.000
1727361799.384,74.707,-2.441,-19.531,-22.949,0.000
1727361799.388,-24.902,-2.930,-23.438,-32.227,0.000
1727361799.392,-111.328,-4.883,-18.555,-51.758,0.000
1727361799.396,-95.703,-26.855,-6.348,-49.316,0.000
1727361799.400,13.672,-34.668,-12.207,-39.062,0.000
1727361799.403,55.664,-18.555,-21.484,-33.203,0.000
1727361799.407,-46.387,-10.742,-14.648,-23.438,0.000
1727361799.411,-128.906,-15.137,-6.836,-40.527,0.000
1727361799.415,-98.145,-16.113,3.418,-47.363,0.000
1727361799.419,23.926,-9.277,2.441,-22.461,0.000
1727361799.423,78.613,-13.672,-3.906,-1.465,0.000
1727361799.427,9.277,-35.156,-7.812,-19.043,0.000
1727361799.431,-97.656,-48.340,-21.973,-62.012,0.000
1727361799.435,-105.469,-35.156,-19.531,-65.430,0.000
1727361799.439,-7.812,-31.250,-9.277,-38.086,0.000
1727361799.443,55.664,-31.250,-9.766,-23.438,0.000
1727361799.446,-12.207,-20.508,-9.277,-29.785,0.000
1727361799.450,-125.000,-32.227,-0.977,-49.316,0.000
1727361799.454,-149.414,-49.805,-3.418,-56.152,0.000
1727361799.458,-49.805,-43.457,-13.672,-33.691,0.000
1727361799.462,41.504,-47.852,-12.695,-26.367,0.000
1727361799.466,-12.695,-55.176,-6.348,-36.621,0.000
1727361799.470,-121.094,-37.109,-12.207,-56.152,0.000
1727361799.474,-139.648,-21.484,-15.625,-77.148,0.000
1727361799.478,-46.875,-19.531,-12.207,-51.758,0.000
1727361799.482,42.480,-25.391,-14.648,-42.480,0.000
1727361799.485,9.766,-51.270,-12.207,-62.988,0.000
1727361799.489,-104.004,-47.363,-11.719,-64.453,0.000
1727361799.493,-168.457,-22.461,-16.113,-72.266,0.000
1727361799.497,-82.520,-15.137,-9.766,-42.969,0.000
1727361799.501,37.598,0.000,-20.020,-31.738,0.000
1727361799.505,37.109,2.930,-31.738,-43.457,0.000
1727361799.509,-59.082,18.066,-21.484,-50.781,0.000
1727361799.513,-152.344,9.277,-23.438,-64.941,0.000
1727361799.517,-78.613,-2.441,-29.785,-53.223,0.000
1727361799.521,46.875,40.527,-28.809,-40.527,0.000
1727361799.525,56.152,-10.254,-12.695,-16.113,0.000
1727361799.528,-20.020,-28.809,2.441,-2.441,0.000
1727361799.532,-144.043,40.039,-16.113,-47.363,0.000
1727361799.536,-108.887,5.371,-20.996,-53.711,0.000
1727361799.540,42.969,-45.898,-2.441,-18.066,0.000
1727361799.544,60.547,-88.867,0.000,-5.371,0.000
1727361799.548,-40.527,-157.715,3.906,-14.648,0.000
1727361799.552,-139.648,-129.395,-13.672,-56.152,0.000
1727361799.556,-104.492,-198.242,-21.973,-34.668,0.000
1727361799.560,46.875,-333.984,3.418,15.137,0.000
1727361799.564,104.980,-365.234,14.160,9.766,0.000
1727361799.568,-15.137,-395.508,6.836,-13.672,0.000
1727361799.571,-165.527,-383.789,-16.602,-64.453,0.000
1727361799.575,-110.840,-435.547,-15.137,-47.852,0.000
1727361799.579,37.109,-506.836,-9.277,-13.184,0.000
1727361799.583,65.918,-532.227,-19.043,-19.531,0.000
1727361799.587,-22.949,-668.945,-20.020,-25.879,0.000
1727361799.591,-140.625,-807.617,-29.297,-47.363,0.000
1727361799.595,-142.578,-834.961,-54.199,-72.754,0.000
1727361799.599,-34.180,-883.789,-61.523,-61.035,0.000
1727361799.603,36.621,-977.539,-42.480,-25.391,0.000
1727361799.607,-22.949,-1000.000,-39.551,-31.738,0.000
1727361799.610,-114.258,-998.047,-35.156,-20.996,0.000
1727361799.614,-122.070,-1000.000,-26.367,-10.254,0.000
1727361799.618,-22.949,-1000.000,-37.598,-31.738,0.000
1727361799.622,61.523,-999.512,-42.969,-32.227,0.000
1727361799.626,21.484,-999.512,-34.180,-15.625,0.000
1727361799.630,-76.660,-998.535,-24.414,-29.297,0.000
1727361799.634,-116.699,-958.984,-20.020,-41.016,0.000
1727361799.638,-9.277,-894.043,-15.137,-5.859,0.000
1727361799.642,88.867,-845.215,-17.090,2.930,0.000
1727361799.646,36.621,-756.348,-23.438,-20.020,0.000
1727361799.650,-74.707,-662.598,-23.438,-44.922,0.000
1727361799.653,-109.375,-634.277,-13.184,-52.246,0.000
1727361799.657,-18.555,-597.168,4.883,-35.156,0.000
1727361799.661,87.402,-528.809,14.160,-21.973,0.000
1727361799.665,55.664,-442.871,25.879,-22.461,0.000
1727361799.669,-57.129,-339.844,44.922,-10.742,0.000
1727361799.673,-107.422,-300.293,50.293,-13.672,0.000
1727361799.677,-23.926,-275.879,56.152,-15.137,0.000
1727361799.681,76.660,-244.629,58.105,16.113,0.000
1727361799.685,75.684,-90.820,53.223,15.137,0.000
1727361799.689,-52.734,119.141,49.805,-9.766,0.000
1727361799.693,-134.766,223.145,51.758,-18.555,0.000
1727361799.696,-39.551,313.965,58.105,-2.930,0.000
1727361799.700,66.895,377.441,57.129,12.207,0.000
1727361799.704,47.363,397.461,53.711,0.488,0.000
1727361799.708,-45.898,412.598,51.758,-16.113,0.000
1727361799.712,-114.258,463.379,49.805,-23.926,0.000
1727361799.716,-63.477,510.254,48.828,-15.137,0.000
1727361799.720,59.570,517.090,37.109,-8.789,0.000
1727361799.724,71.289,514.648,34.668,-13.672,0.000
1727361799.728,-40.039,519.043,40.039,-21.973,0.000
1727361799.732,-134.766,542.969,34.668,-45.898,0.000
1727361799.736,-95.215,562.988,26.855,-48.828,0.000
1727361799.739,35.156,549.805,24.902,-29.297,0.000
1727361799.743,71.289,515.625,23.926,-20.020,0.000
1727361799.747,-43.945,485.352,17.578,-9.766,0.000
1727361799.751,-135.254,488.770,9.277,-33.203,0.000
1727361799.755,-88.379,485.352,11.230,-50.781,0.000
1727361799.759,20.020,454.590,21.484,-22.461,0.000
1727361799.763,55.664,440.918,20.020,-12.695,0.000
1727361799.767,-32.715,431.152,9.277,-20.508,0.000
1727361799.771,-145.996,417.969,6.836,-25.879,0.000
1727361799.775,-130.371,402.832,0.000,-27.832,0.000
1727361799.779,-3.906,378.418,-2.930,-27.832,0.000
1727361799.782,56.152,351.074,0.488,-17.578,0.000
1727361799.786,-2.930,347.656,0.977,-16.113,0.000
1727361799.790,-99.609,354.980,-6.348,-50.293,0.000
1727361799.794,-121.582,320.801,-4.883,-54.199,0.000
1727361799.798,4.395,279.297,-1.953,-31.738,0.000
1727361799.802,83.984,263.672,-3.906,-22.461,0.000
1727361799.806,23.438,263.672,-2.441,-18.066,0.000
1727361799.810,-71.289,274.902,-7.324,-40.527,0.000
1727361799.814,-90.820,294.434,-5.859,-34.668,0.000
1727361799.818,-8.301,289.551,-4.883,-8.789,0.000
1727361799.822,61.523,270.020,-9.766,-21.973,0.000
1727361799.825,30.762,257.324,-3.906,-26.855,0.000
1727361799.829,-68.359,245.605,-0.488,-14.648,0.000
1727361799.833,-107.910,241.699,0.977,-27.344,0.000
1727361799.837,-12.695,232.910,6.836,-20.020,0.000
1727361799.841,93.750,221.191,-7.324,-9.277,0.000
1727361799.845,64.453,216.797,-16.602,-28.809,0.000
1727361799.849,-54.688,211.914,-8.301,-47.363,0.000
1727361799.853,-125.977,192.871,-0.977,-55.664,0.000
1727361799.857,-58.105,174.316,4.883,-54.199,0.000
1727361799.861,47.852,174.316,-3.906,-32.715,0.000
1727361799.865,30.762,167.480,-9.766,-28.320,0.000
1727361799.868,-68.359,147.949,-7.324,-44.434,0.000
1727361799.872,-134.277,144.531,-11.230,-44.922,0.000
1727361799.876,-84.473,166.992,-16.113,-38.086,0.000
1727361799.880,30.273,171.875,-14.160,-36.621,0.000
1727361799.884,38.086,175.293,-6.348,-23.438,0.000
1727361799.888,-66.895,157.715,-7.812,-40.039,0.000
1727361799.892,-140.625,122.559,-17.578,-75.684,0.000
1727361799.896,-85.938,119.141,-20.508,-64.941,0.000
1727361799.900,26.367,118.164,-18.555,-38.574,0.000
1727361799.904,45.898,113.281,-15.625,-16.602,0.000
1727361799.907,-40.527,113.281,-9.766,-19.043,0.000
1727361799.911,-134.277,118.164,-11.230,-41.992,0.000
1727361799.915,-86.426,106.445,-11.719,-28.320,0.000
1727361799.919,30.762,91.797,-11.719,-7.812,0.000
1727361799.923,60.547,95.215,-15.625,6.348,0.000
1727361799.927,-3.906,99.609,-12.207,13.184,0.000
1727361799.931,-101.562,93.262,-8.789,-16.113,0.000
1727361799.935,-104.004,91.797,-8.301,-35.645,0.000
1727361799.939,24.902,87.402,-7.812,-15.625,0.000
1727361799.943,92.773,69.824,-5.371,-8.301,0.000
1727361799.947,-5.371,63.965,-2.930,-11.230,0.000
1727361799.950,-120.117,79.102,-3.418,-16.113,0.000
1727361799.954,-100.586,85.449,-4.883,-19.531,0.000
1727361799.958,4.395,73.242,-9.766,-4.883,0.000
1727361799.962,66.406,58.594,-16.602,-1.953,0.000
1727361799.966,17.578,52.246,-12.695,1.465,0.000
1727361799.970,-89.355,47.363,-10.742,-21.973,0.000
1727361799.974,-107.422,48.340,-6.836,-56.641,0.000
1727361799.978,-3.418,57.617,-6.836,-49.316,0.000
1727361799.982,85.938,53.223,-18.555,-43.457,0.000
1727361799.986,-3.418,34.668,-22.461,-38.574,0.000
1727361799.990,-141.113,35.645,-16.602,-34.180,0.000
1727361799.993,-136.230,57.617,-6.348,-46.387,0.000
1727361799.997,-28.809,60.547,-2.441,-37.109,0.000
1727361800.001,59.570,57.617,-12.695,-27.344,0.000
1727361800.005,14.160,61.035,-21.973,-36.621,0.000
1727361800.009,-105.469,60.547,-23.926,-50.781,0.000
1727361800.013,-151.367,51.758,-27.832,-47.363,0.000
1727361800.017,-53.711,39.551,-33.203,-27.344,0.000
1727361800.021,54.688,29.785,-37.109,-23.438,0.000
1727361800.025,25.879,36.133,-30.762,-27.832,0.000
1727361800.029,-90.332,36.621,-25.879,-48.340,0.000
1727361800.032,-146.973,32.227,-22.461,-58.105,0.000
1727361800.036,-66.895,39.551,-21.484,-38.086,0.000
1727361800.040,48.340,43.945,-26.367,-15.137,0.000
1727361800.044,45.898,24.414,-32.227,-18.555,0.000
1727361800.048,-58.105,23.438,-32.227,-38.574,0.000
1727361800.052,-137.695,36.621,-24.902,-46.387,0.000
1727361800.056,-76.172,28.809,-25.391,-40.527,0.000
1727361800.060,61.523,15.137,-27.344,-35.645,0.000
1727361800.064,61.035,9.766,-20.508,-29.297,0.000
1727361800.068,-58.594,12.207,-16.602,-22.949,0.000
1727361800.072,-146.484,5.859,-17.578,-39.551,0.000
1727361800.075,-95.215,5.859,-21.973,-44.434,0.000
1727361800.079,38.574,13.672,-22.949,-27.344,0.000
1727361800.083,67.383,15.137,-32.227,-25.879,0.000
1727361800.087,-32.715,8.301,-31.738,-25.391,0.000
1727361800.091,-130.371,7.324,-21.973,-38.574,0.000
1727361800.095,-104.004,1.465,-24.902,-51.270,0.000
1727361800.099,15.625,2.441,-22.461,-30.273,0.000
1727361800.103,65.430,10.254,-19.531,-12.207,0.000
1727361800.107,-19.531,1.465,-24.902,-32.715,0.000
1727361800.111,-138.672,-6.348,-20.020,-64.941,0.000
1727361800.115,-125.000,-0.977,-8.301,-60.059,0.000
1727361800.118,2.930,1.465,-17.578,-28.809,0.000
1727361800.122,58.105,0.000,-29.785,-14.648,0.000
1727361800.126,-33.203,-8.789,-25.391,-36.621,0.000
1727361800.130,-141.113,-20.508,-20.996,-55.176,0.000
1727361800.134,-126.465,-10.254,-26.855,-59.082,0.000
1727361800.138,-8.301,-5.859,-31.738,-45.898,0.000
1727361800.142,74.219,-9.766,-31.250,-29.297,0.000
1727361800.146,2.441,-6.836,-33.691,-28.809,0.000
1727361800.150,-122.070,-14.648,-32.715,-49.316,0.000
1727361800.154,-128.906,-23.926,-25.879,-56.152,0.000
1727361800.158,-13.672,-43.945,-23.438,-44.922,0.000
1727361800.161,71.289,-50.293,-16.602,-33.691,0.000
1727361800.165,-1.465,-31.738,-7.324,-19.043,0.000
1727361800.169,-131.836,-12.207,-9.766,-17.090,0.000
1727361800.173,-155.762,-20.996,-20.996,-42.480,0.000
1727361800.177,-56.641,-60.547,-27.832,-42.480,0.000
1727361800.181,38.086,-53.711,-28.320,-28.320,0.000
1727361800.185,17.090,-21.973,-27.344,-34.180,0.000
1727361800.189,-83.984,-10.254,-20.996,-40.527,0.000
1727361800.193,-137.695,1.465,-19.531,-53.223,0.000
1727361800.197,-24.414,8.789,-13.672,-38.086,0.000
1727361800.201,88.379,-3.906,-15.137,-16.113,0.000
1727361800.204,49.316,-13.184,-26.367,-21.973,0.000
1727361800.208,-56.641,-0.977,-21.484,-33.203,0.000
1727361800.212,-124.512,3.418,-20.996,-31.738,0.000
1727361800.216,-54.688,2.930,-32.227,-29.297,0.000
1727361800.220,59.570,-2.930,-36.621,-17.578,0.000
1727361800.224,75.195,-10.254,-23.926,-9.277,0.000
1727361800.228,-31.738,-2.441,-7.812,-30.273,0.000
1727361800.232,-116.211,10.254,-11.719,-47.363,0.000
1727361800.236,-60.059,10.742,-18.555,-44.434,0.000
1727361800.240,48.340,0.488,-20.996,-25.391,0.000
1727361800.244,49.805,-10.742,-35.156,-27.344,0.000
1727361800.247,-48.828,-9.766,-39.551,-43.457,0.000
1727361800.251,-132.812,-6.836,-31.250,-55.664,0.000
1727361800.255,-82.520,-19.043,-29.785,-51.270,0.000
1727361800.259,34.668,-40.527,-23.438,-28.320,0.000
1727361800.263,59.082,-40.039,-21.484,-14.648,0.000
1727361800.267,-40.039,-25.391,-31.250,-19.531,0.000
1727361800.271,-141.602,-13.672,-32.227,-41.504,0.000
1727361800.275,-117.188,-8.789,-21.973,-36.621,0.000
1727361800.279,4.883,-9.277,-14.160,-22.949,0.000
1727361800.283,42.480,-9.766,-20.996,-27.344,0.000
1727361800.286,-33.691,-14.648,-30.762,-31.250,0.000
1727361800.290,-109.375,-19.043,-30.273,-48.340,0.000
1727361800.294,-88.867,-20.996,-26.855,-46.387,0.000
1727361800.298,34.668,-28.809,-28.320,-22.461,0.000
1727361800.302,85.938,-27.344,-18.555,-8.789,0.000
1727361800.306,7.812,-11.719,-15.625,-14.648,0.000
1727361800.310,-105.469,-9.277,-32.715,-44.434,0.000
1727361800.314,-107.910,-23.438,-37.109,-50.781,0.000
1727361800.318,10.254,-23.926,-36.133,-32.227,0.000
1727361800.322,77.148,-5.859,-25.879,-20.996,0.000
1727361800.326,4.395,2.441,-26.367,-13.184,0.000
1727361800.329,-93.750,-1.953,-34.668,-22.949,0.000
1727361800.333,-91.309,-17.578,-19.531,-46.875,0.000
1727361800.337,11.230,-25.391,-11.719,-25.391,0.000
1727361800.341,82.520,-8.301,-14.160,0.000,0.000
1727361800.345,21.973,2.930,-22.949,-15.137,0.000
1727361800.349,-83.008,8.789,-29.785,-29.785,0.000
1727361800.353,-115.234,14.160,-32.715,-43.457,0.000
1727361800.357,-30.273,13.672,-29.785,-40.039,0.000
1727361800.361,70.312,-1.953,-22.949,-13.184,0.000
1727361800.365,28.809,-18.555,-26.855,-17.578,0.000
1727361800.369,-76.660,-9.277,-22.461,-45.898,0.000
1727361800.372,-121.582,-3.906,-19.043,-40.527,0.000
1727361800.376,-50.781,-13.672,-22.949,-14.648,0.000
1727361800.380,56.152,-3.418,-27.344,-13.184,0.000
1727361800.384,31.250,-6.836,-32.715,-28.809,0.000
1727361800.388,-70.312,-18.555,-27.832,-38.086,0.000
1727361800.392,-112.793,-10.742,-18.555,-38.086,0.000
1727361800.396,-50.293,-11.230,-23.438,-26.367,0.000
1727361800.400,58.594,-15.625,-34.668,-26.367,0.000
1727361800.404,53.711,-19.531,-26.367,-27.832,0.000
1727361800.408,-66.895,-17.578,-22.461,-28.320,0.000
1727361800.411,-145.508,-24.414,-22.461,-40.039,0.000
1727361800.415,-75.195,-26.855,-23.926,-14.648,0.000
1727361800.419,48.828,-2.930,-29.785,7.324,0.000
1727361800.423,67.871,3.906,-27.344,-12.695,0.000
1727361800.427,-40.039,-12.695,-26.855,-46.875,0.000
1727361800.431,-123.535,-21.973,-21.484,-67.871,0.000
1727361800.435,-78.125,-17.578,-19.043,-49.805,0.000
1727361800.439,28.809,-17.090,-20.996,-14.648,0.000
1727361800.443,43.457,-18.555,-28.809,-12.695,0.000
1727361800.447,-44.434,-14.648,-34.180,-33.203,0.000
1727361800.451,-110.352,-21.973,-29.297,-57.617,0.000
1727361800.454,-83.496,-26.855,-24.902,-47.363,0.000
1727361800.458,20.996,-25.391,-19.531,-5.859,0.000
1727361800.462,56.641,-24.902,-23.438,3.418,0.000
1727361800.466,-36.133,-32.715,-34.180,-17.090,0.000
1727361800.470,-125.977,-37.109,-34.668,-35.156,0.000
1727361800.474,-98.633,-30.273,-36.133,-41.016,0.000
1727361800.478,20.020,-18.066,-33.203,-22.461,0.000
1727361800.482,65.430,-7.812,-28.320,-11.230,0.000
1727361800.486,-12.207,-8.301,-31.250,-22.949,0.000
1727361800.490,-105.957,-6.836,-24.902,-29.297,0.000
1727361800.494,-113.281,-21.973,-19.043,-37.598,0.000
1727361800.497,0.000,-45.410,-18.066,-35.645,0.000
1727361800.501,92.773,-24.902,-16.602,-14.648,0.000
1727361800.505,30.762,-10.254,-17.578,-17.090,0.000
1727361800.509,-87.402,-10.254,-18.066,-36.133,0.000
1727361800.513,-108.887,-8.301,-18.066,-43.945,0.000
1727361800.517,-14.160,-16.113,-17.578,-23.438,0.000
1727361800.521,81.055,-17.090,-23.926,-17.578,0.000
1727361800.525,21.973,-20.020,-30.762,-35.156,0.000
1727361800.529,-114.746,-17.578,-31.250,-51.758,0.000
1727361800.533,-145.508,-6.836,-30.273,-66.895,0.000
1727361800.537,-19.043,-20.020,-27.344,-41.016,0.000
1727361800.540,77.148,-41.016,-30.273,-27.344,0.000
1727361800.544,20.508,-35.645,-28.809,-29.297,0.000
1727361800.548,-73.730,-11.719,-23.438,-32.227,0.000
1727361800.552,-121.094,-12.695,-18.555,-51.270,0.000
1727361800.556,-57.617,-34.180,-19.043,-40.039,0.000
1727361800.560,54.199,-37.598,-27.344,-20.508,0.000
1727361800.564,27.344,-38.574,-37.109,-7.812,0.000
1727361800.568,-79.590,-23.438,-39.062,-14.160,0.000
1727361800.572,-122.559,-12.695,-37.109,-36.621,0.000
1727361800.576,-44.434,-27.344,-34.180,-25.879,0.000
1727361800.580,84.473,-32.227,-27.832,-6.348,0.000
1727361800.583,66.895,-20.020,-23.926,-15.137,0.000
1727361800.587,-70.312,-11.230,-15.625,-22.461,0.000
1727361800.591,-132.812,-15.137,-19.531,-32.715,0.000
1727361800.595,-70.312,-27.344,-37.109,-47.852,0.000
1727361800.599,38.574,-28.809,-41.992,-24.414,0.000
1727361800.603,38.086,-29.297,-32.715,0.000,0.000
1727361800.607,-62.988,-31.738,-29.785,-15.625,0.000
1727361800.611,-120.605,-38.574,-27.344,-31.250,0.000
1727361800.615,-74.707,-51.758,-23.926,-27.832,0.000
1727361800.619,41.992,-37.598,-28.320,-20.996,0.000
1727361800.623,59.570,-21.973,-36.621,-20.508,0.000
1727361800.626,-48.828,-20.996,-39.551,-41.504,0.000
1727361800.630,-140.625,-24.902,-36.621,-62.988,0.000
1727361800.634,-98.145,-33.203,-31.250,-47.852,0.000
1727361800.638,46.387,-39.551,-32.227,-30.762,0.000
1727361800.642,80.566,-38.086,-25.879,-7.812,0.000
1727361800.646,-10.742,-34.180,-19.043,-0.977,0.000
1727361800.650,-99.121,-30.762,-20.996,-34.668,0.000
1727361800.654,-103.027,-39.062,-23.438,-41.992,0.000
1727361800.658,12.695,-50.781,-33.203,-22.461,0.000
1727361800.662,69.824,-39.551,-41.504,-11.719,0.000
1727361800.665,-16.602,-11.719,-32.227,-10.254,0.000
1727361800.669,-112.305,-11.719,-28.809,-25.391,0.000
1727361800.673,-115.723,-35.645,-38.574,-50.781,0.000
1727361800.677,10.742,-41.992,-41.016,-34.180,0.000
