,TP9,AF7,AF8,TP10
0,0.14628754103523856,-0.23339770085835715,-0.505762814061923,-0.14675631110132475
1,0.08863825638248454,-0.640379609407288,-1.2151414978539379,-0.47761382138847774
2,-0.010503844341323898,-1.2550306340674706,-2.2403794540232957,-0.9550815105050758
3,-0.15277768328862107,-2.0919517068446436,-3.5803811270105026,-1.599326802973371
4,-0.35392278454484666,-3.146841105507405,-5.205721967663912,-2.416003750765281
5,-0.6269777667829686,-4.389666762703722,-7.060183845470002,-3.3834127591855463
6,-0.9749366081723205,-5.770821828795747,-9.067961881314194,-4.459565277164453
7,-1.3976746485410116,-7.240739103488013,-11.147769409522226,-5.602142948899093
8,-1.9058866114908237,-8.759172574643891,-13.227754053497842,-6.777692480361297
9,-2.518963654980296,-10.292068088120914,-15.258323395246807,-7.959282465672154
10,-3.2446076125577523,-11.816258749026389,-17.22674378058759,-9.12847756685217
11,-4.076777182411743,-13.302731997502518,-19.107246883395113,-10.277370121483782
12,-5.016001324575785,-14.73607638037084,-20.88642819481514,-11.408370997997517
13,-6.08237867403726,-16.109804683732133,-22.556556038507267,-12.519423644064249
14,-7.279309415626036,-17.418956728150192,-24.103586456169815,-13.594411367595667
15,-8.568575825848736,-18.66050775974103,-25.508192046221204,-14.603986959092193
16,-9.89396928399464,-19.836898832518138,-26.754156643298774,-15.525975831198743
17,-11.22624748768471,-20.955872039922493,-27.833202456022555,-16.377381107396328
18,-12.575977192168377,-22.02561444319555,-28.748152908046272,-17.200130049438638
19,-13.957919791084224,-23.048988166966385,-29.511272893253526,-18.014263311705886
20,-15.366240867351177,-24.020959325250047,-30.13720737782577,-18.804885938786764
21,-16.773292925392333,-24.934988294374502,-30.637115445511824,-19.551068047383126
22,-18.143590305407827,-25.792990259295443,-31.017427267360546,-20.250435816614896
23,-19.447930489924133,-26.600159082846716,-31.283516718776117,-20.90752965367601
24,-20.664259359987952,-27.346269160468047,-31.435234849012875,-21.511609485746305
25,-21.764333872728763,-27.999842125302056,-31.45915990325295,-22.034840563797484
26,-22.696038908008532,-28.530036147675943,-31.336830758839817,-22.45036984035872
27,-23.407719625824978,-28.927097110871998,-31.056944501862933,-22.747404045529123
28,-23.882088197690187,-29.193765854389056,-30.61604529493268,-22.921646930997486
29,-24.128373326910786,-29.3266903168684,-30.011988623457263,-22.949987654625318
30,-24.153953733010898,-29.3125391728706,-29.248522221216398,-22.785055952646225
31,-23.950421328036594,-29.138385401862585,-28.35043506081337,-22.389976189754183
32,-23.518198290114093,-28.798803690930036,-27.363201301834188,-21.774268161994765
33,-22.89217428246278,-28.29512235140349,-26.338133419638066,-20.980476285717216
34,-22.133414354902957,-27.635024831494178,-25.31990471047928,-20.039363231761016
35,-21.294066873061873,-26.833151387169064,-24.33603290878306,-18.959357237539997
36,-20.39100523941116,-25.910427598153138,-23.392605637108424,-17.76309182644562
37,-19.421428440382503,-24.891517817344,-22.482224935852646,-16.508148887164847
38,-18.38552797301377,-23.801785116151027,-21.59386411450925,-15.258874749082167
39,-17.293423521078083,-22.659546287008162,-20.71460615810191,-14.046149329264818
40,-16.152957181219985,-21.472266808375796,-19.826151254733926,-12.8679268339989
41,-14.95361361152215,-20.24902132089285,-18.913230961407415,-11.719285018665708
42,-13.685990855119316,-19.011170935707923,-17.982295077081226,-10.61030110923516
43,-12.380687311816281,-17.78393050322063,-17.061750119258424,-9.567852194202569
44,-11.11284569212867,-16.57847049597692,-16.18581248413529,-8.623552541664298
45,-9.952746199384137,-15.393633090043755,-15.385870880006985,-7.805260692243857
46,-8.925008079937726,-14.234194887124815,-14.686873986139606,-7.144940480098469
47,-8.0304757666236,-13.114719093810168,-14.103583749677195,-6.6781147416853
48,-7.286601528480807,-12.05027549073853,-13.63950443411109,-6.425552774444154
49,-6.729545038821833,-11.050200586570055,-13.286242112893552,-6.368330541321024
50,-6.377403776518102,-10.12088056433442,-13.025200929407266,-6.445538023048364
51,-6.2111954993208105,-9.268253449017362,-12.832927045315213,-6.586248053515603
52,-6.1974747376097525,-8.49376491972628,-12.687124456521246,-6.736362644338481
53,-6.316968350195915,-7.79275692248399,-12.569076358052628,-6.862407181390146
54,-6.567987617434443,-7.1572617997913985,-12.458559810589872,-6.9438683428695125
55,-6.942433241711297,-6.578165258774186,-12.32844819587774,-6.973100048852228
56,-7.40915386023639,-6.047735593164416,-12.148521923539109,-6.96171203922524
57,-7.9257692282323875,-5.562332990389517,-11.896802277395924,-6.938694585749072
58,-8.467658723257943,-5.118196783585341,-11.567773772229376,-6.945980069410618
59,-9.033750674922661,-4.704450774088761,-11.163769671467422,-7.022389183289705
60,-9.613293280965648,-4.306996410024858,-10.68434419367236,-7.175663448471659
61,-10.162003428535536,-3.9185715695990444,-10.129979259334545,-7.3768238751120965
62,-10.620532231670468,-3.5387431440495694,-9.506548645670657,-7.584787109630673
63,-10.950421402522451,-3.165469071995304,-8.825662440778475,-7.769583912861046
64,-11.136202138869963,-2.7927247197474565,-8.10383351025228,-7.914874462897126
65,-11.157837089305499,-2.415393866680415,-7.360144493603415,-8.0108714024648
66,-10.988354273213384,-2.030226064882064,-6.61343159285327,-8.047014585616676
67,-10.613582227727475,-1.636150143490782,-5.885692859764337,-8.023876152628604
68,-10.046441473961995,-1.240555875878271,-5.208450544513234,-7.972530779430304
69,-9.329930452657234,-0.8610630561262368,-4.615298403717413,-7.9332913135709555
70,-8.53403680851574,-0.5166258277207967,-4.130077815333789,-7.918335162355565
71,-7.734812021933352,-0.2148611242831745,-3.7631492371706923,-7.907296041932956
72,-6.977358959126304,0.05165224018458689,-3.509520928697125,-7.867965931459278
73,-6.279184922699693,0.29720963668679823,-3.3495685744161308,-7.774578791525461
74,-5.657790235006862,0.5355321608683122,-3.25148818773361,-7.608412368666149
75,-5.130700690280388,0.7772866354810091,-3.1739182147446696,-7.340393576344887
76,-4.708678488384005,1.029476252525305,-3.0757646829754,-6.929621207811949
77,-4.401579205070216,1.2926005022721418,-2.933410936436275,-6.367524914338197
78,-4.224332951890653,1.5545170355264104,-2.7479284415188676,-5.713315905474137
79,-4.187694784824672,1.7924292673987339,-2.538426808152418,-5.065613578223909
80,-4.278741417490404,1.9819827443959708,-2.3331998142241877,-4.511377084210137
81,-4.454910734514302,2.102944438951406,-2.1602299906568176,-4.105183970115913
82,-4.6518682433828475,2.1444070513391242,-2.0402361280895827,-3.878724327609071
83,-4.79473265869739,2.1080958412413824,-1.983120979966395,-3.8498887249903637
84,-4.812108683255216,2.0025792746062425,-1.98497434686245,-4.0143684710497425
85,-4.642236955460438,1.8365443313906111,-2.0245818766125265,-4.326991268056734
86,-4.232768225980438,1.62147368074017,-2.0682982042959663,-4.704768425082607
87,-3.5466390900412383,1.3773019477081243,-2.0857801148687347,-5.068913273005245
88,-2.5722236105828236,1.1283621981473573,-2.0584904114728473,-5.374335991864689
89,-1.34716771626348,0.8937296851012053,-1.9803060262427195,-5.601809970036693
90,0.03554869315385223,0.6858091507782955,-1.854188266084105,-5.7450397601896155
91,1.483766803331367,0.5157261711866721,-1.6849215891367157,-5.7992068030414154
92,2.954214262757669,0.39663960753052235,-1.4775852959425846,-5.75003236038396
93,4.439286048389412,0.3438093857996506,-1.2392970001353818,-5.586202359344781
94,5.934078854181904,0.3745118469106048,-0.9744214185936764,-5.317367480950685
95,7.411443323250659,0.5038597461377511,-0.6760411498839289,-4.9521151914864765
96,8.830182221808343,0.733223168628586,-0.3283365557242383,-4.482306918833096
97,10.16591516880088,1.041742325781865,0.07872646764647645,-3.9072868095279105
98,11.418518571296957,1.3925190997144583,0.5382555137864705,-3.2434615933371043
99,12.593811827986164,1.748903264827528,1.0282156020292077,-2.5144928559216395
100,13.68171118014276,2.0886815051043293,1.5188087322218897,-1.740376315012913
101,14.653161787741098,2.4070970190339933,1.9794047941532371,-0.9329702749993434
102,15.474239331572129,2.7080912254326774,2.386983049223054,-0.10022784609358976
103,16.12139471429027,2.9899924395162145,2.727665196596313,0.7439045943297418
104,16.57955603494001,3.238132044084702,2.9915549709845926,1.569321916087258
105,16.824526044370142,3.4360884506029246,3.1735935263293964,2.345725613538394
106,16.830747270410892,3.579548295969535,3.2808011611687715,3.0663741429277387
107,16.604010275348337,3.673199473161627,3.3372925093288823,3.7519839812216933
108,16.186558352324553,3.71903545287552,3.377580510530276,4.425547101195871
109,15.621295433301235,3.709755152209209,3.434078041181514,5.076700506913269
110,14.933946508767814,3.6329318210665345,3.5331295532893003,5.675230799431947
111,14.155057151729348,3.4809333939556173,3.6956896510618398,6.224584447358081
112,13.339384569070724,3.2569334573975675,3.933078756097617,6.777877121054127
113,12.558086677977537,2.9770983001964524,4.244249724465569,7.390050634077615
114,11.864755547009471,2.6638259791673415,4.6194250165557476,8.073277554291106
115,11.27481121127843,2.32981478366165,5.0444655307429125,8.807171023086983
116,10.770314550963391,1.976061965992337,5.502920504496219,9.567429577773796
117,10.318935464918829,1.609563446937814,5.977161828961028,10.333521534404852
118,9.954917478544639,1.2491758336524117,6.436846149820572,11.096796225447083
119,9.560443228202775,0.876739815289823,6.8705541667979615,11.769873346063601
120,9.058982600644976,0.49693049939002554,7.26332053142921,12.293310386222856
121,8.418983308751683,0.1223817419918425,7.607899490498388,12.648915285403774
122,7.658484199578686,-0.23634421052545027,7.906318020519806,12.850723724520059
123,6.830593688965393,-0.5717779691315424,8.161183255786558,12.916934564966189
124,5.9928640814955445,-0.8759519701578722,8.370818859428226,12.859993429620138
125,5.195595491997804,-1.1401320900296064,8.533012686186904,12.702645686554664
126,4.488707480647549,-1.356008427682927,8.652009300244567,12.49708695449112
127,3.9257928417899146,-1.5173444987142024,8.736669120688713,12.309380820454829
128,0.06402354199414628,-0.0821342744890522,-0.17178424800563524,-0.058583817445671565
129,-0.10991319911444358,-0.38061325025132786,-0.49850470987948986,-0.22633668163723844
130,-0.3929154625548693,-0.8445910709869062,-1.0229652853796845,-0.5108411284814514
131,-0.8168264821358984,-1.4967005392761732,-1.779411699512416,-0.945485118175097
132,-1.416303312190738,-2.3453963390694716,-2.781878717597152,-1.5450296426514374
133,-2.1982911784110075,-3.3761729023410894,-4.0204460626718115,-2.306496640050664
134,-3.1375144467008047,-4.5528313287424655,-5.465209926563468,-3.2166594873995766
135,-4.1939176012174055,-5.824467463570729,-7.072028809688833,-4.261669222267767
136,-5.327679405913075,-7.131775693754982,-8.787022910748743,-5.425026439938822
137,-6.503109661670124,-8.416321831056807,-10.55063445804685,-6.676556849918542
138,-7.6832707098272595,-9.638055438208614,-12.314400269036698,-7.976869191255062
139,-8.837798059350193,-10.781696225850133,-14.035402579194756,-9.29669301230253
140,-9.968489576950425,-11.852779255958996,-15.685610999836666,-10.62915144386362
141,-11.110169876198778,-12.86353367645927,-17.241831705804557,-11.967238868848613
142,-12.28450935780561,-13.82275311814768,-18.68016434058369,-13.283118422118196
143,-13.46791361657476,-14.72555004563057,-19.979714934359254,-14.538355386080088
144,-14.615901658788763,-15.559629637023992,-21.130836567551334,-15.701104682587914
145,-15.709647490255193,-16.324727687735972,-22.135752098229627,-16.751288829327123
146,-16.760103960349248,-17.030766671190637,-22.99877097021023,-17.66646263332125
147,-17.762454765372944,-17.676673553762445,-23.718071804504536,-18.414217900739384
148,-18.677229519648485,-18.247967380400958,-24.287749878522867,-18.965723987082942
149,-19.449563614394982,-18.733210890820054,-24.705014589086428,-19.30791219944897
150,-20.038442667463144,-19.1300131789568,-24.972479635233285,-19.45192278272671
151,-20.435781285631357,-19.441002011967022,-25.094632691425982,-19.427682541204714
152,-20.6487539626385,-19.67009301833438,-25.07907377793884,-19.263220309336337
153,-20.6821657608605,-19.822480583687938,-24.943078323674797,-18.97486420582742
154,-20.54496110695817,-19.907504426240404,-24.714278849126895,-18.584810049398264
155,-20.2626104801545,-19.936458989593373,-24.422003641550504,-18.13825892553029
156,-19.874648937095575,-19.920181739156607,-24.085547215376995,-17.6845296232664
157,-19.412127590624127,-19.873731334989444,-23.714005921912182,-17.24586787407719
158,-18.88892590348186,-19.818376001606097,-23.31631720897353,-16.80893019192611
159,-18.314416797342588,-19.779639577036946,-22.902199755290447,-16.35970937596051
160,-17.712670278405035,-19.78914285514179,-22.474613028711158,-15.91982108113002
161,-17.128841814366517,-19.874615832674124,-22.026471383467058,-15.529700039021025
162,-16.61525066371845,-20.035921451980514,-21.545865139302762,-15.210454266092572
163,-16.20891371858445,-20.23909663755767,-21.02509158415687,-14.948643109526826
164,-15.91427694446604,-20.434819986267623,-20.4648474387548,-14.719163688156618
165,-15.718736042811074,-20.57860072952718,-19.874451942092296,-14.511047418425711
166,-15.623876973311553,-20.63736404034696,-19.269986957238537,-14.31835778290571
167,-15.651627784568337,-20.587004749291204,-18.671283741796262,-14.114838538200809
168,-15.812540012479376,-20.415392173786294,-18.100395180332733,-13.852761761470513
169,-16.077289326759892,-20.126285222135987,-17.57922121191998,-13.500706228656037
170,-16.39586275723768,-19.74151972614969,-17.124931329619784,-13.073504239606612
171,-16.727261638004833,-19.302464342413987,-16.74690080686014,-12.613332443613633
172,-17.05267218767722,-18.857326237370565,-16.447241268354887,-12.15099484163095
173,-17.362608489962255,-18.443185041606917,-16.2195022620988,-11.69884147677431
174,-17.627176787760998,-18.0772658679802,-16.05008385101969,-11.279127340354481
175,-17.805333038033304,-17.758393738374515,-15.927362007285565,-10.940705414526091
176,-17.876776604019895,-17.474413464923437,-15.840933125632091,-10.733306677524451
177,-17.84909866869612,-17.20519615354519,-15.77142949653733,-10.661639929382316
178,-17.73393491231884,-16.926871500030725,-15.68864681969277,-10.681081673462083
179,-17.52062481381353,-16.62276009107239,-15.56103137474434,-10.746545327916278
180,-17.19473487125875,-16.28782510127574,-15.371358439769502,-10.848563369764529
181,-16.782711980256693,-15.923028605038278,-15.119567771754648,-11.000437645536044
182,-16.355521993438643,-15.52568135990343,-14.808755639944064,-11.207991227932162
183,-15.978693800576998,-15.084444930010626,-14.432898865256945,-11.46422372912366
184,-15.669506996598184,-14.591999081785087,-13.980247055239134,-11.76382761500348
185,-15.419034003226194,-14.0582968050138,-13.447487178920278,-12.111773765194144
186,-15.243014737601332,-13.505315352585775,-12.845369428144792,-12.51561317947615
187,-15.17650701989135,-12.955041604408692,-12.194080022823227,-12.960593600868558
188,-15.222727148481054,-12.416666594704855,-11.514249277399902,-13.396513130680965
189,-15.33114024914699,-11.88848856375327,-10.816596075126578,-13.75231933111406
190,-15.42467552075602,-11.376799984649178,-10.10229093525067,-13.956355217513767
191,-15.443336828991164,-10.898148621392767,-9.372812143808215,-13.951185989159635
192,-15.35351729252587,-10.468139202296635,-8.62997312450943,-13.696871624345683
193,-15.12018449433453,-10.092204964127202,-7.870623378585642,-13.168285427233684
194,-14.70130128253614,-9.755466670210904,-7.092699111790189,-12.359733523174754
195,-14.068459247818632,-9.42535637903877,-6.300089304469477,-11.295302066612074
196,-13.228572267845708,-9.06698323581424,-5.499871639145805,-10.030929166090061
197,-12.22896032903541,-8.653858340250444,-4.699851479796542,-8.6397634794271
198,-11.127399882687566,-8.170094157632162,-3.9112676734641023,-7.197143111457334
199,-9.970433866756226,-7.610450173152923,-3.159199638652818,-5.7715047663987065
200,-8.804701112083924,-6.981527116566892,-2.483293800744729,-4.42261597836434
201,-7.6916409588974926,-6.295976089187339,-1.922377882103671,-3.207863927223077
202,-6.700442218502456,-5.561611767903595,-1.499454035812228,-2.1761450204257895
203,-5.882330509633408,-4.784593278826773,-1.2216188468841225,-1.3516992421382292
204,-5.260626143857878,-3.978743350926564,-1.0912068839044395,-0.7312201305010624
205,-4.836431107885831,-3.165748160712482,-1.1135288365880298,-0.3145102803316315
206,-4.600039420861367,-2.3707605703304253,-1.299324850706043,-0.1415516788310231
207,-4.544119426584477,-1.611912782528743,-1.6566931792666066,-0.2699639849005667
208,-4.660178806778496,-0.8938084395141174,-2.1760053004514543,-0.7183612104502262
209,-4.924453051203419,-0.21303109836668077,-2.8287480395036355,-1.4481434192500857
210,-5.288097282764906,0.4352540333116559,-3.581197512299227,-2.395041659024245
211,-5.690065725977105,1.0510056064663493,-4.401366344874381,-3.507250029710369
212,-6.088740871840415,1.6310297352029148,-5.253238601920183,-4.743594215554205
213,-6.478237576818637,2.1814076915162497,-6.093391165934763,-6.0476793498577575
214,-6.864018090016815,2.719251146383102,-6.878563369142226,-7.340264256265833
215,-7.231559504613031,3.260467826406258,-7.576880280368987,-8.544507409118403
216,-7.553460132728506,3.808256676973598,-8.170580633748234,-9.620608676741124
217,-7.810973744965742,4.350107731266187,-8.651800416313433,-10.557725444121452
218,-7.998559782112975,4.861984183711967,-9.016738133422976,-11.331110593536163
219,-8.10516059741657,5.316561179101617,-9.25882854421886,-11.889856248675594
220,-8.091457471853813,5.693843805433402,-9.369915841172563,-12.185242194891556
221,-7.901359352029573,5.984616552774875,-9.348049884909393,-12.194065902302077
222,-7.500100968483652,6.184996221004512,-9.197133457435418,-11.90944846519243
223,-6.888848488888902,6.301797031626188,-8.91960087134765,-11.315052947030352
224,-6.069441585753922,6.362963268208991,-8.515065921644483,-10.391234986792757
225,-5.011624327877682,6.408328165453861,-7.985773917696641,-9.15930204524787
226,-3.674691561409663,6.473461221134074,-7.341083219126172,-7.693362341401879
227,-2.0484757916835536,6.583941154359635,-6.599009770761679,-6.084129873000945
228,-0.1711245204510028,6.756275604365514,-5.78222633682831,-4.397315903580928
229,1.9049293032767263,6.997101599468634,-4.912622659026267,-2.658953258036068
230,4.162454722466011,7.298050158291298,-4.010963749797857,-0.875466989050544
231,6.598728977804863,7.635813964329207,-3.094926324407338,0.9455684210775639
232,9.165040454431656,7.980180158755692,-2.1748962421934843,2.7889222016651725
233,11.757554298906824,8.304382260810655,-1.2560678009190709,4.642315849509607
234,14.264897751958603,8.592568872238372,-0.34475827144805254,6.499377482217427
235,16.60910510310477,8.839884306806454,0.547586515995215,8.33484681500158
236,18.73982838631939,9.047724601460496,1.4017097485578789,10.091947064345328
237,20.60573102167816,9.222181492426975,2.1936886456627627,11.694865826243314
238,22.148207296679224,9.375087935557692,2.905263768048283,13.071174830868902
239,23.33040105116089,9.525406916894298,3.5269275310877353,14.16946515257845
240,24.160623102312364,9.698093557429917,4.054687436638597,14.96804190178899
241,24.67672640849592,9.906104407335247,4.487173071858428,15.469346616441753
242,24.906294245576834,10.134676392188819,4.820155060094726,15.682949752172938
243,24.853716762129878,10.34983521134142,5.048603945084487,15.625996528190086
244,24.53327647961378,10.509906543541963,5.178062662722348,15.330828788366107
245,23.98741154453151,10.571733428892617,5.228970827356727,14.844000050373939
246,23.33091766669212,10.533237553314487,5.23852375283548,14.248160761756967
247,22.475505070020176,10.303418305811917,5.205203770208633,13.47138701322863
248,21.385175047391098,9.854859935220052,5.134826553333921,12.506214808709908
249,20.095428898452912,9.208363161268506,5.035340111281241,11.395856901546493
250,18.698120039619997,8.416952641331024,4.913996927143269,10.210141652361855
251,17.29722349215908,7.551674867826324,4.7786334679932265,9.019939658882281
252,15.975952291094412,6.689848496638529,4.638244812018059,7.888365412036155
253,14.793982381205362,5.905850662479429,4.503091287239541,6.876867280245275
254,13.805204253408013,5.260504406336257,4.384340079176439,6.044163027496308
255,13.059159681082372,4.789759362110554,4.291529969601099,5.432606824902407
256,-0.0019598962452821445,-0.5459142784064674,-0.5119292571702488,-0.1481100743633995
257,-0.3335591277091428,-1.2014793070081833,-1.1679660160002319,-0.557025520509153
258,-0.872169693495704,-2.125114268118808,-2.126647653055424,-1.220957434060561
259,-1.6512727540062366,-3.3248174460093978,-3.4038619968389803,-2.1706680299011083
260,-2.689801090980576,-4.777857475113346,-4.9774455117795045,-3.3839435743659956
261,-3.9640771880419816,-6.430647168363587,-6.786132566368456,-4.79381042986446
262,-5.4060616229306,-8.213271163891157,-8.738796670491762,-6.309127378167654
263,-6.9283502087914925,-10.049483001020732,-10.728526197976,-7.832161003354793
264,-8.447926536794139,-11.862465215822652,-12.65001668048901,-9.267554693536672
265,-9.889157376935945,-13.588759956567605,-14.422051036586367,-10.525492594581177
266,-11.175709985545314,-15.203404827037375,-16.01480836296027,-11.545947818205033
267,-12.240326418277713,-16.668826363337494,-17.399009158399704,-12.3165525007143
268,-13.04217985112419,-17.95172736192827,-18.56278951611372,-12.864780225206987
269,-13.572450278578575,-19.013173030873105,-19.508730300349047,-13.217793892968588
270,-13.837311692560993,-19.811213805260955,-20.25111532009024,-13.390973410811439
271,-13.835917266599974,-20.319375139837305,-20.815486529035113,-13.412611878747215
272,-13.571823434482004,-20.540313187279708,-21.23832985402748,-13.326462551561379
273,-13.08111641406184,-20.500866453347236,-21.557537925184835,-13.16681556891791
274,-12.439422560807857,-20.233111151538818,-21.794163580546556,-12.937549062227152
275,-11.72526307290063,-19.76530955583229,-21.950737096188025,-12.617179310138908
276,-10.975805726890364,-19.130188831911294,-22.02822910052624,-12.2006894695363
277,-10.20366012602657,-18.37500586482433,-22.03328867879226,-11.7195570792579
278,-9.441230464348317,-17.55631366674512,-21.97386089510129,-11.221350057436815
279,-8.743295684748293,-16.724404832786494,-21.854043022020235,-10.745273831636103
280,-8.153914839717112,-15.917230944205828,-21.671044054084632,-10.311268729802372
281,-7.6866230314193205,-15.163865719561908,-21.415763019609475,-9.92787270801617
282,-7.338731359636319,-14.48717882514117,-21.07877520324438,-9.60945976719189
283,-7.1203565866757375,-13.905557422301252,-20.658262193755863,-9.383908943379279
284,-7.063198618839465,-13.43672931121258,-20.16494147146263,-9.273508449125288
285,-7.193466237128747,-13.099219180042345,-19.61978740924085,-9.284777042218474
286,-7.515038193836025,-12.906714142709058,-19.045457497299818,-9.420895285973627
287,-8.02171165611291,-12.866244682224556,-18.465466099191257,-9.690166867320492
288,-8.713271804771216,-12.98278125908767,-17.91018305569343,-10.106831839988033
289,-9.591546781428452,-13.25613790072833,-17.412658350788078,-10.67604176743949
290,-10.635721825479568,-13.674103661930891,-16.997363281584008,-11.378203644909473
291,-11.793840751516894,-14.21436844044048,-16.676314095752033,-12.170259140991714
292,-12.998908032006469,-14.848181100317294,-16.451407699175608,-12.998793046229084
293,-14.198915113192134,-15.538976894727629,-16.316212716317665,-13.810204066925799
294,-15.363324096676891,-16.245378632797067,-16.256358280388746,-14.548026832248663
295,-16.453064297995425,-16.929177568870557,-16.251432334266184,-15.15993075703672
296,-17.415380636234687,-17.560838379354355,-16.279894001751106,-15.615541595389754
297,-18.205312584763536,-18.121516473942922,-16.32645880305572,-15.919090301497096
298,-18.803652124613464,-18.6052065934509,-16.3890059676069,-16.11209830531514
299,-19.22510170751661,-19.018102155560342,-16.474381565229287,-16.246708458251117
300,-19.505853429939307,-19.368229825645557,-16.585269477472952,-16.348617737421854
301,-19.676449287823743,-19.654103351113104,-16.713680986996195,-16.412146228476878
302,-19.739387545260406,-19.868294764437348,-16.8424567772004,-16.42537433044316
303,-19.68271419494117,-20.009229851291572,-16.94989787721402,-16.389464086641567
304,-19.507756631522426,-20.078648407694075,-17.011447239118297,-16.31194355533017
305,-19.233478700121314,-20.068413475072223,-16.99533777486428,-16.187325856573732
306,-18.875627132014937,-19.96079155009787,-16.86613418419208,-15.989756437934933
307,-18.420675610386052,-19.741371496663646,-16.59790928591289,-15.693435161631543
308,-17.83215660832195,-19.403056699298556,-16.178840919017627,-15.293198059088995
309,-17.075424523629437,-18.940500403339662,-15.607035829999205,-14.796647564761733
310,-16.137253843993335,-18.347493580252756,-14.891185424434838,-14.210237513379322
311,-15.02151075298367,-17.619646229083294,-14.047439763971406,-13.534404364397696
312,-13.730237419081872,-16.758231049747064,-13.108483658921061,-12.761369789622167
313,-12.278439883058876,-15.771157377730086,-12.160870089483213,-11.883516736920917
314,-10.717656772938868,-14.669502607442938,-11.307123811387918,-10.908856043192669
315,-9.131666976613,-13.47264687522555,-10.55774193948934,-9.86160402386165
316,-7.622080285911668,-12.227568458780697,-9.827856905153439,-8.778111992857415
317,-6.287779724722649,-10.997350782220872,-9.024916058258372,-7.720733951250889
318,-5.206339232273942,-9.823482267121923,-8.101113460005148,-6.780330912919141
319,-4.4604335303202625,-8.713164915099458,-7.045756709350057,-6.060850939217852
320,-4.162223803446198,-7.6354602725087535,-5.847839260442591,-5.66348742556539
321,-4.444021824832489,-6.539571604783059,-4.496863056986104,-5.705118351812015
322,-5.366235352967106,-5.4203743854367765,-3.0322576124226326,-6.277608107020742
323,-6.751877765599782,-4.365569323789725,-1.535850286298937,-7.292308712448627
324,-8.249443683729545,-3.5041037775992785,-0.06848404422688448,-8.496172020724726
325,-9.621269293896056,-2.912624579547755,1.343719332921036,-9.690604685581834
326,-10.908030316147341,-2.590447876626486,2.6994615632441,-10.865673063638067
327,-12.368832688381477,-2.4742648640536693,4.024483280880975,-12.167577254906753
328,-14.33491394966993,-2.4657009251163418,5.356362721309747,-13.798696525916535
329,-17.04654495740251,-2.4811302551975225,6.722070648648586,-15.9311124815495
330,-20.501442115694804,-2.4746591386922616,8.110912875782022,-18.593054321628163
331,-24.416630884270813,-2.4250000348015663,9.422116516041465,-21.55819172381124
332,-28.35794475308663,-2.3247352653797644,10.427716038391331,-24.433113691747884
333,-31.928750522329434,-2.173122078027166,10.85755925205164,-26.86925264452321
334,-34.830488579707,-1.982456040351766,10.542776675997908,-28.621755560588607
335,-36.83213115062064,-1.784096677108391,9.444797525051163,-29.496137970562998
336,-37.74138131649668,-1.5851030914099575,7.602834977873771,-29.32567829266758
337,-37.398021411097545,-1.3253750254364571,5.097781130201096,-27.992184225158294
338,-35.744390592354755,-0.8959147537511586,2.060424750228092,-25.481031562135605
339,-32.93424287558636,-0.16816686608967502,-1.2968511004925207,-21.94063262225159
340,-29.4038351959706,1.0027272147846098,-4.7222321482054905,-17.71244333850297
341,-25.697194283088702,2.7386670851300594,-8.034516976820381,-13.19463829647541
342,-22.079860768755676,5.0720483950622315,-11.160173473992849,-8.572951942259774
343,-18.416257916279523,7.938824103139321,-14.087512111198578,-3.7666843479378316
344,-14.377449813877892,11.208023733001518,-16.8334190093344,1.3926332082864403
345,-9.671456431691716,14.717320267554792,-19.41931213316902,7.020901674374295
346,-4.168132431122927,18.336193033484914,-21.854268177735623,13.14282205580076
347,2.048776730720971,22.016498597732706,-24.141164566299793,19.667480189392304
348,8.731072529862649,25.793173623401056,-26.267491644537735,26.362772921674193
349,15.602256167202716,29.74917400336,-28.205749341246133,32.93568187643456
350,22.450002036270767,33.9670102369524,-29.93855922880697,39.182510593637296
351,29.11206430299076,38.480870283096756,-31.462126839481844,44.99810479783286
352,35.421129346119784,43.2411071085429,-32.768286860718426,50.29194836139399
353,41.22907422605717,48.10429315349201,-33.83014722736509,54.974762861654106
354,46.44095600440465,52.8717826043654,-34.598542814487764,58.95172718269811
355,50.98658895279146,57.35594493434568,-35.00984481523701,62.13760757139739
356,54.82863623527304,61.41872651451908,-35.00204590768583,64.51257931946057
357,58.03412575543419,64.95858636282193,-34.51889551029461,66.12615707544576
358,60.728917108483955,67.88322316018167,-33.50135781007312,67.03577816382406
359,62.93617803601127,70.13368782420214,-31.899206138148205,67.24677061889982
360,64.54967526876675,71.71714173026906,-29.702342311878255,66.73698340627975
361,65.42704589868939,72.70623779643324,-26.96162502877079,65.51359040876898
362,65.45877544791531,73.20945325841878,-23.779596945794037,63.62450009258444
363,64.59834685135614,73.31007557884791,-20.264486006291754,61.13686230343768
364,62.884483800572625,73.02601940430236,-16.484557491499643,58.11753101596831
365,60.45126003479783,72.31948466542521,-12.476690765750783,54.6450612242398
366,57.504806397833576,71.14547520622149,-8.295549915568548,50.83635269354075
367,54.27464173708022,69.50386060674518,-4.046936750715673,46.840765394910875
368,50.96045848859721,67.43445169652854,0.13953573979520828,42.79460854586514
369,47.700191217899935,64.97240434502298,4.167874731094225,38.78059882302391
370,44.55721430114016,62.14993159367628,7.9790695881076115,34.83942877180845
371,41.530323429125374,59.03195567705351,11.517428293699744,31.012293143600978
372,38.58196022985945,55.71544491388535,14.71558940444155,27.33603277967663
373,35.64169120271954,52.304503168947704,17.498901001147086,23.795945000926036
374,32.674525548714314,49.051189015415524,19.83732050811512,20.396927721299498
375,29.412907587993807,45.74384289155869,21.592826563063426,16.99313128741806
376,25.83207828456117,42.309639113026414,22.71724733335425,13.597828827331531
377,22.101832806570172,38.769029742990966,23.240313462808164,10.325350273609484
378,18.44074842094204,35.21227957959608,23.252487242646016,7.3022485051972525
379,15.04927032188655,31.770421668560047,22.883096697202863,4.629790258537676
380,12.097416371936635,28.58665700398013,22.274299475265867,2.3873087415010734
381,9.703863202940223,25.799833170275114,21.551391879307452,0.6242797693558706
382,7.911979044990651,23.522642005875106,20.8145026418104,-0.6521041543666852
383,6.6962176495671235,21.813464640116074,20.157465709386315,-1.4846044963527731
384,0.08955086590504095,-0.14984495743899495,-0.13747418851357418,-0.16724634076713146
385,0.017537452397432998,-0.4357932626056088,-0.3892043979726219,-0.3834190640059032
386,-0.11702816666022972,-0.904616544822199,-0.7835444110660461,-0.6921838748664819
387,-0.3376274713146623,-1.5902568334694542,-1.337908287025071,-1.1015562162673846
388,-0.6614647308055668,-2.5044326536831782,-2.05392102520121,-1.598320788318005
389,-1.0791785794346538,-3.634639886357575,-2.918297997994339,-2.159365092555462
390,-1.5630356201837992,-4.950881163910742,-3.9116925909689884,-2.77439004503077
391,-2.0944559072147073,-6.413388784863288,-5.014969179747898,-3.449434997254602
392,-2.674441941892056,-7.977369848576834,-6.206964864040032,-4.190649518823487
393,-3.313923417972835,-9.599512486187436,-7.461820598578898,-4.9931820216781775
394,-4.017319947573543,-11.252073681853588,-8.756189096922142,-5.85249492466285
395,-4.795099404716674,-12.912366313923794,-10.057907998269874,-6.77290679028852
396,-5.668640468053685,-14.567474505729933,-11.33235517120657,-7.7588128491022195
397,-6.659633962711403,-16.203791235405152,-12.543743663801271,-8.793684353415617
398,-7.7745747554872935,-17.80430147382242,-13.661105890541858,-9.836124147112905
399,-8.993815257907329,-19.355085918435638,-14.665701068573691,-10.849796850614924
400,-10.279900670001966,-20.84754272335664,-15.551969960810853,-11.836320666065978
401,-11.59978453500987,-22.272331932837965,-16.323759638245992,-12.819910585628625
402,-12.939222275907165,-23.61729532937342,-16.993071090974134,-13.809118596767659
403,-14.284732458210529,-24.871488036124955,-17.58004273370356,-14.788621688533809
404,-15.594277745226501,-26.028561571289984,-18.111524892823017,-15.745846033313352
405,-16.81261694036023,-27.089400579256033,-18.61622911715453,-16.69153561949458
406,-17.910146403227277,-28.06060966249565,-19.116282583236245,-17.64044794696332
407,-18.89257264891815,-28.94916082036175,-19.619643354774983,-18.577847534867384
408,-19.76850871392898,-29.759749180379522,-20.11834592373931,-19.456383003530494
409,-20.52523810310978,-30.495522531311707,-20.596765626609205,-20.235191825709627
410,-21.143093657392072,-31.159232843132987,-21.042019599884714,-20.918755038327156
411,-21.616469151404843,-31.75089724095092,-21.444390436217084,-21.541578621591526
412,-21.962515464951426,-32.26467460485309,-21.792210379645415,-22.125189602008465
413,-22.201551458996576,-32.692263308467005,-22.07155904737348,-22.6673651185169
414,-22.335324189918992,-33.032169360290425,-22.267564813287667,-23.164751427422587
415,-22.356534286740374,-33.293184449415705,-22.364236093376594,-23.62650530276963
416,-22.27593849676651,-33.4867274555368,-22.347610369219304,-24.06129559111626
417,-22.136833342948055,-33.61919866196044,-22.21093740975829,-24.451231439923717
418,-21.980785719998824,-33.69391893959746,-21.956764320895395,-24.746723858002923
419,-21.803822297606107,-33.71545346051262,-21.59508001394529,-24.903556475159313
420,-21.575896463137337,-33.689723371428926,-21.14139597838892,-24.911750962224396
421,-21.29566582192578,-33.62509455735562,-20.616147786523225,-24.787776708654388
422,-20.995380555822983,-33.53278589900633,-20.042695349737343,-24.553429021938125
423,-20.698175068024348,-33.42435553862654,-19.443754428842347,-24.227144020505328
424,-20.39618150427967,-33.312091862582555,-18.83567755954795,-23.83823018238969
425,-20.064151866687915,-33.21420661914261,-18.224590003444842,-23.429005451840943
426,-19.691158915631192,-33.15364905831247,-17.609186721634615,-23.0367936985698
427,-19.297823784753668,-33.14506318998345,-16.984127242106894,-22.669205686694962
428,-18.912802187830504,-33.18798042160956,-16.34283406206376,-22.299472653309447
429,-18.53971243027381,-33.27274793529952,-15.681126998252553,-21.896851023076085
430,-18.167968497767642,-33.39299755027385,-15.000958979398337,-21.449539676952394
431,-17.815340857210874,-33.55805944802224,-14.314195249737358,-20.97217544178298
432,-17.53082603435246,-33.7889959667668,-13.641435754513392,-20.49553290986421
433,-17.35901447428953,-34.10398645541739,-13.004658776903351,-20.040068238260574
434,-17.3110276096813,-34.51002788354257,-12.420525310080118,-19.601664782886573
435,-17.36491312141924,-35.00202677826755,-11.89945280482,-19.172210603634028
436,-17.501308346070843,-35.56780932592826,-11.450183171154046,-18.766612474942832
437,-17.717514538439005,-36.195890762446666,-11.085872322940501,-18.410682185672673
438,-18.00556851252401,-36.87550934049669,-10.819643812414188,-18.11624338959492
439,-18.34095728216793,-37.58710756044523,-10.651725877683731,-17.86611220761902
440,-18.682811264552882,-38.29984804980154,-10.566711746820653,-17.630337159342734
441,-18.98801974663932,-38.978299420698896,-10.543499923019743,-17.398475957713906
442,-19.236592854987986,-39.58361363292131,-10.56754555251163,-17.176492571282136
443,-19.44110280878945,-40.071860657778174,-10.634610154069572,-16.96663002498766
444,-19.625006357714962,-40.399606872788866,-10.745300657053988,-16.75974547890007
445,-19.796842196835556,-40.53323913771659,-10.902580923535165,-16.5544840051698
446,-19.961640693197168,-40.45207511659588,-11.114378005241216,-16.375386668112473
447,-20.13724705753404,-40.142537475639145,-11.390469474631622,-16.25082711766401
448,-20.343202611679914,-39.59119198171087,-11.732936517388367,-16.181598296229964
449,-20.581336640171116,-38.78835267039768,-12.131262644710402,-16.13828907601407
450,-20.818814125024858,-37.7385015305956,-12.565800357958373,-16.09783316159133
451,-21.00165074320727,-36.46049456828595,-13.011125491208327,-16.073660966536842
452,-21.092857648362262,-34.981463428754715,-13.435870475552424,-16.08522775543
453,-21.08286309290896,-33.33245886478372,-13.803071930445423,-16.106695332734315
454,-20.96113836027227,-31.541870090714994,-14.072470863340673,-16.069846122047064
455,-20.690855945850313,-29.6304584850431,-14.210838965018496,-15.912702810778564
456,-20.223465874384882,-27.612396653208425,-14.20743995044524,-15.614662415129233
457,-19.537670619685656,-25.49875562174591,-14.07476186518846,-15.182674107504596
458,-18.661137228285256,-23.295164240529267,-13.834117998474692,-14.608517026779069
459,-17.637632922516612,-21.000958533220288,-13.502907638938145,-13.869607008412993
460,-16.480602170017114,-18.62155489131206,-13.090474099312765,-12.961922334331739
461,-15.187031779249686,-16.179281305688704,-12.600188842553314,-11.90701207431855
462,-13.78532449462261,-13.708482969947223,-12.031644847170918,-10.739102084284948
463,-12.340775047000223,-11.242473251190901,-11.381103345491187,-9.486396746674547
464,-10.908804701277305,-8.806156729715145,-10.643954019697905,-8.166230732197405
465,-9.500380924728363,-6.416682445736118,-9.820426803931214,-6.797746542155698
466,-8.10202496779618,-4.086454085628727,-8.920183439650167,-5.4078874853320755
467,-6.717692002939398,-1.8284655717240597,-7.962463382658178,-4.027617373274699
468,-5.371455167216113,0.33952760488781275,-6.972289705227039,-2.6761260341457143
469,-4.070076683697197,2.399785811316543,-5.977284886862478,-1.3575074276692571
470,-2.795398103976232,4.341054907995783,-5.006778249274953,-0.08295692639797633
471,-1.5386425477065122,6.1546605530610785,-4.089553596458379,1.1205128411738496
472,-0.33326166805692237,7.828192753228797,-3.2484624903944694,2.215739723077891
473,0.7424888726494767,9.34609617486821,-2.4946106318374963,3.165720277080723
474,1.6096947844744893,10.689179674743636,-1.8268949542525414,3.942413767313768
475,2.2396721352170994,11.830967323253907,-1.2366650748949497,4.5244931922113345
476,2.6388225051623024,12.743897111319521,-0.7138701068550525,4.9000337819451305
477,2.7889567335593735,13.41767496593832,-0.2517127968282722,5.071906563630006
478,2.6514010486284567,13.872625234408535,0.15388958339034448,5.058554844913888
479,2.2278819116450257,14.15609731190854,0.50780911269393,4.903576662099394
480,1.5823426031273315,14.32697750791516,0.8173286301056193,4.68486302928524
481,0.8108319554686856,14.44022674370028,1.0898726220748427,4.48471516430447
482,-0.0005202074042143512,14.53664214163322,1.3287208907720411,4.340698427340316
483,-0.7938191141917235,14.640201687080953,1.5331304994374264,4.246055134979363
484,-1.5231801736099049,14.766016804449068,1.7033978870757904,4.18892892032377
485,-2.1352369068508805,14.929347623411235,1.8445871880571703,4.174021114404799
486,-2.568886008547836,15.140105023092167,1.9651720991827821,4.203354861124933
487,-2.7757356788958143,15.387671740507042,2.0725561870610356,4.247811846480309
488,-2.7392599938628326,15.643794345729855,2.171684455607576,4.264873283064847
489,-2.4682003537039128,15.883606865929854,2.267275512301712,4.240340355873029
490,-1.978429357034102,16.099069469731205,2.365287897338323,4.196307991343815
491,-1.288348439937917,16.297344958632575,2.469373861808373,4.166483247826727
492,-0.43476430161894664,16.490919570930988,2.5759803579383997,4.1756638823622225
493,0.5298137798644056,16.68658234008342,2.676830575510709,4.239565149555375
494,1.564250934116048,16.878270251002323,2.7645307281179803,4.373640088300317
495,2.6421724707098444,17.05244360952726,2.8334121764868616,4.594299055044985
496,3.73933798528554,17.19901707336259,2.877774109663556,4.898405143591728
497,4.8249841262547255,17.312977486039458,2.894050203538077,5.23959050819094
498,5.855444521836814,17.392644554368605,2.8855218715195985,5.550214715516435
499,6.780657357816243,17.43888131221353,2.8632852400092172,5.794667221158195
500,7.564519230899706,17.452859810344297,2.8442864670805603,5.976001680820394
501,8.202327566730546,17.434899330923376,2.849892636729825,6.097489814625684
502,8.731169953055941,17.39375374576736,2.88411860045237,6.150023894268123
503,9.110541295368543,17.31389731652767,2.9853196990758124,6.129475729993753
504,9.324200583488732,17.198630792544908,3.1708045475261017,6.063010190416196
505,9.391367516072522,17.063446687896747,3.4394189010788563,5.996231527706912
506,9.355711527240567,16.91865712343147,3.7706850262064155,5.955108446630823
507,9.259864900864375,16.76557233533099,4.1299958345700745,5.940372619559509
508,9.131054565973654,16.606549046128926,4.480482881592261,5.948491650185322
509,8.985304137279515,16.452356166743062,4.793412963698476,5.9790386716553
510,8.83964490180126,16.318556005445707,5.050274558326295,6.028494068682876
511,8.714562509175828,16.216571832314973,5.239478661420911,6.081800845265572
512,-0.13932159315837433,-0.583197454457876,-0.2977977438942761,-0.6552992232702737
513,-0.5720956440785706,-1.3167265336558052,-0.7689528906394447,-1.479626011243104
514,-1.2381009322919478,-2.348970630723208,-1.4799480703900545,-2.664170594569899
515,-2.1715053939159237,-3.678013488191687,-2.443031638613184,-4.185516037964551
516,-3.3746086515994618,-5.277618393477259,-3.6441029067452226,-5.97526010779815
517,-4.808096563276896,-7.097865096487155,-5.04499309557718,-7.941800481436312
518,-6.407431628564564,-9.075755694127349,-6.59660012826548,-9.988555379880545
519,-8.112276306763682,-11.14655661175302,-8.244269260359038,-12.02180721293695
520,-9.876267211973094,-13.249424317129264,-9.926196741179824,-13.957709867825251
521,-11.657410217076318,-15.33517858235582,-11.585765998672342,-15.738184043070751
522,-13.419076857323645,-17.388309109216227,-13.196565400665316,-17.36286175249863
523,-15.132966324874564,-19.375704888764066,-14.733487456688355,-18.831680828992326
524,-16.788196232746163,-21.253103877108842,-16.18508621958654,-20.155933954030925
525,-18.36714218302738,-22.964593114573255,-17.546760683685562,-21.341737542343232
526,-19.833415506574493,-24.46121179088245,-18.810166518799523,-22.38077975121512
527,-21.147834576933406,-25.715423622294843,-19.962223400550826,-23.254103823873255
528,-22.29574909065606,-26.724614129736466,-20.99352521512156,-23.951049342903158
529,-23.300088163865137,-27.510249258563615,-21.902725078463064,-24.467260404908824
530,-24.19013397925872,-28.105452851588474,-22.693096174278615,-24.790395680346634
531,-24.96112947366431,-28.539562169954465,-23.36692282188882,-24.905856742766577
532,-25.582414933623987,-28.832985517362253,-23.926769344646875,-24.81278973020683
533,-26.037302791297684,-28.99892847662218,-24.38151307393375,-24.535280139109442
534,-26.334175759726335,-29.045392137483166,-24.7437853742271,-24.113095353900416
535,-26.48895829828082,-28.967439458496102,-25.019808643278843,-23.581275019007116
536,-26.506951885377305,-28.743051133444567,-25.210669788482722,-22.959534449700282
537,-26.3799254745376,-28.350688779822637,-25.32534840372153,-22.26482865563416
538,-26.105603434254917,-27.789416747774958,-25.378875288726558,-21.533207841865963
539,-25.70356612600321,-27.08083221206176,-25.37608125612481,-20.810161399133587
540,-25.220242759396456,-26.261743719417275,-25.30647522663781,-20.118144933532793
541,-24.707532065407506,-25.386675329624662,-25.152910886017445,-19.445480449672402
542,-24.185761031157906,-24.530760524390697,-24.9012320100333,-18.772425334515805
543,-23.65473748494678,-23.770967451389364,-24.546615149175754,-18.09818553211582
544,-23.126673228820987,-23.15777041511256,-24.095592355268167,-17.434861587150678
545,-22.618687208108707,-22.706887325392394,-23.562148976638365,-16.780075330350268
546,-22.129107501654513,-22.403568934863674,-22.96579738891067,-16.11107017558492
547,-21.639926186307296,-22.20446934069374,-22.332658604311572,-15.419451275893664
548,-21.140337246754758,-22.05211151853391,-21.693066533037282,-14.73230435794567
549,-20.624486971019014,-21.895379772051136,-21.07413258290782,-14.091899843178082
550,-20.066296988092233,-21.69491064170849,-20.49008040673391,-13.52339879272159
551,-19.41783699166378,-21.417077369367938,-19.94062942633038,-13.023582330296838
552,-18.62444782374751,-21.042462912022987,-19.420333584853324,-12.585912714400688
553,-17.641025109519582,-20.586120110593594,-18.928082272886318,-12.221211925679572
554,-16.447400888665566,-20.08822838410816,-18.46405055525443,-11.94454158793266
555,-15.050984566274552,-19.5845404458144,-18.022978729671593,-11.74946404915747
556,-13.467898181428865,-19.096320991591433,-17.598467644421884,-11.608232169641322
557,-11.69913427008125,-18.631860801167818,-17.18851440138937,-11.500178179659418
558,-9.744390605983371,-18.182237696889143,-16.79404787767625,-11.42396977230375
559,-7.649807507212932,-17.719077421498323,-16.416229534967318,-11.382553980490245
560,-5.514742109484589,-17.205763053755014,-16.056770009303776,-11.363148557915714
561,-3.432207053147316,-16.61181376375669,-15.714075293371385,-11.331048978208099
562,-1.4511711075049796,-15.913303073303428,-15.375583920907614,-11.238946158493825
563,0.40295242039159485,-15.094241495087505,-15.022485488296384,-11.042892304221489
564,2.1096776932379306,-14.159470563109904,-14.642596867465041,-10.70745465511918
565,3.6440867443446785,-13.136068603218181,-14.232994010449403,-10.194852127650703
566,4.982737926324916,-12.051584695689881,-13.793321712482747,-9.46988550434323
567,6.127645252282949,-10.920022660496656,-13.326239872966884,-8.525509093682983
568,7.108059350235279,-9.751198537614414,-12.842817920551118,-7.4020592059550046
569,7.959824820263314,-8.550618389387683,-12.356838955470668,-6.180688717370985
570,8.702911089169143,-7.308434801831242,-11.8726988230043,-4.954800871602472
571,9.338883655856023,-6.008954795863811,-11.384495705695432,-3.8047736888537025
572,9.864044248622983,-4.652915392283614,-10.88839030626814,-2.780957867146672
573,10.272106940599212,-3.2607580975357067,-10.384926237168653,-1.9086411556977891
574,10.541013140170492,-1.862779294630811,-9.87014905913696,-1.209200732868319
575,10.628397739503473,-0.4962210813668999,-9.337972026017406,-0.6969875981643932
576,10.499423723215175,0.7959662392850064,-8.788460983525237,-0.3630215148846117
577,10.15927228592317,1.9705132357517694,-8.229872209163712,-0.1754553597253402
578,9.653690062613636,2.986896014189236,-7.67958578943876,-0.0994221252640031
579,9.032413537395033,3.806526206967445,-7.165904751585973,-0.12007932784262612
580,8.32207289865187,4.401619730742039,-6.721234355816704,-0.24065404469637786
581,7.533425671067407,4.7748962903047065,-6.368618368551176,-0.4600668128793146
582,6.673029181408184,4.965032127329461,-6.12014656239061,-0.7591380314846895
583,5.747649542706739,5.024881376392312,-5.984616433130457,-1.1156220928089113
584,4.752095291965996,4.993104939958085,-5.963627173753419,-1.5303886222142322
585,3.6591931344872455,4.889854593442577,-6.040635420064245,-2.020160900087146
586,2.4280468819417766,4.730879203872743,-6.183792931489546,-2.591285743181101
587,1.031338132061591,4.527093775712726,-6.359552179728724,-3.230597771850122
588,-0.5111215704073081,4.275388751202917,-6.5390289168785225,-3.917949029214151
589,-2.141528154907264,3.9623559937335333,-6.698332805954092,-4.644537970862533
590,-3.7970311221387876,3.5753775808511374,-6.8222408013849645,-5.403714269301612
591,-5.426629020188152,3.110334355184382,-6.908264292675118,-6.159177749062126
592,-6.978641654196844,2.5779262996018275,-6.960499080147399,-6.84424887420646
593,-8.380166359588591,2.0101802494048266,-6.976933527574964,-7.395105582966516
594,-9.564013018523362,1.455494678170238,-6.948488466924015,-7.776162727097372
595,-10.512172614532266,0.9647955274545595,-6.866897224253727,-7.986078423551329
596,-11.255402878562077,0.5829865895408894,-6.725980580685297,-8.041408554668077
597,-11.826606698721672,0.3425648668180202,-6.518302080882855,-7.959982315143151
598,-12.21943555503878,0.2546174489724312,-6.237110258217932,-7.767748538133939
599,-12.404880036387997,0.3084063348528532,-5.881698996967267,-7.503421037796287
600,-12.374554804861836,0.4818981216485393,-5.458424141147006,-7.200892170080405
601,-12.147873277317617,0.7500174297563346,-4.979682583656796,-6.857244823929031
602,-11.74080237784729,1.0848049841120568,-4.4627511711428465,-6.429278251291855
603,-11.146339191483543,1.4557481834983574,-3.9251315518862224,-5.870593039767227
604,-10.355190595319389,1.8408158817392708,-3.38091367432724,-5.154718665750901
605,-9.38811425450771,2.2396160934262594,-2.8411703386729497,-4.2778682214493475
606,-8.285637573900111,2.667572381794144,-2.3135641756322958,-3.24872295300846
607,-7.0661505780104905,3.14296519672718,-1.7989813555532004,-2.076511609586279
608,-5.717896958949673,3.6866073271864996,-1.2905326916625284,-0.7842762725571264
609,-4.2293482385155095,4.31713981380714,-0.7798544361036875,0.5781721731615487
610,-2.6191092353479086,5.037222484774267,-0.26318349915168376,1.9454743004217443
611,-0.9255293681688406,5.833289804659069,0.2615696883542953,3.2593756293067924
612,0.831360368317744,6.690959954227638,0.7983068844003692,4.480605141586063
613,2.65324146909862,7.596058975552227,1.348623988179958,5.582525778760699
614,4.530915411701751,8.520072530566477,1.9053957910962849,6.531514686299638
615,6.41861976097694,9.418865951791279,2.4513813757387704,7.275966825554217
616,8.251101831061654,10.24839945538013,2.9654265015019945,7.765533558601105
617,9.992118112275612,10.979215484629103,3.430874350970599,7.983870566859402
618,11.6480809089293,11.597721959274011,3.8413211088524695,7.967283849857922
619,13.239419787617132,12.099796578703112,4.1977964787563975,7.780280040687085
620,14.769710682310563,12.484131030575115,4.500842679528883,7.476626181360699
621,16.210566765213343,12.746955574814482,4.74851749110883,7.098842034344745
622,17.509089578178415,12.879935303360202,4.939374635118236,6.688907486092858
623,18.603274646383532,12.87474562702643,5.075116020017314,6.283478481846233
624,19.434530512891822,12.727659976971823,5.158398957282923,5.896192966562412
625,19.956482826133126,12.435030700129062,5.189188210320451,5.510659359228856
626,20.132299556950645,11.991409715283257,5.165343863839236,5.099771119963981
627,19.930057388620142,11.399240631455974,5.088531016360173,4.644893299764253
628,19.336784988464455,10.676559600318672,4.971789651495071,4.150961024410447
629,18.37957129741966,9.85273106222696,4.836638973068721,3.642621508125935
630,17.151647181583147,8.965197399533567,4.688186346261906,3.111866543081943
631,15.708021488475671,8.030396404557713,4.5737250861298255,2.6241394777153997
632,14.150762333631585,7.093084135701236,4.528009551009642,2.247193198862481
633,12.596997409647125,6.199978178566782,4.571209949263218,2.0368388691273798
634,11.15001578072331,5.384815301771666,4.703836052234546,2.00485533689263
635,9.88131730929789,4.669594781045985,4.904883407146159,2.110284689188776
636,8.830139593262304,4.069652903591674,5.140033727845082,2.289848963092713
637,8.013835236529205,3.5931643033051586,5.375846171727595,2.497154305273033
638,7.435763819866911,3.2399655593709014,5.585650402847995,2.7052097821240326
639,7.082153432945782,3.003533005797723,5.749402685289652,2.885718826231592
640,-0.03820402272893464,-0.21686369374577663,-0.454765706323152,-0.4416213779407619
641,-0.3025979194149114,-0.5757523303383904,-0.9727649146255021,-0.9287216206819996
642,-0.7028291881461484,-1.097514259590336,-1.6890793398256752,-1.586974219305367
643,-1.263419599857615,-1.7827835391738058,-2.5925457437658332,-2.3956084149953627
644,-1.9781077319196214,-2.6110391723052686,-3.6554233461625314,-3.315665866692561
645,-2.802826963303354,-3.5464654265673867,-4.838054659683853,-4.301613159848106
646,-3.683247629447535,-4.556242568819973,-6.0950445312184796,-5.313052668335439
647,-4.5918926172637535,-5.615739667595554,-7.3828216049341995,-6.317589937950485
648,-5.52702932624457,-6.703068144804016,-8.667130121637713,-7.290000285063148
649,-6.48228359129651,-7.803139900414068,-9.935287087624836,-8.220224007324294
650,-7.442290198702677,-8.923001057137249,-11.21354060131203,-9.128790343354495
651,-8.408563574396009,-10.07665922673999,-12.516289765973646,-10.026395103040157
652,-9.407687951428313,-11.279245248077187,-13.847047736138617,-10.90856900270875
653,-10.452706639971789,-12.531612558061909,-15.190952482116812,-11.750593551909116
654,-11.525195427016804,-13.813292572041437,-16.519610035925663,-12.523093774955424
655,-12.598228774334524,-15.08965316702228,-17.798535794761058,-13.209555322359968
656,-13.650575820539666,-16.32475243626023,-18.99003110433508,-13.813487923948736
657,-14.65893528465269,-17.48814844202337,-20.055378191899266,-14.346749042465222
658,-15.581177445959502,-18.555620933147924,-20.960358000681243,-14.814415926597526
659,-16.353700549877335,-19.51283732711696,-21.683129967522078,-15.219363161937661
660,-16.912838337798885,-20.365515108564487,-22.22348509573376,-15.575297375057051
661,-17.228979629726595,-21.14165783379882,-22.608219132403903,-15.908494503767121
662,-17.30915527070239,-21.87411023610717,-22.88051242411727,-16.242208048884542
663,-17.1587197111253,-22.573960251391824,-23.081292888458538,-16.57603610508415
664,-16.75344259248728,-23.225655905657163,-23.240414560616493,-16.880748874891687
665,-16.063921929874695,-23.80587079294536,-23.376296525793627,-17.118980853492623
666,-15.111974898263394,-24.29359978744338,-23.496848533029322,-17.27133172860371
667,-13.97998550360673,-24.664152190904336,-23.597775213032534,-17.336704104892945
668,-12.76454904829149,-24.886026050068633,-23.66363372367051,-17.31756447125617
669,-11.537963322993,-24.92874094003548,-23.674464552495277,-17.20962579809579
670,-10.346030625149332,-24.774573951403156,-23.610963967401922,-17.007862503150893
671,-9.224213768462562,-24.42594179564491,-23.457922226213306,-16.720422251277544
672,-8.202558690966852,-23.904524271654353,-23.207590677421265,-16.364587976379696
673,-7.305021637309173,-23.243609803147226,-22.862926776182707,-15.950083273882312
674,-6.544858579524277,-22.480071371161586,-22.43785419925712,-15.471896529981645
675,-5.911866345881263,-21.64967632493658,-21.955741539941272,-14.9250686419261
676,-5.374701784497627,-20.782779395615364,-21.44632189788068,-14.317040393676027
677,-4.899127446610374,-19.897569761956795,-20.934405642309102,-13.654468235594864
678,-4.467141762704062,-18.99997364322044,-20.430188131145144,-12.929713806353856
679,-4.073537804755976,-18.09048965210329,-19.93508077707277,-12.130051921015465
680,-3.701951836852308,-17.168237181659865,-19.45287593957806,-11.263215334799964
681,-3.3359373805309875,-16.23061246746057,-18.988430021079044,-10.371299634261177
682,-2.9851591440519276,-15.273362815189534,-18.539449029187846,-9.515126542747135
683,-2.681490892579869,-14.297560166100581,-18.0948748648563,-8.740535397338613
684,-2.4554788295561196,-13.312364058541258,-17.636915712973174,-8.061036353619425
685,-2.309864145996378,-12.330086310409145,-17.144873770759546,-7.481376303671854
686,-2.2323592773717533,-11.365273372845397,-16.60391065502857,-7.024995058553587
687,-2.228989396714938,-10.43725499715886,-16.013354255613834,-6.729907609066678
688,-2.3335266981555267,-9.567692441285372,-15.38722680370696,-6.624661078792293
689,-2.5857653760467647,-8.772904891787608,-14.749295847757427,-6.718548718428671
690,-2.991481947565776,-8.063569340586758,-14.128268633773406,-7.011844672401398
691,-3.52583935099314,-7.4512348958478976,-13.553383177362145,-7.501363735003737
692,-4.1754975924838185,-6.948169429349355,-13.048925376127992,-8.176879159299437
693,-4.953462837550557,-6.560145116452091,-12.628450813809199,-9.008244593606905
694,-5.869433384388773,-6.283858324411604,-12.294582379186744,-9.941440136713595
695,-6.896102624102247,-6.112500281549859,-12.04535870117363,-10.915999556108758
696,-7.985628851947927,-6.041217268800063,-11.876676839491887,-11.878252073678171
697,-9.119675106545792,-6.069397978228994,-11.780317170380087,-12.781554730517412
698,-10.32035602371394,-6.197661823531711,-11.744102013674537,-13.578318233109377
699,-11.597124331317023,-6.4186940694902725,-11.75309681991871,-14.21762270337437
700,-12.903002876569042,-6.708585298329559,-11.792016915747634,-14.665766038115274
701,-14.166190083552337,-7.035088310463719,-11.849846301379275,-14.930409117664224
702,-15.354669332757314,-7.379950587473141,-11.92252854307222,-15.056396091162853
703,-16.4839118565031,-7.740699503862846,-12.00878018509652,-15.089162649180846
704,-17.562530414650304,-8.114722908245563,-12.103294690519673,-15.049413004492681
705,-18.566027103439616,-8.49759837875121,-12.196319814678615,-14.941305424447432
706,-19.459504301204763,-8.891790797481386,-12.280010598282866,-14.770842354103484
707,-20.227884028501713,-9.300650133826341,-12.353351427269505,-14.556823302544045
708,-20.8783316668834,-9.711551615489487,-12.420011806966556,-14.324558537588945
709,-21.402568144162977,-10.092090387300885,-12.482615558177384,-14.086265883839712
710,-21.763297164240093,-10.402006583831232,-12.537161276007406,-13.82471948037869
711,-21.92373753444438,-10.607732581093801,-12.573715583717767,-13.510012492226663
712,-21.877006276513814,-10.688190187936861,-12.58241058514571,-13.13167567768484
713,-21.649266662951028,-10.633538573211844,-12.553905886592187,-12.693153410316965
714,-21.26079836343747,-10.439987397235921,-12.475745718563768,-12.183338378363302
715,-20.700139465118927,-10.103639932395517,-12.329353658063123,-11.569181466291283
716,-19.95370165075428,-9.621356827792104,-12.090967553684186,-10.824594740280723
717,-19.042303793044674,-8.998485970546833,-11.737756521617696,-9.960521280362492
718,-18.019398176262698,-8.25424569750923,-11.254806729109267,-9.010385273757397
719,-16.9429770528212,-7.4118903187245815,-10.64037472626701,-8.003368054079393
720,-15.854438989824816,-6.4858070061214175,-9.907973106296549,-6.963490265116596
721,-14.772936907365105,-5.488294177183568,-9.086122083237365,-5.927492672982795
722,-13.710597133044255,-4.442504895349139,-8.216685855789592,-4.9571394122391546
723,-12.687546196127856,-3.3786835377698283,-7.346542777106652,-4.114255227371099
724,-11.725656585601847,-2.322373428010372,-6.513765048272284,-3.4217220491787996
725,-10.832855029634027,-1.2928452297336606,-5.7430127672602795,-2.859489434893729
726,-9.993877946123982,-0.3062240775682866,-5.052726174670927,-2.3972098822647143
727,-9.189673015878203,0.6263686005620603,-4.4607188073324675,-2.026331041174146
728,-8.423289323849259,1.5011113543530603,-3.980194852338418,-1.7510405329502075
729,-7.722922739002393,2.317669295247672,-3.6109771347588833,-1.5506742760047896
730,-7.120906611206695,3.071185966450046,-3.3411242381358033,-1.3771106109982485
731,-6.629133851092908,3.749262589918021,-3.156797441744412,-1.20245224504969
732,-6.251986636742798,4.3285529621121865,-3.0505257946780993,-1.0482294428016823
733,-6.005506149856969,4.773269289897349,-3.027972031069789,-0.9586039292712286
734,-5.912650415781603,5.0481863329632,-3.0993514580257773,-0.957584841324017
735,-5.978178640429727,5.133467035904985,-3.2611609463607327,-1.035795245418832
736,-6.149358921001331,5.0284783023448645,-3.4907044826009748,-1.1752647140789527
737,-6.334725748117266,4.74769738615292,-3.7526270818554086,-1.3647686362283704
738,-6.474941643263908,4.320619110526225,-4.007954237610629,-1.5895539093306608
739,-6.563702217217271,3.7967806132158732,-4.220427614795124,-1.8197508787510335
740,-6.609619708667327,3.233952381224324,-4.361712614392626,-2.0137774514695934
741,-6.611206728374692,2.6718835759134163,-4.417177981469849,-2.1443300392007254
742,-6.565582420354263,2.1228985643399314,-4.387047406878876,-2.212915550182524
743,-6.486175260392239,1.584987594390786,-4.281493834200109,-2.240361835782635
744,-6.405164104425144,1.0549175652361535,-4.114603548322728,-2.2432294650608275
745,-6.340602895491343,0.5317248649924236,-3.902924296329753,-2.216314900098257
746,-6.270967553134879,0.01963178471175884,-3.667396795325013,-2.1512068170440526
747,-6.156963753729969,-0.4679823188170184,-3.4292260248906294,-2.0538655270655504
748,-5.976872398322834,-0.9129026453729723,-3.2021470970658537,-1.9264240480005297
749,-5.730189368093203,-1.3010407450104733,-2.9877437535685454,-1.7460094788790226
750,-5.405749377749779,-1.6189678681704922,-2.7722914553389115,-1.4698742363360577
751,-4.964072805175509,-1.8496043344739304,-2.5330445399019728,-1.052874309725861
752,-4.360863131165165,-1.9818560435726622,-2.254053990067019,-0.4687350197902296
753,-3.58794603952923,-2.0168559956823997,-1.9303739716699053,0.2749443126224592
754,-2.6772721035381144,-1.9650039655251537,-1.560079500549749,1.1472677457230385
755,-1.6602307433293837,-1.8410524600270912,-1.14220427278503,2.1056285576268206
756,-0.5519679429807606,-1.658975994847501,-0.6816186924949184,3.0976388620758692
757,0.6323431693463146,-1.4282804160738323,-0.19101559172702118,4.0607801279604105
758,1.8478969970082448,-1.184046262864157,0.2837868033448821,4.923055706229038
759,3.059153838031332,-0.8664845098576006,0.7736603463192016,5.626589494869669
760,4.221490738385187,-0.448536250860728,1.2865106878397994,6.152604184362584
761,5.301892350920176,0.06823004434684826,1.8155983241370608,6.508090588632223
762,6.274224202111235,0.6593921999657845,2.344442670044512,6.704375141864858
763,7.106495167312294,1.2838043494797795,2.8531283853450033,6.758764551047697
764,7.769261254539003,1.8917322848368618,3.322844678817905,6.711091307213053
765,8.257743175303254,2.437271540803881,3.7367320077512653,6.616193791978683
766,8.594503464992094,2.8900905507195738,4.081122217946033,6.520047270731919
767,8.81279576431653,3.2361761193244734,4.346552089715254,6.449120809368999
768,-0.19160529994095668,-0.33046987738727895,-0.43527091117446387,-0.6061407957712821
769,-0.48914913020442374,-0.7157584761822335,-0.9899679448790479,-1.2064232460381406
770,-0.9035180920969392,-1.2964103842558152,-1.8104923182526016,-2.038885123855957
771,-1.4587445137478119,-2.0874917734085825,-2.91416192529367,-3.0905791573401213
772,-2.1595907243943566,-3.07331362492293,-4.290330971571283,-4.319021465036576
773,-2.989916229440754,-4.212345203643579,-5.9014682549815145,-5.6814308562540425
774,-3.93074493677975,-5.450289178824036,-7.687842393436356,-7.1433274375089235
775,-4.968128908559386,-6.7325454622114345,-9.57353987365755,-8.662381448864648
776,-6.087836395236291,-8.01409983420913,-11.478578211980173,-10.175635904711939
777,-7.268674027673864,-9.268212656721603,-13.339994134361138,-11.627453865031244
778,-8.4911324729931,-10.499965652207134,-15.13940951561993,-13.029889760099305
779,-9.746517272743853,-11.709272540077238,-16.858807163589564,-14.405658236776858
780,-11.028570191512806,-12.901446160424547,-18.48651944904861,-15.74597236992507
781,-12.321631844586008,-14.08081869622157,-20.01101863143098,-17.000734467118995
782,-13.595383927344281,-15.25040509670426,-21.42554512341304,-18.13292062914307
783,-14.818638026173343,-16.41567151676694,-22.734253287759493,-19.154086208879225
784,-15.988271410855003,-17.574127291892513,-23.94527918821765,-20.095482820625087
785,-17.12819709720666,-18.696135817843274,-25.055619982888587,-20.962719435354376
786,-18.240328621505338,-19.728891132550043,-26.047871719212072,-21.72963154368884
787,-19.271690916161553,-20.62093018800797,-26.898478225223865,-22.367519028301583
788,-20.143387241775795,-21.339823275744976,-27.585345497219148,-22.863385326904638
789,-20.799364760460243,-21.87697245642291,-28.093722842432268,-23.210842882628814
790,-21.224502846681908,-22.241902092155595,-28.4190739552208,-23.388611901517596
791,-21.418163856627686,-22.449274967992483,-28.566566091468445,-23.357277630972217
792,-21.365603077757367,-22.510392696452122,-28.552189770204446,-23.097443235203016
793,-21.055613851493867,-22.435320426134073,-28.40196355218746,-22.641297177299645
794,-20.515581261410752,-22.23915696197509,-28.144945219402814,-22.049026621366735
795,-19.81676439042555,-21.944562284597225,-27.80384802153001,-21.35903488288456
796,-19.037957290595386,-21.576760398629077,-27.390512322079715,-20.583194525290853
797,-18.22386187588006,-21.156810286635636,-26.910900419946227,-19.746186948981062
798,-17.38676109319002,-20.705442421233954,-26.370888558505168,-18.896942520761034
799,-16.532475269198887,-20.25118516750386,-25.776369830892722,-18.088787806402216
800,-15.669914826246655,-19.820778752355217,-25.129331370212597,-17.35288604522614
801,-14.803331145531008,-19.425787371369907,-24.427032891226194,-16.688605827060044
802,-13.930626043627948,-19.067343018826424,-23.668243536486106,-16.082184619647904
803,-13.056315422501632,-18.739289438077666,-22.85867386172489,-15.522108445789593
804,-12.210995345611316,-18.42480913937864,-22.012206100619505,-15.007231025889787
805,-11.447689007708146,-18.100791175244453,-21.148539510532217,-14.539680614580279
806,-10.80622691788147,-17.74737665409193,-20.288755668298226,-14.10833537732295
807,-10.29567052362227,-17.352805692590287,-19.45412343631007,-13.690061985381153
808,-9.907039038702942,-16.917434685463896,-18.666352236254976,-13.267764278726546
809,-9.634968839712503,-16.464043220226554,-17.94598370769615,-12.842335322299917
810,-9.48037742465071,-16.03076325959505,-17.311960038284347,-12.416336162097755
811,-9.42951479609855,-15.642800741446289,-16.77732397947576,-11.98481613224206
812,-9.447144650609138,-15.2959491827324,-16.34218329899777,-11.548100245320505
813,-9.487164716508826,-14.968726911117423,-15.99595258199385,-11.120472260580533
814,-9.518869791830383,-14.647094418667338,-15.723385085004978,-10.729968607599037
815,-9.543166219200508,-14.329544746008251,-15.505705956553145,-10.404048664588457
816,-9.577520877362266,-14.013529541798237,-15.32179359883011,-10.148819670081277
817,-9.637919039899714,-13.693280536780476,-15.150571378724072,-9.94017355404433
818,-9.724997701263465,-13.372216134168404,-14.97643259103342,-9.747955096162212
819,-9.82460272583345,-13.062638240645683,-14.793421369690389,-9.56489097243384
820,-9.92798557839386,-12.774658763264258,-14.602663181231925,-9.394686988571884
821,-10.050894801914,-12.513027934319263,-14.410365081498725,-9.22065178960522
822,-10.213505974835524,-12.274283709345752,-14.224381343475448,-8.99749448279567
823,-10.39956894658909,-12.042543849161884,-14.04696393740544,-8.683814928959313
824,-10.569225620331338,-11.792315359619948,-13.869636225704548,-8.270030937735722
825,-10.700540320612218,-11.496726707192382,-13.672550873557707,-7.76335194531982
826,-10.793611965472463,-11.128785898040286,-13.424018689624681,-7.1560052517782395
827,-10.839027373347347,-10.661786733828807,-13.080756950733901,-6.416837757784696
828,-10.79270189022646,-10.09079995388108,-12.599749685750517,-5.5206818039430186
829,-10.59872569313145,-9.450479100314862,-11.95724890065097,-4.473543786771578
830,-10.240660879342057,-8.798665708225824,-11.153674179750933,-3.3051250204782185
831,-9.760703777767306,-8.183869708725615,-10.204528625749418,-2.049539667701375
832,-9.218211569339575,-7.629245712928595,-9.136543093732591,-0.7441578773404709
833,-8.641523000182227,-7.142119393960173,-7.989058994849698,0.5551197336892826
834,-8.041597447344486,-6.724063933620823,-6.811278464966806,1.7721233847026758
835,-7.454097395211809,-6.37082544010218,-5.655269295603545,2.831624388974716
836,-6.945896321154928,-6.070902633129037,-4.5672505279953794,3.696165058825763
837,-6.572322072812024,-5.806668231820382,-3.5813703540225403,4.374372954810033
838,-6.333641121919476,-5.558690600619942,-2.7157276357884608,4.886248950472912
839,-6.191659451306597,-5.310771273985767,-1.9750167893855326,5.236052066576959
840,-6.124966590003928,-5.05751185210912,-1.360386248116942,5.41552093989007
841,-6.14240750599675,-4.808825154561628,-0.8736742328565268,5.426127006173706
842,-6.243264585687948,-4.581897744110866,-0.5156345415047356,5.282698764686509
843,-6.40559063853991,-4.389170472694682,-0.2886794038899373,4.9915644759313595
844,-6.611844210442227,-4.239050285985561,-0.20387316570508401,4.541835546529171
845,-6.865535452441999,-4.1400909493892515,-0.2751393658317538,3.918815379717684
846,-7.186408139626485,-4.0859650976921,-0.5029304920105098,3.1279698864359493
847,-7.573951038078019,-4.0445188201580535,-0.8688366774233897,2.204254877489465
848,-7.985317083168578,-3.973725007500438,-1.3422307315910207,1.2027275622506783
849,-8.363066355043832,-3.841987961106008,-1.8916119559232796,0.18340533153708483
850,-8.681391996072376,-3.6353793680286985,-2.4919001562291623,-0.8097377724589423
851,-8.957131465241863,-3.3541312681636177,-3.1220073983138668,-1.7530566516761077
852,-9.202237103094847,-3.0100680122063994,-3.760549483193421,-2.628158448241592
853,-9.393460875383497,-2.6251850145987574,-4.384597827431653,-3.4109166563710893
854,-9.501953479874496,-2.2272445758705226,-4.969585032624457,-4.08556337312796
855,-9.532644056666468,-1.847983361937352,-5.4926417316850324,-4.665439552837288
856,-9.520564259976139,-1.5225345117945608,-5.938228743592084,-5.1768713080863575
857,-9.49081284219305,-1.2803726285572081,-6.293582577013801,-5.62850753704542
858,-9.434520254416757,-1.1332787834071136,-6.539040306169248,-6.000241576756391
859,-9.314456302325867,-1.0762770773089885,-6.651898044423651,-6.262328471103833
860,-9.092553104196382,-1.0978489388789734,-6.6174595986169455,-6.405850537830296
861,-8.754253965384558,-1.1779060274308182,-6.4296113228800875,-6.442748946636275
862,-8.303389860360321,-1.275078969846429,-6.088803469283316,-6.382529930854357
863,-7.735737072632829,-1.3370251901588879,-5.608469625048835,-6.21971409565478
864,-7.024668284789381,-1.3291158739217577,-5.016985817232985,-5.9456383763069045
865,-6.15285649485618,-1.2404117003643778,-4.349705123062862,-5.558576957295512
866,-5.142434567771024,-1.0699981735190904,-3.637929764933777,-5.0553708854091
867,-4.039545256217118,-0.8208789670161963,-2.90246630264947,-4.42259706073849
868,-2.889205871755596,-0.5012005902917297,-2.159166382347539,-3.6471969789507845
869,-1.7307757433971467,-0.12436731784005155,-1.427259786312271,-2.7473413175082184
870,-0.6115411818047535,0.2909737458763909,-0.7290461708499029,-1.786059070474076
871,0.4169352756403478,0.7216768846220498,-0.0821297605144525,-0.8417640159929693
872,1.3158384567004147,1.146357333844575,0.5122241055313058,0.04114085876797238
873,2.0709062305335433,1.5585269483991737,1.0740363326334306,0.8617372778331854
874,2.7050113801312254,1.9737921217168926,1.633454399673872,1.6215642882246575
875,3.2625774374592753,2.4139024014964896,2.209926250378452,2.297880857947224
876,3.7744998054564793,2.8851594396823432,2.8049702215242607,2.8575296578189584
877,4.246174417277819,3.375666677597449,3.414596004581431,3.2888960528429494
878,4.6775889104352295,3.860632320247313,4.035155507154079,3.6088372906321338
879,5.079870144168623,4.3046065997812955,4.656533299854751,3.83256550848623
880,5.452466390394436,4.6704117285943845,5.26135300937274,3.9538334037514633
881,5.759941437047206,4.933818691970511,5.833239647340655,3.9595773905915363
882,5.950088190105666,5.085206240578343,6.36364001170905,3.8528968318669405
883,5.993429189404976,5.125878955066327,6.850453759235259,3.6560158383924306
884,5.89660036049392,5.072492342801215,7.2920699988787225,3.404516055267492
885,5.678441796909344,4.954991192887528,7.6862199462300795,3.1423001633536143
886,5.374156590367488,4.83641439603758,8.03717359440839,2.8989178429357376
887,4.92899453072321,4.694287454033605,8.340765000666515,2.7044396850180177
888,4.341925859687496,4.526562716978373,8.595094310122542,2.584618571663224
889,3.6504427793368373,4.341830197825943,8.79321364940507,2.539391934563794
890,2.905476629794283,4.145211860323688,8.923576106978892,2.5391356431865
891,2.1436084750216087,3.9309042542247883,8.980178348319766,2.54660432148237
892,1.3891627401847508,3.6915642566699387,8.97081076248197,2.540958127743641
893,0.6843383697455069,3.4355744182373003,8.916169617944552,2.5211748839927797
894,0.08808948904508401,3.1859037253826634,8.841577910669317,2.492280114941811
895,-0.35555486499251704,2.9649937815339205,8.768009998754154,2.4556527197250726
896,-0.19022974429215492,-0.7670155933217606,-0.37691165319351283,-0.4536391127604889
897,-0.513204318717563,-1.4302719498439276,-0.8782603117037335,-0.9966304448023868
898,-0.9859584022809538,-2.26916857167158,-1.6299953901263695,-1.7907930708848006
899,-1.619873150292822,-3.242778445132743,-2.6452202665473212,-2.829067031068503
900,-2.4048028668423647,-4.310346911252323,-3.9117189775725842,-4.073316658557777
901,-3.315787419167286,-5.443031254206115,-5.393107789878928,-5.47569748221389
902,-4.326307307682635,-6.620229949804716,-7.034576558912793,-6.985807418959403
903,-5.414755400997312,-7.817996895874356,-8.769782767753576,-8.538922471229766
904,-6.5571692489096245,-9.002672851830527,-10.527695483851312,-10.050870760568193
905,-7.717741582342464,-10.151444953339405,-12.246287558664848,-11.441755424089004
906,-8.864225312949198,-11.293500489701003,-13.896962585052242,-12.6767873870221
907,-9.981895289254028,-12.431284089433928,-15.448886401781074,-13.729401285960526
908,-11.059906826924188,-13.544045768177561,-16.888360708852883,-14.5857718838252
909,-12.078895195402891,-14.584923244150847,-18.214465712755466,-15.231144430232026
910,-13.013330530327451,-15.49770061881891,-19.43501358336202,-15.66596835199504
911,-13.858910750729114,-16.241575970846114,-20.561642228003652,-15.934409908135434
912,-14.64596167942458,-16.80813955663417,-21.605180197394258,-16.11062292189381
913,-15.412615335019563,-17.22286900379143,-22.57335503160445,-16.24962767175832
914,-16.18349687008614,-17.536163861660516,-23.471306182696562,-16.370656562244427
915,-16.96631553714896,-17.80921508654096,-24.30353031488312,-16.49277741729195
916,-17.762200739867918,-18.097361643941795,-25.073171826593647,-16.661329645102285
917,-18.573695110677683,-18.43760337299179,-25.78122700776485,-16.924577317655014
918,-19.39958003488284,-18.847660764474185,-26.425876823221547,-17.297099183597386
919,-20.224387623158233,-19.335661774030235,-27.00010166017176,-17.75571060566965
920,-21.01014776162027,-19.909529968185108,-27.49473539589963,-18.275270407791155
921,-21.71501111839401,-20.577509664508344,-27.909891953971787,-18.862432952115835
922,-22.32897869483812,-21.337289801573263,-28.260483012281107,-19.54028175644671
923,-22.88464597383419,-22.156919114299352,-28.565245475539932,-20.31016078019698
924,-23.41989111449027,-22.974644653405658,-28.832939112437423,-21.141808424838334
925,-23.93695344837076,-23.732261752787633,-29.06203528754872,-21.989974036807197
926,-24.408933925789864,-24.399913593360832,-29.249190721490294,-22.811223335425847
927,-24.812553748202617,-24.96477104410656,-29.389674206414355,-23.563376385536387
928,-25.144026040760515,-25.41251577796729,-29.471513239381743,-24.188930845716953
929,-25.399730697899894,-25.727394994770947,-29.475911394589897,-24.620415310917807
930,-25.562820785763666,-25.89959123989071,-29.382467238041187,-24.817138807946172
931,-25.6130801838608,-25.92497815765137,-29.174331649044618,-24.781227308855428
932,-25.539655818048463,-25.806469646470504,-28.84057368227136,-24.538695778170965
933,-25.353252408038504,-25.55782667315609,-28.376637387622903,-24.110291690648012
934,-25.07088386343087,-25.197189427953663,-27.783530132935716,-23.502386856842538
935,-24.69190650064812,-24.736373535004915,-27.06469345187847,-22.73286436274818
936,-24.202606993614463,-24.182669726546735,-26.230142248944247,-21.841669636988243
937,-23.597716882736822,-23.548032407472988,-25.30399672030048,-20.87159094567992
938,-22.892848131354945,-22.84650513068732,-24.315226929921213,-19.847401254908426
939,-22.09898155703388,-22.085010876502054,-23.28208629529349,-18.774578100570643
940,-21.19875600602105,-21.26947151912716,-22.216133561715818,-17.66079045685711
941,-20.16974493049272,-20.420285708660625,-21.136188757455418,-16.528877823667933
942,-19.024713274949384,-19.567154487447834,-20.06815752078061,-15.418549881787062
943,-17.817170933661075,-18.72684888270135,-19.03346157377682,-14.375886419324551
944,-16.601835966500108,-17.897223191291708,-18.042003888626805,-13.432695596199876
945,-15.404547325382495,-17.067672605756467,-17.09657950421585,-12.594070948736391
946,-14.22820110127793,-16.225371722390744,-16.200289341267155,-11.849108174913207
947,-13.076989232470343,-15.360590706939075,-15.357250844402245,-11.191251155060922
948,-11.972002838865523,-14.472125219989307,-14.570563709177637,-10.614455278139404
949,-10.936552526039781,-13.5634970746516,-13.84318453883735,-10.099047839181496
950,-9.969739142078437,-12.635436282852728,-13.17994866632372,-9.611335332117871
951,-9.049929292722219,-11.690448750785029,-12.587521111269142,-9.124299369489453
952,-8.163973505972132,-10.746611421237699,-12.073347826424314,-8.636448615730847
953,-7.315494612761535,-9.834858614162297,-11.640928131038319,-8.158027010507768
954,-6.51498636119022,-8.978726104037664,-11.281857892557072,-7.69522456093833
955,-5.767968510861586,-8.183216140863424,-10.978802239288317,-7.250134150520547
956,-5.068113372844078,-7.442842740178014,-10.718204474254607,-6.833079750479094
957,-4.416532725166846,-6.7484408363690225,-10.491509480842577,-6.47700218597057
958,-3.8323135506586556,-6.083131261382638,-10.285776044879508,-6.223280268149062
959,-3.33629899624231,-5.426412471201171,-10.083846459237126,-6.08907630976741
960,-2.9311485871147136,-4.767095247162603,-9.872414294634806,-6.05231561984622
961,-2.5866961026046353,-4.107081245345302,-9.645039498992897,-6.073081700556083
962,-2.258731982266132,-3.4577474364818057,-9.3991562966155,-6.117777804349315
963,-1.9220876039848547,-2.8376874332783744,-9.13203071453792,-6.1557901510932975
964,-1.5824513486792053,-2.266769988029801,-8.840937255156348,-6.144219706831879
965,-1.2526596879518364,-1.75432995169854,-8.524252087721065,-6.0289094583122615
966,-0.9157389419370853,-1.3027516467406386,-8.179677836161112,-5.773632620996007
967,-0.5407579272357538,-0.921380822810532,-7.803794881224745,-5.38393291059321
968,-0.12473888629823508,-0.6202583367429322,-7.392297843117257,-4.8972167071455965
969,0.2969645310758312,-0.39570503246973326,-6.938507326127431,-4.351046601242441
970,0.6814641593590237,-0.23063999686601094,-6.432382205681185,-3.766173245546589
971,1.02772976072354,-0.10684714451025118,-5.861864703688451,-3.1543722485412977
972,1.3767127947558577,-0.013258333346850261,-5.215430272348358,-2.523430104779474
973,1.7665002072476002,0.05816993884032974,-4.484053141329235,-1.8748821143120273
974,2.2145227251544823,0.12476646245756551,-3.6635833419308597,-1.1938748026653223
975,2.7344973932476395,0.21823017502485864,-2.7559316159103604,-0.4477193390506202
976,3.3416744312014615,0.37344672177939076,-1.7686300754820428,0.3904354196564218
977,4.037591524660096,0.6143459881702894,-0.7157372001115995,1.3226047931744893
978,4.800199445648817,0.9471140911714989,0.38190375227840057,2.330490314463206
979,5.597770620914626,1.3571918969753298,1.4996774756472622,3.3958604997238524
980,6.420226100995808,1.8163332416504598,2.613364755654342,4.508784749304444
981,7.284018013609942,2.2996833690842022,3.70023981776457,5.649446436395615
982,8.201353435342131,2.783283690792338,4.73703274924731,6.769767521542349
983,9.15139918178263,3.2323460250095013,5.698011444391895,7.803663392704042
984,10.09625528830771,3.614684374288476,6.559483804240102,8.691962524052474
985,11.028271215573872,3.9140858852858287,7.307365705744776,9.395632187911515
986,11.967765337486643,4.125557339782807,7.935848760021092,9.90032725647026
987,12.926474327873951,4.252519686897404,8.442151563408547,10.202136200088747
988,13.897387774089061,4.306450265374129,8.824885257270271,10.285694710777646
989,14.864488399023323,4.304955680744709,9.08375118808218,10.137754841814973
990,15.814773590144647,4.268350581974768,9.219503130862138,9.778055719339722
991,16.727432047439873,4.2122920365233,9.235170709464677,9.263471630662972
992,17.561628701665747,4.142131584102054,9.133626779089806,8.65488487722963
993,18.267904246189946,4.05535564739354,8.91004984467306,7.980420224826667
994,18.802185103119008,3.9473416533726984,8.552409910877115,7.241127094415883
995,19.12772034793947,3.810044201319573,8.052993990793857,6.436534685206664
996,19.203279817177876,3.6287588544092078,7.419596030543263,5.573331822789347
997,18.99205040794558,3.3818717005588095,6.675072309648063,4.659863257813196
998,18.496197650648114,3.0389071283869464,5.848857461784318,3.7018370111870196
999,17.75510330595279,2.5732756847018594,4.974870923654979,2.7182759238653045
1000,16.808088301262288,1.9886668848847926,4.09410804243375,1.753568302748891
1001,15.688446209581937,1.3206492643753807,3.2538814433636927,0.8659321255507236
1002,14.444970937083971,0.6129357620620699,2.4961459640058608,0.10690701858176992
1003,13.139456183889545,-0.09821790523460827,1.8448586020892515,-0.5063301553603035
1004,11.817397335652942,-0.7799035298514282,1.310837524638612,-0.9855696894518158
1005,10.477826484797683,-1.394836085644981,0.9006208230237744,-1.3276863585604861
1006,9.09605396639324,-1.9062409024483442,0.617548643137448,-1.5047340982685353
1007,7.690629691861202,-2.2876655149977076,0.4611337450967645,-1.503792468852985
1008,6.330915089096244,-2.526449188404017,0.42652609951698084,-1.352876902059053
1009,5.087164128622048,-2.6241602006909215,0.5052815195463717,-1.097659517651922
1010,3.9893976693313506,-2.5951195427179647,0.6885385480107645,-0.7604851529802111
1011,3.035483163761091,-2.4586867964454338,0.9662977835095401,-0.33054404151749595
1012,2.2349410390815927,-2.2313338890241696,1.3202181012734144,0.20147659423066594
1013,1.614767284491535,-1.9250032034773958,1.7193390874415686,0.8183520716986349
1014,1.1973558382097933,-1.5918595580291723,2.1147897304086625,1.469594704677613
1015,0.885658845324941,-1.1783441131715733,2.4891036015809824,2.159126938698144
1016,0.5925885749820727,-0.6681867693266559,2.8296651349767945,2.8764324056092314
1017,0.27355568612666736,-0.07546826207065746,3.123368807751152,3.588048259635334
1018,-0.07844907753908714,0.5660768999580477,3.3574186447889773,4.24718078976573
1019,-0.4668252391774261,1.2171322410734298,3.5264769230287154,4.818482934891711
1020,-0.890710343124365,1.8436124568325354,3.6393103342340662,5.292230670378439
1021,-1.3221513432172312,2.4178062437354653,3.71461419193923,5.675755390153884
1022,-1.7100197769013126,2.9114583198954493,3.7677534515812674,5.969102520726012
1023,-2.0101005796555227,3.298339415713757,3.806672780150441,6.161869138671956
1024,-0.4453470160017154,-0.37005260823096914,-0.5192087885404894,-0.6225034805949916
1025,-1.118595906787662,-0.8952966454880166,-1.0887324046434474,-1.1112882562202746
1026,-2.074354778787125,-1.6658362462795717,-1.8967592626296819,-1.7120241034365948
1027,-3.301721674168594,-2.6841651953365018,-2.9445533157163295,-2.3736304771185592
1028,-4.7455923733766125,-3.922413063502607,-4.212114717146374,-3.042548464986743
1029,-6.322081360552642,-5.328519142820354,-5.661488622209952,-3.6816045497041885
1030,-7.943703446988274,-6.839239611796461,-7.23929415725797,-4.270728094019647
1031,-9.529873505297532,-8.390292779545558,-8.879303919228853,-4.794107550856336
1032,-11.005629118867702,-9.925729085783209,-10.514942540332713,-5.235059265070332
1033,-12.314552919919604,-11.415033394611152,-12.100951601627555,-5.5936996458704975
1034,-13.448529351315031,-12.874031015113754,-13.634306774575117,-5.917666850844796
1035,-14.433003695422508,-14.316356674564883,-15.093318209134663,-6.23512722175384
1036,-15.28927864355155,-15.742202032182322,-16.455058484509948,-6.552541899751034
1037,-16.005654432483006,-17.129362835688625,-17.699737695024595,-6.8545981954301745
1038,-16.55997860900474,-18.441442400294715,-18.8158329797636,-7.126005245102892
1039,-16.95126667070653,-19.640294972991004,-19.802371975707135,-7.365296974038787
1040,-17.202269302000524,-20.69783354609185,-20.667089709800972,-7.576526549823276
1041,-17.340630050848663,-21.599478261530162,-21.420824144668355,-7.76186373106342
1042,-17.386699360209434,-22.339312558410487,-22.075572160421732,-7.928454256375519
1043,-17.35710004104283,-22.91543125736994,-22.64730389308383,-8.099200273526645
1044,-17.280218027335906,-23.337035937986776,-23.155797449569373,-8.315635443870537
1045,-17.19975635314904,-23.635180549907584,-23.61937010988769,-8.620241452166274
1046,-17.164349438345628,-23.853603989545945,-24.050059042702802,-9.036559652094576
1047,-17.210327139277954,-24.026555241017764,-24.453253142776376,-9.569557296543994
1048,-17.345466572117022,-24.166607640437498,-24.83257731226606,-10.228362710421804
1049,-17.56241282130278,-24.268626377910877,-25.191788933348697,-11.047563100668595
1050,-17.855514408905833,-24.31763220541283,-25.52829486101799,-12.063521334901585
1051,-18.216519900120904,-24.29398671887989,-25.829634562738214,-13.267710134386185
1052,-18.62447040599138,-24.181790778542577,-26.075654755488326,-14.593344581691406
1053,-19.04275365589924,-23.97747687200527,-26.24349321341217,-15.951442687005363
1054,-19.437102477067516,-23.690583052888297,-26.313215814671356,-17.277187704731904
1055,-19.789863255115364,-23.336160089480963,-26.269890601141775,-18.52520970356162
1056,-20.0971163797074,-22.929488027097644,-26.102777883746654,-19.633181910158072
1057,-20.358394712764618,-22.48422276543956,-25.80335206300629,-20.52061365287951
1058,-20.56276213174689,-22.013811055541847,-25.367343109084818,-21.126759528875134
1059,-20.692625099993293,-21.537161495232358,-24.79946689858904,-21.44021450335238
1060,-20.743544243121242,-21.077887398266572,-24.114298810415804,-21.490792329383137
1061,-20.736074970574457,-20.653839645144853,-23.33271134122753,-21.32260534200611
1062,-20.694580589041788,-20.263005299507462,-22.478040783751418,-20.979723013679706
1063,-20.611212664775294,-19.88943978807403,-21.57690141363601,-20.51757070147351
1064,-20.45631758269091,-19.527523527043893,-20.66065940903005,-20.00976544475341
1065,-20.22360293060528,-19.185347357197333,-19.758389784874055,-19.52534480584151
1066,-19.94232857022708,-18.867439611779563,-18.884923218607614,-19.098983369378722
1067,-19.643021050070708,-18.562386354719735,-18.04367541982049,-18.73020998914305
1068,-19.3275404287754,-18.245976408113908,-17.24042844259594,-18.41319900151884
1069,-18.980825987127886,-17.893116373404034,-16.48584858312537,-18.145820581254977
1070,-18.60373932176756,-17.48903725172146,-15.78947614990474,-17.909880137436417
1071,-18.226973805259156,-17.033667641819143,-15.15601559673143,-17.657418362866665
1072,-17.88269608893326,-16.52994957659412,-14.583016010450558,-17.328330196236422
1073,-17.56708431690822,-15.969036112726286,-14.058323851830352,-16.888824606565358
1074,-17.247492135673888,-15.333877006617845,-13.564748825148925,-16.339137228313312
1075,-16.899687545158663,-14.613663142654225,-13.087924957152445,-15.692317795749316
1076,-16.519785622720732,-13.80578293561612,-12.615267308880123,-14.957693830673866
1077,-16.10022257709819,-12.908451501044494,-12.132238219971573,-14.138780165436895
1078,-15.612042711814203,-11.92188900488162,-11.628985375417292,-13.24226595164402
1079,-15.023404451787911,-10.854257449194836,-11.110816245771737,-12.28927163027552
1080,-14.334865252669372,-9.720658681239515,-10.596440927573108,-11.32008635538609
1081,-13.578533614105407,-8.53324744315745,-10.108435531278172,-10.376594527736962
1082,-12.775237441163993,-7.298989239701211,-9.668704189947384,-9.485306575821056
1083,-11.91447309839674,-6.0298409080432664,-9.296604181192835,-8.655979015800208
1084,-10.975022358230872,-4.748109161684035,-9.005582912402822,-7.890597918994595
1085,-9.954380776945907,-3.4857555523480026,-8.800602584041881,-7.200333747883186
1086,-8.878644084248764,-2.28257245320568,-8.676572881810126,-6.602837697124897
1087,-7.769545525667113,-1.1726893488053896,-8.616364968665636,-6.103972649003911
1088,-6.614406437531389,-0.16058480068257383,-8.58785769685308,-5.68360191886253
1089,-5.3860007705719,0.7689537441074134,-8.549778671239098,-5.3031198435413085
1090,-4.081269695474833,1.6132362765031518,-8.466582889696003,-4.932948897779367
1091,-2.7285064167788993,2.3501250543726986,-8.314522301567282,-4.5572634359086415
1092,-1.3573586781261682,2.9658224207504413,-8.074201654416282,-4.151986683455531
1093,0.021200199577713796,3.4668836594871366,-7.724421843592671,-3.6746139506279354
1094,1.4076517494438479,3.866876235955763,-7.252518635599849,-3.090205183499718
1095,2.7944176919674435,4.171868802301186,-6.666428601498181,-2.405721236778825
1096,4.155722627267289,4.3862145039423925,-5.986841744069702,-1.659848938357618
1097,5.455923248939929,4.523591874578116,-5.238210492391717,-0.8809804048846407
1098,6.665806257542228,4.606154833276825,-4.4497616911814895,-0.07037485879682656
1099,7.778660782448442,4.6560886839757245,-3.653178126474997,0.7670941398437121
1100,8.799022387957734,4.690897872726649,-2.8777939956481613,1.5883629063937699
1101,9.720635905622176,4.724151196612403,-2.146225240240083,2.326913476025507
1102,10.526412474676603,4.7647591292484766,-1.4668762757044485,2.937296609214356
1103,11.2018216841598,4.816058445815008,-0.8317438915209464,3.409143915365134
1104,11.74142181265254,4.874252217632199,-0.22673624205196746,3.74077466172563
1105,12.129084954096257,4.922528042107847,0.3587805311238524,3.918703039849783
1106,12.329828137707581,4.935509002810073,0.9288517545948566,3.9302179870894807
1107,12.311718073209656,4.908485911085259,1.4821432841753461,3.789912277819632
1108,12.065801334446501,4.871031196537836,2.012719135597407,3.5358940954461495
1109,11.616684894502148,4.857188148385383,2.505190213399361,3.1985158951549075
1110,11.00654508363826,4.879270932234101,2.9318049987567263,2.789978090204997
1111,10.269043108483274,4.935232957185531,3.261011515223613,2.320030646721435
1112,9.43105869696634,5.025976728163205,3.472612544056251,1.817387112241124
1113,8.534723313299049,5.156318391204069,3.558986801167857,1.3252084554101118
1114,7.645948754570141,5.3244111206559674,3.5161203077683094,0.8679961957241086
1115,6.8272071948035755,5.520073116930145,3.3433586320961086,0.4439261110797488
1116,6.095139304537634,5.730284311938746,3.045586389706828,0.04978284628823252
1117,5.424446497058566,5.940413232968111,2.632772482313452,-0.294801176965211
1118,4.795092987172471,6.139115284617412,2.1194280459822714,-0.551398833298993
1119,4.203049735074866,6.327869196810277,1.5227780086317941,-0.690142954404996
1120,3.6444562256494586,6.518744891656034,0.859257258141167,-0.7051568331579737
1121,3.1133704867347647,6.72254893767999,0.1425250931619129,-0.6163656634321912
1122,2.611962137751083,6.943774217872032,-0.611376081700818,-0.4573808431525188
1123,2.1658138043998547,7.185086701388782,-1.3768040835530673,-0.258366044176849
1124,1.8183039339793772,7.4468660984042945,-2.1175048730558026,-0.042460441720412176
1125,1.6087061547180583,7.712858265974696,-2.7939837968002683,0.16890609273006155
1126,1.5595990333529397,7.947766209106351,-3.369889117336753,0.34974136114839194
1127,1.682754867147698,8.118328868842722,-3.8131880266182185,0.4742601336797107
1128,1.9964041290120587,8.200317418749938,-4.100246123894278,0.5296308046183839
1129,2.5215864561588512,8.167327588688746,-4.220332319599771,0.5172116297122918
1130,3.256714433438992,7.989171201968798,-4.176877561356186,0.43609880145402224
1131,4.165882435292174,7.639200739487445,-3.9877630869628957,0.27024015917891453
1132,5.196218416787154,7.105080978717216,-3.681533601272236,-0.001038494072052587
1133,6.308856596742857,6.401115923337805,-3.290040683811454,-0.3862431441571762
1134,7.486944021597311,5.567719407967777,-2.844729188499581,-0.8747981325897249
1135,8.715009771147727,4.655557199351963,-2.3760792386070344,-1.4487040922740706
1136,9.967867520240103,3.7130789845858163,-1.9114682163927708,-2.1030898493410115
1137,11.21346440961123,2.7876070972532774,-1.4711457401731487,-2.8333090771291416
1138,12.409125792618685,1.9321401869293862,-1.0632257799557001,-3.6003461218111195
1139,13.508022887376418,1.2074635737563508,-0.682368714788264,-4.328311058654823
1140,14.475585136995015,0.6644170684326787,-0.31929711244410225,-4.944190060681857
1141,15.291117921249892,0.31736636744129126,0.027125534036241787,-5.412527800145762
1142,15.961284213327732,0.10541931687090876,0.3534955533921302,-5.7627219627662045
1143,16.41083071003064,0.06870846948040445,0.6429313292617823,-5.940122511647031
1144,16.610762478834552,0.21220843621920454,0.8834130619712982,-5.923432566094622
1145,16.571173402099827,0.5103956713084857,1.0669935258124432,-5.731118281726507
1146,16.33247151203276,0.9180776974409819,1.191144929484845,-5.410470993183534
1147,15.955171080131153,1.38400934306427,1.2588880187683469,-5.014853644900116
1148,15.50842402681196,1.8597505697447203,1.2778308015864437,-4.58949352933571
1149,15.057461755335735,2.3021377078925402,1.2589077194840206,-4.173282574560757
1150,14.651923310289309,2.676043634706786,1.2146737360792932,-3.808167347958345
1151,14.321021172165189,2.96023991703586,1.1590967979295117,-3.5327368657825273
1152,-0.4147708639013156,-0.3564757865376639,-0.5199335458743302,-0.4672247257807483
1153,-0.8935245119055135,-0.7013880462398479,-1.1451205929498474,-0.9917917861635419
1154,-1.5593337050869012,-1.1877678224569523,-2.039929969578819,-1.723562041387412
1155,-2.4174570823366013,-1.8098609763755296,-3.1948401330734484,-2.6126254597226977
1156,-3.4631767064356445,-2.559509249757342,-4.574783687846546,-3.601386890218355
1157,-4.678630572588934,-3.4344945427880984,-6.12716667628041,-4.641074244146209
1158,-6.025615487140276,-4.435762494578474,-7.789449626643579,-5.692247554919451
1159,-7.446928701121666,-5.56288080996705,-9.496799384296123,-6.721165189829957
1160,-8.874997654258406,-6.8115545655380325,-11.19202107189955,-7.707585571599926
1161,-10.246624258026737,-8.173825358656066,-12.84034835074969,-8.665165536123
1162,-11.522751134308972,-9.647156112632949,-14.449756448058954,-9.653130478078122
1163,-12.661716140629414,-11.19566056729348,-16.011489920859486,-10.698598609720973
1164,-13.608312903060396,-12.768577437653388,-17.517241188906404,-11.800426446603135
1165,-14.29669881433809,-14.312552291400026,-18.960352881629376,-12.946319956001897
1166,-14.67986555413296,-15.785458990172154,-20.340410798048932,-14.137505330027908
1167,-14.75868799585429,-17.16306635038314,-21.662304402582812,-15.378397858701483
1168,-14.580825841041412,-18.425789028496652,-22.927720704035558,-16.644068172052883
1169,-14.197388025826278,-19.545849981050587,-24.128050555205903,-17.88043877278184
1170,-13.63471330457679,-20.494664723647087,-25.249215353832255,-19.040025331411414
1171,-12.907302475748706,-21.258284927707457,-26.283158920700554,-20.099606313315718
1172,-12.032635361942882,-21.83464252103505,-27.227816100391937,-21.045428391500003
1173,-11.037375177656743,-22.212082520300882,-28.077653070072376,-21.85105232966157
1174,-9.96078386054765,-22.366284621286702,-28.82022513025753,-22.477538740890477
1175,-8.851152406472877,-22.274642289927602,-29.439100607665086,-22.890485716943637
1176,-7.753447495848825,-21.925808626227276,-29.918864481402075,-23.073127656019828
1177,-6.703565799721401,-21.327396559831673,-30.248921451193294,-23.0352354151176
1178,-5.735596479551271,-20.511249983128863,-30.424268399613126,-22.805979399344878
1179,-4.891416970559027,-19.529733552682497,-30.445389441991125,-22.418233943391357
1180,-4.219429541192179,-18.44631343367022,-30.31935986599577,-21.900976557802753
1181,-3.760352426947586,-17.329376762540043,-30.060104876270195,-21.28855513873375
1182,-3.5337616944722177,-16.24790286515499,-29.684856858654868,-20.63330676331763
1183,-3.5314086702194487,-15.26518458871598,-29.210181471248152,-19.982801111497047
1184,-3.7164326119643762,-14.427138912611943,-28.649683521219902,-19.356497270577282
1185,-4.027633392535318,-13.753298541717884,-28.014624902807405,-18.757600067706278
1186,-4.393700634336882,-13.247114367285402,-27.316631850569177,-18.19141642205893
1187,-4.756998200574178,-12.904721109380901,-26.567257719014883,-17.67927939374124
1188,-5.07690681524472,-12.710960201896295,-25.772513393325664,-17.252281360111397
1189,-5.311916714613489,-12.64136292829576,-24.92967780137354,-16.92544876511954
1190,-5.418761296889039,-12.670545008629453,-24.035925153644,-16.68413015038696
1191,-5.364615060139027,-12.775698216511826,-23.09991143699519,-16.501330662941854
1192,-5.134782477870004,-12.937357283897384,-22.142815801035965,-16.36377653652476
1193,-4.740644151475721,-13.142713541072192,-21.192763055230095,-16.271341761475416
1194,-4.224545807579238,-13.382473435268949,-20.279467472056677,-16.214229802985777
1195,-3.6398804942575125,-13.645413372822196,-19.43038610114652,-16.155598977586248
1196,-3.0176287434480185,-13.915368961294153,-18.667040595129095,-16.053657724565014
1197,-2.3619698506379025,-14.16953590539996,-18.002086232899757,-15.89472923943766
1198,-1.6820013120091848,-14.383973644015263,-17.43881768702652,-15.682786780470025
1199,-1.0276911152682908,-14.537859739139344,-16.971184946764797,-15.402154147775414
1200,-0.47227948971714867,-14.61523169912299,-16.5838761091845,-15.008443369511872
1201,-0.05663283579383157,-14.61366514412499,-16.25798003068259,-14.465543161377997
1202,0.21935836466657238,-14.550926979230661,-15.981589480885255,-13.77281626681147
1203,0.3637037111807654,-14.45487178355387,-15.751950437052878,-12.950957140292713
1204,0.37005703485077956,-14.34527888487257,-15.570431499742112,-12.016537412770173
1205,0.22631788013582715,-14.226981918684857,-15.441582158986131,-10.975504101020645
1206,-0.06200992314021145,-14.091837727009173,-15.373932828158082,-9.844253830674292
1207,-0.46763503452381616,-13.923125232638215,-15.37578750669589,-8.666576837984334
1208,-0.9591733839711858,-13.6959377504925,-15.446464973557505,-7.497006734638127
1209,-1.5285842154672413,-13.374405699359011,-15.575195623213608,-6.365613049896998
1210,-2.184474515715901,-12.919970321714148,-15.747024465904564,-5.2730796132102675
1211,-2.9092059175892526,-12.307081087347813,-15.944045829974412,-4.220435050688772
1212,-3.6659033854831593,-11.538526426201074,-16.145473406137732,-3.2300718773956634
1213,-4.447091645466075,-10.655329692845758,-16.330254283845974,-2.3412802234966987
1214,-5.2777478227805315,-9.730568957722852,-16.477915996758632,-1.5834676584731284
1215,-6.171986775355016,-8.842611453992312,-16.566452805306643,-0.9671767315271129
1216,-7.098644328219972,-8.048165377692198,-16.57740632700544,-0.5045189564384487
1217,-8.00891387697975,-7.383950227141469,-16.506502865871255,-0.22010153675663444
1218,-8.905760209857633,-6.8791657355685825,-16.361548957469562,-0.13890934498293275
1219,-9.841339836324611,-6.552366891782582,-16.151779468137512,-0.263151334872058
1220,-10.846570264801802,-6.405218924363125,-15.884689299007327,-0.5677792830369426
1221,-11.905567129415168,-6.421575647211523,-15.568677244154449,-1.0108980673656394
1222,-12.979036586999845,-6.568717031258776,-15.212067946149988,-1.5491538733452637
1223,-14.032294754803795,-6.80473578890456,-14.819600537959552,-2.1575085420338906
1224,-15.045553471326832,-7.08980395755153,-14.392308686587604,-2.8216796569427993
1225,-15.99677052005124,-7.392890322109471,-13.926055986448223,-3.513899624522947
1226,-16.8448466361563,-7.69602121289849,-13.40844533904281,-4.18568084116691
1227,-17.537996879796786,-7.991227699964432,-12.823740570191795,-4.786482527965322
1228,-18.04519087693422,-8.26892619247403,-12.162735165654277,-5.288395386343958
1229,-18.37182647194601,-8.513793358380294,-11.42789693553409,-5.686943091910734
1230,-18.54491723055735,-8.70268442732562,-10.631767485048565,-5.985864292387363
1231,-18.597715708335134,-8.805572842555533,-9.792376182466962,-6.184369955241048
1232,-18.557363202019605,-8.80088837136496,-8.933293967507431,-6.2867702990042265
1233,-18.445061987335027,-8.687152374907727,-8.083834655510902,-6.319747974314249
1234,-18.28024006399849,-8.471699994706025,-7.2699321731822595,-6.321799211074364
1235,-18.066582896236753,-8.14781731357736,-6.508349468750088,-6.320497394269975
1236,-17.78586952803341,-7.7002316865132485,-5.8123366361298485,-6.321166872645392
1237,-17.409774951024506,-7.132606579499742,-5.193960659092706,-6.317250914490972
1238,-16.91414632672984,-6.472495362192868,-4.658293260715285,-6.311429849783921
1239,-16.285972947058262,-5.758510733527174,-4.198873932025033,-6.3074335277828775
1240,-15.526644061965083,-5.028526455753763,-3.7978174407872523,-6.272880355424851
1241,-14.646232089839868,-4.312076825836019,-3.4276477218686088,-6.137113103519406
1242,-13.652509329838804,-3.628657386101527,-3.057465777551605,-5.848043456897095
1243,-12.56310416114768,-2.9905689968625726,-2.664392704164162,-5.416533984391974
1244,-11.4322887537831,-2.40560126481468,-2.233055259419057,-4.894328925200662
1245,-10.36470708665664,-1.8760296508261454,-1.7433872030210664,-4.322129085105332
1246,-9.469866032323162,-1.3970727028572627,-1.1715263935557867,-3.713808074436179
1247,-8.789144365669452,-0.9612478535102214,-0.5017944675032975,-3.0884659251828825
1248,-8.304291510764726,-0.5676257972725737,0.2666682496266827,-2.4978492212637757
1249,-7.9999456565812,-0.22118528295017778,1.1224216150313064,-2.01087266140694
1250,-7.8802920326476515,0.0774974451719079,2.0490484731781975,-1.6752735271916461
1251,-7.935577727771754,0.33272188358481475,3.0266472921035863,-1.501657800983969
1252,-8.121603863633293,0.5447705177071576,4.029079215378156,-1.4837230338471603
1253,-8.381224629744642,0.7097929675744856,5.027417029228014,-1.6155063147527993
1254,-8.681627340434424,0.8293022076081279,5.996263635328605,-1.8804617540517958
1255,-9.021267857435378,0.9082622115556253,6.913683422354231,-2.2315380044020894
1256,-9.405157694666741,0.9477336506546116,7.7589080328183835,-2.598354638289144
1257,-9.829133084971046,0.9502420565046461,8.518842050558455,-2.9210521499356137
1258,-10.274927212231432,0.922951466731217,9.196943765303317,-3.165918882790497
1259,-10.723589632607919,0.8714041345741408,9.80774760311963,-3.3129839128012573
1260,-11.172060692834085,0.7955081398059338,10.362512703337297,-3.3354536557165697
1261,-11.60131781014389,0.6917264750175003,10.864090322289197,-3.1985377730761573
1262,-11.940986504063577,0.5575318192306468,11.308584637411926,-2.8816492543282184
1263,-12.103603312264829,0.390854750922759,11.687670014205457,-2.3915935275159637
1264,-12.055439804668701,0.18787467046050088,11.991628338806985,-1.7566211055607865
1265,-11.823646310386897,-0.05108289128136886,12.213110641218138,-1.0027476738751047
1266,-11.439714823246144,-0.31570382937244323,12.352976962249475,-0.14220853128886504
1267,-10.914835455500274,-0.5869649661632187,12.42040225830305,0.8106689381873768
1268,-10.2631383446194,-0.838255043053613,12.425594209961092,1.8226083144197849
1269,-9.525463341863512,-1.0338635110248149,12.377303706466712,2.8346974590949787
1270,-8.812423829925226,-1.1657873680559,12.26919440545218,3.7304406690791074
1271,-8.0940662255949,-1.1486386816012162,12.143053782132469,4.565584249299664
1272,-7.352278463759861,-0.9429015317086585,12.034017628700536,5.36344423467076
1273,-6.587753843368882,-0.5508722180077371,11.96619101342979,6.1236485632083815
1274,-5.8247722311980565,-0.01153026497782704,11.947441354012517,6.8382522900892715
1275,-5.103478720736467,0.6120249782125834,11.969084662312504,7.50228369700442
1276,-4.4609159829610086,1.2520577026305386,12.015625423261099,8.11437048207481
1277,-3.9098167769954637,1.8488106141659364,12.07756968114558,8.671190207945779
1278,-3.4455497999448372,2.3540069457581505,12.150800056756982,9.158788904869068
1279,-3.0760937822502186,2.73398716944919,12.226676370534829,9.553446982412337
1280,-0.41770282127724845,-0.4093133531203344,-0.5441193361321071,-0.47069434209011657
1281,-0.8946542945311377,-0.9155636379100704,-1.0893312288624657,-0.9640206434661032
1282,-1.5154396069550597,-1.6531498251506136,-1.8307813073102819,-1.6757924807659341
1283,-2.2431136608231084,-2.6291755791526645,-2.7611217324312065,-2.59866411000004
1284,-3.024302580291419,-3.833879477457143,-3.8601780313749194,-3.7185337905540634
1285,-3.795681436829027,-5.242660687721129,-5.095741087855475,-5.017784966691802
1286,-4.497756467159355,-6.817192948236336,-6.425992394156784,-6.4585177224445225
1287,-5.079980128874032,-8.508248308662418,-7.803279258463232,-7.971008397890606
1288,-5.491526135751044,-10.263994458388423,-9.183788139540534,-9.477443439920147
1289,-5.6957448006858336,-12.044779175645688,-10.543760803900952,-10.940820791228386
1290,-5.710566953843007,-13.840875503720104,-11.899033009290603,-12.3849411126297
1291,-5.59003318967917,-15.623897028145686,-13.244075627316802,-13.80740446711719
1292,-5.413023086703353,-17.363142694755492,-14.566237841248851,-15.179996735349066
1293,-5.241767186695034,-19.02766618924369,-15.851315414028718,-16.470633111542778
1294,-5.113404661439712,-20.589432173762326,-17.09178362448282,-17.676139922812574
1295,-5.060827163918126,-22.021797180016847,-18.28491563878177,-18.809062116499824
1296,-5.120904118650888,-23.292392778679343,-19.426545613555763,-19.85840193208732
1297,-5.320878125503447,-24.368758621142582,-20.508626937875814,-20.786826571336803
1298,-5.6560967728100495,-25.233224798736437,-21.520620665873388,-21.55566171613053
1299,-6.091851946632887,-25.88621913180839,-22.45222395687921,-22.138158657544263
1300,-6.590201118870005,-26.34304869372464,-23.289635974603637,-22.525230984100247
1301,-7.130704931404887,-26.62670516252592,-24.010536705721446,-22.707825214146364
1302,-7.703214178350112,-26.754996905419354,-24.586077768169833,-22.65813363003253
1303,-8.280985350061965,-26.73450081226141,-24.984188638045104,-22.352130134484327
1304,-8.828929468949477,-26.566372187953146,-25.17876491728093,-21.793847484466767
1305,-9.348794288906056,-26.254919842148304,-25.161516666828458,-21.015467632616076
1306,-9.890081850960671,-25.80686149641783,-24.940669025958616,-20.051253474186634
1307,-10.498106184334723,-25.224152400706927,-24.533272838043235,-18.922928355222368
1308,-11.162418783052885,-24.507693030519995,-23.963933720971056,-17.666690882624987
1309,-11.832410913507022,-23.66960130243947,-23.266262888063377,-16.349619642486264
1310,-12.4701429902039,-22.734087040358254,-22.479288571059175,-15.054665804012437
1311,-13.07042522556897,-21.725760473521486,-21.63922629184945,-13.848069449323127
1312,-13.633571502609254,-20.661777678951953,-20.77617539153714,-12.7642879007881
1313,-14.13735277162752,-19.556139747037392,-19.91732848213784,-11.821045809189307
1314,-14.545930299576645,-18.4240914386418,-19.086525644189503,-11.027816686367192
1315,-14.839995440413396,-17.279298029665668,-18.298265011047935,-10.387594982695427
1316,-15.028875041646877,-16.1342795079088,-17.553223327935683,-9.894770779909772
1317,-15.12669268412662,-15.003259715751549,-16.845312380869533,-9.523820338393488
1318,-15.136674082217414,-13.906484693582954,-16.173895141256978,-9.22923227882382
1319,-15.067501101570452,-12.877646737227998,-15.549005880719104,-8.98163009395773
1320,-14.955058023030656,-11.959774956002287,-14.992722696351663,-8.795742506277927
1321,-14.856079632090779,-11.188523431241178,-14.534316391364849,-8.699566327972288
1322,-14.808014075211318,-10.57796300573814,-14.194885789074647,-8.693880546992723
1323,-14.81447583060718,-10.122074852462747,-13.976181192928962,-8.74956566571499
1324,-14.869509058472,-9.80654788193105,-13.867598058228822,-8.836398409212586
1325,-14.979350298719387,-9.609252280867448,-13.854747849824864,-8.938402112022063
1326,-15.154215003639163,-9.493441657073022,-13.918870674307597,-9.03971571918142
1327,-15.381279783642055,-9.413566906771143,-14.037406818653155,-9.11622134119256
1328,-15.618745221579184,-9.33125538075871,-14.1873514370892,-9.140257104412806
1329,-15.811556815769771,-9.224955214465252,-14.349450687715532,-9.098453622885184
1330,-15.919347965686816,-9.085828693306192,-14.510810101023395,-9.007696583308006
1331,-15.927829892185178,-8.91131140594578,-14.663584571849292,-8.900201992540252
1332,-15.832967252062353,-8.707100859014147,-14.803488859402375,-8.791995726482641
1333,-15.627818497100039,-8.48429571363543,-14.930735303905982,-8.670656633108734
1334,-15.29819079804791,-8.250001572367857,-15.049286118991592,-8.522480725428611
1335,-14.838607065579431,-8.00534735356983,-15.162579262869931,-8.362246874264645
1336,-14.27154596919988,-7.748136973192947,-15.269107102536372,-8.218101876368634
1337,-13.646537528410649,-7.473144364716242,-15.356660624635701,-8.092242628630432
1338,-13.018384194811516,-7.170290310117975,-15.402635869053043,-7.954902324582701
1339,-12.421128547194936,-6.831905222621017,-15.385539120960123,-7.783059683201752
1340,-11.869987966612658,-6.465474153924418,-15.294902182686604,-7.579923577113262
1341,-11.379606532090966,-6.089598392232233,-15.129489754074164,-7.3574407728546545
1342,-10.976813499178293,-5.722885350632791,-14.888351994612332,-7.118629512078482
1343,-10.682403677851187,-5.384365151502048,-14.569496706893203,-6.856957211618387
1344,-10.4732334125216,-5.096941384961328,-14.176523943188162,-6.571146574654779
1345,-10.293457578887079,-4.886764332600924,-13.723137138443944,-6.273167786136721
1346,-10.10327758428913,-4.776597568826629,-13.23038431309752,-5.978070676609027
1347,-9.895241078517264,-4.773252200481835,-12.718022342610196,-5.6840605969642635
1348,-9.670834224405517,-4.861659936109071,-12.1978328873229,-5.373009368268906
1349,-9.421057138347619,-5.008300164007385,-11.672468081935731,-5.0409368388053055
1350,-9.138180396466183,-5.1727138582440375,-11.140616683665248,-4.715149761110442
1351,-8.84245563726253,-5.328483526560932,-10.60487203172971,-4.434486993278293
1352,-8.588641583764,-5.472421373396703,-10.073527741363714,-4.217207647946697
1353,-8.4265222925357,-5.612943436814592,-9.556908093154767,-4.057778292692138
1354,-8.356911279352566,-5.759125989771219,-9.06293364605393,-3.9546268035367866
1355,-8.345678028080481,-5.919609305751166,-8.59905408445733,-3.926335468955231
1356,-8.370766457242441,-6.097584685266401,-8.178480070594794,-4.001468767294677
1357,-8.439468453198318,-6.278058104928427,-7.817392160781709,-4.196759370559256
1358,-8.557392478436627,-6.428978372788434,-7.527688840865049,-4.5066601584944275
1359,-8.695937274791115,-6.519714259710969,-7.311824086687302,-4.908000473980688
1360,-8.811882373055326,-6.530690243336746,-7.161480879986769,-5.368333745298531
1361,-8.89636832923141,-6.451052879651157,-7.059317474693759,-5.856435191551843
1362,-8.979929251172864,-6.279834970409923,-6.980213322230751,-6.338500753865941
1363,-9.085100973970231,-6.031080204549785,-6.900038679676847,-6.7664664776226635
1364,-9.200723986721776,-5.736980444326731,-6.80154953325057,-7.0889591158868885
1365,-9.304916163672248,-5.4424543169414035,-6.662875900392976,-7.275934406688604
1366,-9.391004763188258,-5.189579103910478,-6.457546919051185,-7.327465302093413
1367,-9.463337117016225,-5.003598875151295,-6.173213408670229,-7.259968314256117
1368,-9.524469775606835,-4.89015614752423,-5.807775625407722,-7.091667957157429
1369,-9.562151221760447,-4.843318387337128,-5.35031743612899,-6.84004682345649
1370,-9.534576762324814,-4.858522526930166,-4.785386830461883,-6.520199494786619
1371,-9.404728569563119,-4.934766151226972,-4.107163397360507,-6.146311667010915
1372,-9.181041908322191,-5.0602706294588495,-3.31878340520974,-5.739205051533416
1373,-8.893842041437056,-5.201664732253995,-2.4215163538613886,-5.322793290040966
1374,-8.562928060832384,-5.3226061210947035,-1.4164934071898818,-4.919364772656791
1375,-8.19793715864452,-5.413372406363062,-0.3131181213199416,-4.549417260927665
1376,-7.8228701526318964,-5.485228933567708,0.8684368266838283,-4.22074820648779
1377,-7.490102547444119,-5.544831296053135,2.077170885210599,-3.932138879003841
1378,-7.258052280962389,-5.584349824179528,3.2561843819180543,-3.6880395043418814
1379,-7.175630161630786,-5.589459080267235,4.41388271563867,-3.4949535016452162
1380,-7.308867048640595,-5.5389552321720235,5.621783793250831,-3.4086241593576343
1381,-7.771875152782759,-5.388500260410461,6.963437087663687,-3.606145158734664
1382,-8.699968912888531,-5.073165195842232,8.484291026551249,-4.299355913487044
1383,-10.182273029083726,-4.528368058535832,10.158385551741024,-5.576081188248614
1384,-12.24863747236495,-3.7070729683463792,11.905914585172559,-7.387700907373712
1385,-14.836898998143162,-2.6000292041396404,13.613157937729573,-9.591348913306707
1386,-17.69936019520378,-1.2553504421568038,15.121849676917025,-11.939556929331019
1387,-20.476854109007284,0.23071304398693862,16.23118257269466,-14.123525241204138
1388,-22.854625138664016,1.7442393569939494,16.757152697566617,-15.866399967355768
1389,-24.573967863565887,3.1649283953377028,16.610924850281755,-16.94705997979438
1390,-25.491076879007018,4.369093087646363,15.801557881670519,-17.235238287080065
1391,-25.70870668637251,5.263490814084933,14.384268782469428,-16.797081295248812
1392,-25.525372027690658,5.822214267642456,12.455012248713748,-15.897371637669131
1393,-25.280408108991715,6.083791904871969,10.18125849765393,-14.88037037397071
1394,-25.232687813420874,6.124788168297113,7.777530874123116,-14.050802231262226
1395,-25.45904113349248,6.045291881827693,5.412320730127841,-13.56955407763294
1396,-25.833538961311092,5.969892664037537,3.114447723660085,-13.380745520314335
1397,-26.071913555490454,6.0271150932456745,0.8020604008179272,-13.220314973483124
1398,-26.011477210033256,6.115566356634446,-1.536955856213599,-12.953629997192161
1399,-24.835167902978235,6.555062637673342,-4.024267258775241,-11.692106422958338
1400,-22.106235764634526,7.4816985995843766,-6.669421451876595,-9.003217535333985
1401,-17.74699874622275,8.899414632187128,-9.398040835033877,-4.863299238326131
1402,-12.012423082043986,10.726137772614617,-12.092630242328203,0.4747488510154615
1403,-5.472499351440072,12.834607357079797,-14.61268838857308,6.536079442902502
1404,1.1184652570846965,15.067432491877124,-16.809086142512264,12.706128519156453
1405,7.071289405352197,17.239707222900662,-18.5638116528853,18.387631148699448
1406,11.883351992053711,19.16908769408847,-19.840286153268316,23.097055225595035
1407,15.268291036811885,20.7222078981013,-20.675823863478726,26.517053600293053
1408,0.008259639067509903,0.6815598575713194,-0.7692251163709444,0.43267681311348843
1409,-0.007301371147437822,1.532471642155489,-1.6761422450238699,1.2761986362499025
1410,-0.03151381534771246,2.710153031121334,-2.972063180858842,2.530338299315291
1411,-0.03952932921011926,4.2239845666519775,-4.67301094220904,4.185172296288486
1412,-0.018006524463635404,6.058294280643714,-6.772614829882768,6.16397028899817
1413,0.027902207309857797,8.157900113320188,-9.233859423090006,8.337379325614371
1414,0.08488039255464813,10.4371332768417,-11.992167419237235,10.555524300730275
1415,0.13846114031054094,12.817842939889315,-14.967245635949482,12.672566916136576
1416,0.17386821432101707,15.240359109935378,-18.0764772414056,14.55505816984088
1417,0.17800175038775495,17.65299449368351,-21.253051974690088,16.089410196320767
1418,0.14148797807007507,20.02960268657968,-24.471616852863555,17.21464603744672
1419,0.06252059316806989,22.32462484082995,-27.658336144253212,17.907968472860667
1420,-0.046398298357891346,24.45044133397702,-30.72660049161189,18.20303072566125
1421,-0.1602367224817398,26.29203524294975,-33.59389995603378,18.156487871381984
1422,-0.24901684658099132,27.76749320067583,-36.19182434915456,17.794917475516005
1423,-0.2835443612936813,28.845889796462597,-38.45874457090283,17.118349092185163
1424,-0.23947119903289985,29.527404288784112,-40.34018972207908,16.156294813097535
1425,-0.09987479209415906,29.839427523027915,-41.80331311971711,14.97848544749313
1426,0.13649490824779403,29.836678338125985,-42.837217938076655,13.64851928731768
1427,0.4407227983266646,29.576901495041515,-43.43994677443204,12.188067888127241
1428,0.7639734217883153,29.102431497853125,-43.6139891859658,10.605013604250956
1429,1.0713122304573732,28.443166068629647,-43.370808400174596,8.93234150264482
1430,1.346449307055211,27.618839195488484,-42.73518452006906,7.223543041260429
1431,1.5747266910296132,26.626096308649085,-41.7422247025222,5.521609259431164
1432,1.7434465235875687,25.412731852467065,-40.433799927332856,3.8334471919549573
1433,1.8500559917052926,23.899036186472195,-38.856696509211766,2.150689303067888
1434,1.8959308901629812,22.042553613850938,-37.0578884722614,0.4868251770160991
1435,1.885904560948272,19.85279713992929,-35.08183168275123,-1.1254256927121375
1436,1.8485505352656664,17.36816159444794,-32.97211418071618,-2.6643628446581755
1437,1.8242829283286206,14.6468026517845,-30.773721939611846,-4.132136385191483
1438,1.8253865806017526,11.761480068300012,-28.525981701151398,-5.540269498947498
1439,1.8190076637063783,8.789320143736978,-26.25047299226651,-6.884127966749991
1440,1.7484447030021235,5.797767777330906,-23.955979112423858,-8.142097380580196
1441,1.5768169436580115,2.8345762888364696,-21.654707024574684,-9.311665823530717
1442,1.2954568565227365,-0.07297676226142258,-19.3681738001732,-10.4207634714375
1443,0.8963867510113539,-2.9186990696819852,-17.124295652510316,-11.502645369290335
1444,0.35527460155669177,-5.710353407966613,-14.952354662243655,-12.57062720668963
1445,-0.35630285493543773,-8.4542941450495,-12.878520846766385,-13.619146489331687
1446,-1.245463735694986,-11.152144267429762,-10.926741337178012,-14.662850943558286
1447,-2.2888653499374287,-13.804531245594838,-9.123405794678396,-15.749492850536727
1448,-3.4459408319460656,-16.410443709312844,-7.497423940747703,-16.92628645355234
1449,-4.6863928683844716,-18.955922815646556,-6.070830457143562,-18.209787291145428
1450,-5.98846264238371,-21.407429351678537,-4.85040898554488,-19.58406317167637
1451,-7.308803759023403,-23.734095755252078,-3.8317554910918226,-21.02208635217924
1452,-8.588896334512215,-25.92350280479763,-3.003559520286405,-22.49684297101863
1453,-9.798607407123502,-27.972221296642942,-2.3478309919386677,-23.981339032265765
1454,-10.949846466269584,-29.8779480598874,-1.8420742503439218,-25.445128256728232
1455,-12.052059432165802,-31.634090548612235,-1.4629377217128083,-26.84787385621332
1456,-13.084390855503695,-33.228576857588806,-1.193441819960179,-28.14448990011691
1457,-14.024027974901792,-34.65057588762981,-1.0228051957515716,-29.29967581890966
1458,-14.882096811107058,-35.897291335943486,-0.9374098359259951,-30.29460088709315
1459,-15.698135824124302,-36.97701007085117,-0.9196550170471895,-31.117166610038733
1460,-16.49772475794299,-37.907534121211285,-0.9511996157312559,-31.752840520028897
1461,-17.274084257845406,-38.71120589136146,-1.0115159662322897,-32.18473730260105
1462,-18.00157577442154,-39.4121425266095,-1.0811264988665452,-32.40744641120524
1463,-18.659598550282613,-40.03666512032337,-1.1483223674753822,-32.439123050584676
1464,-19.245530964234543,-40.60979947424907,-1.2064520928950773,-32.30767391266543
1465,-19.759242954498685,-41.14867253466409,-1.247443865527037,-32.03530177624641
1466,-20.185370852311312,-41.66135764301457,-1.2614313471661147,-31.634696906272563
1467,-20.49962806130104,-42.154191664318326,-1.2426495172040404,-31.123129738234507
1468,-20.701933619665024,-42.62791606822651,-1.1910267861644943,-30.54549607834004
1469,-20.820951068478514,-43.06270202777442,-1.1047070576883962,-29.96069783572531
1470,-20.881039784082045,-43.42488311598902,-0.9750431530995202,-29.400486742353046
1471,-20.882774315141255,-43.68846303190355,-0.7893589251594291,-28.855314632239015
1472,-20.799013152261193,-43.84583380550392,-0.5385745466821907,-28.30133837552775
1473,-20.604266388182733,-43.90316166535144,-0.2235565876361223,-27.722683159143433
1474,-20.30853306241817,-43.875338846218206,0.14227842117673928,-27.111450306168656
1475,-19.953104820480462,-43.79055393235234,0.5345623826884643,-26.46145779486551
1476,-19.585710580798967,-43.688079665640366,0.9248389105004009,-25.760570923136633
