,TP9,AF7,AF8,TP10
0,-0.22028121045946064,-0.6194834446249968,-0.41951365065047247,-0.15640412816399496
1,-0.5614874125944449,-1.3798180645177553,-1.0003525727623421,-0.48949170132880315
2,-1.1028667256403388,-2.4732440721027853,-1.8342551541244765,-0.9729273047053097
3,-1.8614293164465112,-3.9019964355821593,-2.9215112930600853,-1.6119901963103498
4,-2.8378440442732447,-5.639421058087349,-4.247199172724251,-2.4118743214958602
5,-4.013414825598682,-7.6279034755550175,-5.7783299400144115,-3.354862213177623
6,-5.3506359855595695,-9.779896257428822,-7.460742875578791,-4.390823059112581
7,-6.793216995092571,-11.98627921645128,-9.227568340204204,-5.449256179083599
8,-8.267726740149811,-14.138125090639583,-11.019971230597301,-6.4609722125612405
9,-9.699030506655557,-16.15598517444699,-12.80176096861026,-7.374460717970748
10,-11.037342852121792,-18.019448900230188,-14.568400440863224,-8.16661949260822
11,-12.229844238135982,-19.69902815508808,-16.301685113733683,-8.824037052243284
12,-13.239740473904039,-21.186983434511465,-17.987311761727376,-9.337213099822531
13,-14.05826942488308,-22.496927474327844,-19.611097805268038,-9.704277793031864
14,-14.70176280202642,-23.650754079335016,-21.155635171993207,-9.944722063261894
15,-15.192254000982377,-24.665353347464432,-22.60134544602099,-10.086937465469513
16,-15.555721576709983,-25.552471839608618,-23.927248964934453,-10.148068586571917
17,-15.826571203096037,-26.323801996657387,-25.11218997274907,-10.137024414387296
18,-16.030867028370523,-26.990763331750667,-26.140686110196185,-10.060148398031716
19,-16.177700094297546,-27.56456546406715,-27.006247538877652,-9.920546646570891
20,-16.270853096911033,-28.054294344286543,-27.706821949713486,-9.711291260456505
21,-16.32609979078079,-28.459181651485807,-28.241324736178452,-9.412146651790929
22,-16.363567981353423,-28.75903631960985,-28.607965560120775,-9.005773537569794
23,-16.373727734070158,-28.924417460320324,-28.80778704099182,-8.493543051229992
24,-16.320338645187718,-28.944444702152726,-28.850150642799235,-7.897762881918793
25,-16.17849009179748,-28.826242201230784,-28.74765108682288,-7.257791844489571
26,-15.95799478021392,-28.571861015972427,-28.5141768124947,-6.626439429086006
27,-15.68637655647949,-28.17676609799508,-28.17215353609949,-6.064811494673222
28,-15.376221784396126,-27.64161653787258,-27.750388542463238,-5.6380044974869135
29,-15.029413652295066,-26.975939547026414,-27.273626382595825,-5.412068049769599
30,-14.660571061232536,-26.20077950533216,-26.760959766188368,-5.439399229138624
31,-14.302060271652318,-25.351680732668534,-26.229894145594116,-5.736959925293058
32,-13.985891772603523,-24.471065137709253,-25.694746145943995,-6.283876819789977
33,-13.725542076235525,-23.594047583325047,-25.166062677666787,-7.044016214173129
34,-13.529872715448182,-22.742265269606943,-24.65485091329775,-7.981962924791549
35,-13.429208758716026,-21.92447363452957,-24.171621950765633,-9.059776016133622
36,-13.465645551017802,-21.134844956014977,-23.71915550997115,-10.227702736333516
37,-13.65322920965915,-20.353727784122245,-23.29181398707561,-11.427030629595489
38,-13.963506011610944,-19.56301271657183,-22.883381786896738,-12.606569691360786
39,-14.350636905504276,-18.7654598915733,-22.49332093973201,-13.731314098680361
40,-14.78258346959193,-17.978323159390726,-22.121980415162966,-14.773918180534304
41,-15.239551630184963,-17.20673923793607,-21.75915448457474,-15.701773984471227
42,-15.68606627589487,-16.439898997336993,-21.38559291962139,-16.474160611475654
43,-16.067356355490553,-15.670519313769246,-20.984491032790608,-17.044377917804077
44,-16.328689521933228,-14.898899660456221,-20.54667503688287,-17.37518680305354
45,-16.44635215961203,-14.118288512717848,-20.07011010658319,-17.464378721551864
46,-16.443903057796494,-13.308753194029174,-19.55717782177685,-17.33960240953878
47,-16.356252823410887,-12.447462548211702,-19.01069375396618,-17.031625747805975
48,-16.19293980266113,-11.519350033815396,-18.433806291630074,-16.564496071846566
49,-15.944229610686964,-10.527712216271613,-17.834739504611203,-15.965677292166166
50,-15.601783791072155,-9.505107908685522,-17.22920930929716,-15.27626372548022
51,-15.169010353754594,-8.510013970079125,-16.635032235086076,-14.54363132703693
52,-14.663118986572925,-7.608264244985536,-16.066086223732775,-13.807528389197227
53,-14.107711811751571,-6.852519638407815,-15.531240248625618,-13.098634997731782
54,-13.518075144948192,-6.276824319422162,-15.034669843331265,-12.450894288565665
55,-12.906187928424915,-5.89980072518949,-14.576722932876576,-11.909757069502406
56,-12.299135573248035,-5.718607569744627,-14.154342997320516,-11.521969703088555
57,-11.739313384402307,-5.707017058910645,-13.760641741017272,-11.31767334316497
58,-11.265814899920457,-5.825156906116995,-13.388257570105738,-11.30137119819729
59,-10.89430363643969,-6.028010972435068,-13.033005430489942,-11.462785809597456
60,-10.617544038890562,-6.272341575357088,-12.692137467424681,-11.795633664354522
61,-10.423625755580167,-6.522387158233641,-12.363101386810536,-12.284529997935442
62,-10.30801687127878,-6.750350486090492,-12.043857128831803,-12.872427146431018
63,-10.256349213512635,-6.935320127005781,-11.732007334146905,-13.470458660039178
64,-10.22777944943457,-7.065064449000973,-11.429211532961823,-14.005271137344648
65,-10.188809865907421,-7.136169458031858,-11.146256471501328,-14.442390272223431
66,-10.148134652401312,-7.150286644136395,-10.898082156228039,-14.77110795551448
67,-10.14812114076755,-7.104646675073569,-10.69627513467233,-14.98542925807791
68,-10.229702934145775,-6.987167282955373,-10.5470437363507,-15.083525145885824
69,-10.39167858524628,-6.788382684427603,-10.452217781331361,-15.073739574730114
70,-10.598915651734611,-6.514101558333049,-10.408763891895525,-14.973629258767485
71,-10.83495391272956,-6.179512920360545,-10.407402306348608,-14.806003041926399
72,-11.116216692191385,-5.790566004804161,-10.432334951891317,-14.58854489480697
73,-11.446508180334096,-5.34386895553799,-10.462581913196825,-14.327253760666618
74,-11.779563691937303,-4.843667401478145,-10.474328240853275,-14.023762329564567
75,-12.04562845195625,-4.304768266227493,-10.44430967640029,-13.68197748151281
76,-12.203236188819773,-3.743204868268805,-10.354166260900081,-13.310054102142956
77,-12.251771420308481,-3.1723171724270682,-10.194003114070982,-12.912633952242466
78,-12.203113574926531,-2.6069505550703465,-9.959997596795167,-12.486234236571914
79,-12.056005210450959,-2.0678411395022582,-9.645854695899704,-12.031110881705702
80,-11.80031640032235,-1.5790395364493517,-9.24675361094094,-11.558589446895104
81,-11.443890113939087,-1.1569711155351887,-8.769635446251208,-11.091356921261143
82,-11.02052735620627,-0.8010292278094961,-8.227147443024998,-10.655045733277978
83,-10.55307222161302,-0.49928781799893507,-7.629743985267416,-10.264541379012032
84,-10.030121665431881,-0.2450184975068721,-6.986122970241078,-9.922442223304914
85,-9.430861201878374,-0.04966952601400547,-6.305700111260463,-9.626721606905926
86,-8.758403673450564,0.05821739582377869,-5.603716097129472,-9.381732253240706
87,-8.04048955566641,0.0467283272144481,-4.899511777239433,-9.195905409918263
88,-7.297515366088439,-0.1084831077869047,-4.20718619256091,-9.061008267240274
89,-6.528923216734021,-0.42076366311509594,-3.532265220685576,-8.940846239060512
90,-5.7320864695914375,-0.8858672892910443,-2.8748562973227854,-8.798508665813527
91,-4.929155916487815,-1.474184419366518,-2.2315986807798387,-8.632187066382674
92,-4.169469875520779,-2.1349538334145186,-1.5954510608841104,-8.468673297065449
93,-3.497994027828959,-2.8079486695255675,-0.9535789464079086,-8.336053166471167
94,-2.937267564479828,-3.428724120378349,-0.2901957259361443,-8.249832549727317
95,-2.4927602346080806,-3.9321919245744525,0.402362711634351,-8.222161910158793
96,-2.1623747738951464,-4.270339354005649,1.1171404529023092,-8.274818948239973
97,-1.9441650909442374,-4.43155605505716,1.8376810175999203,-8.423289550801663
98,-1.8344108952317704,-4.437914653781176,2.5509600287562257,-8.649518941720432
99,-1.8121125709144872,-4.326410974998895,3.2505062428497293,-8.90245826785403
100,-1.8278650843936408,-4.132854918827064,3.927112438923991,-9.126566910618266
101,-1.8234722269129569,-3.8803999983295845,4.565892653167679,-9.280070811034081
102,-1.755563481098034,-3.5665862601176426,5.150003714987454,-9.331306767657413
103,-1.6012596077120878,-3.16147851287008,5.666142552165397,-9.251093355348418
104,-1.3453088674997222,-2.623059077082764,6.106340007952494,-9.01241288740376
105,-0.9618027694571931,-1.9153888772625733,6.463275709153087,-8.610289301374369
106,-0.4248341123860392,-1.0207742400762714,6.729825687272057,-8.075362121181726
107,0.2744851848234317,0.056220192638093636,6.9021291711908175,-7.450045245946238
108,1.1286467125737283,1.2874401712162236,6.982418349637026,-6.751782350967816
109,2.12878480239541,2.6197610602182984,6.9829717784641705,-5.970843091377057
110,3.2792816434993126,3.981460612446573,6.9233461948558785,-5.097978070498178
111,4.577934000347702,5.297338852905576,6.821336289791683,-4.138884952472799
112,5.979587210437004,6.505803921363953,6.690313691286974,-3.1151276114061974
113,7.391672987927574,7.571537760407006,6.5421664789239165,-2.0545539139753948
114,8.712375216644075,8.48974311213709,6.387296280475145,-0.98432336241953
115,9.869200746737475,9.27591964202416,6.231904065536135,0.06316413374943985
116,10.81763382264436,9.953108023048808,6.075019851080772,1.0489936131790012
117,11.519857568300866,10.549186773242901,5.911384223776188,1.9322686084494671
118,11.954387881338318,11.096858675542503,5.733619862672265,2.671027694167584
119,12.075412129406125,11.588296491127634,5.550421148143151,3.267103522710953
120,11.913273729983406,12.009591714002038,5.3730988449101345,3.7282037425946766
121,11.539437996321526,12.346974586479789,5.210775533781247,4.061691340748745
122,11.027784056405995,12.591870749954111,5.069408943870113,4.2796524156725155
123,10.444423054289121,12.74358180605034,4.9537342298532785,4.408004469271629
124,9.857894820877574,12.809927385324533,4.868605385064494,4.481410092151684
125,9.331823040328597,12.806110737655622,4.81675308509329,4.526788332953032
126,8.908654089613956,12.755127254252466,4.793910280518286,4.556241702780109
127,8.599245942407858,12.684159771117596,4.790420613935449,4.572181421217767
128,-0.4843071855708422,-0.30739397951051056,-0.5014473179786153,-0.5353575325880753
129,-1.0965703703174965,-0.8732396071214902,-1.1613873696100496,-1.1402027123825103
130,-1.9820318067786018,-1.7360444232356473,-2.126246492450165,-2.024163360752244
131,-3.1475948906601343,-2.8960814956612233,-3.401412591398678,-3.1936728117652926
132,-4.563058339828052,-4.318100939129221,-4.969270220840492,-4.648824715158643
133,-6.177308354655061,-5.926942052885923,-6.789761591842392,-6.380213587848449
134,-7.939307307541935,-7.620187301901771,-8.799170568787572,-8.350812506103079
135,-9.794099661908396,-9.297945058750436,-10.91776172949667,-10.490564356278176
136,-11.6633770359881,-10.879619428362599,-13.067263112365888,-12.712318822641484
137,-13.46140854741733,-12.309840637527103,-15.191411987610119,-14.947455199381718
138,-15.141201917425576,-13.574137230991001,-17.27644859509764,-17.167966757539418
139,-16.66790637966141,-14.664944339486254,-19.291117025157995,-19.29951626528179
140,-18.0147646155895,-15.590738046238194,-21.204672977489036,-21.242519900074623
141,-19.139160179880257,-16.37221297022919,-22.986952149927937,-22.908254335365246
142,-19.996369592843987,-17.038910411475555,-24.611589300940473,-24.250726703310693
143,-20.58147358976735,-17.615573497086555,-26.05838518928052,-25.256158283885757
144,-20.945550242153786,-18.10422781672537,-27.311547173257093,-25.920701913032808
145,-21.158515435145553,-18.487526976800527,-28.360320068802963,-26.25138869561513
146,-21.260930572938044,-18.754728603916988,-29.207121745432552,-26.27569776146739
147,-21.268172712247154,-18.92044104541342,-29.87087973331875,-26.042811881985642
148,-21.208937126759093,-19.01724372788794,-30.37827000476577,-25.617510136578932
149,-21.13551771696175,-19.07844127726693,-30.75432793280774,-25.059418092553567
150,-21.090352648658037,-19.131894072690592,-31.019379457859465,-24.411530592892976
151,-21.07462909589493,-19.1928589816161,-31.19004825870019,-23.713907115967718
152,-21.061611585864412,-19.25496680090043,-31.276550351649483,-23.008351091374035
153,-21.035165695127723,-19.302862316828314,-31.27774725080775,-22.333113014145074
154,-21.00431704225648,-19.33241421397418,-31.18262413563788,-21.71183664891406
155,-20.974356218477443,-19.348129598539543,-30.975024118867285,-21.14632008227611
156,-20.923747572734197,-19.347555394934073,-30.638025592916534,-20.629534345419202
157,-20.824555659979474,-19.319893783042417,-30.160858537282603,-20.15651213527922
158,-20.673866834844894,-19.256164850941484,-29.54541438537803,-19.721289899986196
159,-20.493487597803664,-19.153785513513203,-28.80157920122295,-19.30763405987574
160,-20.303354443184112,-19.015535619264412,-27.948860634163346,-18.88886978122095
161,-20.108621300159918,-18.847124079968694,-27.030979252611605,-18.438705475452238
162,-19.911452670265373,-18.65411797708158,-26.107777881029694,-17.94252608025488
163,-19.730811931784874,-18.438627498606504,-25.23013169521675,-17.409877049762464
164,-19.592147202673335,-18.1959197645021,-24.422149053773403,-16.87200685784762
165,-19.48893747580238,-17.9141589262574,-23.67588130573853,-16.3567248836246
166,-19.37569045995272,-17.57884531739585,-22.95736207701508,-15.869458391054032
167,-19.195982788340473,-17.176204786494132,-22.21353721855668,-15.410737562246268
168,-18.91136327290895,-16.69719628959743,-21.379936705513526,-15.002561354932896
169,-18.510880503781124,-16.142035144112242,-20.390514173472745,-14.672700552864269
170,-18.002976892001573,-15.514159229452778,-19.187551174544236,-14.423172744235172
171,-17.399418579287413,-14.814831336087039,-17.73443188790171,-14.22840417572435
172,-16.70147408992555,-14.047778426138384,-16.023497542693,-14.059822339349457
173,-15.916083118961843,-13.225719880612889,-14.070791058022369,-13.904765219624469
174,-15.069331134012446,-12.373073844310612,-11.907332143372887,-13.757951669775284
175,-14.191119165490118,-11.514239954167687,-9.575645092813657,-13.598665357167448
176,-13.299186421425173,-10.659331135012609,-7.132280252726758,-13.383645403064882
177,-12.385639153377541,-9.803613396104218,-4.647900460052409,-13.068362547937733
178,-11.425675262771719,-8.934292751219314,-2.1955590244063456,-12.62677533490976
179,-10.405744688918256,-8.034956708126074,0.1525186734499397,-12.048321736352428
180,-9.334692929602511,-7.083548987411559,2.315919363897007,-11.321661513689556
181,-8.233106123047373,-6.06053341361509,4.213122821773248,-10.43569319696812
182,-7.115855932018519,-4.96585118492141,5.774707990337952,-9.404934457511708
183,-5.996927449486185,-3.832245105269652,6.946674971569474,-8.278424683432144
184,-4.907250059406566,-2.7279850329855453,7.6907058950799385,-7.122083913733252
185,-3.891255891993233,-1.7287761578988574,7.992040952089596,-5.987678710825751
186,-2.9851061515633734,-0.8849601239987188,7.871826290697933,-4.901433907208925
187,-2.199846342702424,-0.21918755176773166,7.385640767390853,-3.890453363829909
188,-1.5309772426207908,0.26229660710554353,6.6089710813658185,-2.9938529115624433
189,-0.9850644966268928,0.5701247820609762,5.62326536969545,-2.2474506733913815
190,-0.5848248735052387,0.7413829190667531,4.503232715469213,-1.6678587611362654
191,-0.34031463060747374,0.8393743432187104,3.308132982504222,-1.247660796404639
192,-0.2287197588901658,0.9328837082418407,2.0820412499785323,-0.9683224013216716
193,-0.20663795555017328,1.0658045594134777,0.8552808490707804,-0.8176582908391652
194,-0.2373131555290428,1.2481482262118164,-0.3537927520071355,-0.7973437615764146
195,-0.30194391696751677,1.4684733609236498,-1.5349712522427554,-0.9122933791177228
196,-0.3847365223275825,1.7026351651053122,-2.6837391373205914,-1.1561650446840532
197,-0.4675849331226897,1.9163184749118858,-3.80092097851133,-1.5015911007958862
198,-0.5361784422916688,2.0716420224129783,-4.892721559834961,-1.9105032794120607
199,-0.59224219937735,2.1386668715153205,-5.9693092947749395,-2.3572884595359853
200,-0.6631434831073899,2.102317761590918,-7.037440908135685,-2.8261212054664644
201,-0.7803913982273006,1.968202243564947,-8.090374545077808,-3.2963905036269914
202,-0.9591449914940494,1.7614397274182299,-9.107749067600597,-3.7396324630900404
203,-1.1978652229101883,1.5041133806114768,-10.068861535729193,-4.134387658774754
204,-1.4874987555477246,1.1999765536613907,-10.961277611004952,-4.480050819719668
205,-1.8252864453098803,0.8493380555767432,-11.775979031572485,-4.781989435718537
206,-2.2167683376210676,0.46372355053506203,-12.504313445081758,-5.036543917264824
207,-2.6574402903482577,0.0589908238157488,-13.133915475526686,-5.23521298558859
208,-3.1112187621603047,-0.3530414270807335,-13.653206190011504,-5.376778843179457
209,-3.532277423859361,-0.7639539015841538,-14.067186214840264,-5.47447760310821
210,-3.900797746511826,-1.167499177251659,-14.391572664930111,-5.547290323019183
211,-4.219884128621273,-1.5619427489005415,-14.635782537127993,-5.600566334674989
212,-4.4885574251759355,-1.9510098448763111,-14.796775589393995,-5.613015338119295
213,-4.6793074971319575,-2.33549634605505,-14.857509304378704,-5.556725200418854
214,-4.753883898316723,-2.7108942209634255,-14.786495301169783,-5.427160032135272
215,-4.698432903107354,-3.0774660910489633,-14.53856215249458,-5.236633239516313
216,-4.533271036210739,-3.44313776676052,-14.059074706650154,-4.983092099181372
217,-4.288274328221584,-3.8171280088449646,-13.295327106534883,-4.643455534883995
218,-3.9800555798347492,-4.203908082437211,-12.212324776829728,-4.204562333136423
219,-3.630197143404069,-4.604280757554232,-10.80409450489285,-3.688356432478224
220,-3.2867247663223584,-5.017084690535823,-9.086785375923426,-3.1357352247123313
221,-3.008923626935093,-5.431363742957171,-7.07832872820578,-2.57178970811593
222,-2.8323550495457,-5.827179823312278,-4.800075816477155,-1.9984029208491436
223,-2.7503645502518688,-6.189897551901088,-2.296833142442056,-1.4171818425086382
224,-2.736151214678429,-6.510496458342336,0.35538554297953856,-0.8474623340704563
225,-2.779531034943688,-6.775093131887092,3.059607639672121,-0.3196265177273524
226,-2.884590595886119,-6.964995075774686,5.722685007299315,0.14582572906127003
227,-3.0299145159886947,-7.06003858874324,8.263156182924421,0.5510097519076432
228,-3.1620140852662337,-7.040038488610793,10.59703542965954,0.9144268035535648
229,-3.2305996873732505,-6.89308519568887,12.640795079137513,1.2559660723723876
230,-3.213976281410845,-6.628559405262462,14.323438057055222,1.5906562885404218
231,-3.112779894191442,-6.268512188648119,15.592389275034037,1.9428988477693971
232,-2.9241582763069522,-5.820010627978484,16.419917404864346,2.352650435823933
233,-2.633791628731815,-5.273974201770081,16.807428859195298,2.8570472702956766
234,-2.2254736715928263,-4.629182809695262,16.784130625904215,3.4705222522017087
235,-1.702473863658314,-3.906165376702385,16.39995811838327,4.1746465664746575
236,-1.1019378297395306,-3.140034948037437,15.719392959973026,4.930967148337256
237,-0.46807622132046933,-2.3649288754976343,14.810909578112302,5.696097830300407
238,0.17037090247786923,-1.6082725770025856,13.724424914187457,6.420939716815755
239,0.7860064533100419,-0.8932257555607175,12.487337393180974,7.046476040292587
240,1.3391175562283963,-0.2382727429148087,11.12734374219254,7.496785013648644
241,1.7891667017002106,0.34565115934110724,9.685221520364902,7.706050512985324
242,2.118907948478201,0.8560715361937674,8.212699954959703,7.662961139800269
243,2.3416231004198327,1.2992773668815623,6.767388324009415,7.403901457046096
244,2.4819495495884607,1.6909354465945243,5.4094282843696355,6.974057397605535
245,2.5489566241084893,2.0499493211427606,4.197623410436054,6.407973314370454
246,2.488935073483824,2.393968003231047,3.186465763770204,5.698984926721279
247,2.3609814134159457,2.7275186875915725,2.4020593315029117,4.964902619775794
248,2.219634090783938,3.0504484764214506,1.849313093290698,4.30521002137766
249,2.1078122649068556,3.34587561331477,1.5113113787741852,3.7817227750274554
250,2.04939693241738,3.5864105980570593,1.3521899619324131,3.4160031865397404
251,2.04479072041013,3.7569489511717244,1.3240802281081763,3.207840853617944
252,2.081233915186559,3.862098731730667,1.3757043186072235,3.150957134930119
253,2.153873112109817,3.916413059698284,1.459053906525817,3.2278870042658023
254,2.2636272151756596,3.9337728524070137,1.5345156468722596,3.394704726220691
255,2.396323769155931,3.9256952254818946,1.5794359570221417,3.587959617004164
256,0.1800190690106005,-0.12413758120159768,-0.6168497712821681,-0.30292497700244164
257,-0.6659144029594546,-0.46549056162934066,-1.0619886215597327,-0.9125143532247015
258,-2.2042152329326057,-0.9923227709076583,-1.5809261142544708,-1.8166141139838945
259,-4.491448560450217,-1.715864914329275,-2.128145343091939,-2.9714657178172534
260,-7.480075636769707,-2.631539546522151,-2.640971646767936,-4.337524096930591
261,-11.0208415087818,-3.721825658798018,-3.022711523982206,-5.951008358204883
262,-14.879985988770098,-4.966072771032456,-3.1691162444400462,-7.894989673607049
263,-18.7689121757886,-6.340367091459197,-3.031205897759456,-10.214816737202717
264,-22.38410839572585,-7.804111935825414,-2.637153413295996,-12.896125876638672
265,-25.45528618529256,-9.313811852210186,-2.073011492848254,-15.929350285661046
266,-27.79986620506137,-10.865191752709778,-1.4853755769704775,-19.301632913164948
267,-29.351258178390687,-12.484618258435118,-1.052566073113519,-22.837860652196838
268,-30.14703325577197,-14.193825576373156,-0.9506564957196,-26.22899473719318
269,-30.282956186463494,-15.997181234271318,-1.2698200635235826,-29.1909914190957
270,-29.857853418837422,-17.890143446299295,-2.036702588007227,-31.58325624294619
271,-28.946707730653063,-19.865811010458597,-3.2837260882220196,-33.38178931027853
272,-27.643101628449564,-21.92476599728335,-5.038292001008333,-34.60662616551482
273,-26.107517437869358,-24.077651294941464,-7.271995977340827,-35.31559305890672
274,-24.512488644408577,-26.34119696173327,-9.902129448831763,-35.61454735237283
275,-22.94003696725436,-28.72793328957944,-12.838575083253124,-35.626305565331386
276,-21.37229592584105,-31.235883354154964,-16.013676309413512,-35.43237385871958
277,-19.758574996190273,-33.850658048042185,-19.401121527885895,-35.024084138712304
278,-18.04297284198967,-36.54321490326585,-23.05588408189143,-34.273087876264675
279,-16.16245560898222,-39.26494739190623,-27.07306846171369,-32.98417044924441
280,-14.02826560176953,-41.95978675135029,-31.4637527055516,-30.997009616393484
281,-11.487055847726973,-44.58610699220916,-36.13780789786002,-28.214346687956706
282,-8.366919069855225,-47.11256979652097,-40.97258412204113,-24.58873137551894
283,-4.581756342962242,-49.4885086039923,-45.826603214699496,-20.164331709784488
284,-0.16636338666111605,-51.6484961307233,-50.51915648797431,-15.15726689636571
285,4.736659771046659,-53.545187974345296,-54.86258502558098,-9.90307447426251
286,9.901379411062768,-55.16053322860436,-58.738176086221294,-4.684224714530432
287,15.076123383219644,-56.5046010138764,-62.09472195163338,0.3488807839610669
288,20.05173242510654,-57.607310053014146,-64.87703170770625,5.134600667722145
289,24.70877944572081,-58.48852294602097,-67.03190100685852,9.638273405447407
290,29.019283232252185,-59.13151711890184,-68.57925879965529,13.834431978742023
291,32.981309870784095,-59.4993780428427,-69.61740486475202,17.696187410897256
292,36.53562235370623,-59.580067467728064,-70.25683771166045,21.188520608256066
293,39.5856654478166,-59.40370679546816,-70.57288729214508,24.29356799689051
294,42.109952802950396,-59.01948498283404,-70.59214936138103,27.024088729702168
295,44.1801324237327,-58.471456316528695,-70.28713400579898,29.409533161583997
296,45.87985240693734,-57.790267219786784,-69.6126565210836,31.47410445213513
297,47.24944328811797,-56.98150535763549,-68.56671820540878,33.22036467409269
298,48.25105735986735,-56.01120998503364,-67.1757787573576,34.62858421349702
299,48.80748448277239,-54.81334522756524,-65.43972851527624,35.6723116994719
300,48.911893779090725,-53.32167235523745,-63.33835169378352,36.345000810379965
301,48.62771228039613,-51.49613506750999,-60.862958457746934,36.65312202396152
302,48.00471112026205,-49.32414500636497,-58.02512491026788,36.57434203506152
303,47.05618908350617,-46.8158875541742,-54.86138029485394,36.07663765875227
304,45.769186828520226,-43.99365571373531,-51.43592568905292,35.166011289024816
305,44.12133136338694,-40.88642557458141,-47.83049621687172,33.86487214298336
306,42.10638412780942,-37.55464204118972,-44.13017346190095,32.189744605327306
307,39.74500794595488,-34.10581647132792,-40.40940537025731,30.17274269079112
308,37.07838008927731,-30.67196151077312,-36.71671162070802,27.87953059314859
309,34.151109813844734,-27.361659652348294,-33.07761821137116,25.400614694869322
310,31.015057075508608,-24.232802775109015,-29.51222200848985,22.816626532499427
311,27.736548427914983,-21.313255007324155,-26.033900852592865,20.181544890700756
312,24.376045370006764,-18.624515720777854,-22.638357157296053,17.536246193368136
313,20.983851698249637,-16.17760829776258,-19.30081029065839,14.920948673377103
314,17.61425309236884,-13.960898926310428,-15.991660240553307,12.38138801656403
315,14.332978684885127,-11.952243504311229,-12.705969686771601,9.96935372424767
316,11.215491783578106,-10.140397809277612,-9.468084920601878,7.722453572820871
317,8.31802137341463,-8.518978924491567,-6.317311378299612,5.6412278590551965
318,5.661071667362407,-7.068183413319342,-3.301884404402292,3.706756205226455
319,3.248140536679467,-5.750721266885367,-0.47057346182564647,1.932133152108728
320,1.07290514094219,-4.518329711818156,2.1417093737845927,0.3667018594158164
321,-0.8822262279610835,-3.3262375606379857,4.5185803284031945,-0.9719231142245204
322,-2.646676622496504,-2.158479110419377,6.6549730108587255,-2.120385444991752
323,-4.267222574742758,-1.0287147356475776,8.550482209535936,-3.125429751489702
324,-5.806784428984713,0.05373522114938717,10.21414820826332,-4.020259481725192
325,-7.318437462890178,1.1120972202264925,11.67290441419052,-4.824166709560502
326,-8.806367728451473,2.200316815717574,12.963825939175852,-5.552573979748213
327,-10.237573743323157,3.376361413094096,14.117079450530216,-6.226115618588506
328,-11.592502191354573,4.681770965139746,15.148511229285447,-6.86586793621022
329,-12.879539936170554,6.138433868889513,16.062695755626937,-7.484882595179254
330,-14.104524722379999,7.746249396533493,16.858932540954314,-8.084781617795578
331,-15.245663612523572,9.47874716120136,17.536915102238037,-8.6647023961845
332,-16.26904531561887,11.289987985273598,18.101350807093368,-9.230953197918586
333,-17.16014937437038,13.132120872497916,18.558779745427742,-9.793964432317045
334,-17.933149761200365,14.96265953431223,18.91251328763763,-10.353080203993818
335,-18.608435761390112,16.73913373514103,19.165189251082005,-10.891584026414948
336,-19.1922189653802,18.419765892794796,19.32167950063278,-11.396804214235488
337,-19.68940771978872,19.972922866830025,19.3891631078826,-11.879524694967566
338,-20.13026217650284,21.384300731469494,19.37779956064692,-12.3646106916229
339,-20.57472588149434,22.659042247764013,19.302023872789213,-12.859863198641447
340,-21.07260607480873,23.822464619335324,19.18028184244892,-13.347180293775805
341,-21.620702315589117,24.914621576370443,19.032362955943274,-13.800284298664202
342,-22.18291730285285,25.971542987327446,18.871251592414747,-14.2024367348954
343,-22.741295956941627,27.008712831554277,18.69816130270275,-14.554074373715483
344,-23.298140468976346,28.02687033615058,18.515935266777504,-14.85895195432635
345,-23.84187820067934,29.02571101609869,18.33938696264377,-15.10767516879791
346,-24.343929435349587,30.005033241494406,18.18674885009877,-15.272842305328634
347,-24.780665060583974,30.95425499798103,18.07204223419019,-15.325937668143363
348,-25.154691950718007,31.84572335517111,18.004770651082303,-15.265574073703245
349,-25.49707860932106,32.644184511055286,17.98978997092085,-15.114329998633515
350,-25.843831333878132,33.324756235727705,18.026427178949067,-14.895421917895497
351,-26.213811765642962,33.88266114194317,18.108356387641827,-14.620507576405402
352,-26.593436784067787,34.32574772336349,18.22521582371032,-14.296501907845434
353,-26.947926012991687,34.664280299712985,18.364253965036703,-13.935372494124797
354,-27.247375013102033,34.91109029991274,18.50868210099332,-13.551971530409334
355,-27.47367229237532,35.095666259984284,18.64210556656213,-13.155894245429732
356,-27.613417512858327,35.27476511213408,18.7579853548911,-12.746464036632803
357,-27.653472233306992,35.509670714709614,18.858566025487114,-12.320166341677817
358,-27.602533881657674,35.825881947362774,18.9497228183603,-11.877480332758484
359,-27.499610719918437,36.20026175443387,19.039944053674624,-11.420238620898374
360,-27.38324047337702,36.579383442952675,19.1412630514876,-10.945836565232224
361,-27.273691548313707,36.894139594383404,19.264768821659136,-10.449749281864419
362,-27.171361412453397,37.06315586543599,19.408450256731133,-9.943029059131527
363,-27.060874376282644,37.00127357305216,19.556170736263518,-9.461795851742252
364,-26.93378158745534,36.639365089016096,19.686756062482445,-9.054704156235829
365,-26.807010702346638,35.94524131421233,19.77543801274744,-8.755200909078876
366,-26.700338073925277,34.92903892132582,19.79699164195039,-8.574171042475003
367,-26.606219806636755,33.632626581987374,19.735942998774018,-8.520981073588509
368,-26.5044694286698,32.11802705502664,19.588509268038912,-8.613051939877243
369,-26.39656269958893,30.46390591006078,19.355771260148288,-8.86794952456681
370,-26.3100999524923,28.76363605833218,19.040820494407345,-9.287157317851568
371,-26.260332028518537,27.110931963800706,18.651870720902714,-9.847935620453166
372,-26.22446909735813,25.57238683679233,18.2012049398888,-10.516072219263492
373,-26.1643957533701,24.169986025718764,17.696587502385672,-11.262267608407852
374,-26.070784226613913,22.907383899406504,17.15906585740753,-12.068309634418338
375,-25.943193247916614,21.721521846783588,16.55781334155613,-12.924189361029347
376,-25.78018022090987,20.58885585582993,15.894985759466476,-13.796076093504233
377,-25.578874049844273,19.50914071944673,15.192182434495974,-14.643308645368657
378,-25.35339125431429,18.49324317922014,14.480907669117038,-15.430308990438993
379,-25.137832580020348,17.55940162826595,13.796535856574483,-16.129919174737097
380,-24.968082640451083,16.734117345118655,13.174443554058701,-16.718622349498133
381,-24.85464369845536,16.04589698322875,12.645688286719022,-17.17625127816938
382,-24.777351207890465,15.512897168401079,12.232798792654354,-17.49363899533763
383,-24.711031022145093,15.137759649209233,11.945360388810649,-17.68208135924932
384,-0.38137958205533506,-0.2494072894478064,-0.4174457802667559,-0.6557310698339475
385,-0.9218199522826344,-0.5445153601827634,-0.9003420839402396,-1.3768797386032359
386,-1.6948740976818346,-0.9874160211857568,-1.5907122741751891,-2.431753453335356
387,-2.7117721730096185,-1.5819908061078412,-2.495014872697891,-3.8273123776895086
388,-3.9512114816781607,-2.3114305165745446,-3.6023635044262137,-5.527061371221476
389,-5.364968897136329,-3.1494143542126607,-4.8899262204407785,-7.466391628806844
390,-6.906177660483064,-4.063547247228854,-6.326274952409069,-9.567005199806994
391,-8.5374184657703,-5.011057825558961,-7.870560915833848,-11.74285331141953
392,-10.219505937598775,-5.946291340187348,-9.475655100659456,-13.897280733864028
393,-11.90992341080714,-6.837851870916104,-11.101636569333323,-15.951382759424465
394,-13.586848838420902,-7.681087671926078,-12.737894150424312,-17.904691412721334
395,-15.234956544384458,-8.468061700212889,-14.365279208660134,-19.757606301292483
396,-16.849303332131193,-9.199069320340232,-15.968838769768157,-21.509901369399973
397,-18.41810225533304,-9.88191692004879,-17.534621757595716,-23.155484843728416
398,-19.89761807026573,-10.528263042935105,-19.0512313630811,-24.691409422733415
399,-21.225614608052194,-11.15099273954961,-20.51269062832443,-26.128989415036337
400,-22.37582255935191,-11.76179127789943,-21.915812874983512,-27.48138725084224
401,-23.371019459236837,-12.359067964673613,-23.25180460823438,-28.730938623804068
402,-24.240762958968016,-12.920968874571034,-24.50349868017036,-29.830798240326278
403,-24.987937039077714,-13.418450961489041,-25.65065899980987,-30.736462656927504
404,-25.60410196063884,-13.828411566070496,-26.67649268897306,-31.42640012868492
405,-26.10220695574889,-14.132867234463143,-27.56836082868242,-31.904710543330026
406,-26.52363932883928,-14.311314399405786,-28.31308034715487,-32.18632444695976
407,-26.903919403875374,-14.347747748665247,-28.898604139350322,-32.28737197957278
408,-27.24406563794138,-14.2488645486807,-29.323234453771658,-32.23354840953674
409,-27.530241183643138,-14.044258659082208,-29.59937020565775,-32.06687715087632
410,-27.7572656756544,-13.772678705437118,-29.74834161261215,-31.834048569239915
411,-27.931302559177812,-13.473751514573776,-29.794572994410483,-31.55442458555209
412,-28.054214156246008,-13.183921474598927,-29.75945000439755,-31.216366090737285
413,-28.111577561920196,-12.93108438062327,-29.656521141517892,-30.81393999501214
414,-28.09131302983127,-12.734735057490086,-29.493966741941147,-30.36134619344765
415,-28.006051544828974,-12.614297086368301,-29.27748312228213,-29.88347081271905
416,-27.885319184826937,-12.584285115559144,-29.009732590856014,-29.40415606570113
417,-27.74757773607692,-12.636651875372154,-28.69356542865405,-28.938487305609208
418,-27.59339728415593,-12.740850597293086,-28.339413227306256,-28.501107654548587
419,-27.419647224543723,-12.86355666565033,-27.964591600125548,-28.11348745669001
420,-27.231632760593982,-12.980599930853618,-27.583302873765454,-27.804355272835124
421,-27.043018552123247,-13.074773412322575,-27.199620943575216,-27.6002099436701
422,-26.86444219516712,-13.137091438328502,-26.809041459657973,-27.505226683982734
423,-26.693114704077228,-13.172127669621014,-26.405146403154106,-27.49273190460863
424,-26.51154682801434,-13.195383912227612,-25.98327609178885,-27.522926323443595
425,-26.308233705567,-13.224448892744519,-25.53893808104623,-27.56607672019978
426,-26.088005147074966,-13.27387052029197,-25.065877336625583,-27.60021355073801
427,-25.84922404550294,-13.354099553584172,-24.556866674654305,-27.5974903354471
428,-25.568934647001953,-13.470579907403648,-24.003866567587774,-27.519353666537732
429,-25.210058747328144,-13.621389040634252,-23.397781795644214,-27.332163704860488
430,-24.744275560754236,-13.796202535048169,-22.735325032070396,-27.028350282636502
431,-24.16608119183237,-13.982388861547173,-22.02590737067151,-26.61400529027439
432,-23.48636100536404,-14.163103993457216,-21.28585870731384,-26.08596617115157
433,-22.719328440369942,-14.308198920245662,-20.527494918700693,-25.434039246456685
434,-21.86498811361068,-14.390910104929386,-19.75676088874759,-24.66006903300672
435,-20.914864379922946,-14.408998808470866,-18.976474071132518,-23.784201037085687
436,-19.881259820248385,-14.375352311321757,-18.188058018599627,-22.830518972891625
437,-18.80684588955855,-14.301290978242548,-17.393931799849764,-21.805653047809596
438,-17.735968231506806,-14.194337501089889,-16.598901063458225,-20.68739809668182
439,-16.676878033489242,-14.062058761134573,-15.807738264472222,-19.451879477499915
440,-15.612255127004685,-13.91232186822343,-15.022333700666374,-18.107927989067985
441,-14.552453237758924,-13.75195983028956,-14.24243670780546,-16.69515526546267
442,-13.552188076801292,-13.587468935078764,-13.467212701086174,-15.254404360242159
443,-12.666240920719055,-13.42719725656115,-12.692860101991025,-13.808479584500285
444,-11.910331154532697,-13.280114407784875,-11.908135122595036,-12.376240331497485
445,-11.271378777130895,-13.155139456762646,-11.098433242058306,-10.982690610694746
446,-10.732641092634672,-13.066776657576176,-10.25820012097667,-9.646898743800595
447,-10.279053531603719,-13.02830761407988,-9.390291130287508,-8.363809802287486
448,-9.880127210085735,-13.033088517943053,-8.493604515090686,-7.105135483497864
449,-9.477365651312237,-13.05680041699639,-7.563751204801418,-5.8449412375613345
450,-9.005455446393977,-13.077952501863694,-6.604436180812887,-4.568985066811344
451,-8.427053199917848,-13.08008152965979,-5.628094727112629,-3.2679159668790847
452,-7.739468100876389,-13.036799096024229,-4.6464613865515725,-1.935585779482142
453,-6.950745785950681,-12.91358971683843,-3.6693190614033617,-0.5713989210325229
454,-6.069853922127574,-12.68401937251044,-2.709977629623285,0.8137446490120329
455,-5.118085227452107,-12.336136010262463,-1.7853673973669675,2.18383315692082
456,-4.140434697097433,-11.873023365261275,-0.9162738379544232,3.473914327221052
457,-3.197142284758343,-11.317024651617468,-0.12900933933581105,4.62540192986331
458,-2.325008444298583,-10.704638143075853,0.5492969525135777,5.615159357242222
459,-1.5155441518889212,-10.069862253865262,1.096985359830017,6.4459211470555715
460,-0.7377561570124402,-9.43922538917703,1.5004421359431102,7.124455715350183
461,0.02467740531417345,-8.839315137640908,1.7560030332885126,7.649302507786286
462,0.7665550036960751,-8.294429603947977,1.8735993816584673,8.025331442988021
463,1.4846278517177107,-7.812919576995858,1.8804682963255641,8.279638837926262
464,2.1885063274714307,-7.385887693573171,1.814941579881617,8.456352733522174
465,2.8954398602794686,-7.00345579634454,1.7118055974324742,8.59803135925108
466,3.615354527796876,-6.659462046213554,1.5988852315221689,8.727277589407732
467,4.337661934179054,-6.343100543335103,1.5025018864023572,8.849996741522194
468,5.033166018152431,-6.040574299012791,1.4464377067380016,8.972856011357797
469,5.668789993104884,-5.743013041205821,1.4464875762652707,9.113671571142286
470,6.227982673154184,-5.449398562465608,1.5077883761290582,9.286484286397428
471,6.7096116428300006,-5.167098505564206,1.6269149686639368,9.476746681682982
472,7.111955791054601,-4.908807620249259,1.7956631158015497,9.652522490875405
473,7.426981202161075,-4.681913275429198,2.0080723763797472,9.801671436991532
474,7.65276999049623,-4.48065717053784,2.269321968956026,9.94224152826092
475,7.808898228710931,-4.291441107187475,2.58825927460998,10.088815191919286
476,7.92641270817192,-4.104325914155511,2.958405625567426,10.225244363448942
477,8.028105341008589,-3.912022636918237,3.3562390314027972,10.320002231737087
478,8.11962920835462,-3.692964875985859,3.7550075909778444,10.351589520829267
479,8.204533527130586,-3.405332371707267,4.1362094845472015,10.315288386137095
480,8.306544240437288,-3.008055873094028,4.4898593951000665,10.218080190197073
481,8.45645321470579,-2.4829977613159757,4.806685728919454,10.077015160939919
482,8.6629413193972,-1.8351646625475906,5.074774197307969,9.918189845896366
483,8.90482202232302,-1.083022632087555,5.283558994019395,9.779961983743753
484,9.15942748297627,-0.253988355795041,5.429470564027993,9.716266434612178
485,9.437205122325029,0.6169632869500175,5.516046018295083,9.77028251531717
486,9.763904342136955,1.490814841085001,5.5496144763476245,9.945684036564916
487,10.132581353603896,2.3282819374031822,5.537876583904796,10.220092830204798
488,10.494762326819242,3.0960182521511457,5.489837640307738,10.578988394737268
489,10.800420077219776,3.7797033530598014,5.417638606344888,11.021307289365353
490,11.032361569206815,4.389885424144367,5.340113725834185,11.536081119601047
491,11.192934457821567,4.945247013707723,5.275986027908159,12.091891641863693
492,11.26853248927636,5.451559903975993,5.234797616882176,12.648889645313304
493,11.22167579448989,5.90062625109746,5.223045770834071,13.177802760131161
494,11.019044252436833,6.2799333536269,5.24700281188027,13.664653837807851
495,10.657370044606086,6.578504286865982,5.303244646153196,14.10507531750901
496,10.161850739061169,6.783892893220901,5.3784829066232085,14.493174341012708
497,9.556409932931485,6.882492052013067,5.458566131850015,14.797418175230044
498,8.847779267214424,6.872623705570391,5.53362704716692,14.967356630998832
499,8.045896960527838,6.7660719464876715,5.600547696629085,14.972888640954263
500,7.176191873735319,6.576620038135171,5.6641503249330745,14.82208808608867
501,6.275175573213762,6.319391759654463,5.734492693405192,14.537791751799531
502,5.364294904645427,6.012035609862787,5.81081478779368,14.130348459972605
503,4.456934458020444,5.678375574938659,5.925683325640005,13.6106799544242
504,3.5923484112869697,5.347883744627138,6.098689930050002,13.02750113171424
505,2.8281964262003094,5.045014251960982,6.333205308733739,12.431607551289952
506,2.2058249832021644,4.779764280599386,6.615412437703871,11.859039975117774
507,1.7282342970570415,4.54762608166692,6.917345981696011,11.334240025480222
508,1.3709621948008366,4.343191015849916,7.20706853178505,10.877050554761349
509,1.1149980588648432,4.174157150951197,7.462738331796058,10.505818387656118
510,0.9567781387978271,4.0557131470504615,7.673772176525987,10.232007134207608
511,0.8910946381129369,3.992210117118951,7.8323076591279674,10.051531879233801
512,-0.024224588177274187,-0.19521896988086698,-0.43721649839979815,-0.41420104684349307
513,-0.3904797231575856,-0.4362704052362746,-1.091475934931843,-0.8939270847570837
514,-0.986192070124689,-0.7801801244029553,-2.0800694355856333,-1.589057474252792
515,-1.845206657092988,-1.2338918975201625,-3.4205471497279856,-2.4991851852826583
516,-2.9479691040437417,-1.7952956861079774,-5.095157218479926,-3.5958819308263705
517,-4.222961356956728,-2.448171774802725,-7.055415554692359,-4.8402371081902436
518,-5.58356869976801,-3.165064077137592,-9.229134094497882,-6.191360977217889
519,-6.953750610099829,-3.919139954013232,-11.527912614282602,-7.601026620427146
520,-8.271732514482833,-4.688801237283109,-13.857634516838258,-9.010924320225449
521,-9.484943560738568,-5.45546499192923,-16.13533559330399,-10.369877084638167
522,-10.56296758588451,-6.211499650550717,-18.316136563514284,-11.665730532515376
523,-11.517512784265252,-6.951706575590007,-20.350682675463574,-12.895019928370486
524,-12.394700342372175,-7.66778202088267,-22.202324488771843,-14.059905814847657
525,-13.235247446204516,-8.344426894233921,-23.848552906229674,-15.160532644708642
526,-14.050396034441924,-8.97234950074185,-25.2822290737143,-16.206998388025884
527,-14.839239012724414,-9.558956552396971,-26.50926132503899,-17.22224655066864
528,-15.618676290010857,-10.124176886034988,-27.542677771540966,-18.23206216267828
529,-16.42239161996534,-10.685978624845452,-28.394134666731325,-19.24849369047812
530,-17.268272838771207,-11.257858541142403,-29.07297068053815,-20.263453686447633
531,-18.145238302499894,-11.857510921301852,-29.593384613911027,-21.26073023601536
532,-19.039344890038684,-12.504775905286202,-29.97407938166352,-22.22655653274641
533,-19.967282179998588,-13.215735740917065,-30.23174780756219,-23.152268837512295
534,-20.967693294754504,-14.001636834096367,-30.376362230055875,-24.023442184541786
535,-22.055231677037703,-14.859977190174128,-30.40801838173054,-24.814410383855932
536,-23.20175892026213,-15.760886370449006,-30.320422717156575,-25.501262275325477
537,-24.34945973601394,-16.653840693582133,-30.110548666374946,-26.0794861186221
538,-25.434577157064243,-17.48907474764076,-29.78746565497621,-26.573016305125428
539,-26.40941185415689,-18.226390059055287,-29.373417768042394,-27.016391952717413
540,-27.244932614631097,-18.831506376270077,-28.89752161191474,-27.430334209239266
541,-27.922051407361874,-19.282433418426198,-28.390090376454822,-27.813383291552494
542,-28.421548750573603,-19.584757310460503,-27.879325662582797,-28.151198682539352
543,-28.731145684238715,-19.76805225098739,-27.38807189354092,-28.42963727715962
544,-28.857380176141202,-19.866163681527738,-26.930831559296962,-28.63162103495624
545,-28.82055367094333,-19.907854679839012,-26.513821404341588,-28.725911679649958
546,-28.636830218294303,-19.914512017446686,-26.13723047950374,-28.664537677493794
547,-28.297330835229328,-19.894019077765915,-25.795114801767117,-28.405338713005502
548,-27.777320210710812,-19.83871630869401,-25.477162169124156,-27.939559061986536
549,-27.059269276389802,-19.73088283669522,-25.174077001180326,-27.2857832502231
550,-26.139761607126495,-19.551199928401996,-24.876664639082204,-26.4673839983261
551,-25.02641304226949,-19.284957300096224,-24.569847478979266,-25.50727496104941
552,-23.733011306624956,-18.92717594826212,-24.23401232536933,-24.439939327387844
553,-22.290423456550073,-18.49241145561322,-23.85283614859824,-23.314177857461942
554,-20.76295213687588,-18.018207770623004,-23.414623191169877,-22.173831031667508
555,-19.24179415286538,-17.552862705934718,-22.905593716899283,-21.032658172947613
556,-17.810703884872815,-17.141952575580508,-22.30490884257744,-19.871685493608876
557,-16.515123475381984,-16.823773895481253,-21.587504373748587,-18.66976057735627
558,-15.374671883245695,-16.628534561496128,-20.731911723299334,-17.429031025574357
559,-14.415008989771591,-16.569895373875767,-19.727870886929082,-16.171591604952514
560,-13.66869407464315,-16.639280505199604,-18.57780853158809,-14.920200316414904
561,-13.14367406120219,-16.815836191111696,-17.291461498318984,-13.68775223748501
562,-12.802858677990066,-17.073878642831314,-15.886330291051824,-12.485921489385733
563,-12.586389333187155,-17.383880927336637,-14.392530556353256,-11.332150983433245
564,-12.452982381048516,-17.71676368151146,-12.85165892214625,-10.245254143319782
565,-12.387598210771037,-18.046956064240042,-11.31046353090933,-9.228149830530935
566,-12.371179476714184,-18.353473076256524,-9.81001086881016,-8.261271668900344
567,-12.369253779301092,-18.62188697369694,-8.381119108413715,-7.325190581237957
568,-12.346842165176735,-18.844907893559952,-7.051444073224849,-6.416412844694905
569,-12.284784070585879,-19.02344967621158,-5.847202104927197,-5.543105204260098
570,-12.179715109284277,-19.15934821762994,-4.784563196139711,-4.71850905556903
571,-12.021440125713838,-19.238896104796723,-3.864923159171708,-3.9554191979189968
572,-11.783600867819029,-19.23484899252834,-3.0809628971430807,-3.259864768323003
573,-11.436022178682007,-19.123679369932923,-2.427677516201263,-2.637329209929275
574,-10.96387997413019,-18.890330504598225,-1.9083689048761054,-2.1056160908629478
575,-10.375152360512146,-18.523579777650756,-1.5298862252460381,-1.680773340670883
576,-9.678136044562253,-18.01802512522519,-1.2954625722268973,-1.3550315977938328
577,-8.864305334405845,-17.379437933994684,-1.2034240118706754,-1.0967124641833528
578,-7.9211386725826,-16.622627339423634,-1.2503429833205413,-0.8722613639630339
579,-6.85543937580322,-15.767827619980526,-1.4291109091659009,-0.671753513079362
580,-5.7025097890425025,-14.841346921550064,-1.7199372566630255,-0.5041108971880041
581,-4.511134641238871,-13.868409438133932,-2.0904338467090753,-0.37318107604810263
582,-3.3255882235053478,-12.862019845366767,-2.5049932866231983,-0.2652564623459861
583,-2.1783459581620916,-11.819910682555308,-2.934339071577482,-0.16582823603046745
584,-1.0956624516305993,-10.727147116021008,-3.361406863292613,-0.08159399747689237
585,-0.10542988067082149,-9.563933869047023,-3.7771020187266355,-0.02732778828985477
586,0.7646897982260009,-8.31166201978852,-4.1686310711717525,-0.0012163717616761067
587,1.503618339787996,-6.956809010937563,-4.512135606747117,0.019385232338058833
588,2.137074483531145,-5.509085207892184,-4.781112324897583,0.05810847010974728
589,2.711271201392188,-4.016267073199595,-4.959304780572006,0.11498516217434568
590,3.257319475548186,-2.547132254572241,-5.040064351110127,0.1720358717585551
591,3.784907630521654,-1.1703624650297324,-5.019436935492052,0.2223184983900656
592,4.292746252206355,0.054776227965337515,-4.894997590909776,0.27544083006294806
593,4.766074755044135,1.0899629614260817,-4.670798291113442,0.32852403973788896
594,5.168817248569199,1.9251205504809643,-4.36111229375519,0.3510357895068922
595,5.454818625805171,2.5783717505311365,-3.9900965882210784,0.3087879787739774
596,5.59596781320734,3.0912252193231113,-3.584750226733932,0.19723314696785366
597,5.60338049404658,3.5180590834549403,-3.1640426990841175,0.04301170057707958
598,5.525892805068422,3.9095519947137785,-2.7378623322851547,-0.12644692705629335
599,5.430131605462018,4.295909888655587,-2.312624566000363,-0.2994575460991024
600,5.381408361639135,4.682359753642527,-1.8918057841520892,-0.46861939153198284
601,5.440461294737605,5.0551279557885245,-1.4709862467520016,-0.6112267830300555
602,5.667959353275478,5.388535333757274,-1.0372389820216765,-0.6907658249569669
603,6.1128196248362245,5.650799990048477,-0.5804383929190476,-0.6859741492093708
604,6.789093443786967,5.809271827467369,-0.10626315246558772,-0.6062081238203305
605,7.664436275891504,5.842047739870238,0.36523604247806707,-0.4779432598298723
606,8.67398064145426,5.755231009648383,0.8118532371016717,-0.3246490552579292
607,9.759355272450929,5.583601800891091,1.215428153766055,-0.15840209382418535
608,10.892147988215665,5.372125815140993,1.563540119763996,0.023533803001659727
609,12.064223711988477,5.165965533492871,1.84972453651094,0.22797206390862776
610,13.271747028733785,5.001644614880507,2.0706389005203563,0.4386463323456859
611,14.498952282061204,4.893500043383182,2.2290104710068417,0.6277589545091653
612,15.709312596455323,4.834487422214886,2.338396293324165,0.789827867420754
613,16.852811685555935,4.807770255117073,2.4181798416789118,0.945981869743208
614,17.87709437974338,4.792855987947228,2.4827811119690035,1.1239897765389235
615,18.73034716549393,4.763456183923651,2.5428286730928495,1.3334930652643673
616,19.35865634355885,4.690940307121173,2.615921916395451,1.5680582406460708
617,19.708744309320817,4.55401309058732,2.7227310900441424,1.8257721438602579
618,19.74479612596266,4.341931588147343,2.875706629095995,2.1177163444557814
619,19.473913282646546,4.052233356672318,3.078386971935448,2.4540083124405174
620,18.941481653696,3.6931294497910416,3.3287405132854775,2.8248688211051585
621,18.19888063939811,3.2879892890614513,3.6212645431707227,3.2040514968192926
622,17.284998010856903,2.8700603987078295,3.948764403612537,3.5651984752274073
623,16.234115410900408,2.4693745066196633,4.302657415675057,3.8962248350978825
624,15.094073714934721,2.104187067591037,4.670027576408185,4.190365439127156
625,13.91437288461607,1.7802110603910353,5.02932085915532,4.424197253439696
626,12.719671881209925,1.4930871317774757,5.352888662302213,4.571858420060977
627,11.508486526649946,1.235574006793551,5.618860133642315,4.64248314731457
628,10.273868239182962,1.0096603204564447,5.817073277366252,4.675217391044518
629,9.026299336855375,0.824705382249403,5.944117905879148,4.695735299092039
630,7.827400425028881,0.6708992004018699,6.006528515118001,4.668300318330508
631,6.610928369606653,0.5471300400522214,5.996565767139222,4.646785308265472
632,5.362987983504311,0.4556329936599219,5.922836099704127,4.683650119439329
633,4.111285178872172,0.40106533268813627,5.800350255285997,4.820898822058569
634,2.9061577641489214,0.38266716145064666,5.645832580590387,5.063003487688447
635,1.7948483057424,0.3929769143109956,5.477114862590984,5.37614573117684
636,0.8047257095885938,0.4224309696439921,5.308907237741195,5.7158286421888755
637,-0.04968064636112599,0.46099127858773925,5.151934541478562,6.051833609070591
638,-0.7433430292439438,0.497620818240531,5.017891956195246,6.368051702843288
639,-1.2449734822506129,0.5235418299722348,4.917514767228644,6.645396069433553
640,0.0073626642956015065,-0.24231235765173056,-0.6212531405866073,-0.08079611738579162
641,-0.17908879701181468,-0.5308855264258099,-1.3135185336093356,-0.20381826934278488
642,-0.4856733189771321,-0.9552252482545562,-2.2834607133188594,-0.42261070980914667
643,-0.9502811521826848,-1.5322510344902174,-3.5303780809479774,-0.7761817809004414
644,-1.6049866974672435,-2.270739520946058,-5.030271270004142,-1.2821703306317125
645,-2.4556417231041303,-3.1712365607657227,-6.737151356287729,-1.9396371722683639
646,-3.483285672837619,-4.222190481155805,-8.588956234963856,-2.7490481262330424
647,-4.666007284122059,-5.392912766153782,-10.516426392699476,-3.7167997347890704
648,-5.989314121101629,-6.638545416570302,-12.45567121393469,-4.843844136761606
649,-7.43740934664582,-7.920410412214638,-14.365734128028972,-6.111997160909186
650,-8.978802838138366,-9.22771364303854,-16.249550999205482,-7.493294653988627
651,-10.577677402535642,-10.552092538504432,-18.086215761153387,-8.96780487528452
652,-12.210579308250576,-11.882926312274149,-19.852680343761126,-10.526792900139588
653,-13.845743581522504,-13.200584832492499,-21.523938628486746,-12.146207565634304
654,-15.426377987244132,-14.48041435337254,-23.0760884768062,-13.778468144032813
655,-16.886866097416902,-15.700344534142154,-24.489028654975666,-15.375694081261875
656,-18.180636885998542,-16.84706456466169,-25.74750306133826,-16.915481042230923
657,-19.290657064131352,-17.918152757471123,-26.842635088389805,-18.388817082634134
658,-20.217389639335,-18.912723953854268,-27.77068597982122,-19.76875675120401
659,-20.96156470683201,-19.817526038622983,-28.529880665493792,-21.007692911340673
660,-21.513144008591578,-20.609424574688283,-29.12259290618877,-22.068697918399913
661,-21.867249999893687,-21.26705533484391,-29.561634025772193,-22.954410669100934
662,-22.05091787805366,-21.778778408408545,-29.870595609640265,-23.694930812492064
663,-22.124726480231423,-22.146666565975707,-30.077684105379607,-24.31166365898841
664,-22.147307129250382,-22.384945667875236,-30.209637479332194,-24.80750116945545
665,-22.143879913015347,-22.5145649588642,-30.287449277309676,-25.189019116175004
666,-22.118436951554774,-22.554030298963823,-30.323581059406205,-25.484531611797237
667,-22.07993465552264,-22.513922256588074,-30.321530238179427,-25.730893529364796
668,-22.051548933177656,-22.402970362025105,-30.276507999963865,-25.93900770498854
669,-22.045872446059004,-22.235393303482688,-30.176364596543102,-26.087953404214783
670,-22.04296592953555,-22.02772018969714,-30.00467631061984,-26.156426475722192
671,-22.012551139236315,-21.79549085090306,-29.746660410166307,-26.141618765326466
672,-21.939112357243868,-21.554026780267346,-29.39657416847702,-26.053933872623997
673,-21.82467483078027,-21.3160815045211,-28.958899321528946,-25.90038709657098
674,-21.67699933311172,-21.085394081830483,-28.44146918441516,-25.67944701823145
675,-21.496927693411294,-20.851261188201583,-27.85255485810838,-25.40044721413356
676,-21.282118561282875,-20.602094030122593,-27.2052388898116,-25.08807868879026
677,-21.043357266359827,-20.34111632767993,-26.520167858454514,-24.76337014835856
678,-20.80813532563165,-20.075865757118365,-25.819666112207234,-24.42947056582034
679,-20.59370895996172,-19.805547806930985,-25.12181223279865,-24.0778323837042
680,-20.38893531201214,-19.522151231113494,-24.442344626639485,-23.702919273490643
681,-20.17142412613656,-19.21589797219575,-23.79551589439844,-23.309615735193887
682,-19.938335056318,-18.878045139152707,-23.191102329873953,-22.91712942023997
683,-19.713110258729618,-18.49971400492329,-22.633297093649443,-22.54754934184804
684,-19.516219158759704,-18.072357335153505,-22.11802897268711,-22.20962534929865
685,-19.338230696406356,-17.588096481491803,-21.628219273530547,-21.898279138680337
686,-19.141348319167868,-17.043519010763447,-21.138057532262714,-21.600252089687057
687,-18.88932075757075,-16.447535927003837,-20.617945662791023,-21.292818555770623
688,-18.563739735367818,-15.821172949988533,-20.042205443397012,-20.939589776064345
689,-18.149994466739788,-15.182112598019518,-19.40474849778988,-20.493323415263784
690,-17.629501282976403,-14.529238517758538,-18.718258728495144,-19.904766936127245
691,-16.985590002645335,-13.85784611470532,-18.002852671134633,-19.147417721873236
692,-16.217334356657588,-13.188755370152366,-17.27526953829321,-18.23984000042648
693,-15.349319461078199,-12.564381651816593,-16.536095084108958,-17.236422870386342
694,-14.432522327779854,-12.01834654398656,-15.764273964096148,-16.203308842220174
695,-13.523579501986008,-11.56367989061559,-14.922021519643732,-15.196158891470587
696,-12.650291322714782,-11.205756015524676,-13.964629413060923,-14.254000194480431
697,-11.820808014255974,-10.947960690989843,-12.846243583242973,-13.404943187366223
698,-11.05053052772435,-10.78632183179754,-11.524976098005316,-12.661274211396726
699,-10.358325787381737,-10.709974843773468,-9.976331510386913,-12.000081480739887
700,-9.744378646281993,-10.697873720048761,-8.19676328802986,-11.356220269927196
701,-9.174905974313864,-10.708181672019723,-6.192948163453914,-10.664269783458467
702,-8.607516808692177,-10.688560560866566,-3.987797228746123,-9.910176580219137
703,-8.030374555485729,-10.59968118870351,-1.6314996411335958,-9.124385367115634
704,-7.468027695763444,-10.415295278668758,0.8063424403025448,-8.341962557434208
705,-6.953172129470834,-10.111698920566297,3.2495516417181576,-7.58797191961283
706,-6.500266155536676,-9.6798338658539,5.62800062937514,-6.880652577656888
707,-6.11009539183916,-9.145907415036657,7.878952071758796,-6.233870979785002
708,-5.790835299541772,-8.561910026789148,9.935503094826876,-5.65528809882789
709,-5.567037184978353,-7.97272820015284,11.729278465209346,-5.131648814038324
710,-5.458265060074553,-7.405206262958344,13.201287497730418,-4.6278675635704225
711,-5.452794487945488,-6.882768163430678,14.307869167262165,-4.11357296093843
712,-5.519355826021659,-6.432342176907713,15.025004870978599,-3.5811295328693675
713,-5.645899512520683,-6.07423502033399,15.352462436491933,-3.0406217130979156
714,-5.839070284299312,-5.808329299459091,15.317237080495838,-2.504334479733187
715,-6.078262800912604,-5.610293399705468,14.969695976879093,-1.982895302393563
716,-6.303319921864261,-5.436223837256078,14.3744173420156,-1.4916770155950159
717,-6.445862784947399,-5.234076258468162,13.595912108804967,-1.0568287570131796
718,-6.460449382621681,-4.964039389753149,12.677760032018426,-0.71515362705233
719,-6.333432832043667,-4.605851416171923,11.64388901628217,-0.4809124552747941
720,-6.052137500042825,-4.146592742175969,10.521669892180869,-0.325800150021626
721,-5.582997063626462,-3.578580004357143,9.344442920170916,-0.2126138100721366
722,-4.893705404879848,-2.920396065660127,8.140766777598282,-0.1167889568299508
723,-3.9863514786958567,-2.228518737665361,6.932854482094841,-0.01818541190898458
724,-2.905642574011233,-1.56875889834305,5.739739708515779,0.10125478119878746
725,-1.716356786784347,-0.9868686146550071,4.579021077512788,0.260231350800261
726,-0.4763180410123149,-0.5105385921204036,3.466065785365233,0.485536106963123
727,0.7775685650310982,-0.15701446032468253,2.4132188467667457,0.7994463520318346
728,2.017312850960279,0.07194239864252897,1.429355248718798,1.199166265868135
729,3.2111066353472206,0.20170989970474587,0.5202031570832781,1.6624466461471743
730,4.3296779154293565,0.2777166009714744,-0.3112713861238823,2.168523922438424
731,5.3557010645776755,0.34157563196291124,-1.0666074023852232,2.715061500629631
732,6.2891840668852845,0.4203490235804573,-1.7513398278493297,3.3061363267245927
733,7.133181630216632,0.5260117423742937,-2.3719345650065145,3.9205153846217637
734,7.877250056563455,0.6548605100840755,-2.9354852570019476,4.52066255299001
735,8.505323105273348,0.7935906953830836,-3.4453852115149277,5.091231912037177
736,9.006116255637764,0.9281160829434686,-3.8960218971439287,5.643328114522849
737,9.369403693816174,1.0443803531532698,-4.280481594740102,6.182918761465845
738,9.577556524617087,1.126411294264843,-4.5995291716436695,6.70035855064247
739,9.61668917783215,1.164234959941873,-4.85807196628438,7.187564758549569
740,9.501366176142827,1.1664601134603256,-5.059231454702793,7.646396266810217
741,9.282463959602122,1.1512517195949237,-5.2036842683346185,8.092140509941629
742,9.033142292387677,1.1233043513009402,-5.291660225457719,8.544111383737105
743,8.823893542590886,1.0775884081108487,-5.3255913038286495,9.001747842483525
744,8.705651613935993,1.0172608482145784,-5.311721227393075,9.447019751608092
745,8.714168024298958,0.9529251131683406,-5.259758496367798,9.872440520175058
746,8.88612282748359,0.8920941783307798,-5.180019996811415,10.286944880987576
747,9.255289453075497,0.8406929382934918,-5.0785890031984025,10.688045157348126
748,9.831568371200964,0.8108529940920192,-4.956660520027547,11.043228637141812
749,10.588810192700429,0.8134988250763713,-4.814984032782883,11.311111255491586
750,11.473134807752949,0.8518619372917823,-4.652644271040022,11.480579385463495
751,12.433670478959467,0.9294187403329768,-4.461833461567062,11.573641250585514
752,13.442440992595628,1.053493739598489,-4.229634834825874,11.612889204683047
753,14.488012684115322,1.2304799083645876,-3.9472536643763805,11.609281388100076
754,15.560695733134597,1.4637164812286834,-3.6150511579993605,11.56905106345687
755,16.635432599405586,1.755401758416278,-3.235644873928276,11.496630734867777
756,17.666806948185027,2.1057894044486187,-2.810736344329165,11.395547255687996
757,18.599712483331853,2.5130479806609203,-2.3460592002961382,11.270858239327714
758,19.4418322389116,2.950521364281118,-1.8879814886401403,11.136394488853636
759,20.042416422720535,3.451560981108763,-1.3785296363017685,10.932461546642752
760,20.320793770061382,4.0190424198673105,-0.7954994189020603,10.640185365202129
761,20.257373752259678,4.63148631794514,-0.1416213900138605,10.272896473277372
762,19.883003065844267,5.253392809877323,0.5620831393967963,9.850959152872617
763,19.266824771806053,5.844804200300612,1.2808366169844125,9.39369979911022
764,18.50279398909789,6.369749088141869,1.972111520153429,8.926896089712157
765,17.69500700906379,6.8036252881726975,2.5948732630352502,8.489526082221248
766,16.942001386952647,7.138166478183378,3.118995328046428,8.12457460511437
767,16.323799515531284,7.378728142302479,3.52672679482294,7.858477743090792
768,-0.12149506621057829,-0.3500001957457835,-0.3454178613074169,-0.19454894149433172
769,-0.45440126859698493,-0.8345246592578766,-0.8468903371826193,-0.4752734682584633
770,-0.9350003352055176,-1.545955440343006,-1.5989648458032388,-0.9066607358935744
771,-1.5787936267738942,-2.497087522377432,-2.6210306355265263,-1.51317977670574
772,-2.399225968778868,-3.6737259795086312,-3.910773401606537,-2.292781788830962
773,-3.368769944389143,-5.040880637224928,-5.443183486039516,-3.219175797131852
774,-4.4214009320756045,-6.557672059950244,-7.173246329223501,-4.256211345030182
775,-5.488149628735929,-8.183595571529994,-9.041507216084435,-5.3646767764512715
776,-6.52034212436969,-9.877205534178252,-10.9809880918112,-6.497430990473127
777,-7.49061251088406,-11.600717516541753,-12.929304167067007,-7.600003389165871
778,-8.382442964876969,-13.334552036619415,-14.849258386846198,-8.633097364006803
779,-9.183740126405812,-15.050258861925004,-16.69795942446598,-9.578976078386214
780,-9.911990218642433,-16.725314948828903,-18.44614755946603,-10.44667315918389
781,-10.62125956358706,-18.333795769226807,-20.07831276742803,-11.255913464997992
782,-11.37575941908916,-19.8479265624016,-21.590467509707654,-12.021957623276856
783,-12.215807984587153,-21.256279345101486,-22.9875242716895,-12.760362441388654
784,-13.1602184038117,-22.570714402447692,-24.279439151216554,-13.495328819879633
785,-14.236412414622372,-23.812225792027256,-25.47652547276451,-14.248059121637805
786,-15.476637666015156,-24.99130407196441,-26.583357503621517,-15.013480017669648
787,-16.873630427211392,-26.101778696531095,-27.59411278952724,-15.752444863355267
788,-18.361397218009508,-27.128274601337566,-28.495071979470186,-16.41692641209744
789,-19.84385419827393,-28.04830328541996,-29.271483430291934,-16.9752586264044
790,-21.244240736623837,-28.830583346589243,-29.91158496389432,-17.417365716917722
791,-22.52517320486099,-29.436335514042717,-30.406223288099476,-17.747133823148776
792,-23.650942229965903,-29.825344511733082,-30.74627712339082,-17.975459836491968
793,-24.559909118126047,-29.969663902065317,-30.923348472897455,-18.125460529197863
794,-25.19267196354292,-29.858658252407032,-30.934830714634344,-18.233757817543413
795,-25.528990243456054,-29.498797214819668,-30.785478751493052,-18.337672616341937
796,-25.5872020085888,-28.917277308093286,-30.48234921434228,-18.455775185927635
797,-25.39061841851948,-28.15476759585636,-30.029306328296602,-18.5815578353393
798,-24.951030306171884,-27.25128255644053,-29.426875599937112,-18.698161067280175
799,-24.283012205294597,-26.243854395300634,-28.681617022689217,-18.802173602495603
800,-23.42228471494559,-25.169289204717998,-27.818302734103693,-18.916826045768087
801,-22.427624270007573,-24.05864317022629,-26.877137270298427,-19.072370640168035
802,-21.362681264080713,-22.932471910435936,-25.900750621507875,-19.27818371752041
803,-20.277607436868298,-21.803847280368124,-24.928215056640706,-19.5141517777309
804,-19.20142780934332,-20.683616383487546,-23.996611845517858,-19.749269700658942
805,-18.153568060894706,-19.581612989082473,-23.13943344338186,-19.96538130965071
806,-17.15574911438217,-18.506163070813578,-22.376872542832025,-20.147852043281933
807,-16.222073581492932,-17.465562368806914,-21.709912184630767,-20.266667552204225
808,-15.343774989897165,-16.468198211420805,-21.12629466666412,-20.274087834341383
809,-14.492365348773276,-15.523432452462144,-20.610452385347948,-20.127135483642814
810,-13.651622278120112,-14.642571164901062,-20.14541216742508,-19.818316595901674
811,-12.830451649591543,-13.834910134028181,-19.70736337491022,-19.37031679520063
812,-12.044042048923696,-13.100346672138514,-19.267001088816123,-18.80761525091853
813,-11.306689193062258,-12.423658272180266,-18.79856441388264,-18.145895681612735
814,-10.630136275886622,-11.785272393747443,-18.286193930256076,-17.40644966286696
815,-10.026851389654842,-11.183061268008885,-17.724766937360933,-16.629936947631894
816,-9.523073596851365,-10.630642537367052,-17.115570826658757,-15.862269552492286
817,-9.161235114016623,-10.137936779898682,-16.460520365950874,-15.129149606427195
818,-8.973907199957102,-9.708403619265313,-15.764787634580747,-14.435247828988407
819,-8.952108332650521,-9.348252062595668,-15.04527466539439,-13.789163666869184
820,-9.057176781331579,-9.06820819975108,-14.329723719308848,-13.213420691601087
821,-9.254076276526817,-8.878329398065382,-13.647473333176716,-12.723742715265198
822,-9.517990782765759,-8.781669473097613,-13.023208861133114,-12.302438706888832
823,-9.810822031028538,-8.769275548957829,-12.474751444819091,-11.902248950264184
824,-10.065836342263173,-8.816067200606545,-12.010935803899683,-11.476940979285272
825,-10.21430606450547,-8.886061716155108,-11.631139866360066,-11.0008071900281
826,-10.22490495354251,-8.946610490764295,-11.328906214043581,-10.468993200412239
827,-10.111116666430153,-8.975266777741961,-11.097871997384926,-9.883304811673568
828,-9.90250959939764,-8.958271168061458,-10.9344084619682,-9.250026006036391
829,-9.619745609837002,-8.891276618594574,-10.83014935689264,-8.593812503388513
830,-9.277828861328889,-8.780642171298519,-10.769270393693814,-7.9551019046885
831,-8.89918405620675,-8.63587405851402,-10.740220108552595,-7.3744959148045375
832,-8.510827307229613,-8.46075477563669,-10.738015178590292,-6.871682578271746
833,-8.124262021260808,-8.25191472743594,-10.754849876914413,-6.433341436065518
834,-7.725269191519286,-8.001200770300624,-10.780113609257427,-6.028021677816371
835,-7.287360305543359,-7.698339188550227,-10.806133407012947,-5.628867103484164
836,-6.8016037970115315,-7.334453336941286,-10.82878813763656,-5.229352553923947
837,-6.285150840934707,-6.906928917390897,-10.844534818746107,-4.838352976222353
838,-5.7558651611792095,-6.418990904331138,-10.847306828006056,-4.464049477912636
839,-5.221289916919961,-5.875208196541089,-10.828402568691292,-4.109878148850634
840,-4.68878607447194,-5.284168651711857,-10.779457921264328,-3.786083601515614
841,-4.178502260396979,-4.665881782746156,-10.696640074584307,-3.52289304096745
842,-3.72540384800556,-4.053131106391967,-10.580604308684778,-3.358229303277124
843,-3.3609752529634416,-3.480698998131746,-10.429653911793608,-3.3126817122216483
844,-3.100549773923341,-2.9704785138092635,-10.235315376122815,-3.380545511616864
845,-2.9442350314372487,-2.5323270592292397,-9.987859470156305,-3.5457293936762775
846,-2.888503708726512,-2.1741659877756465,-9.68579715976325,-3.803738740387063
847,-2.937878255612494,-1.898523186153123,-9.332557218791601,-4.154806689112624
848,-3.1017989708196505,-1.692708870657522,-8.922954406693483,-4.577233878895192
849,-3.3763324746170094,-1.5295456231718305,-8.445094121307188,-5.02193788523822
850,-3.72048448980134,-1.3763941262095745,-7.894250947517825,-5.440133805444613
851,-4.066400443277112,-1.2077408967757892,-7.273093625862167,-5.804490597178641
852,-4.357658337881681,-1.0110748627875754,-6.584049762353364,-6.098550874304249
853,-4.568299663009204,-0.7810286627807774,-5.8317297278431015,-6.299354160843385
854,-4.682561412722229,-0.5158237479761973,-5.026838374240741,-6.374128915231555
855,-4.667970445925022,-0.21640313610423323,-4.178391321126435,-6.301628307547283
856,-4.4939060908494035,0.11095685600746111,-3.2959706465095393,-6.0906665164673335
857,-4.1659063674536325,0.4509073598293307,-2.4059567748154076,-5.762434235055254
858,-3.7227925766760483,0.7896588959884786,-1.5453391220871828,-5.320836507219159
859,-3.2046621938599498,1.126004036798062,-0.7420826102537554,-4.752660657017116
860,-2.6274316633809858,1.4668525071219254,-0.007051342658037946,-4.051172396475746
861,-1.9908186328072206,1.8183838355125435,0.6676611073128442,-3.2252999100174864
862,-1.3047607112744142,2.1881069059248905,1.3096132234981783,-2.2939044557596686
863,-0.5977015378224964,2.595101830614644,1.9653023199534672,-1.2757552026282206
864,0.11009698313141641,3.064090845723198,2.6916704922346595,-0.1881892845531716
865,0.8287746021695693,3.6060277367779126,3.5417552294852865,0.9431455986041637
866,1.577477616138745,4.213427606786683,4.556807830306423,2.0794328451449715
867,2.350681583769312,4.869052082057892,5.76068054452029,3.171588108727227
868,3.1183630636652806,5.551498555572277,7.158918678199161,4.1768941705776035
869,3.857890654409092,6.241789781980304,8.747968515733186,5.072237675178964
870,4.567003419109986,6.930046092480932,10.514276408534272,5.850251407606882
871,5.24669988236124,7.610264137533209,12.42400165798579,6.513511733727032
872,5.877450672085331,8.271978060736329,14.416745301543418,7.074658074253662
873,6.420414935874287,8.900099194829043,16.415763861674254,7.563817035055102
874,6.850163482055889,9.481238539439321,18.356136921913006,8.02366271603588
875,7.162508471346499,10.005822390256766,20.1892038878428,8.487973633193864
876,7.357985762004318,10.457889730209851,21.86112676911247,8.969357371976617
877,7.432243011687116,10.8075431866545,23.309655752371775,9.459558066480367
878,7.377462301991864,11.019642220879422,24.474521991564977,9.934692771542172
879,7.19709524888232,11.066507193662181,25.305579107596277,10.367480420468711
880,6.918021738026281,10.938101463722555,25.77048117520182,10.739901233794575
881,6.589247685820957,10.650632637707595,25.858800630043145,11.035138140733892
882,6.257095837050501,10.244339506839404,25.58206904853334,11.220656776916282
883,5.941985611789557,9.771406110355532,24.97060838045991,11.260257195815596
884,5.6380718627459006,9.2847742008041,24.06832192466122,11.145926200078216
885,5.329280827457734,8.831723677464854,22.925261856450703,10.90286290264957
886,5.039036450841208,8.46124575378152,21.65241582058256,10.594252152777349
887,4.734175482573381,8.148002992170609,20.175705820962744,10.18893597768202
888,4.3920449602096765,7.86719569389677,18.504733462956334,9.68604211378612
889,4.004443843275236,7.601084733993195,16.706529188523145,9.109012824215363
890,3.583763331909831,7.338935601111894,14.876043137430676,8.493988630751156
891,3.1571150159589574,7.073154330257604,13.112386423012204,7.876797214784635
892,2.7518897534906697,6.800154291317122,11.503265616476499,7.288550327414249
893,2.3893642030040056,6.524916356516516,10.12035915099956,6.759138599907314
894,2.0870548706722665,6.266117846119557,9.015325084484354,6.319850190156471
895,1.8636404423486215,6.051291254602904,8.213487940303649,5.995851115064212
896,-0.18198440158814785,-0.038667429100667144,-0.5298548851556597,-0.4519924621185405
897,-0.43890052815214264,-0.2810096814442242,-1.206681010128694,-0.9179954801986207
898,-0.7755381222366629,-0.6746023297905075,-2.180493482812607,-1.5556285377780554
899,-1.2041438823811934,-1.2377575411409683,-3.455912045911621,-2.3765989099497733
900,-1.7448161343216522,-1.9795039901502145,-5.010815394307301,-3.3694843887066455
901,-2.399575403932306,-2.896111750810683,-6.796967993202907,-4.486801146772629
902,-3.1471070289369907,-3.970844159712839,-8.744456566821286,-5.6534698646208925
903,-3.9549681065171844,-5.181968436465064,-10.77141158146257,-6.78923639081096
904,-4.791612380420937,-6.501742386398588,-12.798839065635189,-7.828438794481111
905,-5.635423443111159,-7.886456398535332,-14.767927598679604,-8.72964478690729
906,-6.4766696401119965,-9.285264607176273,-16.660334327178035,-9.479758839447728
907,-7.28881321293848,-10.654920220594873,-18.44538234586441,-10.05796669326256
908,-8.045729762931005,-11.964723173577426,-20.10265590319925,-10.466727532463167
909,-8.740789283314164,-13.180252651425903,-21.618700750914027,-10.73033147961731
910,-9.375397064407116,-14.260286330548782,-22.985657288538548,-10.88847835684905
911,-9.94611651298687,-15.1677043547647,-24.203745331067566,-10.984838489224348
912,-10.453109143913826,-15.876448640822591,-25.28008324120475,-11.065398557864071
913,-10.919457292030613,-16.376338114634294,-26.226080519420652,-11.189961490944516
914,-11.393471758372199,-16.677514166945915,-27.053977425230393,-11.41272457575464
915,-11.908183479677161,-16.804787297245465,-27.771178278289753,-11.74517574925451
916,-12.457829305637278,-16.78282407764689,-28.374983579426576,-12.15194197875899
917,-13.017711650438768,-16.63288964180825,-28.85464747498365,-12.582285801850762
918,-13.563963718973636,-16.379827474576174,-29.200044259771374,-12.999468564504134
919,-14.0708811970946,-16.052708675643213,-29.40526857056954,-13.382746198913194
920,-14.498321377792198,-15.674986338244674,-29.4667757928186,-13.712056043793066
921,-14.795655215024048,-15.255834921101592,-29.383108170750475,-13.958716046867526
922,-14.91694494198295,-14.802328885663794,-29.1570902596787,-14.103532289446658
923,-14.833670848991712,-14.328231314275678,-28.799048626486176,-14.165113403454576
924,-14.541232994664291,-13.842568835266725,-28.326829686915787,-14.194026998660764
925,-14.050418645297844,-13.343224552467767,-27.759582843139107,-14.234733555576462
926,-13.369812068807871,-12.823921575866894,-27.112669433579672,-14.302496315306367
927,-12.513652949368252,-12.284775956470192,-26.401650806895596,-14.39792492899483
928,-11.517664464846549,-11.737134566055104,-25.648184852498254,-14.525835912401636
929,-10.42128542318643,-11.202127429663731,-24.87714791308205,-14.686783715988765
930,-9.250996549367578,-10.702585842263883,-24.10804777600995,-14.85228982542822
931,-8.023792029691926,-10.253344652015507,-23.351444606896617,-14.967789052138913
932,-6.763089617928428,-9.861200127905114,-22.614624952466983,-14.992725285093147
933,-5.5118554547272565,-9.531890782209302,-21.90881193272973,-14.921643571357158
934,-4.315027067609639,-9.271069835601986,-21.245474987221392,-14.765329207070195
935,-3.209141452240348,-9.072399396065405,-20.625177901548444,-14.52612924090883
936,-2.2369043296976856,-8.910005770326704,-20.038209659485165,-14.196838966153345
937,-1.452700783607819,-8.756379554156913,-19.475492223762693,-13.777685339509954
938,-0.9015414240748127,-8.606937792923711,-18.93352447963661,-13.285782342124929
939,-0.5864513929677739,-8.47962739523993,-18.41176095978002,-12.747343202717968
940,-0.46902042629407675,-8.396176970956061,-17.907479326578645,-12.176660783026737
941,-0.49406152333775505,-8.374368347179354,-17.413704956773408,-11.572636740483553
942,-0.6052088725659959,-8.43339166264017,-16.923159900638023,-10.940003222630978
943,-0.7547986201392705,-8.5934238314451,-16.434251299426137,-10.30357202120819
944,-0.9153418025711066,-8.866540178143097,-15.951682865863337,-9.704416194631234
945,-1.0906468959724847,-9.250384920503421,-15.480757216524786,-9.178442491851587
946,-1.3180864707077407,-9.72849799525839,-15.025469977208713,-8.744279906338146
947,-1.6484554305772232,-10.27200799364298,-14.591356349883482,-8.413456955158436
948,-2.115583586986674,-10.850317985922374,-14.186491165413132,-8.20035469932185
949,-2.7290661292541483,-11.444549166404778,-13.820152855316191,-8.121649538214953
950,-3.4884678660313413,-12.044617157839836,-13.498690153966452,-8.184738772705089
951,-4.398966424361188,-12.63772579779366,-13.223852603539692,-8.378971827121541
952,-5.457127853614178,-13.204605134571667,-12.99602008942471,-8.676419300760688
953,-6.612513240168912,-13.727811789983686,-12.813054586721977,-9.042836828678974
954,-7.773345758078093,-14.193856546240266,-12.66605141163544,-9.45418226159877
955,-8.861210020522012,-14.583952801159148,-12.540007956692113,-9.89567715514438
956,-9.85877792943131,-14.878499659887709,-12.416528198231854,-10.34620153256031
957,-10.792352106694139,-15.07052246203518,-12.277412497541183,-10.767741031458709
958,-11.669214927112968,-15.166643928912627,-12.109234440827962,-11.123785984733262
959,-12.466156014008007,-15.184305002119297,-11.907674184787393,-11.414345962283742
960,-13.161126336201546,-15.153735181353403,-11.679909461711128,-11.667501155959664
961,-13.753250344221874,-15.111637069741537,-11.440886927944845,-11.9025459531144
962,-14.251914233752906,-15.084169125944674,-11.20727870708869,-12.116801530089182
963,-14.650148384751951,-15.075490549374209,-10.993794405394857,-12.30211310347229
964,-14.929430381021387,-15.072107716444014,-10.810482790919574,-12.464712269076516
965,-15.081612439024354,-15.052844219134638,-10.659373398934433,-12.612983053511021
966,-15.115240199065735,-14.988580016454426,-10.531000010577543,-12.732694364368996
967,-15.04641851819219,-14.845574927175424,-10.405914685357857,-12.78665522189992
968,-14.883560907966253,-14.602453811886692,-10.262460902311409,-12.735956437463399
969,-14.631965270214033,-14.258577429783232,-10.08345345865714,-12.559955441299065
970,-14.31528576300397,-13.826865224273003,-9.856096132781632,-12.253075073331939
971,-13.972985485966472,-13.325508363808835,-9.568830259807235,-11.804784485011247
972,-13.628693473000084,-12.774779703629306,-9.21194969143132,-11.200706482095029
973,-13.269043803234426,-12.192642467303921,-8.781362586607091,-10.447597464113581
974,-12.868338924138934,-11.58910752616543,-8.281742768671169,-9.582284776767914
975,-12.433925100649834,-10.968055923707011,-7.725042526049288,-8.654097163548508
976,-12.004634872815535,-10.333476271960622,-7.124187380958543,-7.698282528889608
977,-11.611669778234086,-9.687252268645178,-6.4887127345433875,-6.737692675737137
978,-11.261640597922977,-9.028669858648824,-5.827295802001463,-5.8108659279607195
979,-10.949351182322898,-8.36560480944423,-5.152297158845141,-4.967880598714758
980,-10.676840344100109,-7.718182965184899,-4.479006162035988,-4.242900180503931
981,-10.44467459036925,-7.104901648068945,-3.821409690141478,-3.6374783861829987
982,-10.22322052556337,-6.525381118953941,-3.1878413881998666,-3.124750371580357
983,-9.953600610156357,-5.964814321611638,-2.5823735033522897,-2.673984390461582
984,-9.573097909035004,-5.413253492725635,-2.011541160727312,-2.2650767377542023
985,-9.03404212945,-4.870049662620295,-1.481417478516856,-1.889937597608756
986,-8.306143415215441,-4.3383622578300205,-0.988727593521488,-1.5447948146505415
987,-7.3744896743924,-3.8240223291899422,-0.5233494701610223,-1.218470473367471
988,-6.23894256069391,-3.3326056300375124,-0.07795424997970204,-0.892237475507565
989,-4.906112393120007,-2.8639574491099125,0.34922576389808324,-0.5513586723318117
990,-3.398362885739658,-2.4148287683451257,0.7581712972492208,-0.19575463872164328
991,-1.7661969773742157,-1.9845913100486487,1.1487243932737379,0.1648051792525505
992,-0.07362584552876228,-1.5696939328753248,1.5232737800843301,0.5243813470192348
993,1.616839701125005,-1.1521649324748977,1.890707268054218,0.889546505195911
994,3.2507381613252573,-0.7080020561230591,2.261685242881644,1.2696353324944496
995,4.78155770629987,-0.22972924555873114,2.6403934658300106,1.6572472955959974
996,6.158761784561373,0.26898065448472763,3.0232985640834587,2.030864144941235
997,7.31840339889861,0.7620100503458908,3.4022901657953226,2.3743761651676203
998,8.201464575647728,1.2174892839575862,3.76608064366037,2.683689458697388
999,8.793235089406133,1.597724957805914,4.100565411778359,2.9570694501567956
1000,9.123670263539445,1.8605392637304783,4.391840349865528,3.186838479131076
1001,9.228147221981803,1.975426852841903,4.632151880680625,3.3611710876551495
1002,9.122381763223562,1.935478087319532,4.818864986623985,3.4776687900543797
1003,8.816668563658565,1.7535549427817703,4.947445865556558,3.551748542876165
1004,8.348352993430261,1.4583010617060055,5.014820463056591,3.5980722081438836
1005,7.776757798252321,1.0903534319824146,5.0254969161119085,3.6145489643687965
1006,7.142427179446415,0.6908981137289709,4.9891016016421865,3.5935295642476195
1007,6.449893966320687,0.29317750191694447,4.916816918304115,3.5433587141950516
1008,5.698049005699916,-0.0785071558536041,4.819496324128616,3.4920158761761257
1009,4.905917424469396,-0.4124208636672314,4.705605808217686,3.4642394354314217
1010,4.1025553842835105,-0.7144498726187607,4.57738472648311,3.460045806191849
1011,3.3046494885642206,-1.0048087911501573,4.4329898201716835,3.455265125491391
1012,2.5049300636857352,-1.3012472056260376,4.26803640763853,3.423743368151526
1013,1.6929906267462467,-1.6078780806385817,4.067006372641965,3.3521093456156046
1014,0.8906828266479008,-1.9407997051649903,3.7539939249767706,3.23941861479678
1015,0.09368187651118723,-2.262140962184278,3.3952282446711775,3.0222833518879564
1016,-0.7063361632990449,-2.542287927949601,3.045776700246908,2.673863715972533
1017,-1.5159569324978095,-2.7549851937022622,2.7501827874040603,2.2066567928147145
1018,-2.3056650202157267,-2.879601342881567,2.540939423939633,1.6636804183689216
1019,-3.0139306239855683,-2.9100837098519334,2.4362111356597533,1.0996958451057737
1020,-3.5903065932377407,-2.8560444516951593,2.4388634954014177,0.5616351194231083
1021,-4.025817822755049,-2.737899069909101,2.5361996727304503,0.08552126039286614
1022,-4.341996419562721,-2.5845882703515777,2.702378462826735,-0.2959290582359432
1023,-4.554895298740006,-2.4285317982862766,2.9046186385382504,-0.5590907249919778
1024,-0.12288105386298184,-0.34194007383808045,-0.021750700965575086,-0.02840541960171894
1025,-0.3683856142730042,-0.8890075906403646,-0.0396792562088845,-0.308410989506297
1026,-0.7386383580801035,-1.6545840472917046,-0.03723810901867499,-0.7411185833137128
1027,-1.2389089708702972,-2.619212933111412,-0.001203125870472721,-1.3467517314501438
1028,-1.8755598764352288,-3.7378172647989447,0.06303450245198405,-2.1298828496949813
1029,-2.6469232571605255,-4.9425720652654475,0.13018141033525832,-3.065329245185511
1030,-3.5280795692188875,-6.1586259453177385,0.15872740788526146,-4.10742435769763
1031,-4.476213986784476,-7.3243314706180875,0.09762753027302085,-5.2149838020897
1032,-5.455708156727244,-8.403830819779591,-0.10589364223491443,-6.362052965009837
1033,-6.45558896920316,-9.392654235159164,-0.4993638429252117,-7.531593262032958
1034,-7.485425604549108,-10.325201364858575,-1.1183137040779079,-8.70627328943904
1035,-8.532185648893886,-11.23744062212367,-1.9789613229918157,-9.871537771021119
1036,-9.569442583456908,-12.161588406546471,-3.0761762350240587,-11.0224640385649
1037,-10.581631693220052,-13.120749346124693,-4.387581302918725,-12.157880966533575
1038,-11.574819757781182,-14.121441302191675,-5.8755400257917625,-13.261145011190411
1039,-12.560301199881293,-15.144300413741309,-7.488369727896259,-14.29348164071426
1040,-13.527108963823425,-16.15291699322997,-9.16633212527534,-15.220130221518808
1041,-14.447893372898685,-17.113944098151933,-10.853117021763868,-16.03305458647227
1042,-15.307559009327461,-18.000657356355298,-12.513175406008022,-16.742024388281422
1043,-16.112881181833753,-18.78303073863179,-14.130347397156697,-17.350412204846165
1044,-16.87016654287595,-19.43255358627663,-15.685510253864994,-17.848766162998075
1045,-17.56272326464186,-19.937635408921565,-17.15445266090911,-18.23080008788021
1046,-18.167329497928918,-20.307578071367924,-18.519446350024033,-18.501429499654083
1047,-18.683543582139304,-20.56162151619397,-19.77124865637952,-18.66780330351016
1048,-19.133360972883047,-20.717253218144467,-20.907291419688637,-18.725722285034415
1049,-19.53277314994303,-20.78919409338246,-21.93048294841192,-18.662251350654504
1050,-19.877323587574352,-20.793709899078422,-22.848838137874004,-18.47916043494004
1051,-20.159488039898157,-20.752592330562358,-23.674937500685058,-18.209405190795824
1052,-20.39156566632244,-20.696717703805028,-24.4239858697193,-17.90765744020897
1053,-20.604472227323157,-20.65480139937145,-25.109998572355643,-17.62142491794694
1054,-20.822002252470295,-20.633888130123022,-25.738776191131166,-17.374681271940503
1055,-21.044231183069773,-20.618909154486232,-26.303759230328257,-17.17696066701912
1056,-21.249299663632684,-20.589253337828755,-26.794045694196726,-17.03766346904817
1057,-21.41898568591717,-20.528646793157527,-27.20463677425977,-16.96723785850531
1058,-21.557261101318595,-20.423108437031917,-27.536881192192062,-16.960900932841724
1059,-21.666805481082825,-20.25931883499622,-27.793597063344528,-16.992781635223867
1060,-21.730770107386224,-20.026643763401147,-27.977649829842964,-17.02890867286299
1061,-21.72044021036397,-19.718029642888155,-28.09619729841292,-17.042787277060082
1062,-21.618183021966633,-19.330883465572395,-28.16178772586477,-17.028106896900212
1063,-21.42931772050202,-18.86910444737025,-28.18613408621559,-16.991549813280628
1064,-21.16258251589814,-18.341797345110397,-28.175096038664183,-16.931114026404675
1065,-20.81885363909466,-17.762253481432666,-28.127366256327424,-16.824888559861776
1066,-20.396096273505847,-17.148721052717775,-28.034647071578725,-16.64455222924684
1067,-19.897898467363532,-16.522898665892217,-27.884059513664937,-16.380900115472986
1068,-19.341965260121928,-15.904743871557635,-27.66001086435663,-16.038534214437234
1069,-18.75567554810006,-15.30116679661216,-27.34361510707395,-15.61466348939623
1070,-18.16011206400966,-14.699207033148175,-26.913984302310777,-15.099806499692948
1071,-17.55814314849876,-14.085754618401714,-26.355297725863025,-14.497882988814014
1072,-16.942704803318048,-13.469473889999865,-25.666676823493606,-13.847426975528975
1073,-16.315876359100987,-12.87065870332742,-24.86132110093408,-13.206220472630708
1074,-15.69420010842876,-12.300944387996184,-23.9538915954905,-12.6149082160795
1075,-15.079987342736715,-11.759153493163458,-22.959102260376426,-12.086757280584015
1076,-14.438480433563576,-11.240411541062969,-21.901087711582008,-11.621830859754144
1077,-13.726847387407037,-10.742236711782464,-20.814629629958148,-11.221298500496935
1078,-12.933111823632272,-10.26264940986824,-19.73893969513671,-10.888818631820106
1079,-12.086999682806049,-9.79792048797864,-18.711604099779475,-10.622599315971263
1080,-11.227537157061994,-9.343745841944022,-17.764828718985264,-10.41062725206321
1081,-10.361249289944649,-8.901590623947648,-16.92110935481212,-10.238098741799979
1082,-9.47601266361965,-8.482821068788914,-16.191307452505484,-10.097269249342354
1083,-8.58036642709209,-8.103896539689442,-15.57780655799019,-9.985381627066085
1084,-7.712229631470603,-7.777790948547712,-15.072926537666424,-9.892377499017336
1085,-6.91325008260759,-7.50747205610547,-14.654346479998594,-9.802382969418847
1086,-6.205853559978705,-7.291722498480153,-14.293329820017641,-9.71950088602952
1087,-5.599502785797771,-7.137405797381423,-13.9700741926323,-9.676032164835787
1088,-5.107414440095124,-7.050155352772526,-13.671614143203863,-9.702389001976748
1089,-4.748324167532877,-7.009220179030911,-13.378646633756121,-9.795679563759423
1090,-4.528580721386337,-6.969701701277349,-13.06742566327096,-9.923397195662938
1091,-4.427369245416361,-6.891884809683015,-12.720656715589703,-10.053416343611655
1092,-4.407876749434806,-6.755258011147458,-12.333090445386997,-10.166721999704615
1093,-4.450145847220646,-6.550792320537885,-11.91149703498009,-10.252448621719823
1094,-4.555751283475375,-6.273976476666963,-11.470172002919675,-10.296010966576878
1095,-4.710315073614133,-5.926576666760662,-11.023440268534625,-10.266005604529195
1096,-4.871397331168023,-5.517519347179901,-10.578896290395107,-10.120836522890942
1097,-4.997397078176685,-5.057544773961082,-10.137557248103063,-9.833677577492852
1098,-5.077299346516662,-4.556562804702443,-9.698192437773617,-9.415249299364392
1099,-5.118287979323235,-4.029205909934413,-9.257496819699238,-8.903810470223334
1100,-5.102283877818394,-3.493503145121129,-8.806361538313595,-8.334143468488623
1101,-4.9806123571380425,-2.9595004090766106,-8.333209354689142,-7.723826250886214
1102,-4.7019746068175525,-2.431674941227584,-7.832644259343288,-7.085976135232188
1103,-4.231760633538642,-1.917234150178418,-7.304664972739548,-6.445847336245101
1104,-3.5528521706325797,-1.421385598382863,-6.748083715168723,-5.832443200172484
1105,-2.6578894171621923,-0.9465425681832309,-6.164768089817588,-5.261086417684685
1106,-1.5492708271483089,-0.5023804647667657,-5.57098146780045,-4.727760106943961
1107,-0.2467293653516705,-0.10996218524041068,-4.99622033242099,-4.218459966597422
1108,1.2056736598913111,0.21174042412342356,-4.472704559896232,-3.725997642044089
1109,2.749243734768149,0.4642536418439205,-4.025812614459571,-3.246301903138229
1110,4.330517401077112,0.6664795781754704,-3.6637511220286254,-2.761069598817787
1111,5.91600460169708,0.8372931195223923,-3.3779199274744327,-2.2420989961876376
1112,7.498245703910617,0.991204183113921,-3.1553892799274155,-1.6793054060490211
1113,9.079667497171037,1.1397876112397893,-2.985207585077215,-1.09590459473779
1114,10.649051418698791,1.2858112006770068,-2.8562154804975215,-0.5267432642397236
1115,12.168485318110031,1.4251219144184066,-2.753902850872949,0.01375443063843522
1116,13.583782824138586,1.5579174873033772,-2.660632213612373,0.5350968644410166
1117,14.855257800863031,1.68705439462008,-2.560834428520177,1.0422075257704713
1118,15.96196946055252,1.8019908869902692,-2.4465725549510866,1.5161831221575837
1119,16.877841785909535,1.884567112670922,-2.3163064245372644,1.9296551002496058
1120,17.558146926456963,1.9352466838701714,-2.1703363703110448,2.2745205393538255
1121,17.95814926402406,1.9758434268549594,-2.0085149785942207,2.567361627352128
1122,18.06936384215866,2.0338078096710217,-1.8296081439223384,2.8281480851258034
1123,17.923159381953326,2.1327692802641858,-1.6322082862259386,3.0632592044939035
1124,17.562839874997685,2.2898884780243516,-1.4155098783829865,3.2669950357027298
1125,17.022634174712245,2.510143240313933,-1.1767220427192626,3.4429393968918225
1126,16.333117504832757,2.7805819825603804,-0.9102020998966028,3.614304649968067
1127,15.540504755486829,3.083772175837158,-0.6132675807879464,3.806342924761911
1128,14.699395143865788,3.4096620677390574,-0.28966621099124,4.03495425293349
1129,13.844464242479734,3.742724228228534,0.0513203243568857,4.304409471489987
1130,12.985869305553598,4.052174500968295,0.39552099869672996,4.610823684433648
1131,12.131287279440555,4.306628522217901,0.7258006638850055,4.94509632565541
1132,11.296296238651863,4.490763827115624,1.0240676765941215,5.282210608850222
1133,10.493345600330912,4.602142250545516,1.2718093037044322,5.5804697535845875
1134,9.71419677301568,4.645682079907137,1.4544877642620446,5.797111160059868
1135,8.931639924071577,4.635649971002373,1.5690535472171043,5.90985680259158
1136,8.12543655513848,4.5916231421928035,1.6233381369489497,5.926656655238204
1137,7.291642617270132,4.5252521688445615,1.6291603281212022,5.869768483499471
1138,6.428619051441556,4.43655040982149,1.5984526970882136,5.7571016833343345
1139,5.5207251895562095,4.323498737127198,1.5413614431956257,5.595018427654617
1140,4.543045875224972,4.186499505178884,1.46658433193313,5.386020872373293
1141,3.490331036929083,4.026734694348034,1.3832365216087716,5.143107300555413
1142,2.3942339021411825,3.850575130012026,1.2942461395677254,4.9066290142886455
1143,1.260612750691806,3.6373072413288017,1.210294739502987,4.664671722183928
1144,0.10882012137259942,3.37248072989257,1.136103558338934,4.403110608978598
1145,-1.0348264331379688,3.051623775178986,1.074657220523432,4.118237161611409
1146,-2.124192910169956,2.693126114261398,1.0289352283549233,3.8226526054909646
1147,-3.1013759144684148,2.3350629198175192,1.0007638438291961,3.536951626491967
1148,-3.919342501611111,2.0148065257984875,0.9889687675718585,3.2757431266316996
1149,-4.554545890349929,1.7538094385691845,0.9903940212688941,3.0465167899018435
1150,-5.009741202786413,1.5583411761545376,1.0031749397642953,2.8580677554275398
1151,-5.305326087840905,1.4281430752369029,1.0258534105803887,2.7218111791883257
1152,-0.253449172761895,-0.010504466272131946,-0.35616483521892134,-0.11369789926444507
1153,-0.6072517296841677,-0.17210246396294182,-0.8586396235864897,-0.34959793091784774
1154,-1.1248342302868917,-0.48258021321891825,-1.6090146829024132,-0.68328155073837
1155,-1.8028752686950344,-0.9939961164507473,-2.623030747256212,-1.1248390024574193
1156,-2.64622949751817,-1.748717521551176,-3.8916081629466728,-1.6791260473586442
1157,-3.657414623057618,-2.7682483350419345,-5.381745655477404,-2.341136233247488
1158,-4.807920041306144,-4.0437789848129375,-7.040731092490632,-3.0975878369414764
1159,-6.040768734191284,-5.5386891269291985,-8.802333215217423,-3.9307270223763084
1160,-7.3030769097063235,-7.202028002589039,-10.597407814437823,-4.825140302212733
1161,-8.570776277618604,-8.979113497841599,-12.368382110541411,-5.77089501990951
1162,-9.851299652964078,-10.818204801199224,-14.086902324997347,-6.760088523723073
1163,-11.125474606159782,-12.667660063670464,-15.718922895091135,-7.780678155407557
1164,-12.362319056876823,-14.486113794835076,-17.248848429151174,-8.83297231435417
1165,-13.551362989975924,-16.240123237106758,-18.67951932165996,-9.926136815380598
1166,-14.710838956808963,-17.90162344591829,-20.01907979122489,-11.053387405682614
1167,-15.850432571860246,-19.448352395563457,-21.27204578108403,-12.184558002248187
1168,-16.941444963222725,-20.85865606220485,-22.443118809629045,-13.291651981477758
1169,-17.93673626689487,-22.108683507587646,-23.538567928098097,-14.365485543125638
1170,-18.806635467026876,-23.175836722689603,-24.560122057249366,-15.407868332049592
1171,-19.540265850355766,-24.041194301419036,-25.50238716193691,-16.41313153218566
1172,-20.119782433357248,-24.69240715311123,-26.353988552210016,-17.357198014895793
1173,-20.511382871353838,-25.12687923202435,-27.0991554558624,-18.20352055501781
1174,-20.68206466854128,-25.354488799430587,-27.72140355194185,-18.915622416118108
1175,-20.629154429660613,-25.403369490934875,-28.20898942392033,-19.471216247570013
1176,-20.388006614044606,-25.31967841288327,-28.56030346057854,-19.864816853091664
1177,-20.00821990707089,-25.150682360317553,-28.78624638294973,-20.098600319918962
1178,-19.53619115433126,-24.92626970504319,-28.908267767613413,-20.178871190055595
1179,-19.007486340590805,-24.658111488461273,-28.95331642607748,-20.124025112403288
1180,-18.45541695897094,-24.346593791122768,-28.945528520223082,-19.96984818746179
1181,-17.925065709598197,-23.987621828756886,-28.89819499692259,-19.751396547496025
1182,-17.466610535307353,-23.581829769036894,-28.814707854313504,-19.485489637767973
1183,-17.114267278683784,-23.137770438252367,-28.696808561103495,-19.17659635583028
1184,-16.86870201675351,-22.67155712838672,-28.54753135798202,-18.83303398058625
1185,-16.713938424820665,-22.210215587709282,-28.36784963191237,-18.475739540962554
1186,-16.642487372295104,-21.786194910973347,-28.153512326881092,-18.129953098021407
1187,-16.652483139520037,-21.423390121018034,-27.89588745073204,-17.809174624560843
1188,-16.73869207622917,-21.1296733935086,-27.58652723882391,-17.503332175409067
1189,-16.887345497754186,-20.893887140587513,-27.22221773670177,-17.1986029822469
1190,-17.079048976222992,-20.69209242160813,-26.80383363418406,-16.908554590263638
1191,-17.297766390807215,-20.499359431492756,-26.32996321099692,-16.662068563378252
1192,-17.530751192608292,-20.28680961354386,-25.79536711312743,-16.46934593481928
1193,-17.760655166052285,-20.01451797544691,-25.19364079077131,-16.315848792732833
1194,-17.96395033570708,-19.64728264195099,-24.522068791265077,-16.185242331182558
1195,-18.119757935502427,-19.182644902533625,-23.78660359933264,-16.070747920448735
1196,-18.217723978215105,-18.651509723931184,-23.000711133392507,-15.96429663558638
1197,-18.246356162474797,-18.091582137050302,-22.178502588190508,-15.844771628301887
1198,-18.166454226849858,-17.527431397249565,-21.33371331134618,-15.680342817024805
1199,-17.913293509080606,-16.96679318052277,-20.484890368461468,-15.443677819821724
1200,-17.431727857912698,-16.40756493193478,-19.65385390379405,-15.123765892207556
1201,-16.706660139938748,-15.847225617690544,-18.859449326668287,-14.729205020938794
1202,-15.753818257137697,-15.282377303895368,-18.11388107407448,-14.272871194490289
1203,-14.586855690009482,-14.702734047175662,-17.421596172295015,-13.754086235567884
1204,-13.208224319349148,-14.092928430610707,-16.7815275618575,-13.165443209605051
1205,-11.61808667835988,-13.440679541539728,-16.189505640549807,-12.508507680004449
1206,-9.834270561786237,-12.743953518498591,-15.637803879834305,-11.79159579283248
1207,-7.906401320587472,-12.01018657921307,-15.11525880732175,-11.007757300256689
1208,-5.905412003973477,-11.246379727555233,-14.609093498782828,-10.138141257785069
1209,-3.905159741393497,-10.455417081694753,-14.106264608985368,-9.181072261396286
1210,-1.9667188690250352,-9.648284976039777,-13.594798253044335,-8.157126171907281
1211,-0.13461830385656903,-8.853603896442996,-13.061193627306734,-7.090818416105638
1212,1.552399856321508,-8.099286186452085,-12.486752031799039,-5.995182854235625
1213,3.049236925649516,-7.39289535062421,-11.855162157538654,-4.87583355214691
1214,4.313587001499988,-6.731977939470812,-11.162413793788485,-3.7411142399726325
1215,5.331163542697699,-6.119665982122177,-10.418199201963553,-2.6126627389651103
1216,6.117228870799453,-5.5635257450756574,-9.642968958019047,-1.5372571954349477
1217,6.695587181349516,-5.065363894895941,-8.864541018327198,-0.5717895619877597
1218,7.092694508295175,-4.612534965565648,-8.114507465025794,0.2514913616106736
1219,7.346738369019305,-4.175254870455554,-7.421997042331483,0.9370131117904165
1220,7.5070440756778405,-3.715423848306515,-6.809669274914392,1.4954565681950542
1221,7.618460175387987,-3.199535866638172,-6.294687597585742,1.9139164570645226
1222,7.694754213410058,-2.6042727740938516,-5.88853904770364,2.1724954131320926
1223,7.709531368372103,-1.9166537196949678,-5.593613649266822,2.275060811305502
1224,7.633877759563298,-1.1322547904296967,-5.398363205847443,2.253140147951712
1225,7.472734042947228,-0.2579153738255606,-5.279913695708165,2.1495985768379056
1226,7.253616102743123,0.6819720322077327,-5.213378588627266,2.0029096960076216
1227,6.996781485878225,1.6483481875168295,-5.176917326893326,1.8409440926368994
1228,6.700990528378537,2.6059619329218617,-5.155896748027234,1.683067756570909
1229,6.358047260612566,3.5348917845606875,-5.144621518913947,1.543027304635758
1230,5.979651037694848,4.416433753399872,-5.138194231803369,1.4235626407565938
1231,5.588385506063902,5.224613250339315,-5.12633107631542,1.3111171704244111
1232,5.178556265756336,5.935612380286959,-5.097307029651021,1.1864370530891426
1233,4.719368333126309,6.534438729050139,-5.041182311864544,1.0486848084760327
1234,4.197413411460548,7.018296534089465,-4.952853279672339,0.9226914437178083
1235,3.6275628403302385,7.399336422715682,-4.837393957573068,0.8230397497015871
1236,3.0255644234642354,7.695167926717232,-4.707050506239524,0.7186565328251726
1237,2.391076535082388,7.914749696655976,-4.569557035935478,0.5513580235836377
1238,1.7215255128049765,8.059415342917141,-4.424904919499164,0.29164552531102433
1239,1.034885970190061,8.126073389078307,-4.274938466213904,-0.034497300942554
1240,0.3658437503313017,8.105022809971324,-4.121733778218946,-0.38480744707938136
1241,-0.26891561854931606,7.982448168374808,-3.962322226198633,-0.7411864261764476
1242,-0.8913537663830308,7.750384110329031,-3.799345588461254,-1.1003444247596368
1243,-1.5390681116170253,7.421999740744141,-3.6275526442673316,-1.4525192775969147
1244,-2.226202288602495,7.034327198863587,-3.404982456446665,-1.7893877179685145
1245,-2.931964162068802,6.630856195488259,-3.060633245052678,-2.12580161840627
1246,-3.6143610130338377,6.239026943886241,-2.5178634477376374,-2.5052863501010254
1247,-4.22708741111542,5.862392048896233,-1.7126817004647965,-2.985915770203503
1248,-4.720364021972986,5.497364564214627,-0.6113019407025451,-3.6174330497212583
1249,-5.029148751600398,5.151289895168082,0.7763878080741472,-4.428234646899508
1250,-5.086498153972658,4.838368974815159,2.392915834130254,-5.421535949465503
1251,-4.855549442268974,4.562144352094412,4.155496225297094,-6.563736099463938
1252,-4.325046542710921,4.313382071608917,5.986815053217762,-7.789165369021809
1253,-3.5057389885883823,4.089711861101196,7.808810083575055,-9.046108299199123
1254,-2.461644749974687,3.9120836895307702,9.533517013552196,-10.334756856038878
1255,-1.3137586982618312,3.8251057036086005,11.094345389345701,-11.700359857983438
1256,-0.16830221152691305,3.8816043245718728,12.441750977543531,-13.179563643358613
1257,0.98691852769105,4.131097693231762,13.487148217994907,-14.723668506625097
1258,2.278352135260094,4.586110274589546,14.1001449612794,-16.16317016560535
1259,3.8447224051694686,5.1548144243244,14.176396740037871,-17.266933563720777
1260,5.762567354841131,5.6601118953269145,13.685407293635834,-17.845947800165995
1261,8.030042053624422,5.941668585110206,12.642495480272999,-17.789653089352065
1262,10.587784712998616,5.901456291634958,11.07972846370544,-17.036608047663034
1263,13.32618437939902,5.493188888452348,9.057243017083792,-15.569542227441326
1264,16.07175638979956,4.713793881775011,6.666640652285423,-13.446263534569475
1265,18.61217760067316,3.5921851811330656,4.022704365785337,-10.79080198634369
1266,20.754964598657654,2.1621752469278075,1.2503555820543728,-7.747793806426156
1267,22.37532449544096,0.4441697499693149,-1.5373455703733134,-4.464040100111442
1268,23.434119341419986,-1.5452687165840127,-4.270013556677049,-1.0782351590595285
1269,23.969097246208356,-3.7730166257283155,-6.937276833558297,2.323386399024991
1270,24.052225222508618,-6.091990236098603,-9.553586514660198,5.656024124342227
1271,24.027459230006116,-8.588766401845062,-12.187415451999481,9.234137104368832
1272,24.200543953794767,-11.267580578030607,-14.849552648355687,13.199388331733049
1273,24.74456200037868,-14.078577406711123,-17.50152931782841,17.504831082663923
1274,25.649644086858007,-16.925785462949925,-20.02660580316431,21.950157337999897
1275,26.78283477605274,-19.666125869108235,-22.262321901161393,26.250584203639143
1276,28.00303341697472,-22.11441298499917,-24.091324890375883,30.1253498779292
1277,29.194257035118408,-24.09592748315648,-25.477721735394343,33.36901970197394
1278,30.245092775817,-25.54107450826185,-26.4429668596793,35.87220974985894
1279,31.060286188552794,-26.49162892398357,-27.032533753431697,37.60516239775563
1280,0.3024938871210884,-0.7791811718877221,-0.639089959191965,0.52355013225847
1281,0.650660080255014,-2.1916546460776076,-1.6183873999003586,1.0144415465485128
1282,1.0750315121265321,-4.371979484343654,-3.0021690995893864,1.5762090608453518
1283,1.5586115331368005,-7.362979505925129,-4.758148883283901,2.1483364667286637
1284,2.0874145339862142,-11.131886814743206,-6.828866008195837,2.663427756175619
1285,2.645494055652055,-15.549430312103091,-9.146150866627277,3.0572939116476547
1286,3.2179680629763867,-20.4043552257411,-11.642726275777981,3.2883121035521015
1287,3.8121589281130395,-25.44875161980174,-14.25565958776798,3.3522786470029104
1288,4.476800677016478,-30.44737077872796,-16.931653822188167,3.2865246901310963
1289,5.262332952436925,-35.225881752132416,-19.628433919142697,3.15067229607209
1290,6.140032140548804,-39.7237802360939,-22.309637591381513,2.982555525415797
1291,6.98707949922556,-43.89471831843447,-24.886922264691822,2.778957345269842
1292,7.6428458065486735,-47.7461837639258,-27.265007247828642,2.505833163071481
1293,7.989543589902861,-51.32989522907647,-29.346094194549714,2.119136169980885
1294,7.996590157634354,-54.70950793691539,-31.04446627823974,1.599481026092076
1295,7.67897275323723,-57.92172794793714,-32.3174561357644,0.9493224812218769
1296,7.029517552463777,-60.957208755993186,-33.18015226862097,0.1764044426515352
1297,6.031593839216432,-63.77595381919296,-33.6987730881072,-0.7025948372595979
1298,4.720739149991538,-66.32578269753955,-33.97758777497122,-1.6576701302185295
1299,3.1951540817461006,-68.55208512955063,-34.13987249150474,-2.6481824211968705
1300,1.5800780008759348,-70.40837374556254,-34.29914682722304,-3.6288492871069296
1301,-0.016876900913963905,-71.8644156086361,-34.52693274480773,-4.553585533338595
1302,-1.516553050922745,-72.91813120995431,-34.832808690254026,-5.3797798659425435
1303,-2.8485005261168785,-73.58857773055327,-35.162325249807296,-6.085766418158032
1304,-3.9688114509641093,-73.89125071704711,-35.41647121146399,-6.686532801599485
1305,-4.881159413049267,-73.83172721420101,-35.49103325951354,-7.219446206132499
1306,-5.604222924114905,-73.41346553114846,-35.310354345044615,-7.710346065596869
1307,-6.115224143617308,-72.64004074041286,-34.8499239723556,-8.14412885279288
1308,-6.361469923986766,-71.5103507646313,-34.1355428690222,-8.485919278477278
1309,-6.35736991126722,-70.01575016323935,-33.21282026805908,-8.746218829078456
1310,-6.228295710935995,-68.14959073648758,-32.12703833491422,-8.978929149667872
1311,-6.150699786403009,-65.92142953530406,-30.9210187868244,-9.223396254911547
1312,-6.251107997067146,-63.35972667868613,-29.63493746461471,-9.495044055921767
1313,-6.5401571481298095,-60.50724001513675,-28.30245563054406,-9.805876098403061
1314,-6.953763057352572,-57.41625166661153,-26.951118991213196,-10.168783712168581
1315,-7.453482210376263,-54.14433783496602,-25.607518324275905,-10.596250529941926
1316,-8.04219935621729,-50.74201713197337,-24.294337873091767,-11.093734843322352
1317,-8.703717172256315,-47.23322608139923,-23.029587628807697,-11.649894769609135
1318,-9.384737008962958,-43.62347532138357,-21.831621841479205,-12.247489197625567
1319,-10.028210512770357,-39.92584828070209,-20.71909396361234,-12.87978494278195
1320,-10.61693509190493,-36.163425485545595,-19.708676044669776,-13.54342728205769
1321,-11.178079670737068,-32.36012212606023,-18.809701722898073,-14.224564941864571
1322,-11.738416619045376,-28.537540101353905,-18.018087691445608,-14.89868560806219
1323,-12.302566661214328,-24.714781270208487,-17.32187167092271,-15.535884172637257
1324,-12.867255543091732,-20.911800048628063,-16.71180865941878,-16.113263785643788
1325,-13.435972020172605,-17.154461506822,-16.18091499901169,-16.62974771831802
1326,-14.018386669738467,-13.47095667545673,-15.714867120596347,-17.095504393299784
1327,-14.609529444359735,-9.873031769041258,-15.29072671289889,-17.511209358825692
1328,-15.178602129393333,-6.339394967542891,-14.88413003179132,-17.863843651565507
1329,-15.681357439341404,-2.829691711300654,-14.471754154798276,-18.134944385137704
1330,-16.08823467546681,0.6785034075626247,-14.029183504218365,-18.313135316044736
1331,-16.399873993713506,4.174651749232509,-13.52690663944895,-18.394827354372303
1332,-16.632644774236628,7.634545659044949,-12.926564418307072,-18.3724036529185
1333,-16.8026313272723,11.024653666280841,-12.18966881663429,-18.23641097490381
1334,-16.919295622729546,14.283617238191617,-11.294383714024,-17.99373687148857
1335,-16.99501735450256,17.335911251947532,-10.243048392882727,-17.67147087547553
1336,-17.053935102775263,20.12967866199927,-9.059464683761162,-17.29987556687406
1337,-17.1236240918948,22.64954481253644,-7.780673868808823,-16.90058685511507
1338,-17.217639138512503,24.908746924905554,-6.449598435201209,-16.48594584332055
1339,-17.319113054014526,26.941787955401296,-5.110754615080706,-16.069858072244514
1340,-17.394950208577704,28.795635914923963,-3.804650690355125,-15.687214506948447
1341,-17.421430854744308,30.520334896263897,-2.5619090529036677,-15.388718308703078
1342,-17.39384088648348,32.16450501737318,-1.400819511487798,-15.209587954546354
1343,-17.315510582373097,33.76980277140034,-0.3290817287600915,-15.149976949092702
1344,-17.1746346795117,35.35426477226325,0.6523853985900754,-15.197135290246782
1345,-16.96049462336451,36.89640034043284,1.546187483217166,-15.355229769396635
1346,-16.699985861620604,38.34357408502731,2.3556980508106946,-15.630974141098578
1347,-16.448308510437418,39.63956495074746,3.082553736401745,-16.001209063690652
1348,-16.245060542124918,40.74766490033989,3.7253178427496882,-16.40598934716286
1349,-16.089899115865823,41.65157241452841,4.281552758580954,-16.777372421151945
1350,-15.962312371695194,42.34231911530072,4.752129421786648,-17.07090104405727
1351,-15.85529121441306,42.819937704650606,5.144241709716595,-17.263689533125184
1352,-15.7808070516689,43.094592213590424,5.4688094329892305,-17.341454078435643
1353,-15.744645433456032,43.17578457318002,5.733393859145395,-17.296888995729436
1354,-15.731335083526005,43.07711230251333,5.938866977736667,-17.13847838840076
1355,-15.721111995862206,42.82074621090251,6.081295940599248,-16.894775865437275
1356,-15.711694186123621,42.42862799869607,6.155814333936518,-16.59823643406154
1357,-15.716089050051087,41.922619168848556,6.1590674667854275,-16.265375233658983
1358,-15.745573263197533,41.32682595010757,6.091316317446216,-15.896030818211885
1359,-15.79816871740566,40.66133377124842,5.959220464557978,-15.486095742175285
1360,-15.857479128034232,39.93854027906938,5.775798748624455,-15.03650855242786
1361,-15.90745288238776,39.16990733760867,5.55842793641027,-14.552694134622422
1362,-15.933142683801671,38.37847820837111,5.326767608443925,-14.02783482042675
1363,-15.90051615478653,37.60064818661954,5.100262410805482,-13.442620924503455
1364,-15.764325209916253,36.87502640437309,4.893576878272159,-12.796302882975825
1365,-15.494364957883835,36.23103967026237,4.711891219042665,-12.117778535477166
1366,-15.085776085703735,35.68452212135947,4.551433219250022,-11.451095275547212
1367,-14.559722012189908,35.24036139265359,4.403974023122584,-10.83678101680744
1368,-13.961120511664399,34.89185000062456,4.26157524551251,-10.30458121749174
1369,-13.343491748281384,34.61762799617755,4.118448754712674,-9.879668439125629
1370,-12.746721585428721,34.38628726408068,3.9714670201942894,-9.584915367092007
1371,-12.199410628632252,34.158863056218706,3.8225161590641723,-9.440325154569804
1372,-11.732182503430293,33.89090299701295,3.6790727336452513,-9.455395451072125
1373,-11.372908933322211,33.54527912122989,3.553732865541235,-9.617691110018045
1374,-11.127643252154652,33.10007919563399,3.4639175008806022,-9.885369269832545
1375,-10.957113627216422,32.546262716963625,3.4268595759559415,-10.196898208475934
1376,-10.792225461552627,31.889273036165914,3.451196013651911,-10.49878888408041
1377,-10.582765396237557,31.146847902414624,3.5377370820071246,-10.7499744971007
1378,-10.311832593929056,30.342102166663253,3.6876951446218533,-10.901945528988506
1379,-9.97374277136921,29.505034903602766,3.9030759945615863,-10.896843523295779
1380,-9.555872081947852,28.66534640349852,4.182644235161698,-10.691896304362094
1381,-9.047949326752184,27.837111639262677,4.521528062364633,-10.276495382222782
1382,-8.468080345697373,27.02247174827008,4.912640941301056,-9.664623312132713
1383,-7.862831400326006,26.225663421164644,5.347586020382537,-8.879774143666198
1384,-7.275931352362944,25.45764324447789,5.817306350777144,-7.945228557798274
1385,-6.730072546981416,24.732287259059916,6.312822484110749,-6.89347907034131
1386,-6.240051761630602,24.0591592631426,6.8235800243057785,-5.78068293972921
1387,-5.82979096026359,23.43906761897173,7.33411756361163,-4.670777931242752
1388,-5.516866615863631,22.867788410449037,7.8241559157031135,-3.6025396540732135
1389,-5.279742623328458,22.344524204201264,8.27403859776458,-2.580089170722974
1390,-5.059514714732631,21.87297369004023,8.671458597243978,-1.5870352309860951
1391,-4.790578250417363,21.454535906700496,9.00836011453455,-0.6091954018124335
1392,-4.424277211638292,21.085004483767573,9.272134039508614,0.3470528415142019
1393,-3.926444059385783,20.757001716571743,9.448255982062019,1.2632230299560283
1394,-3.258307125137799,20.462379783064012,9.527403893899125,2.1212835646880746
1395,-2.383083335732651,20.18941552351407,9.506480605419709,2.904649092482625
1396,-1.2922713190218333,19.918319739099864,9.390475297295545,3.5895391434695543
1397,-0.013747864778720864,19.626809419295054,9.195931520155963,4.133549095097286
1398,1.3579979506695554,19.33232131745053,8.944275019714466,4.484165106513333
1399,2.8692940422112923,18.98748482965367,8.67469672316392,4.6159108022537785
1400,4.509475615288022,18.57506405300913,8.422134570732203,4.535628029820447
1401,6.223369784781233,18.098248373292382,8.21220071819362,4.2729862969715615
1402,7.9294155754662645,17.57741120908998,8.059186251432719,3.878481358360191
1403,9.543928259090727,17.042692673656216,7.968217026653049,3.4242670425542636
1404,10.994229475507641,16.526981215459333,7.936728857150291,2.988644150143641
1405,12.221615913011275,16.06076551411724,7.954077906547617,2.625440398207721
1406,13.187173059134853,15.66835712372722,8.001766511611915,2.353377400449188
1407,13.87717500841763,15.365846623532827,8.056763006579335,2.1678038211381576
1408,-0.6823587324782805,-0.08782778854238413,-0.3287271180008726,-0.6487082649540206
1409,-1.2785203416384765,-0.2589872166882925,-0.7238368660957373,-1.332718495441834
1410,-2.0582832273963776,-0.5433959710326476,-1.2916519165211053,-2.2843814171813617
1411,-2.9899514117034687,-0.9544571833550028,-2.0384945068461473,-3.4753169297107154
1412,-4.013257267688989,-1.4936001045331821,-2.9498531010111204,-4.865172271952652
1413,-5.067809750096545,-2.150654736389456,-3.9881228244169584,-6.407526739976452
1414,-6.11781880222442,-2.9049397013431593,-5.095740929922482,-8.036422347786125
1415,-7.149139542018823,-3.728107153601871,-6.202895660998397,-9.664306195281648
1416,-8.14587638541276,-4.585072300757747,-7.239040067913529,-11.206346242394547
1417,-9.099716991575661,-5.432829324783932,-8.1474977310294,-12.619130026511403
1418,-10.052592073344199,-6.234183518615028,-8.902504005409881,-13.926195905490436
1419,-11.044518306324337,-6.961982469085321,-9.475497600962553,-15.124954391988853
1420,-12.11413370222142,-7.608563669291937,-9.855670389882555,-16.203109467474444
1421,-13.259945953311906,-8.179285462679413,-10.04639541296784,-17.16253945571172
1422,-14.44656663894138,-8.689628265095271,-10.047304221629515,-18.041134567693835
1423,-15.654901853059924,-9.158861719816354,-9.857434770373777,-18.892313542098492
1424,-16.892692551878255,-9.598757623625387,-9.489748725421565,-19.746635618547973
1425,-18.159685726019326,-10.014402425750728,-8.975612713154478,-20.60412739189347
1426,-19.431487130353773,-10.41400823954479,-8.365495508655377,-21.45478277775603
1427,-20.6760096743014,-10.808173641497005,-7.723122788815787,-22.299698011243176
1428,-21.87775256296744,-11.20239697368927,-7.120151247288987,-23.156628125239585
1429,-23.04199918918009,-11.594415021661677,-6.634859077128452,-24.03906879462011
1430,-24.167092742963924,-11.976466267231352,-6.34210246251994,-24.941654060061744
1431,-25.2264623103339,-12.338691663589383,-6.299149870966222,-25.851002846381927
1432,-26.190170860851907,-12.672419933380686,-6.538896932857549,-26.754197635155975
1433,-27.058037816098437,-12.975069640685902,-7.069059608780447,-27.635955532256915
1434,-27.85119109416128,-13.254479236331386,-7.872241711775197,-28.470543686695727
1435,-28.56969926525361,-13.52330854967879,-8.904059746090368,-29.222674709763304
1436,-29.182473673383107,-13.784628866042786,-10.092090255926983,-29.853564157015672
1437,-29.64967247580043,-14.034967550326973,-11.34787281555716,-30.329295213058977
1438,-29.949771317459668,-14.284797290651689,-12.59181387751647,-30.630357737001418
1439,-30.084119544967347,-14.554740238025431,-13.777063348361391,-30.740835038341743
1440,-30.051052852470743,-14.851419712871742,-14.887309838335485,-30.639648086798072
1441,-29.829993513884194,-15.164487187260693,-15.911600208438372,-30.312654273536925
1442,-29.384496961871214,-15.479497991029849,-16.83697788211677,-29.758715819243356
1443,-28.681779519789174,-15.783095587131355,-17.65377242482907,-28.982760767102636
1444,-27.71421986097198,-16.061731024440803,-18.354487984236982,-27.98505393643449
1445,-26.50426763365261,-16.300302698463767,-18.9331148158259,-26.748675280314412
1446,-25.091967824376322,-16.484076092702846,-19.387690309987633,-25.2456936321057
1447,-23.517217216350907,-16.601864685232094,-19.723520397857413,-23.471647676982247
1448,-21.825000080365353,-16.648273713326365,-19.954305656199367,-21.47036122154148
1449,-20.073935955246746,-16.62800533669567,-20.100083087397536,-19.323242798078617
1450,-18.331911924817526,-16.554668025127963,-20.181341717134234,-17.114132541011102
1451,-16.666639586801367,-16.441246700970854,-20.214387202664824,-14.904518724463195
1452,-15.129294142815453,-16.29908977544789,-20.216509757895317,-12.750341142670983
1453,-13.75230168408527,-16.143424340739507,-20.214147615193507,-10.7275401221645
1454,-12.569050227197538,-15.991269752212792,-20.23688754943576,-8.922588022926266
1455,-11.621983837199418,-15.854945781072908,-20.30140074551951,-7.396409534923341
1456,-10.939889803912068,-15.741376667839424,-20.406338355049037,-6.1677463283922505
1457,-10.527425896375801,-15.662565099270266,-20.540021281759913,-5.239371978553333
1458,-10.383850140070338,-15.636769125770362,-20.687348418710915,-4.622326930966898
1459,-10.508412957794548,-15.670145348032108,-20.83133604381676,-4.326422737093768
1460,-10.877985725779176,-15.748805754612519,-20.95088269678988,-4.337143493901336
1461,-11.421147497627963,-15.846585660591707,-21.019009082538954,-4.610001216148364
1462,-12.022509286556767,-15.929668133128644,-21.005889106448905,-5.088020998830946
1463,-12.554649596090416,-15.9605529917584,-20.885511167586476,-5.719433772523175
1464,-12.911461086359594,-15.906048101868002,-20.641461106670356,-6.458153401023008
1465,-13.015078764893323,-15.745575249567585,-20.27036415797879,-7.249819476884172
1466,-12.801540404216086,-15.470909681055097,-19.783117098739833,-8.03220952507095
1467,-12.2245309193662,-15.07963377412225,-19.20091780689247,-8.75845619054622
1468,-11.272444815130944,-14.576322186380555,-18.551371449776703,-9.409097401811504
1469,-9.982456319427577,-13.975078810569837,-17.866716754485466,-9.973896233666665
1470,-8.434927953419892,-13.294596835256918,-17.17041404190439,-10.423416149670931
1471,-6.709798585184156,-12.555377074015817,-16.462209384239607,-10.70601527684998
1472,-4.850335967447301,-11.78072236187723,-15.72040836263756,-10.766403134607591
1473,-2.878846578258035,-10.993135747543725,-14.912125853764337,-10.561695187927578
1474,-0.8243356684237517,-10.20932675844353,-14.003629996304173,-10.068615387090448
1475,1.2755555128753695,-9.437269283859528,-12.968782223910724,-9.278043642301801
1476,3.3748517417865163,-8.679440517148006,-11.793404966579919,-8.19046948498696
1477,5.422198567731718,-7.9426580484057725,-10.47794032276457,-6.820288905046165
1478,7.379073526873174,-7.2386759427513505,-9.039415207622348,-5.208681475396866
