,TP9,AF7,AF8,TP10
0,-0.10448256664987393,-0.387061033950062,-0.49764147052366725,-0.41877384608426427
1,-0.3126958715384679,-0.8232962478937171,-1.066051652864577,-0.8285952542088075
2,-0.624924903466509,-1.4502241342853126,-1.86483581635533,-1.4089038256057047
3,-1.0686490891513132,-2.2740458921554696,-2.8839957339120574,-2.1445810396960256
4,-1.6468374126123433,-3.2821209499887187,-4.091499877144623,-3.0002101577417375
5,-2.3357139450571216,-4.445877931859213,-5.4416736154100995,-3.9495714451935617
6,-3.104585385824562,-5.727709506068735,-6.881767971023852,-4.981524323087796
7,-3.929204414738824,-7.083103227405171,-8.354092219239048,-6.080974132442249
8,-4.7896681940951815,-8.456553191024721,-9.801459841818856,-7.2129544871182185
9,-5.658459843102443,-9.79692033606061,-11.185559080258155,-8.341418078315847
10,-6.509060693252565,-11.09505775902926,-12.513924837598116,-9.47557644027484
11,-7.335101062280817,-12.3408255916224,-13.787133563937608,-10.630388443161245
12,-8.152726257106226,-13.512451313449098,-15.007899025110026,-11.794238658199628
13,-8.978567865799427,-14.576615935499987,-16.174599048465147,-12.919748299396463
14,-9.796903888669265,-15.508900233288776,-17.2856421036584,-13.962459023699287
15,-10.57455871278756,-16.304559483281725,-18.34743003763347,-14.911938182418963
16,-11.30311149584937,-16.973943207704252,-19.370899799703828,-15.773997033540514
17,-12.004773604652573,-17.53181014838294,-20.36315797749956,-16.527542916543496
18,-12.703057206547182,-17.993827245974813,-21.32573799276539,-17.125811301174604
19,-13.39127593923951,-18.37936137698027,-22.257316422974046,-17.54409044650516
20,-14.043196648185065,-18.70947172317588,-23.15374522703823,-17.793737336784876
21,-14.654429782236127,-18.996848007018947,-24.00585468103434,-17.89725760926662
22,-15.253515422326453,-19.23890803619311,-24.797529490772213,-17.86995757564149
23,-15.865963991656887,-19.420510571731647,-25.50633427877758,-17.724625594143085
24,-16.484490712730153,-19.528635274164607,-26.11307212050126,-17.492870830848645
25,-17.080366759861505,-19.572058037761895,-26.611695240487876,-17.230841399338527
26,-17.633805055166583,-19.57780452312073,-27.006664177497225,-17.002736403151573
27,-18.1493754081442,-19.564400135515662,-27.303593047724675,-16.84760255920778
28,-18.631790092133574,-19.53251750057779,-27.50628935210515,-16.766507251643947
29,-19.06239574232862,-19.48817110734374,-27.623051008010222,-16.75059097021621
30,-19.417930223031494,-19.450498272755976,-27.670400942626188,-16.799727179203447
31,-19.707829675356482,-19.429947456818365,-27.664946845268975,-16.918736438109676
32,-19.975801273530774,-19.420991215347076,-27.612234983533327,-17.099135693587908
33,-20.247718272480643,-19.410348912706826,-27.505907536855666,-17.307658085576623
34,-20.503657271921025,-19.38007398361245,-27.334841040526815,-17.50299091913543
35,-20.702325392682432,-19.306986573067075,-27.08618963408084,-17.65189411780247
36,-20.811230827970494,-19.166365717970915,-26.745724396026457,-17.72947495624831
37,-20.814454617234553,-18.942903177447626,-26.301788548703488,-17.71296103796012
38,-20.69530104285606,-18.634928558028665,-25.747321050501697,-17.57992408273045
39,-20.428582685011577,-18.245632336359105,-25.078076785250143,-17.314012679467723
40,-19.99311367330508,-17.77743749866354,-24.297782191348478,-16.915252283584593
41,-19.39113999214912,-17.232964894437544,-23.424902743489866,-16.408422931604566
42,-18.654938544487646,-16.611922464636653,-22.485621459276093,-15.833133848983712
43,-17.837114355021992,-15.912745869889218,-21.50517917812495,-15.219865949017002
44,-16.986217197567,-15.1450567707123,-20.507347883270604,-14.577040916041357
45,-16.119335900867235,-14.334538179704895,-19.51335112608801,-13.91197013383536
46,-15.239391175225448,-13.512711173388904,-18.538415083505555,-13.253264027715506
47,-14.358789105576363,-12.703230363471935,-17.590806878410415,-12.633984673241464
48,-13.487912648840679,-11.92084447458577,-16.67829284407363,-12.06052379871271
49,-12.624599616731604,-11.176919363288775,-15.813447230684924,-11.502481387415193
50,-11.762388961640067,-10.476583500311795,-15.009482891517054,-10.926654512680413
51,-10.910653554989626,-9.81797102346877,-14.275340462585229,-10.336730036640677
52,-10.100908016361961,-9.197012255551373,-13.615071188919366,-9.761710131026298
53,-9.377626098848468,-8.607036671974297,-13.028587718225115,-9.22474149483764
54,-8.776525410934505,-8.033286905806191,-12.511371347509955,-8.7348970751476
55,-8.299139607311078,-7.462814519618344,-12.053178219610784,-8.297397971459276
56,-7.923058537595971,-6.910073694387925,-11.641318397221369,-7.921132383176769
57,-7.636055681102265,-6.4108996499844135,-11.263921883603926,-7.609849963159325
58,-7.450018324387766,-5.9890310152534205,-10.904891712304252,-7.34789258189518
59,-7.37524709769308,-5.647256113192812,-10.544076638600053,-7.100921309791435
60,-7.3891424005881685,-5.379663560563055,-10.166537666287981,-6.843287601886231
61,-7.452350063456109,-5.180375706816937,-9.766368234724082,-6.584296926170486
62,-7.554320842009864,-5.042516846952406,-9.34305015268544,-6.351080353661575
63,-7.71795861667356,-4.95346847208991,-8.895375716457652,-6.146943588205185
64,-7.95094759064073,-4.894743104079639,-8.41761446232934,-5.941694623495456
65,-8.214958334341041,-4.843365074818943,-7.901782159689243,-5.710466244963402
66,-8.449499560839415,-4.7791387741931395,-7.345364197734276,-5.4728314621273535
67,-8.612354164859008,-4.696654011403021,-6.756284276774159,-5.26767885583511
68,-8.69752985163158,-4.602545439608697,-6.146275184866323,-5.089717596969568
69,-8.71604758917152,-4.501793214711423,-5.520963668394303,-4.883044333011091
70,-8.66699361064893,-4.394613559757697,-4.88151189940698,-4.596024854982549
71,-8.545089689059063,-4.282813369574992,-4.234150703554223,-4.217214288132588
72,-8.375307041731455,-4.170046402379888,-3.5946037886176576,-3.765867040783605
73,-8.209870944417675,-4.04789262241419,-2.981323558342813,-3.2686773626134085
74,-8.083344058330418,-3.891940306587119,-2.4036168097485406,-2.745920759049826
75,-7.993155279694632,-3.6806861262004507,-1.8606444971712952,-2.2188741648146064
76,-7.916540184096623,-3.401741127341708,-1.3495070632980322,-1.7189137399543426
77,-7.830110452500409,-3.042151282658182,-0.8682326812171737,-1.2753470599376637
78,-7.70626531635868,-2.5879601266900507,-0.4147162417289266,-0.8914817010399702
79,-7.496726911979578,-2.0336733492715657,0.011843252910338865,-0.5412945237102145
80,-7.140477373454758,-1.3911807119234338,0.40711304095332934,-0.19793806095379027
81,-6.59127139906647,-0.6901988035902361,0.7620751078754313,0.1457568549145465
82,-5.839298269185415,0.025715800619428006,1.0685358079304097,0.47847662319689227
83,-4.902087000284998,0.7043576389061683,1.3218589860718928,0.7914203809573925
84,-3.7905439636997547,1.3004046988882572,1.5191277647191341,1.0895870752508823
85,-2.5025310113943933,1.7902852195936882,1.652608645260418,1.3578474851156492
86,-1.0482042273778185,2.1654765127087643,1.7048418301508421,1.546280388787762
87,0.5292506028054731,2.4230883730626593,1.6577708652958945,1.6043818892529496
88,2.169636586289924,2.574547768906316,1.5076289521648596,1.508654542095812
89,3.833074954581496,2.657211970184247,1.2674048120699708,1.2610737667006315
90,5.505444171044253,2.719416245852472,0.9584948330827775,0.8769732131968417
91,7.180781297604014,2.7889718373658963,0.6031197489907887,0.373109541161462
92,8.844499067188051,2.8650451183732577,0.22338229490669,-0.24536659184796814
93,10.461114117716424,2.9301215605454027,-0.15648883538572067,-0.9731643084219717
94,11.974405908570036,2.9610755160390947,-0.5126759598411414,-1.7820213430470666
95,13.320163387971608,2.9376432783102358,-0.827013822192818,-2.619360366927867
96,14.443312752302363,2.8445988331957373,-1.088467382946745,-3.4317378483275203
97,15.305232070610703,2.6681550024232688,-1.2901852462275025,-4.192439444030984
98,15.877110219234005,2.400031668215279,-1.4265165190265667,-4.8908993797379745
99,16.129065019488344,2.0490186524273883,-1.492501818818402,-5.507112612567344
100,16.04199351290642,1.6431219456450945,-1.4842353566536957,-6.01385212957604
101,15.638036917875167,1.2159121386877811,-1.4001022422114495,-6.401899007571154
102,14.9811056054679,0.7897179319971435,-1.2416997046259128,-6.68855582472993
103,14.14415465418152,0.37524242560599413,-1.0097775474619222,-6.895511150825173
104,13.179593506691573,-0.01449624002236044,-0.701994363990725,-7.034137853286748
105,12.119362505289452,-0.3587003815204944,-0.3192667226530636,-7.100162558626145
106,10.996052422868877,-0.6459451812728108,0.1305192983482059,-7.076545864858486
107,9.845440890232915,-0.888784530989436,0.6339037187912948,-6.952413808761653
108,8.69058611727833,-1.106808041573444,1.1733582131221845,-6.730645320602802
109,7.537269468120158,-1.3103194515590448,1.7289803042855691,-6.405386360255486
110,6.398732077890109,-1.5017273605683428,2.282144489377609,-5.945134257188593
111,5.323675871417375,-1.6771755683175,2.8205673377133595,-5.32628831556068
112,4.380561852656006,-1.8282587742255667,3.3380156638695575,-4.566389498848592
113,3.6168283143733637,-1.942484897365437,3.829202749537018,-3.7012190054650858
114,3.0374126164490978,-1.9976153725935124,4.28696437526785,-2.7437848981416453
115,2.625273249365368,-1.9597571294454241,4.702999096179483,-1.6833997646456038
116,2.376286223883583,-1.7999293459317718,5.0698730292297665,-0.521532437371597
117,2.289351353221048,-1.5080693747398923,5.382455247100476,0.717156700705763
118,2.312915960814677,-1.1234064870941805,5.639338560979934,1.9569102190745633
119,2.410267181351541,-0.6307516881063845,5.823639823344694,3.2567782104001983
120,2.5514414369843026,-0.046223502471573225,5.930403484986017,4.629266680368106
121,2.726611442640581,0.5882994843781645,5.961410905438755,6.043157591422891
122,2.9274802635458927,1.2157687684768712,5.923987155972241,7.4330760667958575
123,3.130272243910753,1.783242614759235,5.832986817430779,8.723293507474471
124,3.3079064481520857,2.263048050843918,5.7094217322044205,9.85810875022534
125,3.4593176326394826,2.652197404704241,5.576169690639513,10.810602128749684
126,3.603727073265428,2.952798916690684,5.4537066824390035,11.566425457873807
127,3.7475106319075455,3.1657663157553113,5.356455251934051,12.110277413857508
128,-0.20392476067932502,-0.6064644384982929,-0.6321057799322477,-0.27619250433259485
129,-0.6268686343424319,-1.2380834776735548,-1.2948195821798345,-0.681903170876496
130,-1.2733268785795768,-2.133579712899696,-2.218703408871469,-1.2970140074478202
131,-2.1688451683099026,-3.2840415668817284,-3.396883708435097,-2.133577971894127
132,-3.3024273051056654,-4.646816507317401,-4.797224405678087,-3.1801835152409836
133,-4.630824390743213,-6.1631566730951555,-6.373967508255874,-4.406188598192102
134,-6.097719746381532,-7.766518158088566,-8.074018736847243,-5.763385199671412
135,-7.640963740613265,-9.381330969598006,-9.840677527450843,-7.181978457118706
136,-9.188674763229136,-10.936749322099296,-11.622557857019384,-8.57419860792223
137,-10.672243305829829,-12.394558027265347,-13.388476342073764,-9.859701574347877
138,-12.053885521894115,-13.772257558082982,-15.148958622471534,-11.004730872919886
139,-13.3262617796861,-15.067323691530559,-16.885851040383958,-11.997863417219765
140,-14.484092109706031,-16.276203512019965,-18.56887114278629,-12.833592151527425
141,-15.512671477305625,-17.394506113399984,-20.159002913648116,-13.50299597643013
142,-16.394913540919568,-18.413106018634302,-21.620794244636905,-14.016559855855185
143,-17.12805190004188,-19.315753262885934,-22.933041089946,-14.431830741569806
144,-17.730196348699256,-20.085775822768902,-24.088738980103304,-14.832719539097457
145,-18.228179581945167,-20.71483469246314,-25.086520350830888,-15.277153627337073
146,-18.637005560775677,-21.205775832197144,-25.92515596401327,-15.775627485040637
147,-18.94592291523118,-21.57214218328798,-26.606271748329107,-16.313263779778076
148,-19.136071538699525,-21.835476391069122,-27.138938285430314,-16.881677232118612
149,-19.20469653724612,-22.01439790991268,-27.535719936982776,-17.475656420594678
150,-19.176503062308875,-22.113997806543342,-27.801773455437687,-18.06781670847077
151,-19.084990598880054,-22.135748003610605,-27.935011011322057,-18.606205687549753
152,-18.937990394024276,-22.08905380540262,-27.935764795989698,-19.040245209880684
153,-18.730836777842125,-21.97826866662375,-27.809757566231657,-19.345256057293525
154,-18.475892896471624,-21.785861772072455,-27.566946510409263,-19.518436811536816
155,-18.20303241032097,-21.48205443608765,-27.223153652523152,-19.558629756628
156,-17.943761552910733,-21.049998791543036,-26.803492390068698,-19.46009063970666
157,-17.708517844464197,-20.496656313407886,-26.342417759130534,-19.23686896155843
158,-17.48903416962987,-19.851413729308394,-25.877766427518523,-18.94127717194181
159,-17.292812378179242,-19.159088222778387,-25.441904660054234,-18.636375621973084
160,-17.160326950923647,-18.463346009881203,-25.05276111011936,-18.356597490003693
161,-17.1318189486903,-17.788546977234933,-24.71091134515899,-18.10687434143632
162,-17.205421268067095,-17.13552975876616,-24.407867105789844,-17.897499964911848
163,-17.345402060162012,-16.498212534335906,-24.13496935371028,-17.752520010533566
164,-17.525957110779345,-15.883086158319122,-23.880476986728045,-17.68164846228903
165,-17.750775162396526,-15.306059401960535,-23.621368757163584,-17.656017571926718
166,-18.01605266324691,-14.775460971357973,-23.32374623674454,-17.613189207205004
167,-18.267504215521317,-14.28256498798064,-22.950641960409158,-17.49446531203925
168,-18.42265415268068,-13.8050842506683,-22.470765362480666,-17.264407918111825
169,-18.434203908220162,-13.322809936646406,-21.865651631719956,-16.902797507440862
170,-18.30595976431002,-12.83203815136634,-21.13070304857538,-16.394272453612164
171,-18.047740923146474,-12.342593964739088,-20.27074559243191,-15.722757348929036
172,-17.64984981674311,-11.863374560412776,-19.29602257038531,-14.888411262643558
173,-17.10633859029897,-11.393333037749724,-18.222354394928953,-13.926108386387098
174,-16.447355951274297,-10.92463743471365,-17.074353698447705,-12.89129043858593
175,-15.737739442167273,-10.456288602760813,-15.883213290167069,-11.823964523174716
176,-15.031827593878994,-9.993284303114567,-14.672681823949812,-10.734814251841392
177,-14.338325981263877,-9.525971049549925,-13.449155489422859,-9.627594840272527
178,-13.630771907831004,-9.037326924697792,-12.207777132873614,-8.51280098215432
179,-12.886686918699402,-8.52959034201811,-10.940110087557063,-7.400935401985358
180,-12.104516673562676,-8.020675727909117,-9.636870392360512,-6.294762101432367
181,-11.278321912938567,-7.529190622476484,-8.294273516020503,-5.1910911494639915
182,-10.38198215246942,-7.075991115758935,-6.925410303054757,-4.090709986688676
183,-9.386789181570984,-6.691370454522948,-5.565692374821095,-3.0115641165494362
184,-8.298053455852099,-6.409016181426479,-4.2658599240225294,-1.9987170870211528
185,-7.1626103313323926,-6.24882104822159,-3.0781283622696267,-1.1078593305204834
186,-6.028859294659937,-6.207916126976238,-2.044210092836283,-0.3752152423918863
187,-4.923805994672213,-6.265334970880296,-1.1931440000548623,0.19542219386291645
188,-3.866223062921334,-6.38986186319878,-0.545605574270137,0.6149967045543143
189,-2.884259007014744,-6.5436560511131265,-0.11431916870989052,0.8860688341098222
190,-2.0142157132207896,-6.686209272686901,0.10022564655575714,1.0168743419978594
191,-1.282190579021238,-6.776095616743128,0.11263842860705864,1.0386942243077262
192,-0.691031160697441,-6.76905883940846,-0.051264731881621894,0.9942567804329239
193,-0.22342794540886313,-6.634897258318345,-0.36676274672668074,0.9138563898611252
194,0.1366873894276027,-6.388160427604588,-0.8200386210957373,0.7977493133677425
195,0.3861554683620292,-6.078108686239794,-1.4011073143656927,0.6278657610365628
196,0.5067441445452964,-5.743678006342434,-2.091981158775552,0.38762539100316
197,0.4938979675786539,-5.403619575182168,-2.8675035640443873,0.06955454254802772
198,0.3804929245504686,-5.073822794945236,-3.700390235089317,-0.3271729454200236
199,0.2159126465455231,-4.764493964552866,-4.560563060073691,-0.8077253317987683
200,0.03131983733486762,-4.471369493968956,-5.412968704544776,-1.3738704823097527
201,-0.17245311912710964,-4.180759232480234,-6.221799457112108,-1.9966709946181427
202,-0.401706182263191,-3.880248257126109,-6.959181997871449,-2.613637682470819
203,-0.6395527943729485,-3.5606562287634547,-7.609478791665568,-3.168089133701931
204,-0.8603484922798916,-3.21147018647001,-8.167542937892383,-3.640964232582583
205,-1.060124008761737,-2.821902361139912,-8.634443544440062,-4.036890343209881
206,-1.2640532206348705,-2.385513320017484,-9.013663389846416,-4.354570344546344
207,-1.5046893992457333,-1.9049433612992988,-9.309375274859347,-4.583892693544672
208,-1.7898815701341537,-1.399225144449654,-9.527636842917136,-4.734042459578735
209,-2.1053356069095512,-0.9085113778056897,-9.678922950786362,-4.847332706551124
210,-2.4475386778345265,-0.47918771113085734,-9.773719291340004,-4.969306767069349
211,-2.840540912473189,-0.13880575689342933,-9.81178596881154,-5.112083531974536
212,-3.305653671476093,0.10379421517672316,-9.781254928247188,-5.2563568057239225
213,-3.8231040817159556,0.24284368589862063,-9.669845118581689,-5.380046005790422
214,-4.348224282648922,0.2742084081638616,-9.472583235214453,-5.469276125586946
215,-4.85917698808617,0.20350474657461481,-9.191663128808905,-5.510555963906863
216,-5.364988989380064,0.052699593300229455,-8.83604014782839,-5.482914751418729
217,-5.864521284904225,-0.14556010149325221,-8.42166690668675,-5.361554442089648
218,-6.321745602593375,-0.3590840763498792,-7.968048959610693,-5.137154299758615
219,-6.689994571679488,-0.5576215706263163,-7.492217981735106,-4.825086886106287
220,-6.953252660232489,-0.7169348788122525,-7.006527104772184,-4.453796758444755
221,-7.133296947660351,-0.8292869864838059,-6.519932921621707,-4.048170652965709
222,-7.24964801346458,-0.901152188078477,-6.037120493266349,-3.6268722042236563
223,-7.292529231210148,-0.9421749895641194,-5.557056021100784,-3.212783803863034
224,-7.24595779809232,-0.9611072923717314,-5.075189013524266,-2.837654852021934
225,-7.125968752457744,-0.961241427760707,-4.587709272048005,-2.539024992965884
226,-6.981438031682311,-0.9330865587294587,-4.093465367026752,-2.3469386674321506
227,-6.849316272521994,-0.8581973687650292,-3.593143826271475,-2.2764599744624534
228,-6.720606333554977,-0.7218375481406775,-3.0899159030764807,-2.3413229056890237
229,-6.55968191998004,-0.5183679339075531,-2.5920402531818976,-2.561695486080234
230,-6.350789319891147,-0.24655460663382195,-2.1128162530799037,-2.9562466986818414
231,-6.109123700186338,0.09647540128368555,-1.664601090309734,-3.5297766259399173
232,-5.851226016216236,0.5106578578106103,-1.2559820593534177,-4.255678561820141
233,-5.5771969060528805,0.980886919629068,-0.8950641734042076,-5.069872843847474
234,-5.276608248768283,1.479269100674871,-0.5824829904481389,-5.89599218720424
235,-4.944538536441455,1.9806848689056047,-0.3128155314266977,-6.666030514386604
236,-4.591174568029494,2.4657046820281296,-0.0953319876890966,-7.312529385026306
237,-4.242549477018329,2.9165018370316584,0.05432746287606259,-7.775342211932675
238,-3.9297501247838267,3.3181985895872894,0.14738390790249156,-8.028124475566099
239,-3.669794631301517,3.658439465312516,0.225657577632171,-8.09230571144744
240,-3.4665376919453545,3.9223104947399676,0.3399027350779296,-8.039004728517313
241,-3.3335448035164634,4.099072248215882,0.5363574853179406,-7.986186592416595
242,-3.3250692853163466,4.210795713319093,0.868708755510643,-8.08612733283914
243,-3.5066136404349986,4.296967487176788,1.4252915123085206,-8.482705572829586
244,-3.8762990555676278,4.357911307993871,2.2936347576871676,-9.24179182523011
245,-4.36212324366254,4.361594945400523,3.4809683092941985,-10.299846461779397
246,-4.792442298802088,4.28346555699703,4.806220458020434,-11.416304323243894
247,-5.18833740999617,4.126911250222274,6.332407569443276,-12.463896660783334
248,-5.538394275349373,3.898608568014352,8.038825860113047,-13.321573769270877
249,-5.819165864463868,3.6071512258809433,9.846173476742617,-13.907821332876896
250,-6.019993795437515,3.2708216472947944,11.64618086125895,-14.196020110464723
251,-6.156072562824597,2.9165440551179813,13.328673415933464,-14.206912865703114
252,-6.25843508981623,2.573223952216346,14.801981210507337,-13.997341092689691
253,-6.3529977942046605,2.269738151338192,16.01531676861152,-13.662244440180363
254,-6.451404391140339,2.032427129465508,16.95902448346885,-13.3196788065698
255,-6.559581135133601,1.8798280138496122,17.638317612852752,-13.070588187763075
256,0.21944870367241254,0.2864664584324031,-0.2011944507881281,0.8436438024223869
257,-0.343457626514221,0.6962128436644599,-0.8735841814451972,1.1634709278623019
258,-1.361790025515248,1.2965476478042972,-1.8531584933596355,1.2274507614218126
259,-2.8510990269200986,2.0898476653321976,-3.1782891124960435,1.0409645911329473
260,-4.760598427253606,3.0739526673740434,-4.903463457762742,0.7215968029881663
261,-6.978423459020934,4.237607084861039,-7.050445116292197,0.39169099583479705
262,-9.344909843382741,5.5679831602802174,-9.591320669077522,0.09694192985532321
263,-11.672558803180577,7.076006225319668,-12.462493838004045,-0.15351295453816788
264,-13.771448407256191,8.817607699811724,-15.592062643807083,-0.27484765726686683
265,-15.478949233632818,10.896267929844587,-18.92175480748564,-0.1054908159363383
266,-16.692700818133645,13.444671891760533,-22.415448288789516,0.5008811883303647
267,-17.385140386252477,16.553680305488694,-26.044968061823326,1.6163402385233987
268,-17.61112071935657,20.271301775997298,-29.771778040827652,3.1983722288117216
269,-17.49079630846868,24.60475734777338,-33.52973158557143,5.105890549782544
270,-17.12846755077661,29.515498928336264,-37.221403311306695,7.185087400620848
271,-16.579805252676387,34.91539808757017,-40.73871725988352,9.34744826673898
272,-15.88331980210149,40.68128735629172,-44.004995280995566,11.61363285207364
273,-15.067373970062986,46.690149360187654,-46.991461680848396,14.07674493958058
274,-14.137224165583195,52.83434597696962,-49.692294279597704,16.79222937426503
275,-13.050154220989743,59.0035732180629,-52.081850129581326,19.69756507529312
276,-11.725099592193246,65.08365854864442,-54.10676879746921,22.61051594051311
277,-10.093467047688803,70.97863219809732,-55.73799149476816,25.322147606365245
278,-8.11605467087928,76.6195540351014,-57.00358560549859,27.72778874015955
279,-5.765131334114801,81.94541696480606,-57.941614429588775,29.841819856241443
280,-3.0282409434283815,86.87959319154383,-58.554694360341834,31.684067996023174
281,0.07010739945218025,91.33551634499935,-58.816922206245124,33.172649366842776
282,3.4575461557911082,95.22858740725046,-58.6955231559891,34.17310850794108
283,7.0157126255487405,98.48527858602077,-58.17484279181524,34.654666232723706
284,10.59300817700816,101.06132945326223,-57.262972934111524,34.688614895548504
285,14.026506863058092,102.94353255480549,-55.97342537960844,34.325723802394656
286,17.171386771210805,104.12497288498064,-54.31625386662842,33.57486621160833
287,19.91675042213022,104.59027557614637,-52.31287170548596,32.44786838267617
288,22.185306597164153,104.32109667739508,-50.006243132157124,30.975676859143586
289,23.942689679791822,103.29554716029331,-47.45339786748675,29.201204951517894
290,25.199311212026313,101.48140474945001,-44.718953975171026,27.16700924987997
291,25.983762292000385,98.84499035232763,-41.86855251320909,24.903658548025504
292,26.30809571960215,95.38205022597535,-38.95075672261211,22.435420589145835
293,26.177379536802327,91.13389282036621,-35.97973161132798,19.799699668276403
294,25.644870991039582,86.17768118048514,-32.93602907025242,17.054699364484275
295,24.822521841319922,80.6322489218232,-29.800304110261514,14.253357456671202
296,23.823454099866204,74.66151653983516,-26.5995874743975,11.41207383908269
297,22.722955376680286,68.44391361633775,-23.400349626385125,8.539581182464698
298,21.564891186982674,62.13374784352026,-20.26671459124849,5.679659232901035
299,20.373932288017873,55.85161636544556,-17.2489188668267,2.902296680369822
300,19.16923397012823,49.69891165242898,-14.390406051347151,0.2525910117256073
301,17.967146496235888,43.74678238219498,-11.73178923826194,-2.2751450487612885
302,16.76718429360001,38.01317323892909,-9.308597177117186,-4.687285490222442
303,15.541116217256473,32.46924519699941,-7.139505272146293,-6.959325501825395
304,14.247274385965488,27.06660323163537,-5.214595495892273,-9.060427413812548
305,12.86582430936096,21.76065406732872,-3.50124193922641,-10.978442687352924
306,11.404443373298111,16.51943841973318,-1.9639922590448144,-12.735148260394642
307,9.874433236612353,11.33421852991204,-0.5736590929999751,-14.364997196260278
308,8.279241831619261,6.231315578788779,0.6943742466596973,-15.869042242335638
309,6.634992109523028,1.2653900795575042,1.8580316236267296,-17.217532396345444
310,4.9865137408084586,-3.506730784852627,2.9227316605197338,-18.395688455879974
311,3.379550522922449,-8.04903085035361,3.8854289282790915,-19.418640157797018
312,1.830872741414209,-12.353583065035222,4.74795081966428,-20.313638232846554
313,0.3265577375014136,-16.44141465616939,5.516533480874852,-21.090579905124518
314,-1.146507745423919,-20.343911328385335,6.193434588662068,-21.731745292875775
315,-2.5702566919106067,-24.081276980976423,6.779699012649623,-22.23689761740258
316,-3.9127647768258953,-27.66648787331993,7.281074960441409,-22.65037846063367
317,-5.163738287558755,-31.116265169325608,7.710810357354138,-23.02713996330402
318,-6.345539547780683,-34.45108210844211,8.093980204912626,-23.39201754077804
319,-7.487859223662818,-37.67931260893714,8.465590576862274,-23.74213712946799
320,-8.602627132915721,-40.784402625769026,8.857571827784627,-24.08542386894559
321,-9.69575616264835,-43.73856620578758,9.288795765375212,-24.453063277817375
322,-10.795641854028473,-46.52689425526266,9.764051826266936,-24.878927504851497
323,-11.951612139243387,-49.15120961655026,10.275478023700384,-25.379007621898324
324,-13.190778273738408,-51.622042538015,10.805832223181083,-25.94650426417717
325,-14.494438792407754,-53.96268361916026,11.33168513743545,-26.56036061867103
326,-15.82172003098662,-56.209458188898864,11.823728986363522,-27.19838115282866
327,-17.142490779778054,-58.393582611941085,12.249588215761394,-27.851536121113494
328,-18.448176370277306,-60.52557709196885,12.577759544457452,-28.522310750474766
329,-19.739758071057913,-62.59128623989711,12.779671845156836,-29.211057719728988
330,-21.008161549035858,-64.55449704389144,12.834252314331568,-29.91528491821014
331,-22.225443367267392,-66.37156310041532,12.73279551077765,-30.64895332905987
332,-23.370039639880613,-68.01015733506253,12.48123348101211,-31.447970659772913
333,-24.4383465232938,-69.44758277023358,12.099398685070181,-32.33574318000739
334,-25.420102162028773,-70.65757537643522,11.617783807814165,-33.30120363778636
335,-26.28993048731821,-71.61915447288423,11.074524648781615,-34.31169725826761
336,-27.019546829360934,-72.33731883015042,10.505120620229086,-35.332811467464175
337,-27.597855899083076,-72.8508874759063,9.931519732097097,-36.345086934313024
338,-28.041586796651487,-73.21706007852805,9.366188748233585,-37.33546692117144
339,-28.387362652778567,-73.48041108277265,8.818940019241744,-38.2733578772117
340,-28.67307351747793,-73.66681481451481,8.295955666389805,-39.10427051668559
341,-28.91922567526537,-73.79765508406487,7.796409933665098,-39.781971393059806
342,-29.13867234924057,-73.88912453729135,7.314775423961991,-40.317033631906625
343,-29.350988508584674,-73.94516774650911,6.851589229616331,-40.75870051138915
344,-29.573956834430767,-73.96057109430056,6.421088827740897,-41.122494521352856
345,-29.80455467962526,-73.92417324616775,6.050782620449917,-41.36825150235913
346,-30.001764173045974,-73.81300904775816,5.780567136873703,-41.444035446192586
347,-30.11052338284125,-73.6023518858701,5.651507777913563,-41.327243306837445
348,-30.110101450824768,-73.29264528255233,5.6854934963434625,-41.02023559579275
349,-30.022773864018166,-72.9119252729949,5.880359632573558,-40.520803705051904
350,-29.8793161805108,-72.49883489768625,6.21774484058421,-39.813088417728444
351,-29.686573986384406,-72.09410554825556,6.667383233324477,-38.896077568368916
352,-29.436169988240366,-71.7344429664204,7.187931654000635,-37.80218274127966
353,-29.1370394411661,-71.44223231705848,7.736053097451891,-36.57963950613306
354,-28.828485769680487,-71.22486885964493,8.284281235314559,-35.26863597327831
355,-28.548393712419998,-71.08492217412733,8.824167530419796,-33.895819384382534
356,-28.290368709339607,-71.02289208462287,9.353503033763827,-32.499637050224464
357,-28.018235779622323,-71.02795598787186,9.871790185807708,-31.14658608505288
358,-27.716386244037277,-71.06674843612652,10.382014515197092,-29.904661721354554
359,-27.40197382700175,-71.08780603095639,10.886769999719482,-28.80034944634161
360,-27.08792338755618,-71.03906456279977,11.382676226394606,-27.81230444926854
361,-26.754788344194523,-70.87956068009669,11.857963804851028,-26.919206330074463
362,-26.36880921410501,-70.58494815101665,12.292895663284764,-26.12311156261266
363,-25.916166094053434,-70.15085094895987,12.663152833007924,-25.4194016378055
364,-25.40931410940812,-69.58353570573496,12.947485903239965,-24.7690363774107
365,-24.867316492965145,-68.87891731469036,13.139824615656831,-24.109066333442886
366,-24.30351026483036,-68.02374939785369,13.251979080338183,-23.395156769411027
367,-23.722363656831185,-67.02045349654982,13.300924951287259,-22.6250099428817
368,-23.13371488543861,-65.8907428250352,13.303582883670183,-21.825024047630702
369,-22.564183036924238,-64.65407696537163,13.282326792684062,-21.022523891982225
370,-22.02432184889547,-63.316495671460196,13.262890108023788,-20.230245829436512
371,-21.48490325586001,-61.88195427426086,13.263587312551925,-19.449987967334316
372,-20.910271826853954,-60.36611566413773,13.287305187812766,-18.684039801277788
373,-20.301473201445592,-58.797151654470696,13.322670304260072,-17.943405431140683
374,-19.698002277220958,-57.23602770093442,13.368392699883415,-17.27900276300279
375,-19.13541488898343,-55.71820373893072,13.369646006268162,-16.608869807238644
376,-18.625932274609934,-54.29535354258568,13.293335304791919,-15.896612738182691
377,-18.181063474477707,-53.0200333909767,13.124563211500707,-15.151286208251674
378,-17.82754293066619,-51.93404792248095,12.865988857658996,-14.405705106493558
379,-17.595619810750172,-51.0615465023618,12.538489218332709,-13.691597388833744
380,-17.48923584786165,-50.40626886380846,12.177086483953017,-13.034243168603423
381,-17.479254605167633,-49.952512443957424,11.821015161992205,-12.460596311615108
382,-17.52078141238229,-49.67037517022694,11.50551001962398,-11.997425012334942
383,-17.5738551005487,-49.52210116770846,11.256322696820874,-11.661055446257704
384,-0.7515943460188008,-0.6690273203174262,-0.30690444009165907,-0.6765667028991491
385,-1.4444936845763816,-1.5141075550679728,-0.6401241227493388,-1.3932566336420127
386,-2.4416204695416743,-2.7426688289847574,-1.1089672795175423,-2.393110980155753
387,-3.765157431496144,-4.363149601337832,-1.7153568947351714,-3.6401668834385843
388,-5.398656906559477,-6.354519775556053,-2.455752019577841,-5.083458790599607
389,-7.306586839099943,-8.664521038031399,-3.318928783788714,-6.668577207571116
390,-9.445541410406115,-11.209903853191195,-4.2847027507150734,-8.331154005794113
391,-11.757185415642185,-13.879803746693021,-5.324708050336588,-9.987440855533464
392,-14.160775042106161,-16.555609222805728,-6.406900735901538,-11.554773201434715
393,-16.56820495152841,-19.147616971883895,-7.5069899905129525,-13.001544815577466
394,-18.92624267080576,-21.630832224745586,-8.626036148222484,-14.368003884592353
395,-21.15948471433774,-23.96147020445631,-9.754184261784108,-15.65142657054802
396,-23.19531990858351,-26.0906409874446,-10.87645605608019,-16.8260725086198
397,-24.94810753452365,-27.970873132242527,-11.978558653814144,-17.875278781210657
398,-26.340432322036392,-29.577184535476963,-13.054265152486863,-18.81033405334881
399,-27.342411993694462,-30.90646867657434,-14.103351510348949,-19.651776000016827
400,-27.982592924286866,-31.96419650879177,-15.126345128241335,-20.400028303478148
401,-28.306840713329255,-32.75853519191995,-16.120936756655116,-21.030808321687157
402,-28.33548874315831,-33.29956961238195,-17.08770760985879,-21.53012611383972
403,-28.083209774764004,-33.593224490034586,-18.03562235270055,-21.928313773636752
404,-27.601327019500403,-33.63230714347553,-18.971878039210928,-22.2788991076248
405,-26.98790724661704,-33.402995894330644,-19.89325341865192,-22.610186534448044
406,-26.345321439348538,-32.90002811017579,-20.790109506844797,-22.91402673672904
407,-25.731880408012614,-32.12987184257743,-21.65258393272866,-23.17455132134691
408,-25.17352763285517,-31.11644503827832,-22.474471882085407,-23.393221471907797
409,-24.701978326416427,-29.91333868185476,-23.253891080663028,-23.577852139506035
410,-24.36345801786717,-28.588041721566864,-23.984725259814077,-23.706563013884843
411,-24.187553640536425,-27.197814651339822,-24.644334466502883,-23.72673312959792
412,-24.153134208831293,-25.794002869584556,-25.197779246618808,-23.597759254653663
413,-24.206023828724437,-24.432339131460655,-25.615069035924844,-23.309049802074703
414,-24.314108146251368,-23.163277752952194,-25.875729589657038,-22.866724201370396
415,-24.477039618398162,-22.007568633505798,-25.96069984979279,-22.282148426389607
416,-24.682623024105677,-20.95308575736517,-25.853589621640342,-21.571470776110587
417,-24.88649119462038,-19.978729838372114,-25.549715068070544,-20.766476874535407
418,-25.032894939372365,-19.07056837055357,-25.06164592333688,-19.91794612107299
419,-25.091408752365787,-18.227778448553103,-24.419137752948803,-19.084321039578498
420,-25.062059283029917,-17.46431023344618,-23.661549651783933,-18.31113089382183
421,-24.935428644478534,-16.802337730905084,-22.832888511135106,-17.62223896918017
422,-24.670329882338482,-16.26206545114041,-21.981836863415463,-17.026676455813778
423,-24.212443824714516,-15.8509770068259,-21.15466003530392,-16.524156175306942
424,-23.53673203403995,-15.560183089512254,-20.384178551498824,-16.111293711392708
425,-22.66306598188263,-15.364957402088718,-19.685063958671904,-15.774615382951012
426,-21.622820043282047,-15.22115876299143,-19.056216564540435,-15.484763888746603
427,-20.437829625992514,-15.076441189054426,-18.4867277488834,-15.211369087394736
428,-19.142238127993046,-14.90001784578769,-17.96470668688911,-14.94162382557438
429,-17.815156594430878,-14.690164402754025,-17.480417212846916,-14.692104286761836
430,-16.56891432496791,-14.456967692452183,-17.020753862887243,-14.489070549255265
431,-15.500491570546718,-14.215387432950426,-16.569428550143737,-14.331086304413377
432,-14.661417977897589,-13.986340623046537,-16.11350086835444,-14.178329458971795
433,-14.051213143569978,-13.792629739760885,-15.646350546489357,-13.981692437252185
434,-13.634235852036735,-13.650639300579682,-15.166351339234083,-13.720932092052264
435,-13.362258261876354,-13.560544425977069,-14.674031320303968,-13.400003201735192
436,-13.178334811677235,-13.50127783046446,-14.167426261202134,-13.010869397299395
437,-13.008853032621289,-13.43507712332388,-13.640831407583413,-12.520289434867403
438,-12.760856477637175,-13.31811869959813,-13.09102503822537,-11.899619721450089
439,-12.353014601930946,-13.11372676962189,-12.523673497974533,-11.160377980916834
440,-11.757952470552482,-12.798364549549207,-11.95245186631265,-10.346391399381849
441,-11.00890117256565,-12.35729209226814,-11.392002172074502,-9.495592142644227
442,-10.164751826891807,-11.782282912954065,-10.853728080302213,-8.630117566777374
443,-9.274411688506524,-11.079707392888915,-10.348830151730445,-7.78211712623371
444,-8.379019123633759,-10.281293356117365,-9.893052061390884,-7.0050448497320605
445,-7.522932091141807,-9.435661648256811,-9.506393214535722,-6.350671389066175
446,-6.7434694842122,-8.583549928726997,-9.207800020315036,-5.839025748076469
447,-6.0533940151689745,-7.7440168795930715,-9.010300205384679,-5.456055679560981
448,-5.435143145819579,-6.92292442632774,-8.919350048039373,-5.191691079221226
449,-4.8547044016606,-6.127029285289591,-8.932911819270599,-5.062994324730495
450,-4.2889935744295835,-5.364898242355878,-9.039825314347741,-5.083919674997158
451,-3.738818794587012,-4.641628664320489,-9.217001850069142,-5.223295095817387
452,-3.200424019478368,-3.9566377329644418,-9.432595392123005,-5.399853435308151
453,-2.6401384040773297,-3.304352819175856,-9.655665086054617,-5.536563654863547
454,-2.018258499148164,-2.676602827496594,-9.864852939796704,-5.6152836169738
455,-1.325604982069622,-2.0638214643497697,-10.049849092911973,-5.656341327483669
456,-0.5853270389984246,-1.456518924641527,-10.205889306611386,-5.665034024846704
457,0.17895379076940426,-0.8476039934199385,-10.327248883149316,-5.6238148529693275
458,0.9646892142550283,-0.23785567981240113,-10.40619836769515,-5.518674432604543
459,1.7819238314631545,0.36453768225984307,-10.43615365813194,-5.348247113191142
460,2.6238207462095713,0.9578857415037764,-10.41202045931656,-5.113204609284148
461,3.4526271126046884,1.555092709318549,-10.328056488035033,-4.805150118988011
462,4.232260792698934,2.1728446145548497,-10.177058240792,-4.410310318759086
463,4.956014139857733,2.811548706271875,-9.954267294772901,-3.9300326355333937
464,5.6270925414161415,3.4495067603253324,-9.664591976270879,-3.3962935660808617
465,6.22733312573259,4.058463900545478,-9.321562740645366,-2.868442475962727
466,6.720860653235302,4.62078802421925,-8.937991472573644,-2.4021739498511634
467,7.089556478188814,5.132687816627082,-8.52319154465496,-2.025637165774027
468,7.351234081091513,5.602190911996701,-8.087700219190676,-1.7528705058078855
469,7.538743987619442,6.042750789577265,-7.64435442503213,-1.596545628756232
470,7.672491971368495,6.456838324289096,-7.202877370656833,-1.558869044707772
471,7.75823136336232,6.835701205484893,-6.765225890729486,-1.6080660636216815
472,7.797159899744121,7.178395771187065,-6.324133187474103,-1.676592583146632
473,7.795240756498678,7.501353680120459,-5.865546604977223,-1.6892091767688522
474,7.774417028422148,7.830697334944235,-5.378700338136623,-1.5877481630546177
475,7.758598338192544,8.191546547336072,-4.8650339870880535,-1.3496892996979204
476,7.746495679383628,8.603459924315523,-4.335655842306956,-0.9888972410537777
477,7.713441153743728,9.07728440639933,-3.803458457030943,-0.5384722237230605
478,7.642608860131374,9.612674130525207,-3.279535796025994,-0.03692582511158165
479,7.546752448392586,10.19801714955046,-2.773273681098737,0.4719583062918341
480,7.44720429349817,10.810145162247176,-2.2915588064856474,0.9337663430205496
481,7.352348809869224,11.417335576908005,-1.8363960558403627,1.3012920349849162
482,7.26200915867298,11.987021456713375,-1.4071474944816964,1.5641695333745784
483,7.174118224733728,12.490405382168534,-1.0074912953959008,1.750204406682588
484,7.088167498362183,12.90332440369723,-0.6436346593616418,1.8933298310901712
485,7.0011981619719545,13.206397826525048,-0.3160283719614021,2.0121707265568993
486,6.899385415583607,13.391489950961034,-0.017775779955936703,2.120418535028968
487,6.752656354975734,13.475390516219111,0.2625565832884051,2.2420473144699025
488,6.5318787802119695,13.493386179174834,0.5355584138255052,2.412734507471086
489,6.245165325969942,13.470887813402255,0.8037411954356077,2.6520302460878056
490,5.934547615973348,13.411368262486588,1.0590718299000506,2.931847376264463
491,5.627775792881703,13.307083682033165,1.2886081264385656,3.1963980839512263
492,5.314798634631424,13.150390090713596,1.4854906620725266,3.412932950405114
493,4.9871567862922115,12.935997867965357,1.6552915511485824,3.582753659870639
494,4.67498237618723,12.65537589156849,1.8091619090211282,3.7045059121105264
495,4.423070414009816,12.29095657482336,1.9525023332088647,3.746818012133994
496,4.247175603239804,11.822123144446268,2.083719012559053,3.671123413626744
497,4.124601540077622,11.237099440604082,2.1997899199081843,3.47363168230798
498,4.028686361510797,10.538811960506798,2.300363548905712,3.1879945951095605
499,3.9567418545081203,9.743441872577355,2.388635314554265,2.849787766396617
500,3.9176313613625418,8.876462978308187,2.4696115047258065,2.4720768505425643
501,3.903032893535959,7.970600350412003,2.549181949228224,2.0573213854113135
502,3.8648992798681165,7.061979139366572,2.627574756235728,1.594633366623736
503,3.7743344722952146,6.17902937949251,2.7198860401075473,1.1520991824919746
504,3.6361777098900827,5.3549866308533165,2.8321187219479476,0.7770266157219505
505,3.4684121875221594,4.618773241128584,2.9639477298816153,0.4876060284470129
506,3.2742893048642525,3.9924996981036847,3.1121667022804007,0.285546962092173
507,3.047014656671317,3.4902623677698776,3.271691915275603,0.17457784253867234
508,2.8001593688508644,3.114714941798563,3.4338981511504865,0.1563339500792479
509,2.573258045279155,2.854384692159371,3.585957513827131,0.20960003890559567
510,2.405442505090105,2.68666816191944,3.7123435980330552,0.29422516719915476
511,2.301651018063232,2.5864514665929326,3.80067259449758,0.3765856914628459
512,-0.6449563364622555,-0.29347640149730414,-0.4327621539051208,-0.12672913362980695
513,-1.2500825844204364,-0.6102851095624277,-0.9315824531467752,-0.3044126163486667
514,-2.080420059643965,-1.0659907200758276,-1.6573499000912133,-0.5724508267656647
515,-3.1255528715950396,-1.6746357617831051,-2.6195359091594215,-0.9399998635158906
516,-4.353028411228905,-2.4444176167261897,-3.8072280001692658,-1.4273234068994674
517,-5.718123357498279,-3.376666845031083,-5.190719732535315,-2.0612169322859146
518,-7.172083285191673,-4.458937627160471,-6.725452794345431,-2.852824870478843
519,-8.659316549269768,-5.653704900541217,-8.359316427479987,-3.7872820392056026
520,-10.112487564610447,-6.907905510872936,-10.04269409691974,-4.83654412814293
521,-11.477417190362928,-8.18070376813749,-11.74069032936735,-5.984347299580088
522,-12.75936648734578,-9.46560458230189,-13.448329563461206,-7.232463096056374
523,-13.955531231123407,-10.752570104630273,-15.139467312234277,-8.56696207087149
524,-15.066192464771033,-12.033199518977053,-16.787215337414526,-9.959869228022592
525,-16.095672596184908,-13.305846297585871,-18.3709722958751,-11.385510712938949
526,-17.060334070353804,-14.573953748953201,-19.88010610824187,-12.838981202131233
527,-17.989173159437055,-15.831992747112722,-21.308946256095517,-14.32971400770164
528,-18.912461048595077,-17.068233753391844,-22.646711650647315,-15.858017618152548
529,-19.847097474416948,-18.279453002306223,-23.876228211586444,-17.397895473396375
530,-20.78749046999142,-19.470108030676695,-24.983617734121918,-18.909039549403424
531,-21.714216460446583,-20.643581722400736,-25.967061374873097,-20.36212603820061
532,-22.617251177654097,-21.8013170949518,-26.834916188448126,-21.733946898474287
533,-23.512094740447733,-22.940828789144238,-27.595937001434105,-22.989000320925857
534,-24.420683592965403,-24.04979796385377,-28.249978389227763,-24.081385041861814
535,-25.335829763271114,-25.112197821801466,-28.78972183435735,-24.98089522810349
536,-26.228439765007497,-26.123668383162318,-29.211138444222577,-25.691068694034435
537,-27.082050273393996,-27.084580311263295,-29.514578311038782,-26.229221736313907
538,-27.898456156618312,-27.97362392629182,-29.69849736779069,-26.59685437447124
539,-28.66575993525499,-28.747317098211873,-29.757754449871857,-26.777494439216092
540,-29.33716456391357,-29.363221610401446,-29.68639070108975,-26.763925012223563
541,-29.852353680721013,-29.793651933542485,-29.480743951928623,-26.575893832661183
542,-30.16856121539315,-30.02579240415362,-29.14016319637877,-26.23982219217485
543,-30.270942159087753,-30.059438183868863,-28.667678889221524,-25.75949753165801
544,-30.16262712345303,-29.909520790680137,-28.07157773024657,-25.114955795093614
545,-29.855840878918304,-29.60289014051594,-27.368856928066354,-24.296193441923943
546,-29.372820828100025,-29.165033521768702,-26.5864713564409,-23.331377389959734
547,-28.74239708152133,-28.61479431156281,-25.752088905437923,-22.26839857658978
548,-27.983491137760257,-27.965215190722255,-24.88263773701055,-21.136154072570317
549,-27.08385041490361,-27.21994951200343,-23.98298379447864,-19.942535820856317
550,-25.99991460115071,-26.37698303694452,-23.05470113110825,-18.700367202730334
551,-24.687935923934024,-25.439220586405334,-22.103453833581938,-17.43297931157773
552,-23.13823594548625,-24.416263533113653,-21.137591681602533,-16.163664298937956
553,-21.368979215151867,-23.316422067471855,-20.160865714019412,-14.908164239101707
554,-19.392713487667407,-22.14392102680914,-19.170701954137837,-13.6713566876205
555,-17.21852519142675,-20.909110309847193,-18.16632262042064,-12.450763440345154
556,-14.873706659526523,-19.63501077167379,-17.154781061825595,-11.245820016615463
557,-12.402592155952838,-18.347236497753855,-16.151820886423863,-10.066333542535077
558,-9.8557684732799,-17.06570144681161,-15.180423802319117,-8.924261224802363
559,-7.281104720158625,-15.805957373194861,-14.266484195753307,-7.82753831948471
560,-4.731016260977997,-14.577405333521433,-13.431391512417836,-6.796405033218876
561,-2.266114255686556,-13.383099647311715,-12.689889725509966,-5.872630607976691
562,0.06504070995293854,-12.224973216644795,-12.054623165571796,-5.110786532806111
563,2.232595965668041,-11.110592304421395,-11.532293435583824,-4.55412814074724
564,4.207655077054265,-10.05170523021407,-11.118096920574793,-4.217015567846701
565,5.94952057056503,-9.0505519364471,-10.799343702118174,-4.100270851720198
566,7.411706688190574,-8.104378276774083,-10.56199459768116,-4.2050743714087515
567,8.554060728924757,-7.225434150979593,-10.394223597640645,-4.5218691326285345
568,9.35252415199082,-6.4400721441319435,-10.281505926143526,-5.017809803445238
569,9.803040953565965,-5.775403792310905,-10.202453925018084,-5.6369575020142815
570,9.927722468717047,-5.251459528223262,-10.133750632464047,-6.310618698495705
571,9.784680891896798,-4.880199916268085,-10.057420630601053,-6.977553862911995
572,9.45723651030673,-4.660306629241915,-9.962718913988313,-7.6060361205713685
573,9.022983146636477,-4.565468488413197,-9.839677573645037,-8.183799313381131
574,8.523452897498759,-4.551018450843656,-9.671189806443495,-8.684074662716084
575,7.969850014005251,-4.5746914309904465,-9.434345456678315,-9.062364920006766
576,7.38051042311835,-4.603001633200376,-9.110301084226897,-9.289466567108255
577,6.786942871890743,-4.61384537225664,-8.694265736522457,-9.376863008360443
578,6.202582030791561,-4.605136948184838,-8.198139410246945,-9.356316320441517
579,5.5939192081401234,-4.589782582973548,-7.638872598213173,-9.24164391537291
580,4.904122220705273,-4.58493922149633,-7.029212759937629,-9.025890927104474
581,4.116445316645688,-4.609322819424567,-6.383977182154933,-8.709732296940539
582,3.2681870765801,-4.684833621282526,-5.722650738360292,-8.317330033113072
583,2.413863494218389,-4.8260600281261,-5.062823948484501,-7.8786001970649915
584,1.5943961239805962,-5.016321095311203,-4.4123763265017475,-7.415412655051666
585,0.8376089765169102,-5.210913468169221,-3.767411213893166,-6.946635386609398
586,0.17402266863378563,-5.362462959929056,-3.1223176298164024,-6.492102889683588
587,-0.3710238230011692,-5.429987553665399,-2.4794048828764406,-6.075458571406507
588,-0.802523325025965,-5.382880300184863,-1.8496572592184277,-5.720919992955704
589,-1.1580193905143883,-5.211442305053507,-1.2475600407657876,-5.434497901168575
590,-1.4730394934644289,-4.930460730535963,-0.6835720826960278,-5.185643316658424
591,-1.7448693831868558,-4.568059942820083,-0.16380715333242174,-4.932006285702876
592,-1.9433942879923987,-4.150518779516697,0.30628264015914225,-4.659032908339879
593,-2.0550442392523505,-3.6999643557269017,0.723397567128474,-4.36872408499001
594,-2.1054870620180153,-3.23889097848202,1.0904513768374222,-4.044065018797902
595,-2.1318431487294447,-2.7798356003756752,1.4177522370513467,-3.650256632414196
596,-2.139962102364225,-2.314631634739305,1.715434812028139,-3.176732115402955
597,-2.114577184089194,-1.8277028088815024,1.9809988598213315,-2.655509821303285
598,-2.0684745215104217,-1.3109461979990795,2.197591146529614,-2.1325447093662566
599,-2.058777192853168,-0.7670413401070567,2.3460737610559566,-1.6414429877985872
600,-2.1402501654984474,-0.20589596372102223,2.416689862952989,-1.2012700657142066
601,-2.3132298214931377,0.3537680739024721,2.407170147930488,-0.8270832073721183
602,-2.535916663011587,0.8747896949775068,2.314599663314433,-0.5300667082572774
603,-2.775573093057234,1.307618244961826,2.138161564144115,-0.30671608161343966
604,-3.0311183271044317,1.6100572955152777,1.8888585272439855,-0.13236430208491295
605,-3.302031040542275,1.7688221735202139,1.5913595359623185,0.031500834383999546
606,-3.5538092661542535,1.8112056790132929,1.2767180828201468,0.21366408166804518
607,-3.739819588761005,1.7930065199779013,0.9721040495150614,0.412537543856628
608,-3.850280584769851,1.7710151730550594,0.695793785007857,0.6040502047656604
609,-3.915828112544972,1.784267358869692,0.4630613584012906,0.7787485333910581
610,-3.959609513771786,1.8595214284606914,0.291882167748235,0.951321710555735
611,-3.967281151307061,2.02583531690626,0.20139543858037443,1.1282414383615014
612,-3.906279569697495,2.307200060135753,0.20588748367929768,1.2992414799308936
613,-3.7645678200242547,2.6974351600453397,0.30834574575765045,1.4589379362643589
614,-3.5554139549990884,3.162390386167166,0.5023655075650267,1.6181244803862327
615,-3.2807468391906798,3.666719196340039,0.7776010720151937,1.8005924277181198
616,-2.9185737396945415,4.183323577083199,1.1194103863080413,2.04037239193656
617,-2.448816349276646,4.691330336769911,1.5068207074715425,2.368225269950613
618,-1.8849842426603696,5.179885115127688,1.9171110971124132,2.7825964050660503
619,-1.26988288588683,5.6567963683421345,2.333979379681477,3.2495870621846206
620,-0.6347150861557146,6.145645926699016,2.750589694263538,3.7353794011962536
621,0.019931410323621834,6.6642964952313175,3.1692584768511396,4.2300759176621545
622,0.7092613771589364,7.209344621135334,3.598895283039425,4.736379250108717
623,1.4277038900380277,7.7565886541650855,4.047278769311966,5.238035124721259
624,2.1351582616949805,8.273261935734189,4.514140638240569,5.705891933142058
625,2.7899306399888517,8.731317073220087,4.992106581755082,6.131051644914824
626,3.367561440250894,9.112005507891988,5.468833293164403,6.529682323971239
627,3.8542716224142506,9.40110041352392,5.924608769704355,6.916348514463863
628,4.232926689118647,9.579934733415122,6.334206027004399,7.280211956445009
629,4.470388123760675,9.632272293721748,6.67759082164837,7.594795525031257
630,4.535040619198512,9.58714805923228,6.981030788261995,7.868253094278791
631,4.377909756714252,9.428187350631205,7.200618527330114,8.034180161323933
632,4.007072717195193,9.160704642867815,7.314815794700367,8.055127444856586
633,3.4632474799931945,8.802753345282921,7.318695268586023,7.913884443838103
634,2.8037211796887442,8.386091306093723,7.222392441510689,7.6178633743294215
635,2.096349742853092,7.950590253912714,7.048781734288889,7.214621527412989
636,1.4150645814822096,7.535182591032784,6.829445328161542,6.7757947946500545
637,0.8261866695798529,7.170178672780033,6.597520092918817,6.353390395693584
638,0.3681463592752143,6.873745757083713,6.378133663494783,5.968842871572566
639,0.04304984521178624,6.653782356448568,6.186526512701082,5.637962386691861
640,-0.5974188982057206,-0.22134243885114313,-0.4145026906921157,0.22548920708033787
641,-1.2199878615558863,-0.6602783318400269,-0.9344159616910852,0.2139990612710317
642,-2.114700604219691,-1.3226730370142195,-1.6928300553718545,0.0648758790915352
643,-3.2487409092001296,-2.203019486516418,-2.694036801039492,-0.2787539457763656
644,-4.5681282952107525,-3.2742763914651616,-3.9227985764722595,-0.8704939333734949
645,-6.027859885697432,-4.4954369085191015,-5.344786700735425,-1.7355684861702962
646,-7.586563625952769,-5.814536643418082,-6.903772260948088,-2.8520154907010684
647,-9.178082186609274,-7.174344505243189,-8.530758836991316,-4.155642729861195
648,-10.72247519525936,-8.526773542769867,-10.164403336400632,-5.559607424115892
649,-12.172134323709958,-9.843476871463071,-11.76674612023941,-6.9703947585039625
650,-13.544487731819284,-11.11841118805009,-13.335842221431196,-8.29808399185431
651,-14.833115027173518,-12.335606119535509,-14.8550598764492,-9.466456847749168
652,-16.007556124457565,-13.474515989977691,-16.310252503379008,-10.437023053001374
653,-17.030272653814187,-14.519195218089127,-17.693452272341474,-11.229592809995786
654,-17.89186010385877,-15.46259438725172,-19.00450009075631,-11.90328256777231
655,-18.611752472419365,-16.304438284073363,-20.246779075448185,-12.512332110728059
656,-19.20416251403001,-17.04744557112447,-21.417493028830897,-13.085801495542235
657,-19.650685195082104,-17.6888899824942,-22.49932158725057,-13.63709918271779
658,-19.921324478970963,-18.224716807939025,-23.465662333509048,-14.170685734198061
659,-20.023621523090863,-18.66500756939397,-24.292956949109172,-14.681715553299238
660,-20.008780155675986,-19.031224845326296,-24.96529110452642,-15.149337594673206
661,-19.92033513717573,-19.3366469812534,-25.472888776670985,-15.537573722935885
662,-19.75966345273652,-19.582198583051284,-25.815147362707343,-15.813050486029296
663,-19.512541215376213,-19.770195138389546,-26.007898641007813,-15.962153181504386
664,-19.193344935245314,-19.90433428002003,-26.080127385293146,-16.00059850800789
665,-18.84448897892993,-19.974214023273657,-26.058974169279935,-15.960298830637708
666,-18.49500924493041,-19.959633211838543,-25.96330305740716,-15.866760468829568
667,-18.147705399907135,-19.854029545233637,-25.810764925197965,-15.729998569821717
668,-17.803692202814737,-19.671790901901712,-25.62205626975,-15.55928114982489
669,-17.48230944892006,-19.43295970275693,-25.417254354536123,-15.38926435712187
670,-17.21728590793843,-19.150723589124727,-25.209397023347933,-15.264496066357225
671,-17.030753627214665,-18.83412246481281,-25.000508823058595,-15.205158266915703
672,-16.923685947653972,-18.495165284711135,-24.784512804621148,-15.205693055827817
673,-16.884398306510366,-18.155237943874305,-24.556508455133738,-15.255792832878024
674,-16.902391392849616,-17.848030081438182,-24.3220989933764,-15.35526102372556
675,-16.97785351524855,-17.61083999630881,-24.091608163452165,-15.504334742324588
676,-17.107735710858947,-17.46696831070282,-23.86448251671374,-15.68779272030314
677,-17.271077107084384,-17.417099451096963,-23.62763609098131,-15.87102731349302
678,-17.428859807736423,-17.4481979606825,-23.36345843541086,-16.018720975136937
679,-17.54284129726968,-17.54237870416204,-23.054841456455364,-16.12177127337252
680,-17.59303441141405,-17.671758136372883,-22.687152787953263,-16.190860118612235
681,-17.57773128611702,-17.79873315748044,-22.250053083318193,-16.225254729508002
682,-17.501122824502467,-17.893195458643355,-21.74062046203183,-16.20140985366363
683,-17.353041446308023,-17.93833493744318,-21.166302752774808,-16.101934949897032
684,-17.114227649722718,-17.922292193790106,-20.544267673479684,-15.941564665807334
685,-16.777761484969677,-17.84072248277932,-19.894444578502746,-15.74125490221612
686,-16.355632269873357,-17.703664835919504,-19.231562709181983,-15.48385859322018
687,-15.861457377637178,-17.531075126346504,-18.560476337001923,-15.117611582562908
688,-15.283966288009772,-17.34154967688868,-17.88104937181947,-14.610427739730792
689,-14.597551220940112,-17.147534789496007,-17.198420604553608,-13.984264347768752
690,-13.797165310708525,-16.95593775504968,-16.521995846329713,-13.290411271219593
691,-12.911015451399276,-16.764836774930785,-15.856217066146709,-12.565668060091255
692,-11.972363252650531,-16.564280675852142,-15.200753325080226,-11.817497262097968
693,-10.990112441893151,-16.34396388761505,-14.561500793940018,-11.049747655256958
694,-9.964389535268127,-16.098090597545447,-13.948624608123371,-10.289171661420216
695,-8.91696718093285,-15.826246136066086,-13.362415745198549,-9.57184925834495
696,-7.8975709301940515,-15.530318826874895,-12.79106337548432,-8.91311219034005
697,-6.9523837764584675,-15.213911582727393,-12.218051756350635,-8.306953425384275
698,-6.0902083731588315,-14.884074393073808,-11.628666851460485,-7.7459849651736405
699,-5.298484368573756,-14.546190867824588,-11.01269266124631,-7.23241984384396
700,-4.587267027381245,-14.199700111929692,-10.36307217548201,-6.778818970037454
701,-3.9950542409563132,-13.839226228686599,-9.675036933450208,-6.389463201649151
702,-3.54625088443987,-13.455696399151066,-8.946523066212462,-6.0486317500367015
703,-3.224402583009503,-13.037050761342536,-8.178940584731874,-5.7417048162390705
704,-2.9938851768338766,-12.570606252586835,-7.381009586884031,-5.465025727206759
705,-2.8400947095782527,-12.047950920935733,-6.568993523780841,-5.213794803384654
706,-2.7782976112551143,-11.4656920446461,-5.757834390543761,-4.9704351298398235
707,-2.8193865315141267,-10.819178312054763,-4.958638359698268,-4.710566653065264
708,-2.9448816752938973,-10.105748720391944,-4.185046947936356,-4.4337001271259995
709,-3.1138191911695867,-9.33573010378662,-3.4549517495199633,-4.1785748220016155
710,-3.2952205244059973,-8.531499848146007,-2.788617092895289,-4.002313905958643
711,-3.4879930958164165,-7.719125884804544,-2.2063050835531013,-3.9495623807818534
712,-3.6994837015072797,-6.921450459199929,-1.7259970877838164,-4.0378670193260655
713,-3.926303594470198,-6.1511724640244,-1.3591105295190338,-4.257358161984694
714,-4.153536940670274,-5.408252276313466,-1.106058111454495,-4.577804364430353
715,-4.372530192319246,-4.687901490621662,-0.9541824912915002,-4.966948458006751
716,-4.592660119531001,-3.9854172305556816,-0.876442628167856,-5.392128512705461
717,-4.818629622621049,-3.289204867912749,-0.8362449202902401,-5.800639692126433
718,-5.034341898062548,-2.5814506180865946,-0.7975605775685018,-6.127918123315793
719,-5.215081604142531,-1.84888942041778,-0.7339094403418241,-6.338051867194952
720,-5.347064775114702,-1.0936586131174857,-0.634285593599897,-6.442578336918974
721,-5.425880425264902,-0.3402865362978288,-0.5014228548583224,-6.478684600579185
722,-5.43678861514251,0.3706071923948344,-0.34281772254147747,-6.48150962646956
723,-5.349526192459964,0.9947529213088715,-0.16596591569568223,-6.472212485099065
724,-5.132134468941953,1.4909957105515694,0.01780809024213117,-6.465662480395567
725,-4.777101879100554,1.832125746936785,0.18922750534196842,-6.481008367506042
726,-4.316048280067924,2.022079951579366,0.32928228653405794,-6.526392167313119
727,-3.8026113102539476,2.09416574333413,0.43286833870768787,-6.578873864245596
728,-3.27395492171738,2.0970533102816433,0.5077126544275266,-6.5912824863823545
729,-2.728863633141547,2.090192425846947,0.5642985823376422,-6.523668499092602
730,-2.1504832823851023,2.13428447296436,0.6136736464699795,-6.376598595224294
731,-1.5388273721020587,2.272006856077477,0.6696141416057585,-6.180388198465928
732,-0.9195701682417144,2.514220197612435,0.744212037450859,-5.953364460728434
733,-0.3187082880915392,2.840739509902169,0.8414606814296461,-5.695734058316485
734,0.26264778937784367,3.207348944899801,0.9601598007822595,-5.415402726955239
735,0.8328574817800939,3.5588786311179748,1.0997062845167251,-5.1367406396031665
736,1.3827467288046043,3.847556626215982,1.259732111786346,-4.876489458949141
737,1.8704239290574756,4.044133734068638,1.438787074572468,-4.6195678012772765
738,2.2410500567539064,4.1403063293603255,1.6324078316542567,-4.328777353242683
739,2.474055976581065,4.139326712892144,1.8289826594766647,-3.974446819143039
740,2.5853268050545997,4.043135864772264,2.0112746585815318,-3.5529526303917094
741,2.58743949876325,3.85217884163005,2.166443141246237,-3.083821905086368
742,2.4711084366430818,3.5706201456316164,2.2939261876225223,-2.592300888107411
743,2.2307146516720238,3.2059379035932456,2.401045064707673,-2.100376284193188
744,1.8944792223873184,2.766546249439275,2.4893850655315473,-1.6340134302106026
745,1.5121569292001986,2.2623097187607355,2.5503775256866805,-1.2226881716551659
746,1.1183139490527816,1.7021731333805952,2.574278218136579,-0.886401262450635
747,0.7172886268329784,1.097712222369015,2.5533258241668975,-0.6213441579461808
748,0.31070347401734394,0.4757959535374243,2.479163823109864,-0.4030832365951017
749,-0.07537115144879036,-0.1198926567749829,2.345841044567595,-0.21049691398010836
750,-0.4066040920153175,-0.6421225572395236,2.154026842615923,-0.03544403674114589
751,-0.6799039420297754,-1.0593515254916013,1.91061153543178,0.1230745636615046
752,-0.9300716384600999,-1.3618546332085006,1.6296097556756994,0.2667819438523314
753,-1.183223933675198,-1.5491467935280878,1.3362093388664,0.4052603105735577
754,-1.4191092768366858,-1.6269807697746077,1.065011641744795,0.55246649472879
755,-1.5891480084391638,-1.616386686227759,0.849883902204752,0.7171878218814205
756,-1.6664462551315784,-1.547648935417893,0.7123201068696204,0.8960803827464161
757,-1.6580760764374363,-1.4463363514167435,0.6597661222597748,1.0841466721284576
758,-1.6398552409844338,-1.3558354205373018,0.6608179338356108,1.2507381297023716
759,-1.4245498453426746,-1.2384138615265354,0.7534583360646187,1.4830918229717702
760,-0.914077447291214,-1.0758341214966187,0.9434504248104806,1.8207893473137506
761,-0.10900790221107573,-0.8624042774718604,1.2164151941692853,2.2628445604032255
762,0.9193340085893812,-0.6006535733786701,1.5475427396902948,2.7836822179211174
763,2.0773279441777093,-0.30080926857339596,1.908161426936946,3.34748031323993
764,3.2739998935839085,0.0195986361854055,2.2693289465419886,3.9136986332503847
765,4.4193237880739735,0.33656664938346503,2.6072675006703374,4.43814230224114
766,5.419511307610271,0.6243309541011286,2.905245118616314,4.881172794425738
767,6.194911118950246,0.8632726659107667,3.1507924135987793,5.220785022145443
768,-0.18345016514922863,-0.24831309113380062,-0.32019315142076854,0.011290899356119793
769,-0.30518993201517786,-0.5399565281725132,-0.7322706119630897,-0.15530199112597573
770,-0.5086979327936365,-0.9833919275963143,-1.34057690126497,-0.4455432913246075
771,-0.7959309726734276,-1.607632768220094,-2.159043540769383,-0.8921526254984924
772,-1.164212105844623,-2.43358643041404,-3.1844595089404844,-1.5248455207795568
773,-1.6216634437303283,-3.466736521535074,-4.394802324571483,-2.3488835196703697
774,-2.1809202063797097,-4.691667291500266,-5.750066689299247,-3.331852199992346
775,-2.8359082603640817,-6.0695156059144955,-7.2007897841790305,-4.413772381586302
776,-3.5642252712709626,-7.542846577970913,-8.704986634549728,-5.533344991138942
777,-4.351115804990936,-9.048732222557462,-10.23851174501103,-6.639503065416672
778,-5.20324497993487,-10.537243561730229,-11.798850393959647,-7.686105575998008
779,-6.1103097711076515,-11.94766779376406,-13.361859789527244,-8.626680892309224
780,-7.039162357369197,-13.227972242017584,-14.897376069552852,-9.426652448462681
781,-7.95187503243607,-14.350646329270637,-16.377508823781532,-10.090850058148856
782,-8.844149074202921,-15.323938827765133,-17.779276971080293,-10.65827383928955
783,-9.756265150937436,-16.180588913071986,-19.08155435046229,-11.16978473640883
784,-10.728040339127798,-16.95992073698503,-20.26460809687631,-11.653531049473102
785,-11.749899856002552,-17.698646356552565,-21.314739175666233,-12.13217806039862
786,-12.778612336643073,-18.424141268131432,-22.228469671594574,-12.629535530764512
787,-13.792265348312165,-19.14547038195737,-23.010712668057838,-13.160939805000647
788,-14.80925671832846,-19.847597805177703,-23.671411895023127,-13.718982797985637
789,-15.849973686772925,-20.495142206316164,-24.22459649963978,-14.272003974830623
790,-16.899240429192584,-21.046453682998216,-24.68545188681639,-14.788261358662524
791,-17.918808107472998,-21.47287187695331,-25.066931214546614,-15.260903173543381
792,-18.88752713019426,-21.76825678215931,-25.37882540886377,-15.699702110448255
793,-19.806658097624485,-21.94532590399689,-25.625157614235732,-16.108116404128612
794,-20.668813029746065,-22.028692187968968,-25.806132726834168,-16.477972639695224
795,-21.450495941778502,-22.04650630225083,-25.925441807535364,-16.805373294009936
796,-22.128281810620603,-22.019617361905595,-25.9890643482407,-17.0977966142637
797,-22.68706462175726,-21.95765576788051,-25.998330162475185,-17.359510473238952
798,-23.110247159247198,-21.861235858606765,-25.94740964954641,-17.568438369467636
799,-23.35822156872226,-21.71721830348498,-25.8240747749369,-17.672574965162912
800,-23.369876728639078,-21.497585888806867,-25.610889057779005,-17.62257918237566
801,-23.09433873118139,-21.174219149766643,-25.29078893348725,-17.391688274981597
802,-22.523245583002304,-20.73003020816138,-24.855612842963065,-16.966828278249658
803,-21.682262943000733,-20.157054435340775,-24.307500267943063,-16.341657739881732
804,-20.591526514975577,-19.454816748135542,-23.655073027409546,-15.51849845234115
805,-19.25717476048415,-18.631253068253756,-22.913485820506338,-14.513313170063748
806,-17.696840568390535,-17.700062216047918,-22.107096501340603,-13.366473255751876
807,-15.961656714118071,-16.67597719875169,-21.270506483014827,-12.14918786238719
808,-14.126086220265629,-15.571749347395958,-20.445638811643438,-10.944031289882199
809,-12.247595791756778,-14.399299474369409,-19.673267721302167,-9.821886666734303
810,-10.346129287963029,-13.172144987199351,-18.982959799500268,-8.82902041365978
811,-8.422026832406466,-11.901959201134435,-18.389419867960992,-7.990451645090221
812,-6.4799741754325275,-10.601896794409345,-17.896938393777123,-7.326460615898332
813,-4.546982199513583,-9.301447193118333,-17.50426726238902,-6.848337730582033
814,-2.6850728079703856,-8.041830741724072,-17.200565162543118,-6.544720865949935
815,-0.9726531963596571,-6.8520854331904335,-16.957932086373333,-6.382466052777114
816,0.5360954181634777,-5.747140831018666,-16.736776104646964,-6.3259264910001125
817,1.8189977318363575,-4.743789962227066,-16.499580126210326,-6.3533890004639355
818,2.8642173880684587,-3.862009107155713,-16.213313612668678,-6.449403967649948
819,3.651806447786026,-3.11524387820003,-15.842962212282192,-6.594039265135262
820,4.160820673164128,-2.5091795089244133,-15.35669094628543,-6.7587484030367895
821,4.398100217547752,-2.0492946849895817,-14.740805595604863,-6.917869114773941
822,4.397968372125774,-1.7446771130021683,-14.006024026180638,-7.069849097106211
823,4.191431988135975,-1.6067043698313221,-13.178800316774733,-7.228800165218615
824,3.7844933079844028,-1.644853391295955,-12.286343321326774,-7.390096590447146
825,3.1687594615014434,-1.8573732334050337,-11.349507441258991,-7.519106544831366
826,2.3487644695290855,-2.223217340875747,-10.386468022485234,-7.587451094172061
827,1.3417740109251286,-2.7074365473351047,-9.419656319951207,-7.614793163194027
828,0.1603890702540674,-3.277445678395363,-8.478423619895938,-7.654768196833586
829,-1.1955690827779812,-3.9110154682022924,-7.592164142968968,-7.743693780288992
830,-2.716612324725917,-4.589897491223276,-6.783352228437275,-7.886080708882932
831,-4.347230111290594,-5.3012487823993455,-6.070649926749507,-8.079791155970431
832,-6.005431516540503,-6.056302249641094,-5.47332471394991,-8.332722964660283
833,-7.641892440931683,-6.89590968008755,-5.005305375705299,-8.649784615127073
834,-9.254590436030833,-7.873876281501647,-4.664911627498331,-9.005942422327138
835,-10.84754880641768,-9.046181566806506,-4.434681320802974,-9.3449599506896
836,-12.401487251126522,-10.467617872205215,-4.287675493604048,-9.612076667240926
837,-13.885252765953085,-12.180794892020328,-4.192493434831838,-9.787123470102262
838,-15.288411775844843,-14.200108459880134,-4.117060481419361,-9.885311794806839
839,-16.635364610748592,-16.504921843266576,-4.032562134994498,-9.92507246786239
840,-17.938287385250536,-19.04617023073847,-3.9198732718278233,-9.907635923643577
841,-19.148437699197704,-21.754547874994234,-3.77555273208366,-9.835525814147314
842,-20.185167906350173,-24.549487323997855,-3.6103219156508413,-9.727120151491572
843,-21.00006994243736,-27.350269757381866,-3.4396561894257838,-9.599025439533042
844,-21.591351486697683,-30.07989113347636,-3.2741698639246453,-9.436911640798703
845,-21.963452208410562,-32.65850722545906,-3.1143661962639744,-9.194908217700764
846,-22.099038635166224,-35.0062550390992,-2.9515302656944344,-8.831425508096627
847,-21.976752635399492,-37.06319391438574,-2.773067905077837,-8.32759280403028
848,-21.611826575572262,-38.7985976002126,-2.5658292414581334,-7.6792852207722
849,-21.061046846567447,-40.199655202180715,-2.3178562367632503,-6.890639794820338
850,-20.375760952653092,-41.258690362020246,-2.0224624097545494,-5.978412072075915
851,-19.57384299261279,-41.9721933912102,-1.6828514324015158,-4.985780280347615
852,-18.65589541929332,-42.34686226883721,-1.315068547284648,-3.9791016172769744
853,-17.628366504541262,-42.39802728403432,-0.9441175594221576,-3.022998545574116
854,-16.505255663488647,-42.14150271917622,-0.5934834124414515,-2.155606774284966
855,-15.291691801307875,-41.59232858960198,-0.2787967556052241,-1.3826041948929664
856,-13.972326217337605,-40.76666012519109,-0.007844411055765164,-0.6939000276449683
857,-12.525920353759446,-39.68411778624879,0.21522532434594704,-0.08905062159003109
858,-10.969896501792112,-38.37700537331017,0.38343264270030397,0.4080743885071563
859,-9.368807940437113,-36.89210953856144,0.48656917886802004,0.7709513047515612
860,-7.787379125705457,-35.277706619740414,0.5172910501636978,0.9976029558208492
861,-6.271074448406319,-33.576516793724295,0.47472248811856277,1.1034938305892907
862,-4.865810246862979,-31.828032117993654,0.36107682874986735,1.0958317427403355
863,-3.6309309851009637,-30.068317066077135,0.1771191731204424,0.9584583005164675
864,-2.6301030050784924,-28.322199510956644,-0.07596272877351505,0.6686587283404068
865,-1.9112933114639692,-26.595651818197197,-0.39203465238108215,0.21948334750844423
866,-1.4890864459823112,-24.885503822610595,-0.7574472346818275,-0.37347918632284793
867,-1.338430027498626,-23.194781321713087,-1.1508082218727995,-1.0781211987178887
868,-1.414348599173806,-21.531100140808135,-1.545662812073434,-1.8616343978974397
869,-1.6721070943505383,-19.898476049894523,-1.9151246907924677,-2.6925579608514427
870,-2.0659470587922697,-18.296553785450577,-2.2381115273519905,-3.5283886196839678
871,-2.5421823921842384,-16.724274372017195,-2.505294420301364,-4.30848129601049
872,-3.036346169704067,-15.177830006075979,-2.719154967740841,-4.973221787184096
873,-3.487241231446894,-13.64509921473624,-2.889838330086363,-5.494512967917112
874,-3.862060996311488,-12.110423463983196,-3.0317149543601967,-5.872386576371671
875,-4.161906781374362,-10.560947718689278,-3.1557701717114646,-6.108101428153533
876,-4.38988760178542,-8.987646770540179,-3.2626797196009987,-6.197209190747258
877,-4.518046243847275,-7.391873490665571,-3.348297063590169,-6.151130068520913
878,-4.501669236463491,-5.79071234699252,-3.4113464466923764,-6.003416175957222
879,-4.307442332822929,-4.2007903432844955,-3.450881499212005,-5.790075155442294
880,-3.919323959678756,-2.6166119723173322,-3.459509995647273,-5.526032207858053
881,-3.3352978477329636,-1.014232521023352,-3.4211193423318336,-5.19038037309306
882,-2.5619572387314857,0.6318715943921894,-3.3171212119007483,-4.749600114024132
883,-1.6208197388334247,2.3407485625091367,-3.1359980303785786,-4.186889284768377
884,-0.5666450693194715,4.127710259191446,-2.874916512766107,-3.4985232062213525
885,0.522211692477388,6.001618715864384,-2.5292031040037934,-2.6805252720769137
886,1.5316667656167164,7.8953071285253085,-2.122688839727087,-1.7734250472719915
887,2.492131106710918,9.866316820006679,-1.561341959292823,-0.7278073806261641
888,3.40678806323489,11.89369418560443,-0.8161102265847127,0.4306884804473934
889,4.2572746333010105,13.907328864065462,0.09483840615047617,1.6408475259276354
890,5.021493164396584,15.81644436542499,1.1235385997782998,2.844397006026931
891,5.6954980029752935,17.53678696577575,2.205378641861277,3.9933838182913712
892,6.296419256418825,19.007768692590265,3.266403754479828,5.034735696382509
893,6.839624378292803,20.194486716339892,4.231152561969851,5.913338828847676
894,7.313455127200406,21.087155310179735,5.035226626873427,6.591151182139474
895,7.688453838935836,21.70489266851035,5.639484778153372,7.062911456801722
896,-0.43283408038394433,-0.2954516950087294,-0.4658428014855671,-0.02918588264507807
897,-0.844737372973298,-0.7696314771101251,-1.0385466092615467,-0.2319360740732941
898,-1.3989874589035118,-1.497048680210741,-1.8540878612175298,-0.5436522683179238
899,-2.06003341856981,-2.4954949197959433,-2.9089006824294454,-0.9862427757123213
900,-2.799985003243128,-3.7654714345561735,-4.181525536602205,-1.5919288128016849
901,-3.6073168793986086,-5.291991737239455,-5.635054390944338,-2.3698346276445634
902,-4.475627343235753,-7.042390192226477,-7.218455880083987,-3.299753735981864
903,-5.402077364522895,-8.967020337494098,-8.875029652971417,-4.354024747287767
904,-6.400575679361234,-11.010802759146365,-10.561235538181206,-5.516123066985511
905,-7.510057385207514,-13.126765335597375,-12.257213844948705,-6.777253951181278
906,-8.789354275781472,-15.287878558995528,-13.97066481706772,-8.122517616085684
907,-10.244055236950828,-17.445049974607294,-15.680139499974338,-9.523524449333173
908,-11.837335745120344,-19.547991121884984,-17.35809370144021,-10.945057518416183
909,-13.513497902648322,-21.552564384238586,-18.979149454481792,-12.365371885154762
910,-15.218536760599354,-23.413044788053483,-20.51958286682043,-13.776177608285012
911,-16.894107428722503,-25.071068775830454,-21.95067683261578,-15.156794200260663
912,-18.459088071100577,-26.464145174812057,-23.241423034766644,-16.45893224922079
913,-19.810894082693856,-27.544768630111243,-24.36939208843118,-17.62756262540982
914,-20.86642853201535,-28.29237128907949,-25.329448324955273,-18.63216610700853
915,-21.600598355213318,-28.716326743035342,-26.13194641612663,-19.462208934813127
916,-22.04009950734266,-28.851855396821986,-26.791001954960443,-20.09955833923885
917,-22.226192426854922,-28.74881163728757,-27.3140524173879,-20.517729284200144
918,-22.190520996425533,-28.457448482498965,-27.704921230174676,-20.722670174447977
919,-21.966531193815822,-28.021267302785567,-27.97524239012552,-20.774768430176913
920,-21.600830834348653,-27.474554315741273,-28.141913594316243,-20.753585352774614
921,-21.14741889619833,-26.831442358429666,-28.212743989165105,-20.71730260755531
922,-20.655049308294586,-26.079320989097965,-28.185979775457316,-20.692393590305297
923,-20.1568325202744,-25.197185947763437,-28.06389426993436,-20.691236394110973
924,-19.674870115207902,-24.179776172521127,-27.8564596877534,-20.727859220604532
925,-19.229653379271173,-23.04390090264797,-27.570723545717737,-20.801557174716326
926,-18.841828538892052,-21.82333871791729,-27.201876907626325,-20.875299334052908
927,-18.520763297271955,-20.564261674731974,-26.740312714503613,-20.88827562637093
928,-18.255464893935972,-19.326214382030578,-26.18589614772353,-20.80070103862656
929,-18.033074776618598,-18.179436022097857,-25.553274421403724,-20.62364717968412
930,-17.86746710622494,-17.193372596346084,-24.871736186628482,-20.404965770795236
931,-17.80482986887035,-16.42081409194271,-24.180448839353375,-20.1910976511544
932,-17.879645896007055,-15.879255823581458,-23.519256817242916,-20.002947638559643
933,-18.062820548382422,-15.540425915175682,-22.922604126629594,-19.852100158521726
934,-18.28041025208825,-15.34432737087637,-22.41985165184718,-19.76170911096718
935,-18.472764561895602,-15.231257011782503,-22.0335998482571,-19.749464670788115
936,-18.617223392192486,-15.158083857452295,-21.76989960803572,-19.794361432370337
937,-18.693952913413433,-15.095078122126157,-21.61815205908855,-19.838127884345322
938,-18.644330310638452,-15.024502924401103,-21.563455215374095,-19.82645901239964
939,-18.39675346666863,-14.939535982786252,-21.589653016379778,-19.7373131816076
940,-17.92879335436331,-14.832697082890277,-21.675599706327088,-19.575673182284905
941,-17.27097533670285,-14.68124478743293,-21.79783701516214,-19.348923950036774
942,-16.46841859878485,-14.45033581170038,-21.93559957159015,-19.050436385154793
943,-15.562914800324691,-14.107323699383526,-22.076223136183426,-18.679202578665855
944,-14.594587138329906,-13.627861091947862,-22.213801750266505,-18.258879023685065
945,-13.604327227993242,-12.997236230611549,-22.33793000153974,-17.819751144752917
946,-12.620900227197565,-12.208334540660564,-22.428892023407606,-17.368447450696223
947,-11.63664887291917,-11.258501079373138,-22.45707103956713,-16.87932546045547
948,-10.605328946081345,-10.15427773650023,-22.38915669861469,-16.314025133430448
949,-9.477190203716873,-8.918128439525447,-22.205019514707033,-15.649805010640737
950,-8.242740296787234,-7.587112191102895,-21.899731212481733,-14.890294717067277
951,-6.922195014861681,-6.202554298687401,-21.469850855077375,-14.044073044423767
952,-5.514012018422421,-4.796165813718619,-20.904763372476307,-13.106465253760701
953,-3.9973634246036385,-3.385634423599119,-20.189130242087522,-12.065467925506686
954,-2.3726847202582233,-1.987004582978203,-19.312649305874725,-10.91697505200297
955,-0.678722543683667,-0.625406207697202,-18.27819894019421,-9.679034590605166
956,1.0260929580962515,0.6698774339825047,-17.10155423218031,-8.384928131671991
957,2.7024599845290247,1.8742078535359894,-15.806012712776342,-7.064055406047853
958,4.324284559425618,2.968867541792517,-14.418815543938244,-5.7350447283765575
959,5.846315306972542,3.934424653622437,-12.971601298783595,-4.424632853929492
960,7.21114608961392,4.743753095129398,-11.50406525551322,-3.1856585981255927
961,8.370665198273429,5.365168058392474,-10.0631656253294,-2.07376925093012
962,9.290079958413997,5.7716914800676795,-8.694362268379006,-1.1235158833802659
963,9.948541756944003,5.948804940178461,-7.430117937863018,-0.3498536716449621
964,10.346418384969391,5.892999080371782,-6.285813922536233,0.23573178817780877
965,10.501821264565459,5.602781026433778,-5.265816360578859,0.6033741817984575
966,10.435670701282085,5.0820494009344,-4.3633957634336475,0.7257736658000271
967,10.161134908320385,4.353954015720427,-3.556435489597993,0.6226232081234262
968,9.691141952427872,3.467423388422141,-2.8153334782119233,0.3626483462034743
969,9.058402966567996,2.4877663817343345,-2.113863219379298,0.019382794189127833
970,8.312270851446442,1.4783766817077877,-1.4368137771476661,-0.36987465616647286
971,7.489739441958945,0.494374774020092,-0.7858551441386634,-0.7929140559326611
972,6.584281678831271,-0.4137003951235488,-0.17391175822443097,-1.226823090060975
973,5.560804972309039,-1.2042111650771847,0.3837409301342566,-1.6370309165295736
974,4.412853710110912,-1.8576637467192862,0.8696596334139415,-2.0089870364073175
975,3.1753244350410035,-2.3840918996678524,1.2650341241129384,-2.3646422625455705
976,1.8833353169615572,-2.8096625594682987,1.5553258439627466,-2.7390493957458646
977,0.5345405088058495,-3.1544700088524875,1.7362766920379684,-3.14384793701172
978,-0.8967033166835279,-3.4250101321739774,1.8162070423024077,-3.56427819003547
979,-2.4077903334573287,-3.623850082914279,1.8108870821175806,-3.98652771899171
980,-3.9561508702782797,-3.758151392238695,1.736764386927204,-4.405677143024762
981,-5.494602003127812,-3.838010815394279,1.6108110777257383,-4.807860992990028
982,-6.993586388036313,-3.8697234930436686,1.455828673500942,-5.148485974273769
983,-8.420777759455733,-3.853815632043954,1.298683524566853,-5.359098742660862
984,-9.718656002653603,-3.7935364317712117,1.1578579987350373,-5.398088137387467
985,-10.82023544040769,-3.6948868923119758,1.0392652238290117,-5.2791821534511625
986,-11.685273038480585,-3.5594897528019995,0.944658950715019,-5.037746529261443
987,-12.317466678191575,-3.3794871140466007,0.8793495483958553,-4.685930759688167
988,-12.732415165891329,-3.132766309672528,0.8548445975268215,-4.213411448079615
989,-12.925717832541151,-2.7972467207580247,0.8820690653919065,-3.621560339615858
990,-12.892324987905086,-2.3694800344473954,0.959940211720703,-2.938575943336241
991,-12.664205291692626,-1.8587611270211473,1.076235688661057,-2.208696549353723
992,-12.306074494109515,-1.2731431902170818,1.2179422116883258,-1.4726307765922277
993,-11.866927867514484,-0.6219264026025734,1.3753748582143208,-0.7553505366278477
994,-11.359550189655835,0.07189535501492911,1.5378239689095157,-0.07776836272290769
995,-10.788169516372612,0.7729816779487979,1.6872588755264906,0.5296146254055375
996,-10.182263308183195,1.4466755942729022,1.8006547978767993,1.0323289789254482
997,-9.58794250220604,2.067164386378176,1.8593396054992357,1.4094721216389985
998,-9.024579739836735,2.6197220760550297,1.8539860054684894,1.6654526618076968
999,-8.476698792345005,3.1036000503388412,1.7818592473068455,1.82248687664358
1000,-7.923656671762373,3.525743690034371,1.641167954499845,1.8990574182128974
1001,-7.365727343789688,3.8856279781720495,1.4316123650827313,1.8982235825085183
1002,-6.821394101273408,4.175304975029971,1.1594514728717824,1.822437804535534
1003,-6.305519975020121,4.38888022570574,0.8391975222956879,1.683701849063266
1004,-5.814129845129427,4.524354590572034,0.4894381110496153,1.4949915415404984
1005,-5.321759377132603,4.578647530154426,0.1254894410352932,1.2606765745045434
1006,-4.809588890653748,4.549412152304307,-0.24178879521364818,0.9689133876870052
1007,-4.286132242718445,4.447285902806814,-0.6031100241076525,0.6046647001609621
1008,-3.7717664781542424,4.2932836561679055,-0.949192339387735,0.17619065976511297
1009,-3.282705778933311,4.105063986116355,-1.267821057952446,-0.2793206494707677
1010,-2.824258718405342,3.8988894434192267,-1.5446510506778772,-0.7149733052042139
1011,-2.3974432100058216,3.693632525677837,-1.7673208029379932,-1.0944645398425554
1012,-2.0114412755838393,3.502790304979931,-1.925301498292436,-1.3856538467828445
1013,-1.6828700147910944,3.331866502404488,-2.0089961358650728,-1.5491995339750075
1014,-1.4564069934825992,3.183609751067845,-2.0180263948732886,-1.5500563042778726
1015,-1.283256436251311,3.057114084217556,-1.960213798503071,-1.3742467618056637
1016,-1.1297790832094483,2.945193076233024,-1.8518767982386093,-1.0463255323569407
1017,-0.9758157647337398,2.839146798936552,-1.71136627342565,-0.6039406886469694
1018,-0.808997619757592,2.7414414547985104,-1.5569692092587801,-0.08452320493606877
1019,-0.6198871107923106,2.6633025100545353,-1.407193895814028,0.4700853872227188
1020,-0.40312036070917706,2.608856055089297,-1.2787536215638364,1.0042492930084663
1021,-0.16507163524152962,2.57312456144425,-1.1828074128914392,1.4559162974171866
1022,0.06903806062726534,2.5500542010023786,-1.1214725249695479,1.781624203115464
1023,0.26555987674452264,2.5359722746853697,-1.0884637172847915,1.9812605429344992
1024,-0.2885566460712702,-0.12792372027996446,-0.4394687623390538,0.03370967643589878
1025,-0.7312634503313475,-0.5430728892899729,-1.0790259611986273,-0.22447126894978414
1026,-1.3863076285661904,-1.1792713371607222,-2.0245273508962187,-0.6582026311210263
1027,-2.2324263742235746,-2.0407512111387067,-3.2937225009651985,-1.3021178923585603
1028,-3.254367241425393,-3.110931694135841,-4.876520392611766,-2.176172857464562
1029,-4.439155813281919,-4.350780823976453,-6.725630455537609,-3.2663413114940014
1030,-5.744876860103365,-5.6948686102143835,-8.755678183911686,-4.524337957636562
1031,-7.09984982617346,-7.065065904160163,-10.85928667249307,-5.882431523000987
1032,-8.434133651990079,-8.401620631256593,-12.933061192252632,-7.2671898940376645
1033,-9.71222450584224,-9.67461899762274,-14.902564640058895,-8.610088709580095
1034,-10.941937672503174,-10.880392492756357,-16.74542348489536,-9.855318018163903
1035,-12.108030265284745,-12.026362867645428,-18.445080880621695,-10.974388159839624
1036,-13.189842806772251,-13.119627493414304,-20.00500269413899,-11.977352017032436
1037,-14.188380666391929,-14.156360074161059,-21.435941758413882,-12.891249440066527
1038,-15.124849654006114,-15.119437765610536,-22.748094773231976,-13.734545282176411
1039,-15.995294915146443,-15.983643751295212,-23.950973832091673,-14.510040200987763
1040,-16.746952695516985,-16.727898746374628,-25.050412808715205,-15.212569042170163
1041,-17.317942308504243,-17.334825576422205,-26.042791339322772,-15.838194176321078
1042,-17.68962374574668,-17.79294193402686,-26.914959937160273,-16.387728233940773
1043,-17.887560585767694,-18.113972934985156,-27.64932565812557,-16.85832228726042
1044,-17.946098401486243,-18.330082578252494,-28.228744378739908,-17.237822395656675
1045,-17.887655430338526,-18.470681411782085,-28.64352325899284,-17.517644971458342
1046,-17.72725266720563,-18.55877010092677,-28.898501279846045,-17.704483035434627
1047,-17.500023196135736,-18.623794424506283,-29.014074110159957,-17.820172197069844
1048,-17.266611056063365,-18.691817682098776,-29.015480606247127,-17.88619783222022
1049,-17.074781697705934,-18.757878575743806,-28.918876429947105,-17.908474224586808
1050,-16.935036991316593,-18.791121421451404,-28.72882004302156,-17.881946592954243
1051,-16.83434783334001,-18.766067852386904,-28.44517445586374,-17.80879299305959
1052,-16.760679529902564,-18.67217272768814,-28.069229454852817,-17.710120877768258
1053,-16.707658277627274,-18.507935429276788,-27.602297514570825,-17.608131925564372
1054,-16.666646382190983,-18.280244670884613,-27.044041985827143,-17.50539385392585
1055,-16.623649271108754,-18.007012796039657,-26.395727903641816,-17.390750236073103
1056,-16.559521979769546,-17.713894129199016,-25.662797332709676,-17.256917812432537
1057,-16.462522886487992,-17.42357603736103,-24.85457192201886,-17.116353966845477
1058,-16.33952179165296,-17.150224369869207,-23.98233507856482,-16.98762841147955
1059,-16.21102173157258,-16.895992308731866,-23.05583536904219,-16.86174981811716
1060,-16.096953807521352,-16.6419245898098,-22.077867502154024,-16.698317123318247
1061,-15.998657638078738,-16.35535600901389,-21.047952434868666,-16.459758834389447
1062,-15.901935094178253,-16.01833108045038,-19.973909855116055,-16.145014706703673
1063,-15.798247631270796,-15.635269355974534,-18.87335401999721,-15.783367768526686
1064,-15.689724716660427,-15.213076557078502,-17.76765144226031,-15.411380049921624
1065,-15.568670487220938,-14.755693598806747,-16.67803256488401,-15.060996353030921
1066,-15.401279733346007,-14.27658914826028,-15.625826928775457,-14.761754956566287
1067,-15.147978868901149,-13.797732744091885,-14.633395141232965,-14.54430419324598
1068,-14.788483710832333,-13.33330572608747,-13.716401319047593,-14.416030304399245
1069,-14.326350740409978,-12.880220076471675,-12.872587658967293,-14.329564438620986
1070,-13.775815192986467,-12.421227807549728,-12.084738209781984,-14.189772913048207
1071,-13.135025326869748,-11.933947180304123,-11.33229836636891,-13.903855114617262
1072,-12.393961409417225,-11.400324910453895,-10.600298102362109,-13.425362543398768
1073,-11.577046212537057,-10.815398786581657,-9.887227442399725,-12.75200909072796
1074,-10.756517389142457,-10.195619800758175,-9.205753425197118,-11.90102267363568
1075,-10.009065474878579,-9.573829251084733,-8.574767478445905,-10.89847194594113
1076,-9.362617374545797,-8.984531488005333,-8.009671422991227,-9.797529130633395
1077,-8.804467782786508,-8.458100700269974,-7.518614309306889,-8.687865693306405
1078,-8.331203734155256,-8.018235092085959,-7.105436243844901,-7.665332991042619
1079,-7.964352845080655,-7.671341820463409,-6.7680684189820965,-6.79617412719379
1080,-7.7139864740934145,-7.394968256299996,-6.494699727547104,-6.110627942249312
1081,-7.54647575108877,-7.150730190998237,-6.26989298203227,-5.620054277905597
1082,-7.405698794970207,-6.913587251658194,-6.084122711835305,-5.3229086294867205
1083,-7.258442106979646,-6.67849942126066,-5.933689485777895,-5.202702938535229
1084,-7.10665128917926,-6.45122498256651,-5.814445271528015,-5.221878870011001
1085,-6.956979834687555,-6.244579969255984,-5.7220449248310965,-5.320678803101355
1086,-6.801091419495296,-6.078025903543925,-5.657396147586553,-5.4432390312175585
1087,-6.63027842351272,-5.973902819678027,-5.6293233940732,-5.557861878677786
1088,-6.459461604048737,-5.9496170078019235,-5.654179619210444,-5.651964169354292
1089,-6.325975327480763,-6.013797004616727,-5.749639692395432,-5.710162062801229
1090,-6.24866626780007,-6.160126552516349,-5.921731124203923,-5.7029959329668936
1091,-6.2033676298203915,-6.357094345171205,-6.1597378133756155,-5.606906305683347
1092,-6.141597196480044,-6.556342609019574,-6.449386889035154,-5.421777997238973
1093,-6.0277362996578665,-6.714763684526464,-6.7864614838151365,-5.166515786758709
1094,-5.850821186141073,-6.805510999868617,-7.172966716057699,-4.862318347725995
1095,-5.5978745662335525,-6.819856884075842,-7.606286119578818,-4.528466083301745
1096,-5.243911222301687,-6.768857016928447,-8.076483777199277,-4.18989124836291
1097,-4.770089809160841,-6.682293071191333,-8.568925083173353,-3.879517609409434
1098,-4.1904332595810745,-6.597328200350229,-9.063372026770349,-3.6407865419690424
1099,-3.553341444795994,-6.540650732347441,-9.531084456769012,-3.517761429736183
1100,-2.905644617502454,-6.5215840924085065,-9.939207373664665,-3.5359169316516064
1101,-2.2729646793736316,-6.5345410663266374,-10.26192854692131,-3.693739713040276
1102,-1.6650653987041713,-6.561960294047316,-10.484691558224515,-3.9757329671462687
1103,-1.095101644369264,-6.580677354516267,-10.600093426950366,-4.365313580479735
1104,-0.595074378470096,-6.5690837468332,-10.60332925088648,-4.831577453470248
1105,-0.19882137310352452,-6.508575453126853,-10.485528427977169,-5.313767070568465
1106,0.08412874188317908,-6.382572768999269,-10.2353414335572,-5.731917929037961
1107,0.27230026696565834,-6.186616066771802,-9.852025826455218,-6.025145518608028
1108,0.391235417029674,-5.944518434479585,-9.349834223554165,-6.175214516093222
1109,0.4540149511826767,-5.701877685897943,-8.748864921651482,-6.190918113674357
1110,0.4599987786252977,-5.495418352693623,-8.063107154363669,-6.0869542215753745
1111,0.41612193603393727,-5.333004718474779,-7.298813109407095,-5.876173832122096
1112,0.3562914969835137,-5.200929388864646,-6.463317261437136,-5.576773427773227
1113,0.3235308714992131,-5.078066792861243,-5.56850037241218,-5.220027063651593
1114,0.3385701917722787,-4.940874060929036,-4.628254208942959,-4.840641464786259
1115,0.3892797168945076,-4.764858183750199,-3.6570647542486565,-4.454400015530882
1116,0.45291828809047785,-4.530402060053029,-2.6709024854443673,-4.047160724377692
1117,0.520830153362111,-4.232800773311228,-1.6901171439763554,-3.598589575404446
1118,0.5913403160072672,-3.89092381676765,-0.7400997490029463,-3.110636979320912
1119,0.650438287538188,-3.543586249138477,0.15287577222420023,-2.600126800434474
1120,0.6670231723159373,-3.2291907636667254,0.9664531993423743,-2.0695227540921763
1121,0.6237540024920367,-2.9624613961129374,1.6846342480924565,-1.501191489420515
1122,0.5429602291959948,-2.7241950340210273,2.2993054665918344,-0.8855204201058335
1123,0.46578945349753,-2.4745733480122585,2.810099023107871,-0.24103633642698435
1124,0.42305134042613857,-2.1745928472712435,3.2230232476507528,0.39705517049613354
1125,0.41734669290816173,-1.7876668399452984,3.549074126007141,0.9986611975825231
1126,0.43824963262767824,-1.2759791348149396,3.8035311156484592,1.5460975395307794
1127,0.4965780057875868,-0.6217084354447916,4.002395283665261,2.0233268051183164
1128,0.6160482050728033,0.14878399313045082,4.15537202848728,2.4059002041468713
1129,0.7880282890347023,0.9755562174491669,4.2644804442634605,2.6663780291374484
1130,0.9531248712529097,1.7917909239538283,4.327770230549968,2.794745819818442
1131,1.044883093796803,2.5393419863187465,4.344300533477401,2.809943629226286
1132,1.0354183733953348,3.181505926363703,4.321602494289077,2.744955236661734
1133,0.9282031578726099,3.708510986985885,4.279523377097676,2.629456624695636
1134,0.7242162370900441,4.131518230412194,4.24767033855556,2.489581321540974
1135,0.40848287871085415,4.4764415076395405,4.261773508956379,2.3620599485148164
1136,-0.017459946654405555,4.782083779066741,4.360650473914835,2.2928577452450707
1137,-0.5024924889710997,5.096969877004841,4.580352942714811,2.30991086955902
1138,-0.9665686963155994,5.457813784897257,4.9418286998774725,2.4117347737721433
1139,-1.3505455378761186,5.867137981124157,5.439137266762437,2.5828380649160336
1140,-1.633579423355573,6.30262237918753,6.039273532596926,2.8098340024149056
1141,-1.8096427411008282,6.739433374616486,6.691483649338088,3.0805898514893446
1142,-1.8681293407337327,7.16130024803041,7.350934618412583,3.3983372809456913
1143,-1.8221125316794087,7.522671034394246,7.93809188485419,3.691589297811119
1144,-1.71601147510954,7.785908101671432,8.394549397408857,3.907624622744836
1145,-1.6138042827145873,7.940851853415393,8.690795267288172,4.02241746180169
1146,-1.5549777008892214,8.003432157794093,8.82809369048494,4.039811988803753
1147,-1.5398087229739652,7.996737813962528,8.830199299263208,3.9768237480224315
1148,-1.552709024589754,7.942822445807233,8.733595762887667,3.850263811672964
1149,-1.5917961071731646,7.859348039806039,8.579218924107654,3.677567881328089
1150,-1.663936754239152,7.760431248905685,8.407255059360425,3.485089850204501
1151,-1.7573694438504077,7.66589710766756,8.254431633284815,3.30529226622014
1152,-0.2839014887610316,-0.18018631551303949,-0.4346523339468675,-0.2884962286260274
1153,-0.702885187848181,-0.4792711779467645,-1.0086155093027505,-0.8052679237200164
1154,-1.3146600915204871,-0.965195971989858,-1.8373319554444982,-1.511347139193226
1155,-2.120830720968111,-1.6745158904983921,-2.9243252326214124,-2.3945561665762694
1156,-3.128768567635494,-2.6318472224540677,-4.256282513320477,-3.429462205523687
1157,-4.340820678263822,-3.835563807699454,-5.8016939264058145,-4.571178693909246
1158,-5.725020878017961,-5.254232428615957,-7.510316159549296,-5.766473931506052
1159,-7.215449615694643,-6.831645288481373,-9.320640524445661,-6.981556315672131
1160,-8.746060358398864,-8.496011420585164,-11.168840745274297,-8.207842079406632
1161,-10.285957001794118,-10.173482012650888,-12.998245589043517,-9.446955847794921
1162,-11.841842305035307,-11.806088844206311,-14.780421360767248,-10.70771709678733
1163,-13.385321434771216,-13.331603996091545,-16.47521873684798,-11.994833961545512
1164,-14.866464494113703,-14.698601563776297,-18.050716690070956,-13.314468953156652
1165,-16.2504209786793,-15.87770318438806,-19.483122393332906,-14.653766220055722
1166,-17.534005481138333,-16.872535506710836,-20.75912964048646,-15.964227422147113
1167,-18.719412687257535,-17.705913610494058,-21.875878709995074,-17.176138785077267
1168,-19.784008218206438,-18.398583365759364,-22.837490323127685,-18.239191019168885
1169,-20.69100500943507,-18.966432724146376,-23.655050467523754,-19.145385258067535
1170,-21.416557569802308,-19.423948780764785,-24.34656217569534,-19.908222598360382
1171,-21.96189837340827,-19.778419143945662,-24.930019675753197,-20.532368631058546
1172,-22.3344637043601,-20.02294990880414,-25.414236239236285,-21.008755235045786
1173,-22.520450371717967,-20.14506177555876,-25.799589436832594,-21.331737726483393
1174,-22.501897574031513,-20.144128940120364,-26.09009758041485,-21.511222434180706
1175,-22.30058593792592,-20.036947813682595,-26.30098331333795,-21.56424550200072
1176,-21.98228580644923,-19.854577159822874,-26.45275364480997,-21.49566203742287
1177,-21.60847783293098,-19.63823979471974,-26.56289851154736,-21.297944204442715
1178,-21.198518154529,-19.42965768945362,-26.64752118807638,-20.97573643542922
1179,-20.749404801853785,-19.259522453769122,-26.72429617936064,-20.55418274937439
1180,-20.277515439467994,-19.14330586463811,-26.807816166067546,-20.060044513110544
1181,-19.818251260538197,-19.084697721967817,-26.904638197134144,-19.501108431576192
1182,-19.384685820288958,-19.072771176401872,-27.008753486292665,-18.86965326078966
1183,-18.953462650838425,-19.071330066291655,-27.097426934452347,-18.166910129938277
1184,-18.49794845364983,-19.02832536270108,-27.13859364028453,-17.41696936413074
1185,-18.027362479898226,-18.904848899159138,-27.107870874723492,-16.659586217975875
1186,-17.58662945922605,-18.685615187644437,-26.994113769501613,-15.932587051730673
1187,-17.220382002087337,-18.372310487593765,-26.792451749473873,-15.26511732241846
1188,-16.949411839498115,-17.982736796482175,-26.500731453586827,-14.68294612720584
1189,-16.770518174965165,-17.55289485228324,-26.12329147669017,-14.209317000145106
1190,-16.67302479514253,-17.13486909469618,-25.6727662865238,-13.863852177448035
1191,-16.647784173776106,-16.780549305113034,-25.160852237912746,-13.650105495647061
1192,-16.673200732647857,-16.519427411184978,-24.59115416336645,-13.535614308625192
1193,-16.710303234572347,-16.351282491061433,-23.96419158778505,-13.450832839271886
1194,-16.71914724256065,-16.24993439109479,-23.284770365036643,-13.319091786638502
1195,-16.676434137174393,-16.170113966049797,-22.56336371377663,-13.098573639866451
1196,-16.568764563538828,-16.05937904449384,-21.81096415014037,-12.785745346622441
1197,-16.370411232837697,-15.868659136928477,-21.036828772175635,-12.392249878328553
1198,-16.04302642790315,-15.557504608778727,-20.251513144283727,-11.936424292516492
1199,-15.551758282942524,-15.105065430147349,-19.47075886881498,-11.450770965054058
1200,-14.876680298141876,-14.523758148795489,-18.718390319195716,-10.993327034853182
1201,-14.01079666552489,-13.853865930641055,-18.02152082669705,-10.63157580584396
1202,-12.954622984373845,-13.140616344399783,-17.398652959063114,-10.403888675241005
1203,-11.70768141987402,-12.41902365295536,-16.850365530551,-10.299252402297508
1204,-10.255709007132824,-11.71549850247618,-16.36486399896709,-10.27702240543389
1205,-8.589316555986164,-11.052734588197334,-15.93196499624231,-10.305625404310025
1206,-6.740502031471155,-10.443595846838047,-15.538840063037858,-10.364904156917156
1207,-4.7987771597110775,-9.87983425920015,-15.154241369600705,-10.42319024334029
1208,-2.8753360900208977,-9.338108334868792,-14.726484147310236,-10.442093605448326
1209,-1.0374146355928415,-8.800595167741777,-14.201730621608055,-10.3991327743945
1210,0.686737671275601,-8.262232075988003,-13.546906448565522,-10.300542184669258
1211,2.2465723978444205,-7.72303061820875,-12.759128831780775,-10.17695250082894
1212,3.5483185723444963,-7.193065444788547,-11.831994715297142,-10.057243563688962
1213,4.486474692849968,-6.703838092963312,-10.699675492836255,-9.96870573666121
1214,4.965274215029903,-6.2945796917870735,-9.252301044829409,-9.995095798577005
1215,4.947321273106913,-5.987730557679442,-7.437673309756372,-10.246203451548284
1216,4.537344571317053,-5.7734189937902665,-5.349767070146931,-10.722278751361939
1217,3.9619514800059505,-5.607086934479653,-3.2070191130633985,-11.26264615436565
1218,3.42302335300317,-5.42436744017429,-1.21738817205198,-11.64309390794328
1219,2.929084265510346,-5.160268440891721,0.5556329338794845,-11.77992162503882
1220,2.2678845076497494,-4.753638972685728,2.1606752510386755,-11.837908216390424
1221,1.1194735300647638,-4.145631739070719,3.6343397852503196,-12.102073624974722
1222,-0.8213974668657859,-3.286070120638266,4.967029530968382,-12.79727851045113
1223,-3.727440006181836,-2.1373393322816865,6.121041945710009,-14.011937677125697
1224,-7.544147401424062,-0.6948468061495978,7.028760154506956,-15.682351203448498
1225,-11.982963950273218,0.9834723559974545,7.59452378208297,-17.595777522332448
1226,-16.631835690812693,2.777322160419245,7.719324538618023,-19.419263233235636
1227,-21.08855760430459,4.524571480799426,7.332595712275879,-20.786262053403288
1228,-25.00083380123343,6.0676030650717925,6.41445964528332,-21.40484047735686
1229,-28.067211680437417,7.321769959786482,4.982634082902898,-21.087347148543405
1230,-30.081745090627297,8.321553602231315,3.0563438308669983,-19.753388217919838
1231,-30.996045386776963,9.184296475446018,0.6775104761484689,-17.454160057263756
1232,-30.936323825926873,10.016454501065716,-2.016206816002723,-14.380120989076266
1233,-30.172670858776495,10.909061180337924,-4.784064031302005,-10.872003312487687
1234,-29.029578969031828,12.017749843302086,-7.394029287108095,-7.350034302384931
1235,-27.742216053421373,13.54324911766254,-9.75951679642801,-4.130720396401877
1236,-26.342586861978337,15.622729010840267,-11.975170938297644,-1.2709520045338691
1237,-24.65776626375213,18.296536197595014,-14.20512168173229,1.4587764505660872
1238,-22.436361597046233,21.531248249623076,-16.52134070649417,4.4117009090191415
1239,-19.459142185483184,25.232958057473706,-18.88565591690707,7.86528015403862
1240,-15.591504567957024,29.286123102761024,-21.22725476415221,11.958784496280904
1241,-10.854745455762675,33.61860278376236,-23.46381748930119,16.68129609739194
1242,-5.444734954300637,38.23614537862012,-25.489264474716258,21.868154846461064
1243,0.3785840276834034,43.1957683800462,-27.183273711519877,27.262426333950174
1244,6.428489293113115,48.55937873616895,-28.444970327650545,32.60272851737394
1245,12.62019977953889,54.361102312173024,-29.234371485770684,37.68901876023126
1246,18.90301618257083,60.57334223216785,-29.60003508420219,42.38349025644094
1247,25.19490548351954,67.10023445349566,-29.648355177322813,46.568952545503414
1248,31.381060264522112,73.81683284033251,-29.486742209265874,50.17339503762375
1249,37.331418634505425,80.6062469009972,-29.193413484495,53.18811116278428
1250,42.90373293201295,87.33764326476756,-28.80695759707686,55.619876887918544
1251,47.96169676899059,93.81413233559665,-28.325385295018098,57.46970175266224
1252,52.42560677811741,99.81424392611397,-27.71125515116924,58.756459168807915
1253,56.28538199094455,105.2052781262048,-26.90779860707883,59.54065295729664
1254,59.54107135677068,109.95117034510069,-25.86270303538212,59.8989782657063
1255,62.169000920991365,114.04109864338443,-24.552570920558278,59.883234892985826
1256,64.13221510762007,117.48153856954357,-22.98534236844274,59.51378968659264
1257,65.3909563762522,120.30293531592972,-21.17572434805385,58.787439831983306
1258,65.91535396326846,122.53385178573437,-19.129517236923817,57.687634902693
1259,65.69736779564141,124.20054856710058,-16.853740657961,56.19053411069769
1260,64.74929416931805,125.34238027158347,-14.373232809874002,54.26284815885429
1261,63.0888100211531,125.98782332041792,-11.729815379142343,51.86176727591035
1262,60.73940774949693,126.11931269733542,-8.96833880447649,48.96271332268715
1263,57.75690670449402,125.68345828993834,-6.123885767260714,45.60765051173647
1264,54.25380917564216,124.62780500724193,-3.228283760842238,41.91865101289382
1265,50.396611014820664,122.91679304521278,-0.32957278926644196,38.063454071457485
1266,46.37155021552789,120.52827658106162,2.5105318223446167,34.20794773099858
1267,42.35198112794122,117.4528151583136,5.231934095379424,30.49032020377246
1268,38.48320630011202,113.70401550404053,7.7840704368559654,27.01147514314226
1269,34.86938294712526,109.33154480709533,10.13087341967923,23.81849671814212
1270,31.618160556067377,104.74456159884755,12.217778101296743,20.961422858868744
1271,28.59674761449036,99.51403288417332,14.120336209585775,18.241440046467112
1272,25.737734565076764,93.56606802836872,15.883190121142711,15.561672814686842
1273,23.036775107782315,87.06594861075571,17.531091138508003,12.917290701398775
1274,20.53330754613631,80.31127457198865,19.063876538668584,10.354102634662306
1275,18.285242235108765,73.64779509415466,20.459123549477056,7.940011388476831
1276,16.345715660011116,67.41340943683609,21.685357094094613,5.756197574961555
1277,14.750647585030906,61.907349052072135,22.711942752382136,3.893098467375653
1278,13.516681012368695,57.36907926024488,23.51451355804776,2.4344367059354486
1279,12.644108923014945,53.95248090701324,24.08326726246517,1.4274475623650014
1280,0.12046643447611217,0.060626939867141474,-0.45141712853367416,0.00739699752532641
1281,0.15379423576049436,0.0840170988595948,-0.9415732600973465,-0.1659277212701529
1282,0.09556627733178652,0.07375757971729197,-1.6210174914177444,-0.4615051870327361
1283,-0.06630396079881887,-0.016429023738319892,-2.4918610263904486,-0.9186394895724201
1284,-0.32920881457104134,-0.22668893176218946,-3.5384496567776313,-1.5710496957838462
1285,-0.7009122294345995,-0.5861491644229848,-4.726431445271827,-2.4224208807927616
1286,-1.1983148826220773,-1.1219253717730708,-6.007815598931322,-3.4482239540666173
1287,-1.8247140452263355,-1.860967672224704,-7.328781247235995,-4.628192877439216
1288,-2.564678101693,-2.824768299188274,-8.639103460359085,-5.947792558707689
1289,-3.3951924063145262,-4.022387268525918,-9.905392952517323,-7.3704364301409075
1290,-4.289750187696382,-5.448081094642052,-11.128865180318735,-8.835752034287662
1291,-5.210561831246407,-7.084881368673447,-12.297501856170888,-10.288250100488684
1292,-6.12077319628423,-8.915186793593213,-13.39990355686302,-11.701316237500116
1293,-7.016533015126963,-10.923106653503979,-14.426104385794842,-13.065678772903413
1294,-7.936631122559561,-13.08277406506403,-15.370499144826459,-14.370419934319372
1295,-8.930983913360961,-15.356977495697695,-16.234852497168102,-15.606300112720882
1296,-10.014694447937476,-17.718178939019683,-17.031589223802243,-16.77759048263634
1297,-11.155151276150324,-20.161008786791935,-17.783899231215713,-17.91032968687838
1298,-12.307408951348577,-22.679685263160582,-18.516525477613747,-19.03853028518954
1299,-13.466573857700588,-25.246823409329284,-19.242655755775893,-20.17368661299033
1300,-14.659897013214309,-27.82009207333166,-19.96181314503233,-21.295252605126
1301,-15.892984886544255,-30.36015001878847,-20.667568643558567,-22.37524483321298
1302,-17.131588496974818,-32.83327509136426,-21.349378340532002,-23.40810749393744
1303,-18.32617910443035,-35.198317206008134,-21.99106838689721,-24.403648413510123
1304,-19.456636559886434,-37.41094258157612,-22.571969075404695,-25.347782800435052
1305,-20.529699388024742,-39.435388119979685,-23.068126032100814,-26.193073455933558
1306,-21.533884095066345,-41.24121315108839,-23.456290318732496,-26.907407903048483
1307,-22.43709901941171,-42.8092847396243,-23.719203343903782,-27.508016704725026
1308,-23.221451848321205,-44.149199137086875,-23.850371484564295,-28.028281867913506
1309,-23.901568880944293,-45.29644315350508,-23.856969331150104,-28.47617754089828
1310,-24.49569863268791,-46.29353277101912,-23.75673814923463,-28.834019086853317
1311,-24.996153823246853,-47.17894989764783,-23.57377698881293,-29.08820436617709
1312,-25.386274399290812,-47.984562993706696,-23.336746036162225,-29.246292161332352
1313,-25.66722650355388,-48.72605535710598,-23.074435595267,-29.317530603857474
1314,-25.867158585848127,-49.386688477631516,-22.809026282608553,-29.28969812173271
1315,-26.019906556066022,-49.92250686238655,-22.552525809581105,-29.132638387564374
1316,-26.126479669460696,-50.291890886680264,-22.30958657627876,-28.821082201528974
1317,-26.16092629502335,-50.472013218825346,-22.08124206249353,-28.348918937792156
1318,-26.11186402484834,-50.45096040463503,-21.86507584287092,-27.721658825879334
1319,-25.99173996307101,-50.21928591272756,-21.65460213081856,-26.940664455650637
1320,-25.809030129647525,-49.771105466785784,-21.440674327254055,-26.00617916274294
1321,-25.541678161860947,-49.11036230238737,-21.21356748895829,-24.938127678425126
1322,-25.152609740279726,-48.254780138520964,-20.967834561373067,-23.781640444327497
1323,-24.635916656851354,-47.234992868445985,-20.70708183275676,-22.591074346687456
1324,-24.021149124846563,-46.0853785595068,-20.439051543656376,-21.402452394778873
1325,-23.335260300466356,-44.82636068014674,-20.168015792609356,-20.223042647642668
1326,-22.585157093065323,-43.46800631928017,-19.89143480538753,-19.048938584913415
1327,-21.77313677703191,-42.030952778958714,-19.600610711917025,-17.876786421938682
1328,-20.924156911367348,-40.54440355220923,-19.281176684582764,-16.705902285915787
1329,-20.087633610992626,-39.03084712955465,-18.910596836472024,-15.537595580382755
1330,-19.303373953935264,-37.503980366954124,-18.463158060957515,-14.379445046335691
1331,-18.57920989560966,-35.97612952977958,-17.92218384695488,-13.257910539080275
1332,-17.90164281210086,-34.45903969369695,-17.286598697517224,-12.221169864285018
1333,-17.264852379605866,-32.95804668429551,-16.568326358603546,-11.33288422419562
1334,-16.678603421491303,-31.473857913086672,-15.785879634914433,-10.651921628086692
1335,-16.140758282427115,-30.01203043286659,-14.958835515858231,-10.198962960947386
1336,-15.629042681463293,-28.588076632742478,-14.103437151389626,-9.940979821269488
1337,-15.12005690361552,-27.218228190981154,-13.23289796817793,-9.810503515512783
1338,-14.607717373006757,-25.908607131919503,-12.360511839277924,-9.737379156477092
1339,-14.1085111424593,-24.65959145880831,-11.497550682654127,-9.65873841122835
1340,-13.645552932379198,-23.464869050548522,-10.647150512373974,-9.513473835129707
1341,-13.234371966971821,-22.296362928461182,-9.806202107135206,-9.252797021552464
1342,-12.87785035754374,-21.107006703001396,-8.975977055236935,-8.871482055825817
1343,-12.567715729345155,-19.85041256699222,-8.164953045506508,-8.423664480583872
1344,-12.2920787462855,-18.491378693280208,-7.383606880541532,-7.995655098909315
1345,-12.041021987088032,-17.010265730363983,-6.640123827230137,-7.6557139081765975
1346,-11.801026076270675,-15.407084176268167,-5.939468378717996,-7.42158123580018
1347,-11.54584629242532,-13.700555001831127,-5.283847814169016,-7.278531637505845
1348,-11.254679160702482,-11.921438801150915,-4.671409648206691,-7.22011595588938
1349,-10.93652698730968,-10.108290218382914,-4.09633415485557,-7.239839551241213
1350,-10.626685314095083,-8.305823924733897,-3.5523151586786548,-7.292462570050485
1351,-10.358154994912868,-6.553574085581735,-3.036008894195714,-7.302615306419069
1352,-10.135396517698886,-4.871471284415872,-2.5485299418898673,-7.218755070407777
1353,-9.946263907150055,-3.262802928344683,-2.096255086351429,-7.049210750733887
1354,-9.788204584044752,-1.7264315169717597,-1.6895937965845924,-6.8387456897856795
1355,-9.674486965927377,-0.25918799987550467,-1.3340473974326408,-6.619476785418903
1356,-9.611250006249717,1.1477104324761433,-1.0198352759117688,-6.394361187384261
1357,-9.570211791701846,2.504609412774536,-0.7309093671964966,-6.163469737534425
1358,-9.504412217374286,3.809551625591813,-0.4643113238431353,-5.949919947814852
1359,-9.39324092197429,5.04813595369484,-0.22829304067399767,-5.78115496760472
1360,-9.268948544209348,6.210584642360912,-0.02910657334123581,-5.659791498011857
1361,-9.183373320128725,7.293252212253526,0.13004313142645552,-5.567807420310281
1362,-9.149798346271744,8.28774639531693,0.24207675116716254,-5.492956340315933
1363,-9.141684082138099,9.177731342785576,0.29222179330014814,-5.446106259346482
1364,-9.137299362290618,9.940022406263132,0.265097869589884,-5.441425983089875
1365,-9.143880229088142,10.549857685610386,0.1552081506103684,-5.4572412748336125
1366,-9.16657248249837,10.991298268738666,-0.028850585956116597,-5.440414493166674
1367,-9.17462066134928,11.267884861309831,-0.2646930208592402,-5.353872905933537
1368,-9.123103672034429,11.402939236316193,-0.5195619822016757,-5.186375437402882
1369,-8.995276828978547,11.425034338677573,-0.7559086666669136,-4.925099460851303
1370,-8.809874651272093,11.356438485617888,-0.9383747331687224,-4.542856048719696
1371,-8.588140074533465,11.217325047921058,-1.0407968338898441,-4.007703637867201
1372,-8.334134059691268,11.03120712225327,-1.0514169707934984,-3.3123453880942986
1373,-8.049652705689327,10.817407060523509,-0.9759544841723896,-2.486728901418203
1374,-7.753462519695605,10.580095754590026,-0.8301493518722756,-1.5791674315962019
1375,-7.472547569879321,10.314336488121313,-0.6228432035804066,-0.6299203858145597
1376,-7.209313150512731,10.025973640629255,-0.35730924046211426,0.33430086414517035
1377,-6.932651554827015,9.742703780655027,-0.047875781684589114,1.28154925002701
1378,-6.6052102276278895,9.5060352405012,0.2830147991579412,2.175483342486339
1379,-6.2242116195311485,9.357427434712374,0.6210907156760122,2.9929178566324475
1380,-5.823018693544586,9.33041588362257,0.9645876063526253,3.735512194028732
1381,-5.4190488650006055,9.446722269266674,1.3193087273529414,4.428964854516768
1382,-4.985185464519498,9.714920924267041,1.6953132881337312,5.105554793164072
1383,-4.482074763983061,10.1285827091172,2.1015160985723544,5.785995882358433
1384,-3.905519119582988,10.663085275721912,2.5352810795893,6.469544847838073
1385,-3.2837369808194192,11.27733528182059,2.9812724305625316,7.137471910818241
1386,-2.6366545086434137,11.928219137984032,3.4217805191799058,7.766623891335491
1387,-1.9613027935025276,12.588107713863998,3.8441504168840552,8.34462852128726
1388,-1.2457087380119831,13.245758095396981,4.239975024935256,8.861777498874707
1389,-0.4874852425411149,13.896627460558449,4.6002847374716245,9.289389526576267
1390,0.2996352846465505,14.546678025591918,4.912422313628271,9.590083620031654
1391,1.0946275272001242,15.224372427471899,5.1629150790672345,9.7465701713334
1392,1.8812250867298914,15.964208791076823,5.345105201305463,9.777481113396133
1393,2.6576820736411895,16.7697301870662,5.45912982771911,9.72078756158923
1394,3.4288092093842866,17.605155919229357,5.503569935990371,9.602703983638673
1395,4.185205093701235,18.41833736439284,5.4751002408771585,9.433888474504563
1396,4.898562012966239,19.163706523081224,5.375276597630057,9.223941008393226
1397,5.543948080361376,19.809753589640593,5.212345493248033,8.9919535520262
1398,6.120644345348308,20.352161827011688,5.004611170613048,8.775849708183854
1399,6.642551357569094,20.752547238207885,4.726490511542492,8.508362213660554
1400,7.105094345651055,20.99506170661129,4.3734457255112895,8.16063037423506
1401,7.509491143238788,21.08469359950779,3.9632003177469133,7.740004956585332
1402,7.8658993022955785,21.046807766036565,3.5279186437090275,7.274765105296303
1403,8.180818838914686,20.920239908469163,3.0989216062004203,6.791735085434822
1404,8.453278526295552,20.745498261649416,2.7002221999890668,6.3055407229420455
1405,8.678776948889244,20.558716766453422,2.3510350581928607,5.830283562825161
1406,8.855243415484086,20.39038349337703,2.0682227928977723,5.400908452560558
1407,8.987577159518253,20.259524036969072,1.8632689321268845,5.063374815528671
1408,0.20614679531904684,-0.3265717761783364,-0.33019465617200217,-0.2698599339778566
1409,0.07458275921795932,-0.890446236080696,-0.8072804559453123,-0.6622562185460361
1410,-0.23881864350779664,-1.7723247263349502,-1.5156252720550438,-1.2231127264942872
1411,-0.8026422445106878,-2.9908192082028098,-2.472037022885819,-1.9722172391618795
1412,-1.6789347529716911,-4.523440635151258,-3.6707284197693455,-2.9113397297697543
1413,-2.8852576865245405,-6.309617294231971,-5.082506153045827,-4.026624110060789
1414,-4.386934192474968,-8.258477575561814,-6.664271064254086,-5.308106707898941
1415,-6.121243079120552,-10.26839107821073,-8.371521379760589,-6.750866841869711
1416,-8.022801475608734,-12.2581426188786,-10.16548697518115,-8.339927919217656
1417,-10.02534519069688,-14.181190025870405,-12.018520919357575,-10.049128121562553
1418,-12.05005510836624,-16.027261827047468,-13.924422892675372,-11.859501216839233
1419,-14.017371034043373,-17.77868911426369,-15.86197686066813,-13.756265373134521
1420,-15.885146177781207,-19.427104562298325,-17.804376177412458,-15.72253611640101
1421,-17.656969360633845,-20.967993822588905,-19.7190245410908,-17.716967072269206
1422,-19.33432056021083,-22.393417975618025,-21.570220870935557,-19.672921543607963
1423,-20.887372107179193,-23.691735896713087,-23.32192125990099,-21.525853146036308
1424,-22.27902757902674,-24.84841179086938,-24.940261906314827,-23.230665226007535
1425,-23.498814186382468,-25.83936454570824,-26.393473535566923,-24.762943209903046
1426,-24.563615637715166,-26.636878483790536,-27.65002398574954,-26.10686905570487
1427,-25.477052760385853,-27.231533267248697,-28.681470924039196,-27.23786533910252
1428,-26.202899216107546,-27.637070522281668,-29.46988725812684,-28.121494312094043
1429,-26.6967425723791,-27.87961209576097,-30.015285281925877,-28.72890156576089
1430,-26.95530836084916,-27.990428570606877,-30.333834564550493,-29.053516437687232
1431,-27.01727371793527,-28.001391962359065,-30.446849204507775,-29.100149588373707
1432,-26.924099536850196,-27.934258998613018,-30.371924606374908,-28.871835276649165
1433,-26.694653947753892,-27.784558858303996,-30.121669458928153,-28.383400296032125
1434,-26.330264998273847,-27.53161984169252,-29.71158039436845,-27.66797417070915
1435,-25.840230143943685,-27.172502230960756,-29.167119404013967,-26.7680443349277
1436,-25.252015951236043,-26.72560589940729,-28.521151584661805,-25.726408129064453
1437,-24.594094782363662,-26.2103757655988,-27.804104896464167,-24.577545089333487
1438,-23.884053327347626,-25.644743069044452,-27.035054973303083,-23.34277449980183
1439,-23.131327791103796,-25.05467917505976,-26.22268497815383,-22.04848096988124
1440,-22.353728112879192,-24.475732814619228,-25.37121339583872,-20.74836483418838
1441,-21.585271703565517,-23.942114544449204,-24.485015126709367,-19.508117928259914
1442,-20.861062965754616,-23.479926599495684,-23.57188706312111,-18.369991157549112
1443,-20.20214465045134,-23.107708166168564,-22.64390547385903,-17.340719399018173
1444,-19.609687937644907,-22.83338632335852,-21.716036877145864,-16.419024857166225
1445,-19.078482176910025,-22.654102294810734,-20.805221736140002,-15.618664104123654
1446,-18.604078410108983,-22.561104852027178,-19.927230706883,-14.948202738062543
1447,-18.166848766204442,-22.53597736440839,-19.09097372558287,-14.38120376733205
1448,-17.72756927029967,-22.54079099026761,-18.297018201463352,-13.861939398095872
1449,-17.234432032632277,-22.525789678240738,-17.54409993017769,-13.345690319247888
1450,-16.643029499421573,-22.450205205281133,-16.839112269943072,-12.827784002010628
1451,-15.94850598086747,-22.28734991898388,-16.197092499751538,-12.327895652425871
1452,-15.196946438439506,-22.01363738454032,-15.62718025456271,-11.859797498831213
1453,-14.452055500429283,-21.613157723159496,-15.121872580238545,-11.423838309852039
1454,-13.747958824301458,-21.09528094600188,-14.664531043652824,-11.026212419693447
1455,-13.093304551351881,-20.492051832952026,-14.242240312532326,-10.699632262385794
1456,-12.50774131015271,-19.841620445333493,-13.848605954458044,-10.487318500050671
1457,-12.02936325657294,-19.179107282525397,-13.479875469512816,-10.40122395048977
1458,-11.684287510606307,-18.531725676187406,-13.132754452863235,-10.410183252754015
1459,-11.45951680214891,-17.911986365090915,-12.80395036956172,-10.473133221755239
1460,-11.317291424917519,-17.31443913207203,-12.490054539706069,-10.566531491198425
1461,-11.227637176361823,-16.723971795921795,-12.18649291839078,-10.675563966109157
1462,-11.178996839936387,-16.127253777963393,-11.883192379620061,-10.771010139981282
1463,-11.15615459604041,-15.513206642595948,-11.56475661247888,-10.808488965919663
1464,-11.120166248135588,-14.871165044481312,-11.221890345014076,-10.759733137397989
1465,-11.02675056059141,-14.197901277569272,-10.860477145863925,-10.631876682651795
1466,-10.862571769910227,-13.49745526245432,-10.495587379588812,-10.453692490083743
1467,-10.650796768021843,-12.766805320765192,-10.136510237777355,-10.246044622593168
1468,-10.40799592412469,-11.999077927139052,-9.778067404684856,-10.001582003053052
1469,-10.109933079455413,-11.202499240456243,-9.412247571277364,-9.708054265173445
1470,-9.717610170825784,-10.397247939740483,-9.04725639794233,-9.374322875649119
1471,-9.227364780061922,-9.59635124346591,-8.70837915404363,-9.020179192821592
1472,-8.675475081960439,-8.799352141007546,-8.420182536062637,-8.655201607689483
1473,-8.088624101674363,-7.999005813037493,-8.193256498670646,-8.272885326155034
1474,-7.459413624672107,-7.187078951950692,-8.024441728248812,-7.863589160143637
1475,-6.774567519943054,-6.357985031164945,-7.902648050387723,-7.428324421835245
