,TP9,AF7,AF8,TP10
0,-0.7771785888920593,-0.45540065005274577,-0.41509245057793476,-0.44563954135981454
1,-1.4716665858038005,-1.0941557628230303,-1.1361205060126243,-1.0529780035723701
2,-2.452794227552335,-2.0573157247355924,-2.2332118004233825,-1.9375864178831146
3,-3.675843819006574,-3.362830162118961,-3.7269905461031287,-3.0868437343038364
4,-5.0960060602454,-4.994318654231937,-5.602560461879694,-4.4662750909423865
5,-6.6899880192185055,-6.902355177000105,-7.807232526616135,-6.031409943338013
6,-8.431607478568253,-9.00921488021937,-10.254037085029474,-7.727583496288069
7,-10.250713733907247,-11.21982093878679,-12.832895341418606,-9.487380818336295
8,-12.049575771802784,-13.442133493189136,-15.429648498065061,-11.23863567292958
9,-13.773834194948197,-15.607491635221779,-17.949043324644972,-12.92360345890855
10,-15.458885116065202,-17.68433860903706,-20.341197346692848,-14.526203643499386
11,-17.09547064287489,-19.61621401528497,-22.560108887953557,-16.020141672956623
12,-18.626375662050098,-21.35551736893598,-24.57757379785174,-17.374820160736643
13,-19.98948167447511,-22.87908720664325,-26.377950588064053,-18.555358561422423
14,-21.171691896878496,-24.186851699855175,-27.954681178759166,-19.535080209111438
15,-22.20495799464487,-25.293405096823104,-29.302976753450594,-20.306175285344878
16,-23.106201858627053,-26.22371357962803,-30.413986827113952,-20.873762436503586
17,-23.8417228020351,-27.010772412279618,-31.28100373239287,-21.242883598338846
18,-24.369197082077875,-27.689652767166443,-31.91016888200919,-21.420181359727895
19,-24.686260167894716,-28.294498474410222,-32.32255908967851,-21.424252803249743
20,-24.842797558600736,-28.861703190092943,-32.55144973742313,-21.28835060878895
21,-24.883633714632616,-29.42927968416727,-32.6375037223206,-21.048762784879003
22,-24.80401212138406,-30.028984782186203,-32.62200346897071,-20.731958312904272
23,-24.586999546186906,-30.679886363871347,-32.543166060058695,-20.3527430150816
24,-24.25625271949296,-31.388745059895946,-32.4359230486538,-19.927921063825963
25,-23.896569320310512,-32.15074051848111,-32.32774096050008,-19.492896044905258
26,-23.585755052831864,-32.95042622828969,-32.231223066500256,-19.091972403714195
27,-23.331258590068813,-33.767724743166255,-32.14641910656534,-18.75411936862221
28,-23.10061553664944,-34.581611335235124,-32.068142646887246,-18.493285431664308
29,-22.87879916008218,-35.36387177101546,-31.987297330047976,-18.32718883627166
30,-22.69395344123257,-36.07502752596944,-31.89179737332196,-18.274845974757767
31,-22.565119181044768,-36.67481990349303,-31.770987975872217,-18.33726201922329
32,-22.44520215516465,-37.13501858076537,-31.62109088299985,-18.490486360247637
33,-22.240782800286087,-37.44249306793559,-31.44649887545359,-18.694687874476898
34,-21.885720788446648,-37.598657952687766,-31.254360265523687,-18.913414533837653
35,-21.387948335046044,-37.619687698431854,-31.050076265699577,-19.12401564986157
36,-20.790665841740257,-37.53353966711889,-30.83662402727985,-19.31002867485273
37,-20.1133827265222,-37.37394675208731,-30.613445708187584,-19.453644056161238
38,-19.34195372997738,-37.17149550564645,-30.378192739194944,-19.538966241915197
39,-18.486613715429467,-36.94490094425991,-30.133565394763323,-19.558331593950285
40,-17.620013333794542,-36.69683293679849,-29.88621711132062,-19.514753833612772
41,-16.825391135731202,-36.41137716576122,-29.637382469050017,-19.417631404029233
42,-16.13039422689921,-36.05925108552005,-29.381088908997846,-19.267425511376764
43,-15.496453595097332,-35.611678243703665,-29.10820395773678,-19.051076315845798
44,-14.891003545557172,-35.049482851371515,-28.80542289511762,-18.762546865294745
45,-14.338237940465154,-34.36134645309965,-28.451474930092214,-18.411814505774146
46,-13.879362856077684,-33.53742850061145,-28.022171710959956,-18.00548720847545
47,-13.515787465455697,-32.56847959810728,-27.49981129804419,-17.53602036295158
48,-13.187451766409183,-31.449498087104413,-26.87842773735439,-16.992209657787964
49,-12.836307207851684,-30.18345219868451,-26.16704173795886,-16.36975401461812
50,-12.468093571969224,-28.78410185277244,-25.385083138940974,-15.677956389569419
51,-12.12652042987489,-27.27480740233134,-24.552864002353047,-14.938150820598421
52,-11.83241636006902,-25.683082931418127,-23.68730566737164,-14.17003970785783
53,-11.552309763748207,-24.0364862448118,-22.802724355377222,-13.382155853843622
54,-11.246161943092588,-22.359675242276587,-21.910213110388497,-12.574908903470323
55,-10.92154691666213,-20.673323737087234,-21.012220266575728,-11.750737961110849
56,-10.627692646057664,-18.99745764472356,-20.101093186200586,-10.923950192106686
57,-10.398572802482366,-17.349100831307535,-19.16546167209261,-10.118173978301455
58,-10.212507521147666,-15.735667013741958,-18.19861353562715,-9.354808546664293
59,-10.03740959009558,-14.151710659729206,-17.20432556356942,-8.650148459881304
60,-9.883636124851838,-12.580004721331322,-16.19416195205943,-8.021209942848994
61,-9.796364347235127,-11.001701854851246,-15.178920231187547,-7.485217382420112
62,-9.793802416308475,-9.409897389901685,-14.164504535459443,-7.048104280369881
63,-9.83361123718722,-7.815892864812729,-13.153194243736012,-6.699865945111359
64,-9.86382948678025,-6.246422821736418,-12.147624368943497,-6.424451254797461
65,-9.880318629728903,-4.7364654442778855,-11.15611204225688,-6.206498654729414
66,-9.928807545925865,-3.324274546095899,-10.19394142369791,-6.032971102217881
67,-10.03595640955664,-2.047892053191132,-9.281365192785563,-5.8921340667729
68,-10.164897504160145,-0.939995340391726,-8.442977301135,-5.770033050996827
69,-10.256682397116244,-0.023340768909841846,-7.70301660082291,-5.6571532201908825
70,-10.29047098057218,0.6921398457937362,-7.077844491012261,-5.561068495758229
71,-10.30612055408132,1.210939656425808,-6.575648897828097,-5.506954269920536
72,-10.341433453747477,1.5502008942920804,-6.202448731305403,-5.524899279315437
73,-10.371845826700785,1.7357825813309329,-5.962280481261637,-5.6327703613124545
74,-10.3391251524081,1.797415462284044,-5.846439824761768,-5.824163214011397
75,-10.218678374873972,1.7625684214608845,-5.8257084330573505,-6.073967698388812
76,-10.047074858201182,1.6531322532011627,-5.855365150337662,-6.349240224779789
77,-9.862283006558338,1.485563089207172,-5.886328292451177,-6.61405903033616
78,-9.645680306415532,1.2731466721886042,-5.875549375479664,-6.830445740450584
79,-9.335995757538633,1.0297687348105105,-5.78935817458617,-6.956511275409536
80,-8.892779644958178,0.770977128507359,-5.602484350631208,-6.95791573958016
81,-8.340093303456218,0.5109248216108203,-5.299836395623176,-6.825943395637156
82,-7.722699996965876,0.2598409367946579,-4.878160589646219,-6.579277300377187
83,-7.048028654270404,0.02557258846352823,-4.3472532762063665,-6.253239749946295
84,-6.284179816527786,-0.1835021572599293,-3.731853967956663,-5.887871665594314
85,-5.413817630795602,-0.35798265718155897,-3.071186824706308,-5.518560896866341
86,-4.470693034489333,-0.4868123177838739,-2.4095205623386335,-5.166258885768006
87,-3.500386605127933,-0.5543268957473121,-1.7799133143210057,-4.828147172877558
88,-2.5044688505173784,-0.5423048630826418,-1.193632026867551,-4.47465313652493
89,-1.4255718577219907,-0.43691966803258686,-0.6405437560550359,-4.056052570331579
90,-0.21235659169392024,-0.23096727455993069,-0.09788862451527944,-3.5195420477724397
91,1.126963214975263,0.07856011764487228,0.45711062479789066,-2.828278852094509
92,2.555032442876869,0.4924086570463946,1.0369046153942583,-1.967904057741272
93,4.0535449894349975,1.0099698806339377,1.644088836133085,-0.9385192345386617
94,5.641609882930251,1.6298991313982092,2.2772556328399673,0.24980947479310217
95,7.3215604438132225,2.348070623355501,2.93075510584412,1.5717947017095115
96,9.033399022914502,3.1541433744904563,3.591724138999499,2.9835422450769267
97,10.685555342684305,4.030507430457932,4.242399999432005,4.4302723373106145
98,12.216640252938106,4.955443787147227,4.867350877444626,5.869372298905511
99,13.631059596611331,5.908096101387617,5.458955320813997,7.287902781728919
100,14.940346044300696,6.869130666100597,6.020283402747407,8.689813737677392
101,16.100830061658996,7.817620167631368,6.564236749170026,10.071120874246025
102,17.036309415697907,8.728896949672409,7.108287619228698,11.40796036207761
103,17.704094600223318,9.574540878685857,7.67146599652334,12.663684070531554
104,18.1309379591303,10.326028665341184,8.271249714288885,13.80989603495787
105,18.36059479317537,10.963794098644753,8.919118034647608,14.836434832766372
106,18.39009786973055,11.48355712857632,9.620327300346974,15.736528173774001
107,18.180961599803325,11.892067391638106,10.376480610648468,16.49124482807221
108,17.72769701625477,12.19913274700043,11.186160962265644,17.075492560033176
109,17.087953807412042,12.414812489053123,12.040959228493227,17.470603884471192
110,16.329835968896855,12.548548736096624,12.919517037105711,17.66937337788869
111,15.47340253221362,12.607881406149888,13.782695713691384,17.669812145613758
112,14.497725791462711,12.601842626471692,14.578760294897869,17.46430576787233
113,13.401520940424591,12.542266251795073,15.257191391761365,17.04611760671505
114,12.219486352595121,12.438579509493234,15.77821628033314,16.424176247930557
115,10.986031337313177,12.293135219631113,16.117049869240983,15.626322237275994
116,9.714121102733037,12.098490490163211,16.263606541645803,14.685940609042403
117,8.418923879314995,11.843274970408725,16.217932262807107,13.630910395164836
118,7.115816179651392,11.519529999661687,16.00474046399719,12.504814936334425
119,6.002996239270654,11.118490996959508,15.605221279290431,11.304760169616449
120,5.207125214181259,10.654550984098773,15.041087968943623,10.06550159374554
121,4.76029979647977,10.154576429783553,14.356180448588256,8.83127551706107
122,4.6287398875422365,9.648630290951838,13.605971998250874,7.641723244354759
123,4.770043735528578,9.166265173776786,12.851494027343383,6.535748995278964
124,5.14459453183996,8.736726478291214,12.149528604182956,5.558365666575613
125,5.683466442217028,8.385372281168252,11.54264764431458,4.751119266181727
126,6.276323714645966,8.127642341417092,11.056560106487963,4.134843527226987
127,6.80172127356687,7.96602727850803,10.703723722271329,3.706286347376195
128,0.16290828941842636,-0.7157763940907418,-0.4396348335465708,-0.22816619156296739
129,0.1116655987115921,-1.56421059383048,-1.021442876859488,-0.49120159748954273
130,-0.047842095090744524,-2.7699633583734133,-1.8552782227598557,-0.8688209777293656
131,-0.2930791936505145,-4.32133648835104,-2.931832746038803,-1.3459744010272996
132,-0.6295180957302486,-6.166238236958351,-4.2229211269513005,-1.896268522816213
133,-1.097126950259739,-8.22336945812801,-5.687713583716754,-2.4929590275024753
134,-1.727078819996197,-10.395888553255759,-7.275872940699901,-3.1135946077484724
135,-2.507136112825481,-12.586428650241121,-8.930982225958306,-3.7369013067512915
136,-3.396627774845695,-14.71371437935954,-10.600826050213595,-4.3486713497611875
137,-4.377741350799219,-16.73424334961007,-12.254450725702219,-4.956979734401811
138,-5.462902744112686,-18.670081722681008,-13.899829826941534,-5.597343612403866
139,-6.653206148642555,-20.526483592665084,-15.531774663597911,-6.292531702081931
140,-7.906890812598942,-22.31018415061579,-17.145431260027276,-7.056295026437018
141,-9.169227556706842,-24.023379090338338,-18.73562912075048,-7.897309804968697
142,-10.41762508320007,-25.662810917844986,-20.29517098502503,-8.818550182884344
143,-11.6505661288715,-27.221415206401034,-21.813196325987168,-9.807780166347351
144,-12.842825004054655,-28.689705391388802,-23.274228782082808,-10.82855000010249
145,-13.917898972285826,-30.056236624957407,-24.658407232125438,-11.821264043032093
146,-14.809136391623046,-31.309302256903983,-25.9446661158411,-12.722586610025884
147,-15.535818492417357,-32.44345997017064,-27.116475322099475,-13.489524108152079
148,-16.1780795498004,-33.46623900599736,-28.163023322724154,-14.106740052380644
149,-16.795726129017226,-34.39593790593449,-29.072942942730435,-14.577157129890315
150,-17.392570823000025,-35.25392075017531,-29.83381419947272,-14.913341025496992
151,-17.96720523608278,-36.05835913042985,-30.439789831931392,-15.13721964132695
152,-18.56141245330581,-36.81824098787187,-30.89727300102251,-15.28450472253822
153,-19.247230072621534,-37.53030782614996,-31.22370294010272,-15.40413053934616
154,-20.06551709334803,-38.178994470852636,-31.441490946581713,-15.541954892779456
155,-20.984949796595515,-38.7372799742009,-31.575893884215787,-15.728734967822263
156,-21.950540400600286,-39.17413423234778,-31.65605791989576,-15.982483905421196
157,-22.94205875513599,-39.46647356489469,-31.71033903874648,-16.310590073499817
158,-23.97058482704305,-39.60295189779914,-31.75787550968415,-16.71364764665346
159,-25.0210882680259,-39.580849898116895,-31.808396463388753,-17.18782230763787
160,-26.020516960488216,-39.40577095209853,-31.869563235756992,-17.721674964710243
161,-26.88234471387859,-39.0897657344325,-31.951154418710416,-18.29230861099283
162,-27.565901620240552,-38.64630086894362,-32.06126226947476,-18.873619643984455
163,-28.08941775297635,-38.08592326407689,-32.19837839406473,-19.448787424969197
164,-28.459417017886384,-37.41271424816374,-32.34681664479433,-20.000213778093936
165,-28.62438568103786,-36.62329933131946,-32.47588319570596,-20.497262923752253
166,-28.52406266206254,-35.70907785792913,-32.54326030034467,-20.90053168730432
167,-28.144923977133647,-34.65828908260489,-32.50382195872406,-21.17314343954025
168,-27.532638489903103,-33.46051842416355,-32.31744877642653,-21.292287355846998
169,-26.73548008117823,-32.11447091840076,-31.952417570942124,-21.246060981675146
170,-25.75295641881834,-30.628164448446785,-31.388431003396946,-21.020616983578076
171,-24.56274760401235,-29.013674349388094,-30.62219700846662,-20.600302246789827
172,-23.181164598372064,-27.286524908401713,-29.671742968333344,-19.982820469434166
173,-21.685888834011227,-25.46657070276864,-28.572066970107215,-19.18931964721773
174,-20.158540723579137,-23.57720316265663,-27.36579353980662,-18.255384671872296
175,-18.628046239737575,-21.645775963136124,-26.096273070384235,-17.21268124802989
176,-17.081535537253,-19.703448809962524,-24.80151666416336,-16.082510593803466
177,-15.522726115883069,-17.782213916933316,-23.510062610171005,-14.889160904525173
178,-14.007274164334799,-15.915407640244867,-22.24089390921214,-13.673632823386761
179,-12.600519915207773,-14.14040929258772,-21.005032008061512,-12.48912147862351
180,-11.321828704539598,-12.493173939831665,-19.809728519341064,-11.378028746776986
181,-10.141110961449765,-11.000252133260322,-18.664172377897955,-10.357929400842037
182,-9.044241983817992,-9.679047403325276,-17.580669016949575,-9.440178261474342
183,-8.080359900013624,-8.54159645491217,-16.568636637455086,-8.646360732829017
184,-7.312338706344102,-7.592507015439445,-15.629699590507375,-7.996849146655835
185,-6.752136688789049,-6.828164629509649,-14.760873146106999,-7.49498218088061
186,-6.35237046250911,-6.243793020086059,-13.959964741316352,-7.126170472711689
187,-6.068116690812336,-5.83447267117614,-13.22805991859907,-6.873331381664072
188,-5.908557088387744,-5.58890367195538,-12.568414450256695,-6.727475474983313
189,-5.904122023302927,-5.488001062635025,-11.983275405304774,-6.681846710871722
190,-6.045481110320373,-5.5064827792141955,-11.473206297921314,-6.72049556788354
191,-6.263750321248625,-5.615699177036329,-11.042713800809675,-6.813128064989918
192,-6.493022329519858,-5.790333978606398,-10.704781266593784,-6.928778046007752
193,-6.733881255562285,-6.013840223647948,-10.474829414519904,-7.049259777298784
194,-7.033564068284629,-6.277500204615487,-10.361187602324426,-7.164570299676317
195,-7.420829836311723,-6.575821011719484,-10.359542049992626,-7.264684068293447
196,-7.868410082168771,-6.903501450455394,-10.452527964713891,-7.339033890134219
197,-8.338975059652865,-7.25383811894046,-10.61454046125867,-7.383852341404742
198,-8.839483137114247,-7.614507899033517,-10.817528824728392,-7.414216875808782
199,-9.405909017341067,-7.964081523533248,-11.033009393205237,-7.464569166492852
200,-10.035948562613319,-8.274020322621466,-11.232920301890223,-7.5618262166077
201,-10.652149692281311,-8.514867146511191,-11.391668790553016,-7.70549168283109
202,-11.164302187337192,-8.661387669254793,-11.487921044948925,-7.880383696392456
203,-11.532984907903442,-8.69036282436347,-11.509900537340407,-8.068569769902961
204,-11.759684938099626,-8.580634135696458,-11.455647475434501,-8.245082439384413
205,-11.833004342866241,-8.325469691633359,-11.324068411744504,-8.37284445760741
206,-11.70438962528114,-7.939512411740037,-11.114240794897542,-8.406969457091586
207,-11.339023399776007,-7.45129141870114,-10.832165205765667,-8.307375636991571
208,-10.765510191190243,-6.895289851209999,-10.490879978729291,-8.055122505361112
209,-10.067620602073246,-6.30551017743732,-10.10287060253853,-7.659255381398996
210,-9.31569447256627,-5.70992516685681,-9.674779100255764,-7.147152349937808
211,-8.520425316712231,-5.13019482429009,-9.213320610171392,-6.556024296573714
212,-7.671693465200389,-4.583407405226082,-8.73188215225168,-5.927589156333357
213,-6.793592625399333,-4.079365999657266,-8.24605847954879,-5.305121076758236
214,-5.953524500356196,-3.616724878531179,-7.7636143312791805,-4.7344334516455
215,-5.196361288416956,-3.1877244570434433,-7.280506705213937,-4.2517889848722525
216,-4.493136457670223,-2.784854280766886,-6.788256672841664,-3.868042252035651
217,-3.784812207590824,-2.400224220637517,-6.284974761512438,-3.5742229145532463
218,-3.054460023267687,-2.026363279915336,-5.776904778319206,-3.3627112606112513
219,-2.3399377136986814,-1.6619208391572058,-5.271585850474631,-3.2340176173968067
220,-1.6748424453520758,-1.3156388551893556,-4.773574665489955,-3.1849123176749634
221,-1.0615016621252291,-1.0052492654323733,-4.28713509851874,-3.2020903099198796
222,-0.5002662249522023,-0.7493503172842563,-3.822693190768627,-3.2624951838882486
223,-0.010963619476318187,-0.5582431109712186,-3.393647876809077,-3.339126974460712
224,0.38619801864737613,-0.43226592566894345,-3.003879200477972,-3.411380116664618
225,0.7147379981343164,-0.36356844999968546,-2.644583133312626,-3.466397209498471
226,1.046912151875981,-0.33795378845845875,-2.3023589569280913,-3.4903741629556104
227,1.463187847429772,-0.3384083020601089,-1.9671090717051933,-3.4633889865350715
228,2.0089379009211275,-0.3475590774578535,-1.6308492452618242,-3.3683505551603985
229,2.699197138926354,-0.3483690937154592,-1.280161226715402,-3.2017851385727534
230,3.549025187727394,-0.32830045493500004,-0.8971476318222605,-2.9717308147276023
231,4.586990340892952,-0.28658114437491766,-0.4687719655144574,-2.6869151164883895
232,5.859735693275039,-0.2301927335069978,0.007883109618379791,-2.3542184364386642
233,7.376226626008077,-0.1610715278073119,0.5256084949978801,-1.9897789240721109
234,9.056962995507183,-0.0735235680724738,1.0680390879688142,-1.6233145184938587
235,10.778447793398174,0.04182859063921639,1.6142543578470443,-1.2875832453213045
236,12.437211144776388,0.19664464717962815,2.1473487901849357,-1.0041870778886726
237,13.97955868420911,0.4016521216165786,2.654915541632681,-0.7761731462359132
238,15.373611409302065,0.6621687395818703,3.122271820906291,-0.5969541621837872
239,16.564533683840935,0.9779785545461431,3.534430273258457,-0.4649194531395423
240,17.471662562240706,1.3456778465287296,3.8831441943763907,-0.3842737921069593
241,18.024812923128906,1.7614098397362354,4.168106511315733,-0.34948784323892035
242,18.219239807604758,2.223601345342734,4.395398854354244,-0.33497234995081226
243,18.11191268389643,2.7325748432299046,4.577597194656865,-0.30304213585515766
244,17.767383440342428,3.289232026778657,4.73376195701778,-0.22021740073793827
245,17.23786610459858,3.8928687621167932,4.884591973491733,-0.06796914971913957
246,16.600904336196265,4.52009103418634,5.035078309432939,0.14063735245364198
247,15.835744018491912,5.189574179130153,5.2041316202876295,0.43779610892235693
248,14.955561423677752,5.897416544108975,5.394346203014219,0.8234070764556434
249,13.973121736299852,6.624888537559068,5.59922151375759,1.2726151466233637
250,12.904930243602726,7.340306055403451,5.810220819494367,1.7491582956711975
251,11.816419637300976,8.005410325439614,6.019785450717273,2.2189072725838788
252,10.806219444616204,8.58524815765526,6.2187153396553985,2.654659411608884
253,9.939883749839458,9.054605981804983,6.393142759584823,3.032070284509238
254,9.231277545158159,9.402267587737747,6.529292231374372,3.328374538616134
255,8.6741345856527,9.63262151048939,6.623614299855074,3.5295908138229324
256,0.1937609340906702,-0.7882598954476545,-0.404468164298208,0.00019092320038993638
257,0.14897236998320657,-1.5349823295523246,-1.0478346785723744,-0.171850447857691
258,-0.07024544074587957,-2.5373645395691735,-2.0374049236161023,-0.5431170808898741
259,-0.5416771250783454,-3.7835500645243845,-3.4128351297487343,-1.1939571969884542
260,-1.382869838612042,-5.232485937957267,-5.194955622308418,-2.2243374100076707
261,-2.7187484288282677,-6.814621385106255,-7.382791126751134,-3.7418156752507548
262,-4.612901752128366,-8.446862944241014,-9.958008369414452,-5.834208428000731
263,-7.0489582303175204,-10.042518719968681,-12.894898158014092,-8.551354780642157
264,-9.973890472353187,-11.518081777100043,-16.17212056463005,-11.90258111428329
265,-13.337146034028901,-12.81136676137959,-19.7868512491469,-15.86169754665469
266,-17.075824197235317,-13.908498259791505,-23.77269980650394,-20.370961081156928
267,-21.07286678133971,-14.761926714208167,-28.14908451618645,-25.327702316164846
268,-25.16217666162401,-15.320032249660658,-32.93292087481223,-30.589444355949325
269,-29.184622799215276,-15.540930105844165,-38.12835687681574,-35.99545064703008
270,-33.03571703184495,-15.407125142908669,-43.71760030180256,-41.39703646258933
271,-36.62751866180302,-14.93204031937377,-49.65378519825546,-46.658781091689754
272,-39.84282363970713,-14.152434373747965,-55.861252359282005,-51.646232133569235
273,-42.548597417265114,-13.111230785466145,-62.24412198720418,-56.2368720633355
274,-44.65229022060332,-11.845746422228796,-68.69481378161372,-60.34143899971961
275,-46.14347142501264,-10.38195681091058,-75.10077561112598,-63.908537964740816
276,-47.04934507497911,-8.733924668313096,-81.34669552357946,-66.90953416020893
277,-47.38275306991179,-6.911664708882059,-87.31783644327047,-69.31876158738008
278,-47.151991657608534,-4.925518641814293,-92.91008705734257,-71.10886649233437
279,-46.4067463325349,-2.7824451407093074,-98.03424521344141,-72.26696553738557
280,-45.25340415347377,-0.49072671453316585,-102.61446157589366,-72.80555629999708
281,-43.7909267889601,1.9232402712722907,-106.59128663757573,-72.7489705501474
282,-42.05370321603845,4.406138272153532,-109.92323753717,-72.11705053255614
283,-40.02872951652133,6.886243735829583,-112.58259089947842,-70.9281857626429
284,-37.71806717718215,9.29066994173726,-114.55131417788796,-69.21081700342971
285,-35.172552967699716,11.556846962578913,-115.81835966660476,-67.00841152253544
286,-32.46443521295869,13.63516224772452,-116.37923224380081,-64.3771088328367
287,-29.636182660334534,15.490702742604721,-116.23891123136792,-61.371378271337385
288,-26.674934763802614,17.10067035387293,-115.41681760742634,-58.035663877037855
289,-23.57635667280291,18.450149876422813,-113.94995799570816,-54.41586326628191
290,-20.404676074537388,19.53068433730266,-111.88968919660483,-50.56418757130623
291,-17.25967706191998,20.334571045783214,-109.29381074026828,-46.532465981712235
292,-14.211570051105655,20.848122308246825,-106.21721634837883,-42.36591791617746
293,-11.27024711504334,21.04818149692433,-102.70650496809888,-38.10153836847935
294,-8.437672499929066,20.908426981117177,-98.80485587866778,-33.774184000097854
295,-5.758742910591748,20.414333108446936,-94.55798681262986,-29.42675348822306
296,-3.304756655323771,19.566097976529356,-90.01285524944544,-25.115088238117135
297,-1.1250610453712082,18.37225812467315,-85.21492026353161,-20.897307553759084
298,0.7861974309729101,16.849572570170935,-80.2086949639424,-16.824539550685362
299,2.4472502345477585,15.025963413156129,-75.04439137298341,-12.949570945007013
300,3.8328633397794314,12.936488757926861,-69.78439751334335,-9.332058499212298
301,4.882893928533916,10.612966723796367,-64.49650384239631,-6.029390583470457
302,5.565153897447065,8.081390020663747,-59.24003161859621,-3.0803088969768617
303,5.92034399783129,5.370873425866368,-54.05959030131075,-0.48833693487809604
304,6.027415571346952,2.519478535110727,-48.9842572232898,1.7756316141331365
305,5.940858391760155,-0.42816826799353846,-44.02707787457667,3.75061504582992
306,5.671105021713583,-3.426451167479004,-39.186385124310505,5.471252330917565
307,5.247331799474686,-6.434469129236378,-34.452820527656776,6.973940782878281
308,4.760161411774465,-9.415877984725197,-29.819573108962103,8.302839315545885
309,4.313608599918748,-12.333729230302707,-25.28852866729524,9.504269411396585
310,3.9693855722236027,-15.148793566672616,-20.873389329465372,10.61723475293346
311,3.728854809018107,-17.825801336603323,-16.59889054883901,11.668325537688549
312,3.5854618915500733,-20.34316692760657,-12.495647586395831,12.677445393323106
313,3.570586035884298,-22.690730400909725,-8.596621264060255,13.666508536306125
314,3.7219669599916543,-24.8562127394646,-4.9357379264079855,14.656460417836579
315,4.028935761134642,-26.823715829402193,-1.5448627369666448,15.650942963643574
316,4.409010280638395,-28.583527216671683,1.5538474427410591,16.625125302966417
317,4.777286762719722,-30.136472357539063,4.355947949104269,17.543984973534265
318,5.117256991948375,-31.49007065064127,6.8745547618075715,18.38906338648901
319,5.4519538466000155,-32.6527487321762,9.131571574035206,19.159863779962603
320,5.776967727628928,-33.62657272314331,11.152030985608604,19.85480685302774
321,6.035750608651492,-34.39958176876647,12.966142730716346,20.457265277565405
322,6.176110860391259,-34.94995556904023,14.608560774923156,20.95056967857669
323,6.21031001853306,-35.255966410155786,16.11406065986621,21.339922231453627
324,6.201023268941325,-35.299791537622724,17.514592823912743,21.6493480763549
325,6.186642348696637,-35.07028799499603,18.837794381891737,21.901442440043887
326,6.141003700463667,-34.56857048912252,20.104664545506175,22.10148002436484
327,6.014948301137366,-33.81327717681785,21.327181241825837,22.23629569654761
328,5.788235871598772,-32.839880279755526,22.509300217641478,22.28469240565019
329,5.488847913623873,-31.695480623612138,23.64910605985182,22.22936098042512
330,5.14345502498359,-30.433735662333675,24.743293183536768,22.062466613186682
331,4.7364925924480445,-29.109120835805637,25.793690819293023,21.78696928251315
332,4.249846206635425,-27.769493712874322,26.80935475795712,21.41380883666284
333,3.712544388884279,-26.44812341471133,27.804128131474187,20.96807404339336
334,3.2096783329254652,-25.161806407353982,28.786326012503647,20.495731470238447
335,2.809880572799995,-23.917389456924845,29.74656706197801,20.037779601769145
336,2.5069165896650354,-22.718623190562102,30.6612795524042,19.606020946690414
337,2.2590650236145664,-21.566563900438613,31.510386348251124,19.197489903079955
338,2.0509741909268087,-20.465101084769394,32.291322522692454,18.821173054528085
339,1.9180807175207213,-19.428374660331183,33.01394679959431,18.501975220467052
340,1.8868375891289313,-18.470798686660153,33.685075579641314,18.25426210577879
341,1.914956467091806,-17.599041828996583,34.305267690514796,18.06454894888007
342,1.9251706043845052,-16.811154953888177,34.87724679160309,17.904829581119774
343,1.8752318724978998,-16.09134513212934,35.41012545905073,17.751108678536088
344,1.7849274504461163,-15.412829691182887,35.91681850960023,17.58835640485506
345,1.6876764067743204,-14.746722241008973,36.4080141761468,17.404836811805342
346,1.5693963108400566,-14.068261639256813,36.88470930781856,17.180651446814508
347,1.3649429503623025,-13.359840356718138,37.335650745241395,16.880900574285864
348,1.027765580192415,-12.615452547185646,37.74137830836934,16.46729975105802
349,0.5792601611847294,-11.845923082299636,38.07995987797686,15.915574837560994
350,0.07126592812484267,-11.07493790371831,38.331621862898544,15.219695058745025
351,-0.4666643783613972,-10.329383728862105,38.48170399992259,14.379253446905832
352,-1.0400467330820606,-9.634178570687434,38.525323027665124,13.398117488546674
353,-1.6327654683839403,-9.010919404342461,38.467811599057534,12.304942717879282
354,-2.1674203309562134,-8.475394081913812,38.31501931797831,11.154530629871644
355,-2.561725083892753,-8.029877001253107,38.0657609444893,10.002637473117067
356,-2.7929169433023113,-7.65143141746309,37.71858187822771,8.885609054927409
357,-2.8988734951545414,-7.297176458591996,37.286672442043304,7.823910672612706
358,-2.9061887360599643,-6.926958174304327,36.795429837494034,6.839959970204688
359,-2.785785150857844,-6.517914207567251,36.263995067946944,5.966533540474995
360,-2.496191716186097,-6.070708549024506,35.70232001343571,5.242532761265627
361,-2.0335878265761567,-5.603723612206173,35.12160813491681,4.706951931920073
362,-1.445775645172546,-5.132914638833551,34.5367535322177,4.390377278834529
363,-0.7837364052772868,-4.662231343332247,33.965665227748865,4.302900981591494
364,-0.04630851766711325,-4.189797863266938,33.43021065687061,4.442957064363112
365,0.8050135203654775,-3.711706159702842,32.95204369131802,4.813761278145334
366,1.7821091602086232,-3.219293278863962,32.54913848817373,5.41151789113593
367,2.8378164810258153,-2.704981964508708,32.238389264413236,6.209402534996586
368,3.9089772131788227,-2.1731053117613355,32.03613480580981,7.157065975785271
369,4.967051436153091,-1.6402233583727683,31.95201533793424,8.192237969679706
370,6.021528097738544,-1.1321401124712465,31.982282277942705,9.255771299841742
371,7.06152779485405,-0.6850978554872328,32.10929369350187,10.290824563286343
372,8.015411401243256,-0.3468256363362727,32.30695751066411,11.239090829722118
373,8.809720313394628,-0.17405595886217712,32.54569096578023,12.055476199803447
374,9.45628486433514,-0.19094309125146727,32.80171525977954,12.725850342404144
375,9.90799513288956,-0.4918107832610277,33.02358527263419,13.238862033284306
376,10.120296457151778,-1.087664877350135,33.17780354257019,13.593730689842488
377,10.05814964789639,-1.9267057609173888,33.250750825478185,13.794686871877662
378,9.741727450891878,-2.9205944966178743,33.245155612260604,13.855482865004735
379,9.256839372079726,-3.971465578990948,33.17643509976723,13.806400857491386
380,8.715765653991523,-4.989458735765698,33.068110552380396,13.693199671725452
381,8.197329409100405,-5.89785099855197,32.9437314621593,13.563580012168444
382,7.732921865806011,-6.637389133461588,32.8231479701133,13.446053470918017
383,7.343843197589127,-7.175278947613081,32.7229281510209,13.349496969558182
384,-0.17939227383665307,-0.5423091409080534,-0.5973006058740583,-0.47548550150426705
385,-0.5868817976067303,-1.294378442868013,-1.3296924456834573,-0.9867797059286837
386,-1.1803788197437823,-2.376240271439581,-2.397205521703129,-1.6851869871505278
387,-1.9532613217839887,-3.787175284945505,-3.81482983397537,-2.5550059300229564
388,-2.929391436252769,-5.49664349778654,-5.572526968002824,-3.574816484264296
389,-4.1286592463982394,-7.445411418044885,-7.63647242095986,-4.710771090046848
390,-5.50495058955447,-9.551107971925719,-9.95029736437599,-5.904198482251569
391,-6.9498588083877895,-11.717802743529425,-12.439083064708267,-7.077080425600415
392,-8.360844685204938,-13.848797110989679,-15.018391082320171,-8.157396995668497
393,-9.69280802843994,-15.86942602447855,-17.614607840761856,-9.110276891403657
394,-10.950614514668876,-17.759447001209633,-20.194253443331174,-9.95417519178542
395,-12.10550841477264,-19.501638871575768,-22.698661336961585,-10.68966246910919
396,-13.10465579312974,-21.0933981015316,-25.074172107065255,-11.30890863939192
397,-13.92406102893818,-22.530482928619232,-27.283022234989012,-11.809555520514536
398,-14.596777958968586,-23.803680783093668,-29.30483857967672,-12.209790461169035
399,-15.159562066408197,-24.906369652443207,-31.128167470600253,-12.535176366672466
400,-15.598518004340875,-25.83669752255812,-32.74486773801393,-12.795620313198516
401,-15.880587446590365,-26.596266507711753,-34.15115689664017,-12.990029187964902
402,-16.011256138895337,-27.191298615313,-35.35243619986534,-13.127218415457772
403,-16.04972222713335,-27.633676014695023,-36.36573478500431,-13.231882911671526
404,-16.043815119345457,-27.941839035332872,-37.21010097379755,-13.325935269308737
405,-15.976466629754812,-28.139619351237897,-37.89041789317873,-13.409715420327771
406,-15.802266095861125,-28.24994852447898,-38.39290728303916,-13.46691549725942
407,-15.513410319886503,-28.290028956318015,-38.696810217854996,-13.485225338756708
408,-15.167418125663927,-28.271401988255192,-38.782970425491385,-13.460932744107332
409,-14.818870751011529,-28.205039541858504,-38.631509097203015,-13.383805971732238
410,-14.457726422758576,-28.10677306428376,-38.227814792888125,-13.235034780448727
411,-14.044128901432666,-27.997947913318885,-37.575147070521886,-13.000887800172853
412,-13.581065772851643,-27.90520937005369,-36.69923460664463,-12.69575317001298
413,-13.148575959146088,-27.856820214010142,-35.63966942353636,-12.374210305536364
414,-12.838369891586614,-27.874266616349903,-34.43553187104144,-12.110764307284306
415,-12.678455706201614,-27.96828005000442,-33.127004187935036,-11.969167932524712
416,-12.64012206728216,-28.138925213313897,-31.764985788170822,-11.988484992373888
417,-12.704620590260893,-28.385107745715832,-30.40479072204444,-12.190189428963617
418,-12.90059841434938,-28.71609571312116,-29.09064875915309,-12.575672285186744
419,-13.248591226218204,-29.13859731525303,-27.84827041470555,-13.11048200698787
420,-13.701713876833223,-29.632440076542224,-26.684364978123938,-13.728649020943585
421,-14.159583726371995,-30.147869919429144,-25.588171016411227,-14.359713163760226
422,-14.550881827216388,-30.62542310466868,-24.547272360156185,-14.957092233506286
423,-14.901790529540206,-31.015169351184053,-23.568080498415373,-15.510669609717672
424,-15.27835093524785,-31.283659049369376,-22.66947995972399,-16.031518015751193
425,-15.674970441355514,-31.41246413470874,-21.864805190461137,-16.521607234899307
426,-16.027478966939917,-31.391123973467046,-21.160371606833873,-16.976807046232793
427,-16.341065853192813,-31.208504620447695,-20.561148425948485,-17.42551815574951
428,-16.739179862365987,-30.836707804835054,-20.05438796662142,-17.94886354686988
429,-17.36033783369285,-30.251402579013366,-19.570737685985865,-18.642283260691798
430,-18.216874538924923,-29.504049979134635,-19.020701540104316,-19.531434939526733
431,-19.166743469569912,-28.704958258123092,-18.412005703246646,-20.52885766349038
432,-20.016452388661243,-27.911878429537023,-17.827105741974105,-21.476043079287148
433,-20.647812888037006,-27.085864107267092,-17.283377636118907,-22.245858152973057
434,-21.089120565176266,-26.12579032007268,-16.712204752424885,-22.837500126588367
435,-21.440699118609928,-24.913876955277672,-16.027174892919618,-23.332727186648498
436,-21.746933245927924,-23.361690107761827,-15.174979727021805,-23.773154708439762
437,-21.990291748732783,-21.451914592197546,-14.151332268518988,-24.125084298766772
438,-22.12734095305418,-19.24151206507459,-12.992827142755926,-24.31444915865661
439,-22.102032630730722,-16.821396265507325,-11.761963866911195,-24.26615020177746
440,-21.85674448633735,-14.288569884714942,-10.530604322446084,-23.929729956291244
441,-21.352530061376033,-11.748329670593472,-9.380794575971057,-23.29438603989934
442,-20.60811531109126,-9.320431790780802,-8.405292469417338,-22.387921427051122
443,-19.671061893335796,-7.14776163427506,-7.6854015629216486,-21.232740146115653
444,-18.510784367751913,-5.39519273465255,-7.276246186501558,-19.774297192564493
445,-16.980920236244575,-4.216976944316017,-7.209734999705129,-17.87233953676128
446,-14.922438161280255,-3.7036224306084073,-7.5040243414781695,-15.386641254715814
447,-12.305450418415516,-3.825091241227579,-8.148048531615073,-12.281950757923306
448,-9.274526499698496,-4.452402836748943,-9.047586402741256,-8.666715915440138
449,-6.0686461212726295,-5.480978333094337,-10.063803805646028,-4.733393867272128
450,-2.8762177811833047,-6.873603848135256,-11.148013191318759,-0.646474557515761
451,0.27291719920908886,-8.595901170918289,-12.336153858955983,3.5331005761371475
452,3.449449325020557,-10.59345812637671,-13.637399717244623,7.795226466502821
453,6.651620190808028,-12.801446576235042,-15.016470403488329,12.05620749278294
454,9.750443081540093,-15.146157240880354,-16.427921777122624,16.148393352161204
455,12.598925591664932,-17.555618911595843,-17.837449902497745,19.91181188216409
456,15.136774332831875,-19.977527363704507,-19.226841488884844,23.24726534147285
457,17.40215256934291,-22.38433698782741,-20.583331123418674,26.119287113998222
458,19.466877367394723,-24.749436299788975,-21.89496139382679,28.541561566208205
459,21.356761941503475,-27.02217282314226,-23.157278899396182,30.55416653095769
460,23.043130367180932,-29.11784870653231,-24.378921104873307,32.19086556043546
461,24.483909008945403,-30.921525166990527,-25.566697791167133,33.453934453192495
462,25.64194448294903,-32.31638543285577,-26.70828218675872,34.32588676859379
463,26.475327578573584,-33.21959031823615,-27.773966608773762,34.79629469527993
464,26.931995198591927,-33.602416932889604,-28.719567442458644,34.873603757940224
465,26.984602077407118,-33.49380850477697,-29.491586494950052,34.59414624580289
466,26.676824449707297,-32.958685348917456,-30.0419969664269,34.020459679017435
467,26.106801049817832,-32.06468573986955,-30.339441864692272,33.211458028727506
468,25.342099744787017,-30.87122207594126,-30.374841755045892,32.19000182394475
469,24.3688347445298,-29.429262871038766,-30.15751713804604,30.947440786266277
470,23.146185046530572,-27.77489945425788,-29.703358067882,29.481962988150805
471,21.689889323902975,-25.928993208081955,-29.027500048926335,27.824399636986406
472,20.09050218842388,-23.90393521450412,-28.14301647502831,26.035325190867646
473,18.440549566175925,-21.71412261222526,-27.059161308731206,24.180917053452944
474,16.780863719258065,-19.378999767515467,-25.78311805321516,22.31685807732655
475,15.127760285768172,-16.914472777991072,-24.32750352950337,20.48807625273357
476,13.506538119848583,-14.33187962688701,-22.71312841843311,18.72795499433984
477,11.961436348075436,-11.646096250310435,-20.9643399186493,17.060271207257383
478,10.509179558091073,-8.882798197151034,-19.099221803391412,15.493808995585844
479,9.09850585110033,-6.0822797078073805,-17.12769319537246,14.012661329424414
480,7.650516021098612,-3.297251583793309,-15.058334824665243,12.584216284823793
481,6.130829246363591,-0.5846913195987633,-12.900201717169487,11.18390106448099
482,4.570078601622489,2.0029122492781712,-10.661514362816646,9.802349608606288
483,2.998622996509444,4.4239585665390235,-8.347099046308296,8.430356445341108
484,1.404506958517076,6.64740970032096,-5.957548097229576,7.054465207773692
485,-0.24030021823712372,8.650608110269765,-3.4932919673652183,5.662103181070572
486,-1.9297298908291018,10.416293553482669,-0.9626877046846198,4.243760777556123
487,-3.6011943812265335,11.925669139657858,1.610579076401349,2.790760831275584
488,-5.202646015384711,13.158712493701254,4.18911860665038,1.2915663912223039
489,-6.757562703027768,14.102670153081949,6.730162653405577,-0.2723283313478131
490,-8.336768206698181,14.759619430126143,9.193538404504297,-1.9259449904147485
491,-9.980926222537947,15.143773919717713,11.545792697031157,-3.686022496139239
492,-11.662889283254176,15.270473329284675,13.762797020300813,-5.5496306700028635
493,-13.329512312119911,15.15681348192208,15.830180736149392,-7.496300738465037
494,-14.96023827818816,14.833987090598784,17.737397897538962,-9.495956207005543
495,-16.572804432923984,14.346363217732371,19.47302811496179,-11.511865938939264
496,-18.16417358159434,13.736375777020589,21.030225466659324,-13.496092501894237
497,-19.67698674830555,13.034869945683448,22.41738974909587,-15.395146315270333
498,-21.033051580674446,12.260667200779336,23.654695469817206,-17.16171438272195
499,-22.18498609579926,11.423715952311168,24.757856671973403,-18.76290926970787
500,-23.14785579643462,10.528036382109784,25.731667900792036,-20.185181839624182
501,-23.948546889333773,9.575510618222252,26.573701465489286,-21.429431592314863
502,-24.63096827149315,8.581150581030114,27.26658368815608,-22.546786756380584
503,-25.03484747289123,7.530695365563401,27.836280183839094,-23.478657990942466
504,-25.110746950209663,6.447309051697895,28.30548731480868,-24.195470591268226
505,-24.88671371431354,5.378370412179891,28.69426291475793,-24.692687642762333
506,-24.40175358850478,4.377644708015113,29.018055672431046,-24.983502329853717
507,-23.69228328263168,3.493913949591168,29.287334475022476,-25.088642607583598
508,-22.826573842096284,2.764100422764443,29.508926800084616,-25.034706587875267
509,-21.91542537098101,2.206446258426632,29.687773500059777,-24.861721680179958
510,-21.079657848792426,1.8174975014716477,29.828063510894154,-24.621588632052354
511,-20.39631860455597,1.5755426215960626,29.93344644163512,-24.367310919640733
512,0.23674661526519278,-0.8626273160103869,-0.2586623566167872,-0.4230703025683387
513,0.2762477426111702,-1.799072737372466,-0.665350698946362,-0.9125967926658791
514,0.2873821340694471,-3.0929779551781165,-1.270964622109381,-1.6029797783185167
515,0.24932616767117702,-4.731522597887353,-2.086204071921344,-2.4873307238389053
516,0.10745834565891263,-6.6710874708614885,-3.106352250886709,-3.5481683428164676
517,-0.1873523717640034,-8.841684011647493,-4.309829375709482,-4.7565172773979105
518,-0.6345484671087621,-11.16038047635314,-5.659078952283438,-6.061296148542801
519,-1.196435637882725,-13.549178518414063,-7.107740183205518,-7.396620273563661
520,-1.8530765384440673,-15.951398264829656,-8.609786869215855,-8.707487271727132
521,-2.6149831657758917,-18.347544609974065,-10.129118622887649,-9.973901074476107
522,-3.4852940374482997,-20.775251190049747,-11.647719373184437,-11.218872256369185
523,-4.426891506833905,-23.23194238440036,-13.132764858729422,-12.439700750638647
524,-5.405766173285367,-25.700564819367003,-14.54387415798031,-13.623367613207071
525,-6.44194002047757,-28.150807622813367,-15.844458736054804,-14.76303629406902
526,-7.5755432843576,-30.548457978770095,-17.01011441632091,-15.86136429643164
527,-8.812225760373503,-32.8621634803735,-18.029683744470304,-16.92274534689286
528,-10.107181782719952,-35.061627599116775,-18.904116624537178,-17.945541253884304
529,-11.415018630210385,-37.118508797388884,-19.645025752405743,-18.920349100342396
530,-12.736664173943106,-39.01244000981708,-20.272488865094186,-19.838153164102224
531,-14.098842437612685,-40.73124888881384,-20.81208883388738,-20.69900510033213
532,-15.502128797095036,-42.266907105464924,-21.290526107590438,-21.5073849718573
533,-16.890010085522835,-43.61686350983768,-21.7300003539434,-22.261527479614195
534,-18.19596478835287,-44.7830343938656,-22.146182306212967,-22.952242875938794
535,-19.40139149775053,-45.76175227551088,-22.548375277654795,-23.578299666997612
536,-20.522860199233744,-46.54191071911272,-22.93769473400269,-24.155407546377063
537,-21.552234304127342,-47.11793897581088,-23.307773292801055,-24.697534362674745
538,-22.431654597520286,-47.49910927574252,-23.650736537798768,-25.202756335468752
539,-23.111573299379415,-47.705950280447986,-23.964047866925224,-25.661897005078306
540,-23.612596821431968,-47.76096528155481,-24.25683382448225,-26.07678839043811
541,-24.016810484496947,-47.68022296691675,-24.54716808376334,-26.465489524700534
542,-24.38908959824614,-47.469822127028664,-24.848160976810668,-26.837713716951374
543,-24.73021206889602,-47.12750831842339,-25.161836628474358,-27.177049294702154
544,-25.02132884705299,-46.645700690195675,-25.482749885605756,-27.451339083466753
545,-25.276682579489115,-46.01282414643155,-25.80029558495172,-27.62599502267726
546,-25.549725555587408,-45.21351091718636,-26.097580533573087,-27.673246047690565
547,-25.870435624934068,-44.231720824002984,-26.35011788338574,-27.57230929744828
548,-26.194049171239072,-43.058476129569165,-26.52966407587582,-27.301111983934533
549,-26.438156261395157,-41.69994890291066,-26.61256273973624,-26.839836359544634
550,-26.54717347144489,-40.182183339112214,-26.58848323824761,-26.190109707131583
551,-26.518585727937587,-38.551617490350374,-26.460145644521106,-25.387991912678096
552,-26.35591614035198,-36.86904713451941,-26.235755307431667,-24.49144254042562
553,-26.03171639367354,-35.197646769330234,-25.92654778194566,-23.55122894053051
554,-25.51539907984324,-33.584066894029085,-25.5476146816887,-22.594481510788107
555,-24.817375629925657,-32.04334988707113,-25.117541638437775,-21.639125996347023
556,-24.010136303252587,-30.567667910280907,-24.6551688807298,-20.709497416475312
557,-23.171196158290307,-29.14467202016609,-24.17351692095988,-19.828252002548368
558,-22.323564523013914,-27.764860044566213,-23.67699313232034,-19.003233133514225
559,-21.456793720546685,-26.424186063715613,-23.165720156476652,-18.22943676133685
560,-20.584171695142107,-25.122202171943904,-22.641999122181215,-17.505567846921338
561,-19.768057341918436,-23.855643526814802,-22.11047513964301,-16.839351019034325
562,-19.0635063133046,-22.61592709290666,-21.575260190075163,-16.236040713720904
563,-18.45668978988136,-21.385012185112192,-21.04076438429221,-15.691485109649557
564,-17.8843929454669,-20.12718156755613,-20.5149142130986,-15.19530184926514
565,-17.307928545443257,-18.788087492939297,-20.00954659567042,-14.74002039888811
566,-16.746763056758393,-17.302913342269306,-19.535811029200563,-14.331549666535988
567,-16.238740591866364,-15.605852722931104,-19.10073881376951,-13.992767520697974
568,-15.796043103140661,-13.637634368290122,-18.706476072612443,-13.744942995786896
569,-15.39388178329224,-11.356549086715939,-18.349565554641643,-13.585261166123685
570,-15.019027476406043,-8.747451692009495,-18.02179259111349,-13.499874438362825
571,-14.712255308618673,-5.821560042582508,-17.713440373980557,-13.485387097669888
572,-14.529951098700252,-2.619982038087645,-17.414562356848695,-13.540655755063122
573,-14.48221589216883,0.7869254268558267,-17.112714492072122,-13.646205548414857
574,-14.512667744775388,4.316619949491216,-16.793832844772062,-13.76349342977711
575,-14.562179291607888,7.887471894403218,-16.4461861365208,-13.854442187748445
576,-14.627154115791816,11.426104944642637,-16.06218558893791,-13.895982299375197
577,-14.737694003164107,14.87680642747801,-15.63826264955841,-13.879190731321104
578,-14.904237794118027,18.200146272850507,-15.177314320084037,-13.79924100336989
579,-15.083748184638964,21.36597599626956,-14.69259619264935,-13.649402997173793
580,-15.230120426082202,24.35102466932547,-14.206150374935948,-13.430627380091757
581,-15.346767220368623,27.138789995898286,-13.744545126170113,-13.161468410729102
582,-15.463117191458347,29.724120953530157,-13.329211916830378,-12.869038314909725
583,-15.586427823718706,32.11511208929778,-12.96291783081301,-12.569381045929772
584,-15.670904589431219,34.32493925732264,-12.63220369524825,-12.252880266416843
585,-15.660674215444851,36.36255294405902,-12.322734360693417,-11.899419912362779
586,-15.553859726936855,38.22861305170059,-12.028609409197674,-11.511597671697302
587,-15.395592860791952,39.916028538881655,-11.748277149503378,-11.113321339062043
588,-15.210968113400847,41.41328061875175,-11.473399079757407,-10.719364615434738
589,-14.969808886352293,42.71075753000416,-11.18758605670578,-10.324375616268112
590,-14.633503963940967,43.81341867202548,-10.875632284464938,-9.912220529948245
591,-14.20786366702726,44.74828787684058,-10.528510993645378,-9.465682145145735
592,-13.738771948042281,45.55810815461728,-10.142120605657915,-8.974830628504483
593,-13.25494644395977,46.28553787205516,-9.71623847564113,-8.435469174591304
594,-12.74859806188068,46.95448596701237,-9.254588584070419,-7.843923970162925
595,-12.216193804480998,47.56905927546338,-8.762676995643226,-7.1997914259563105
596,-11.680295484148733,48.12539556495903,-8.244107505781953,-6.5110275203492405
597,-11.161811031410268,48.61313557570382,-7.698861573228575,-5.793965786861274
598,-10.627453815234768,49.013460016926885,-7.123460626479587,-5.061839707046594
599,-9.9962158257285,49.30729816087003,-6.51643710349376,-4.317166377022032
600,-9.19582228161788,49.49011006307088,-5.88784075752123,-3.561868632966037
601,-8.193520782396634,49.58369260801563,-5.2571609718748,-2.8115576870186114
602,-6.985886028452229,49.63722954203578,-4.638990712337059,-2.0966893945892195
603,-5.550003438882936,49.717370519822694,-4.038021775543041,-1.4436919964166157
604,-3.8285784182602223,49.892949766861946,-3.4567396420883965,-0.8597705851959276
605,-1.776670057391632,50.225194411769294,-2.902735668511737,-0.3376312740507569
606,0.5779468737692188,50.76650980670232,-2.3910561035250404,0.1330952403671019
607,3.105439414347991,51.55371715442147,-1.9399665354857745,0.5592231598392885
608,5.636449661807325,52.593515382199186,-1.5640202734821453,0.9488827163621302
609,8.049630488804356,53.85703343759845,-1.2701208949444762,1.3201887873669038
610,10.29093925694531,55.28728989873635,-1.0585045459567992,1.6988046522493472
611,12.326406123055616,56.80838976280239,-0.9269439350940323,2.1017734274382
612,14.084633870446154,58.332632159588535,-0.8706822016636622,2.523969090691792
613,15.474432831759003,59.76650905371485,-0.8797597000643061,2.9412092785170776
614,16.44886364192485,61.02150223535977,-0.9397894602890297,3.324990382789766
615,17.020777939700892,62.026749329778696,-1.0358282832003907,3.6535158404900367
616,17.23853133558973,62.732924322325424,-1.1537169188517982,3.9091842672853687
617,17.174233263287636,63.10925556847525,-1.2759634797547477,4.07811663762789
618,16.91973526622563,63.144907439809515,-1.3835635276496348,4.162452318863615
619,16.574825350315695,62.85271556209539,-1.4649090537979133,4.187070418543255
620,16.228918630878777,62.263935043480046,-1.5164488670546346,4.189968398514184
621,15.93744284840113,61.41629290707117,-1.5354924567957449,4.2073367215815765
622,15.721919657547497,60.34139204768593,-1.5153017897901326,4.2640092229181885
623,15.604651286806485,59.05223966318436,-1.4439312014253958,4.370971392755796
624,15.634396300899885,57.54792043566131,-1.3085548299716117,4.531739972153453
625,15.860730850610503,55.835102940952865,-1.1026579926050635,4.754128812067038
626,16.277577429785225,53.932791958341134,-0.8273124048949139,5.055050440987302
627,16.823782536052125,51.863446456304814,-0.4872515839117102,5.45148982919307
628,17.4343781259287,49.648729271573984,-0.08948719590319625,5.949943479413701
629,18.093138818219238,47.30749233072979,0.35318495147801626,6.549139007994957
630,18.882772665230945,44.99544400641707,0.7912139635047193,7.233475915610956
631,19.77872884346803,42.48018099248943,1.247755285348155,8.00852664099828
632,20.708542100969858,39.68994794783993,1.7239786424745887,8.845651009553468
633,21.608968246534303,36.665698252014046,2.2078849285744244,9.696910951479385
634,22.437036249460473,33.5196306929947,2.68136577147187,10.512766000854326
635,23.155898265259147,30.402179127060315,3.1261744438392673,11.25006331565757
636,23.736833137855616,27.47167241235499,3.5297559971830665,11.871826321713026
637,24.16562872999075,24.872490396933028,3.885263863672005,12.350822678917053
638,24.44323022698463,22.72248263537996,4.184902214202029,12.676546218636318
639,24.584851433796125,21.100508865786686,4.419707005010314,12.860939535837524
640,0.18457799548315634,0.06481560250808215,-0.4195876441852187,-0.13884294003969222
641,-0.030127894183244963,0.021264321325609403,-0.9514161899436613,-0.4906557520374515
642,-0.4400699566259379,-0.09744541325006287,-1.7438502199005474,-1.0507466767190292
643,-1.0970194565270752,-0.31615975222952974,-2.820311564517098,-1.83568458875519
644,-2.0457074856470885,-0.6557750770198847,-4.173262257768316,-2.8410570296931628
645,-3.2793189699375476,-1.1319551134352428,-5.766161757192538,-4.035198198115642
646,-4.7291171806863685,-1.7530273760600357,-7.545218932083527,-5.361213036369148
647,-6.294994896501749,-2.518752076796663,-9.451367984379647,-6.749389482314326
648,-7.89503173929712,-3.420454228908362,-11.427731150540819,-8.135659224049778
649,-9.469334837287875,-4.437017245327039,-13.427803435429833,-9.474517515918034
650,-10.94084204276499,-5.531561574052209,-15.432342352607916,-10.743627301533179
651,-12.223351724391264,-6.662231887303842,-17.406556554248443,-11.916120374966027
652,-13.284994673103702,-7.797406565316467,-19.32076492920112,-12.979337923863369
653,-14.177755965383842,-8.917902552016619,-21.150643801096624,-13.944878000544197
654,-14.97428879498578,-10.013023210404647,-22.874347901412865,-14.835775828111348
655,-15.701552838758838,-11.081433157486202,-24.472028506008343,-15.668469959336536
656,-16.341533079913667,-12.131974917588783,-25.929034780083796,-16.443606827256815
657,-16.88265324128306,-13.179792692450297,-27.236580435448047,-17.154575242777366
658,-17.357820733927497,-14.240693605379853,-28.38566792724389,-17.801637797285235
659,-17.806537402406853,-15.329454880609104,-29.36716039654441,-18.39287681565804
660,-18.222044534972504,-16.460491374449056,-30.181997505841952,-18.93500080154953
661,-18.544454767553077,-17.642658336984116,-30.84419291872699,-19.422741386552804
662,-18.71479558891435,-18.871554272986877,-31.373424087021604,-19.842884529361218
663,-18.726250830689118,-20.128170528337304,-31.786615791798816,-20.18312647972696
664,-18.607300801406417,-21.381380206166973,-32.09649589457833,-20.433428405868938
665,-18.37907154263118,-22.59226151915571,-32.31569911501962,-20.580394924714394
666,-18.033127580676894,-23.727175508856252,-32.45670212413487,-20.60176685680537
667,-17.58162374237391,-24.779071494560064,-32.52771778131193,-20.4853304393422
668,-17.096867408663574,-25.7646478412241,-32.53056066654443,-20.251672742990582
669,-16.659622507288212,-26.688204813153824,-32.46276862211326,-19.945998567822652
670,-16.305408640023487,-27.530617818445975,-32.323616850242594,-19.616788853712475
671,-16.01905076730204,-28.27403526685346,-32.120863381311516,-19.309774927203787
672,-15.78937527951112,-28.92222170858789,-31.873285899467344,-19.07189180014029
673,-15.655103675744414,-29.51387378808437,-31.607262672121106,-18.95085194968492
674,-15.677389858509473,-30.13118976734451,-31.347886310481183,-18.987028271469494
675,-15.876171625135035,-30.89472493497262,-31.112545898933714,-19.194161135341925
676,-16.200930873629606,-31.94417272909564,-30.911011917873108,-19.55160310427339
677,-16.589181016219495,-33.41193695685848,-30.74458715277568,-20.01747338686419
678,-17.029732057718245,-35.402913651049964,-30.60469500741971,-20.546632497856717
679,-17.552850542440442,-37.986541660229435,-30.47462072352073,-21.10095921261862
680,-18.1652253671053,-41.192304104300135,-30.33298051427015,-21.642999828853164
681,-18.814227475823227,-45.0025570457495,-30.1584068263497,-22.13187478807857
682,-19.439588461941703,-49.34522160286626,-29.935996995116806,-22.53661704913793
683,-20.035239316011666,-54.09034590297478,-29.663916401272157,-22.852084345758826
684,-20.645575609653573,-59.05964579470918,-29.352558996955157,-23.09138011389442
685,-21.293442484740595,-64.05847069717365,-29.014074544833846,-23.258826760004734
686,-21.931884331048227,-68.92079524735138,-28.65614852600678,-23.33975258943022
687,-22.50191068929158,-73.52607865998269,-28.287239635945625,-23.314381050276264
688,-23.00523829684468,-77.78108506419781,-27.919866434413862,-23.173579621934785
689,-23.480437247972038,-81.61333128307813,-27.562183141504754,-22.923990140153983
690,-23.931330307484934,-84.97069033479806,-27.206559402124036,-22.58129921829841
691,-24.31792553511668,-87.80816190702775,-26.828634799781558,-22.15175256067042
692,-24.600218228132743,-90.08481469556816,-26.397180836252407,-21.618871087177443
693,-24.764849870149842,-91.77310260309773,-25.88310634542943,-20.958964753145075
694,-24.805575841645826,-92.86306527038211,-25.262975488316066,-20.165598857190314
695,-24.67724504371354,-93.36019663470374,-24.517280650891784,-19.248430308736367
696,-24.296598786110593,-93.27568881506072,-23.627699606808047,-18.21648349563678
697,-23.591576382149885,-92.61257762815052,-22.583396340982528,-17.079388004953092
698,-22.540217092595235,-91.3688494132589,-21.39095463803114,-15.86274708536724
699,-21.166774870325685,-89.554057319563,-20.075142629429255,-14.606986350771455
700,-19.49081815206904,-87.19844336432956,-18.67257302830287,-13.35371108308693
701,-17.49900597053015,-84.35364285595516,-17.227058760607136,-12.138493142675657
702,-15.178896515617385,-81.08984760569334,-15.7883352632525,-10.987488441421908
703,-12.579334916768142,-77.4874970254577,-14.40701892902679,-9.92197598517928
704,-9.833323127268757,-73.62808024452958,-13.123124496984545,-8.965053193216548
705,-7.08938509763539,-69.58610086848932,-11.9579144841644,-8.130263354525837
706,-4.4557600136037765,-65.42137696205933,-10.916709769695004,-7.412269708172928
707,-2.0094601073759364,-61.18257113207928,-9.999074820826323,-6.794277426612004
708,0.18721955745500313,-56.915979293455116,-9.205972962222726,-6.263626727754214
709,2.05696500322527,-52.6618840320413,-8.534786235723303,-5.827179287180171
710,3.5106467065289535,-48.44531016098288,-7.970969208901548,-5.498707794414131
711,4.497836056372984,-44.27480508201319,-7.4909423717142625,-5.2670548795865155
712,5.048221068925827,-40.15006620934728,-7.0727561351345045,-5.093362670334618
713,5.251388627690715,-36.07218076976707,-6.703420202441529,-4.933176187973511
714,5.192352189223502,-32.05336218257025,-6.375725267405645,-4.74612769383826
715,4.930829629226677,-28.117126692952148,-6.080771994360346,-4.496951192002735
716,4.5283140586159005,-24.286364314976385,-5.808842542625109,-4.163134967316296
717,4.068392778937298,-20.57560896757221,-5.555957816528323,-3.7398903533161385
718,3.6183053532927203,-16.989163989425435,-5.325277299813053,-3.236120694131162
719,3.184656473429784,-13.524450793625219,-5.121586525080657,-2.6728309343098453
720,2.7389852943400608,-10.185750108695766,-4.945069306439902,-2.0812752107818997
721,2.2742717826215206,-6.9902096287383655,-4.789999902467986,-1.4836170577101626
722,1.8358962116865545,-3.956978099725061,-4.64841634343241,-0.8770769644839463
723,1.4684978875755674,-1.0976502185974102,-4.5134054284005325,-0.24735534496400666
724,1.1548677333081996,1.5839575817168805,-4.377657056921457,0.4142363978342592
725,0.838674437866161,4.084214666370942,-4.2297900542409135,1.1109317956074969
726,0.490171785664134,6.391225255238122,-4.055317978927635,1.8515913408394082
727,0.1391364451672416,8.491405356172736,-3.8425991142544893,2.6550725505458885
728,-0.17217920432673256,10.383309321150444,-3.583069405365765,3.5370737779654533
729,-0.4370314819771187,12.080077571383969,-3.2649446702555642,4.4963923550996805
730,-0.6741738831595678,13.604967252540778,-2.8755131184372145,5.512216490476195
731,-0.8742665918476974,14.987710142002644,-2.410583432340453,6.551443565443304
732,-0.9759143265057074,16.25924368405362,-1.8767606568127544,7.580169395770364
733,-0.9190777037265075,17.443226185994586,-1.2870246472134812,8.570637676254849
734,-0.6929358448553417,18.55095314396948,-0.6565832289634514,9.498683936569899
735,-0.3337939487447407,19.58529111389296,0.0009141638279747399,10.338334079012505
736,0.12761956490728132,20.546529691680572,0.6758723686681146,11.067976911239604
737,0.701193119993814,21.432007512659066,1.3610071052900248,11.682769684663635
738,1.4003522560296577,22.23096944719293,2.0480463097663946,12.192314910767125
739,2.197090131905412,22.922433209591965,2.727074534592949,12.60542137441969
740,3.020859868987754,23.485953198153773,3.389161548524604,12.927810612514774
741,3.8258141456132853,23.91733905763704,4.030559307482091,13.177184155288062
742,4.631750593861023,24.23334277404763,4.65456156823796,13.385482647070242
743,5.472025052259507,24.469242679255117,5.266817484285382,13.580055297487416
744,6.333602933391357,24.673453807827038,5.8666932572280635,13.767555320609825
745,7.148414482777741,24.892473893375136,6.444681436801218,13.931803602806832
746,7.851800228288153,25.161930735041086,6.989588571206285,14.047894523687647
747,8.434813622140242,25.508576744485804,7.495599079822986,14.102298542560483
748,8.926247260092445,25.935893630167712,7.962653082565638,14.096010552673105
749,9.335682393495112,26.412049698122114,8.390058874554594,14.031729261025916
750,9.621475671532009,26.89157200524847,8.768616286173362,13.906071870203755
751,9.737068233743722,27.351178981152394,9.080146223471777,13.707903712246
752,9.688523485682618,27.812499735035072,9.299832081534811,13.423962640213652
753,9.527199245006068,28.348610070359246,9.397687808071874,13.050856778241382
754,9.287668936018743,29.084718436460378,9.344348817568042,12.590510349090271
755,8.948606526187374,30.188293514275184,9.119331773481582,12.035737241309553
756,8.472281959953072,31.83883285247509,8.716218030934854,11.368191124608359
757,7.855796719931473,34.19440042715273,8.143166208640567,10.569232581475651
758,7.173101682891077,37.104283683371676,7.445251812133241,9.670368302270315
759,6.394019941778236,41.07484929211458,6.595767010198246,8.610990791296995
760,5.5057210611565806,46.2101946150261,5.614977711685257,7.390702447555056
761,4.542889748147528,52.311282854471514,4.556709384061234,6.057481579135809
762,3.5844594988283385,58.97965345023749,3.491073117679348,4.690239387210473
763,2.7119013789908832,65.72568821720218,2.485905257229733,3.3765678730216893
764,1.9648771059037387,72.06393059980428,1.5942906546621343,2.193004830810271
765,1.3432871153551162,77.59127200584328,0.8524950251309326,1.1940586729478355
766,0.8477666685281319,82.04213290816931,0.2815762435735255,0.4131883968363385
767,0.4996776422504773,85.2980397713484,-0.11466249211588397,-0.134621938998365
768,0.0,0.9941486755064316,-0.6608927660407833,-0.10838859110926738
769,0.0,2.17429923780037,-1.4945852450122719,-0.3842764496316441
770,0.0,3.8541976154693374,-2.6986561717892217,-0.786888086198656
771,-0.008247643087040533,6.017201680517519,-4.278199686459803,-1.3113984391076368
772,-0.03459170255222965,8.59657164854395,-6.20387463644575,-1.9427650985654434
773,-0.05758902469557621,11.481970739881843,-8.417028792989136,-2.6437118173785494
774,-0.034986516681257816,14.530562085367693,-10.841162751372615,-3.3611425420937397
775,0.0453438057766786,17.587922346163243,-13.394470200905367,-4.048852910035515
776,0.14331221579586426,20.514646822661387,-16.001284867016544,-4.6788616459680314
777,0.1913290169031811,23.217458452720145,-18.60768348178884,-5.239959581300582
778,0.14145400838916733,25.691170058483962,-21.20684580825046,-5.73874601364682
779,-0.024972641161927905,27.91021735540634,-23.76917312026833,-6.191337795352008
780,-0.3282806545869862,29.864851499156625,-26.26538928106586,-6.6258662002939905
781,-0.816364082312643,31.553321381471743,-28.661264498155603,-7.079235792481492
782,-1.5417847695791274,32.96729128464954,-30.917372431172392,-7.584435758037633
783,-2.5060043028159154,34.07915231812852,-32.99734972960372,-8.15598693156051
784,-3.6498286417855708,34.841557500389875,-34.87530808598882,-8.78929616202262
785,-4.899750217434473,35.200997139465564,-36.540762770982305,-9.47629211982505
786,-6.220519807907176,35.11506723683696,-38.00153400957228,-10.221648433883715
787,-7.60835415256064,34.56436041384822,-39.28122276445858,-11.035132112586757
788,-9.044551612247508,33.55641590538799,-40.41151519356997,-11.915376961847388
789,-10.487591022343386,32.125996697989045,-41.421352806001416,-12.849305108384158
790,-11.914478920144285,30.33681379273153,-42.327480663984346,-13.826951187102622
791,-13.349504042953855,28.278367458079817,-43.12915016807636,-14.846993164593476
792,-14.808290360329734,26.052422539837597,-43.80948429092585,-15.897566704384047
793,-16.246006780919153,23.757073967205883,-44.3438527607619,-16.945562372160545
794,-17.582238061235188,21.47644085990188,-44.70933846832341,-17.945236164483926
795,-18.75444441097919,19.27169299088012,-44.88982680198964,-18.850141910762932
796,-19.752609913934766,17.171811175035508,-44.875821399821845,-19.623356237848824
797,-20.579532307171473,15.174032313027121,-44.66616278045507,-20.240146416627162
798,-21.204502692523537,13.258563606117871,-44.27283794252925,-20.681290559658116
799,-21.582185581637884,11.40675976739126,-43.72034901012173,-20.925007937686225
800,-21.708428010804795,9.610829959965319,-43.037840766880265,-20.955692652483684
801,-21.643479451167266,7.874496629962248,-42.249039893736104,-20.780760048845487
802,-21.45429286404226,6.208125817543131,-41.365575437772165,-20.428523280483308
803,-21.149799078080353,4.624226781788638,-40.385185071000706,-19.92472255816456
804,-20.67758836253101,3.140038956765979,-39.29627377008559,-19.278959704631337
805,-19.992860285734807,1.7784360151209526,-38.08792169122166,-18.497639420739084
806,-19.11222814873239,0.5586286411188969,-36.757652636469835,-17.591494580081235
807,-18.0760121171297,-0.5137489116727205,-35.313250751304,-16.565070517290593
808,-16.890398624084305,-1.4479263629829908,-33.77166731289584,-15.406841167296866
809,-15.524825841208648,-2.263232277572481,-32.159936083513614,-14.096837657791056
810,-13.978590863293391,-2.9856520854709623,-30.51605741875019,-12.629052175424011
811,-12.319226435893851,-3.6463872326534985,-28.884899926790986,-11.022310320680875
812,-10.643013597430999,-4.279409929151724,-27.30948686871546,-9.312236857745017
813,-9.017019076875524,-4.91587762026468,-25.82353489013026,-7.534612724107026
814,-7.448712505370476,-5.576129154583436,-24.45278619277504,-5.716324263428158
815,-5.936391921016386,-6.268316386911017,-23.21944733699823,-3.8891924984631427
816,-4.5213620965603445,-6.9957347389747975,-22.140947547835573,-2.108811014172934
817,-3.2690686442447494,-7.760722558023662,-21.22699133068512,-0.45082002166270285
818,-2.21619717099762,-8.56361603325416,-20.476918136968692,1.021205279828925
819,-1.334670859427959,-9.40169585884366,-19.87904929762847,2.2841041870102843
820,-0.5797862845836268,-10.269104580332893,-19.41380395091653,3.344495228239095
821,0.04624383166278503,-11.16110646184585,-19.059524434511555,4.209838840677169
822,0.5031538171987379,-12.079622374638364,-18.799064906474026,4.8795693401525275
823,0.7784484979979204,-13.031294183570365,-18.621008824530414,5.357916820408132
824,0.9234826959157747,-14.021226761301705,-18.51760016038282,5.661240697703886
825,1.0017575716373786,-15.0510575169525,-18.48328010688555,5.811522451960384
826,1.0361524695430029,-16.11810107563704,-18.510669780223616,5.830122986282394
827,1.0111034549402875,-17.214016030510717,-18.585352649734112,5.736581356130447
828,0.9223638950221832,-18.325562147873125,-18.687333611216793,5.549428193808775
829,0.8130349908088829,-19.438945013133413,-18.79861695590703,5.288099747791684
830,0.7395636607042751,-20.545042754453217,-18.907246923843363,4.9764714454278645
831,0.7198086821267214,-21.640011482245754,-19.003910991497733,4.6380532369370036
832,0.7230987188143756,-22.7219620065432,-19.076709897914164,4.289676092849188
833,0.732727392190185,-23.7857811825941,-19.111529526925366,3.9523435673351193
834,0.7911329211679293,-24.820911527610875,-19.09875514072267,3.6589990855197225
835,0.9537582285149131,-25.813012234631692,-19.039141893854723,3.44090623016407
836,1.2202867236011188,-26.745030738192433,-18.94289430364357,3.306892783726158
837,1.523013792336764,-27.601741081023693,-18.82006099723543,3.243161574691235
838,1.8036669783479944,-28.376670128581946,-18.67011038474712,3.23664810534442
839,2.0718600613838793,-29.06761821514045,-18.479388922281657,3.287826914386383
840,2.376119886338859,-29.665441745186623,-18.223975253042646,3.4045808521072667
841,2.7453387608378734,-30.156099469404925,-17.87443004103425,3.5936999737734197
842,3.163258975651393,-30.53345385185654,-17.399128626877154,3.859855758684896
843,3.620951341483539,-30.806601589586155,-16.76986831674006,4.2098115983887325
844,4.164619728957075,-30.997315975664485,-15.969006229106567,4.661891925657881
845,4.858135089069979,-31.130461763051283,-14.98932360830953,5.253146507427435
846,5.723309964631224,-31.22256219032129,-13.83090862912258,6.018878052757674
847,6.739771704795252,-31.275084449303872,-12.502859843544606,6.9612467310343265
848,7.886351729103221,-31.277194012411872,-11.026987185487823,8.048818045888744
849,9.152539567237412,-31.21499145229636,-9.439340963839362,9.23885931775423
850,10.512134813452628,-31.078107962540546,-7.789292893861544,10.485238922850094
851,11.892596272454604,-30.863768795533968,-6.1354313364752775,11.728385268717814
852,13.195080455231327,-30.57596975618092,-4.5347973700149495,12.893107222054095
853,14.353747117377324,-30.219132981160776,-3.032481485376076,13.907377780470531
854,15.353812044190127,-29.79854461436007,-1.6620171403275914,14.725293370672656
855,16.192215506571504,-29.32635144021858,-0.4473359909240091,15.334045494481444
856,16.840470821635574,-28.82771758738875,0.60033052600507,15.74510002012459
857,17.278333650624685,-28.345425030102437,1.4818295169787505,15.979469968814456
858,17.525910627228342,-27.928655527005937,2.204697653802133,16.05702273052068
859,17.607473533121542,-27.609323953845315,2.781225028389001,15.999113855777146
860,17.53162036882601,-27.39394693069117,3.227724340612925,15.836238132385088
861,17.297245334470922,-27.274667185993664,3.5603450786601925,15.59993750277765
862,16.911289629358876,-27.24126976760911,3.7915574155244,15.30607817786521
863,16.399808522794782,-27.287416236482333,3.9311600736397136,14.958966869279177
864,15.770253219997835,-27.413263935702528,3.9916132672264224,14.57324703651901
865,15.009848434802922,-27.62563441202661,3.991091590119077,14.178163417028705
866,14.13808425012539,-27.93407739794501,3.9516186603490797,13.799573910886307
867,13.20920446438085,-28.34190243366846,3.8990036110158277,13.450284959241955
868,12.264908921121505,-28.838469244298164,3.86308501881527,13.140303437392607
869,11.330368743348808,-29.400899846851924,3.873531420258758,12.88972891413487
870,10.455577270620404,-30.00288527015565,3.9530273344118427,12.724663248819333
871,9.708896684862577,-30.616639080294615,4.112156561650368,12.657755603241675
872,9.12731179010828,-31.203411417253132,4.352104701910447,12.678357196863457
873,8.69047610150765,-31.710483012972624,4.672348645051147,12.762088861882317
874,8.3417536000579,-32.082674191436354,5.074879945363248,12.888393475473624
875,8.052194164007002,-32.27800585403656,5.561641506476394,13.05093944642055
876,7.8615506173333065,-32.28087170546024,6.1282355186249875,13.250341635623121
877,7.823037850049338,-32.10239301491675,6.7599713753373765,13.47753367778228
878,7.907698238066458,-31.765908074162528,7.4339357669732,13.709199713058206
879,8.02329791635762,-31.295334569763483,8.123253387707239,13.919077450606784
880,8.11310992531463,-30.715083962192466,8.8003977209952,14.086161220864108
881,8.190708312060837,-30.051933727408954,9.442313417353818,14.196649059136286
882,8.293644936634934,-29.33256927137865,10.034140480398827,14.241615809895023
883,8.404666516018851,-28.58298802519753,10.568535682932058,14.212800060623236
884,8.464768673575437,-27.831414337620895,11.043938221185353,14.105454608753396
885,8.461987365282386,-27.10715926180523,11.46393211338153,13.92035815916727
886,8.44404135759867,-26.476132698089074,11.850689855746047,13.680052073535622
887,8.399105892629295,-25.876525695090447,12.183520564313019,13.364682331147616
888,8.304966866573343,-25.272812031615928,12.454484106966076,12.978863768812715
889,8.177176481082464,-24.652478493367518,12.663634418428053,12.548186804936996
890,8.063135565178532,-24.02336689999658,12.810439649896965,12.108541923077567
891,7.993016452979026,-23.405892229940775,12.890921169156744,11.692461093495623
892,7.952443235528079,-22.82174672253707,12.904272364992222,11.320444496128317
893,7.903240869495885,-22.288547463412872,12.85953003651021,11.002365139043945
894,7.833989104779562,-21.821682156874733,12.775490270673933,10.744832812523061
895,7.772657323600372,-21.439111046291405,12.676232057486702,10.555520167685216
896,0.6165392586565925,-0.5244737114356202,-0.6960397451052984,0.17454367956875408
897,0.9629562236662934,-1.2077325744796306,-1.5396549691296326,0.38159480683194597
898,1.4045299390981378,-2.185264886479155,-2.746215504746994,0.6872130872139325
899,1.8950729985091677,-3.450090454878079,-4.319394981263806,1.0873982733678331
900,2.3948059714369734,-4.964264383722668,-6.226075558907683,1.573519108965407
901,2.909012548477419,-6.661577881280832,-8.39743629244311,2.13894415817545
902,3.4720512408762785,-8.455952320840058,-10.738294632808861,2.778579278094953
903,4.097701506211794,-10.255985651363261,-13.14114766990571,3.4854345618756515
904,4.769450971373145,-11.983812752544143,-15.50701606677086,4.245151872634045
905,5.482412202186992,-13.596872022376223,-17.77274906494833,5.041857661390232
906,6.292271824857571,-15.107988639595241,-19.939312649522957,5.877377109937876
907,7.2190620257298725,-16.523548797300297,-21.99163097891224,6.7578191695237235
908,8.226269559352884,-17.856259617569776,-23.918285146169158,7.681167011690148
909,9.237472831672163,-19.11687993544109,-25.71572191968758,8.619589724191293
910,10.184977444262579,-20.306810091637853,-27.39282157183157,9.531809861818854
911,11.045710650694867,-21.41576044713008,-28.96302563601797,10.387874290041225
912,11.804069763104195,-22.42399820453188,-30.43096462687059,11.165198195129783
913,12.400562429231037,-23.309064872966285,-31.78538791445952,11.828635537196709
914,12.759145352271851,-24.055082569485357,-33.00081446460897,12.337886176305647
915,12.85920944808861,-24.653438560384476,-34.04108352692706,12.677104902631587
916,12.758533854960122,-25.096526392775644,-34.86774530973819,12.8587678882148
917,12.525398797573676,-25.380889534728016,-35.45492176768475,12.903036840809436
918,12.180660424054649,-25.516346734183497,-35.79507903948791,12.827958347531874
919,11.714301366691501,-25.52361673053399,-35.89366459402461,12.647705202024465
920,11.141262768912577,-25.422626785508122,-35.76523966944491,12.37634545964257
921,10.527102076477147,-25.22836458190612,-35.4322449764523,12.037374097913117
922,9.93421305802749,-24.951577426445752,-34.92503851021887,11.657428687663009
923,9.361419915751885,-24.597925620410233,-34.28651255968938,11.24255277774412
924,8.750038702345353,-24.174677577827527,-33.574170698987956,10.769779742480026
925,8.056449953161344,-23.699060319751418,-32.85004529402629,10.209720726291597
926,7.308290569584605,-23.197509647655263,-32.16317214074863,9.551002622491255
927,6.565542693991202,-22.700400370330417,-31.541598971778214,8.800904951251088
928,5.845464658736697,-22.238821488628346,-31.00135267698973,7.967008976305622
929,5.105112037212264,-21.84400577003513,-30.55285847647548,7.052486888103461
930,4.310679303439524,-21.540064014040194,-30.195730229976807,6.0746789342762755
931,3.4875239098083943,-21.332468079805988,-29.913657159710358,5.071059733252275
932,2.680273681966273,-21.209788675276275,-29.67666423964495,4.084897927312953
933,1.9002149382566254,-21.153455973539156,-29.449685952647787,3.1557130599568897
934,1.1151808558188545,-21.138869722485364,-29.196161426349615,2.3177511465260197
935,0.30076816212682583,-21.134854775882125,-28.879130308482928,1.5975181372119258
936,-0.5157388657260358,-21.117257704139096,-28.471008103539674,1.0121865718450334
937,-1.2741862976271532,-21.086273787973823,-27.96247570837853,0.5681290922554927
938,-1.932638893149356,-21.06370555134349,-27.360924198108712,0.24999873846311557
939,-2.503424646944492,-21.078915515838098,-26.68319418459063,0.01595283501131485
940,-3.0060541263509477,-21.163922182856147,-25.94734034610619,-0.1815795870885094
941,-3.413016951711675,-21.347763571823002,-25.168137109500126,-0.3713481574852176
942,-3.67390206145752,-21.643394021649634,-24.357679032374765,-0.555745645089384
943,-3.778822231195234,-22.042645581129076,-23.527675597550907,-0.724803090892699
944,-3.7847570519551206,-22.520237011552535,-22.690049358905355,-0.8731866723614361
945,-3.7543266181556754,-23.03468302953651,-21.85284705223646,-0.9964055162113953
946,-3.7003476258105286,-23.5302801052747,-21.0195440943105,-1.0790435858272922
947,-3.60032303902475,-23.950456736453145,-20.194761359578905,-1.0983241376970985
948,-3.451524679642699,-24.254932218683756,-19.383518593211043,-1.0401837717332474
949,-3.2984256800918996,-24.422932394373557,-18.58381112814418,-0.9059763674043905
950,-3.1791138667603898,-24.44772855987156,-17.781225973713944,-0.707400005542463
951,-3.073082843529585,-24.335796066142027,-16.951542125732644,-0.4555491412918805
952,-2.923386565998451,-24.101607452137845,-16.071713892018053,-0.14971358734117074
953,-2.6945103807518564,-23.75756665426092,-15.128460135273786,0.2156209096859723
954,-2.3848524987108366,-23.308217907283264,-14.118573235637006,0.6336917366763096
955,-1.9921591637997482,-22.750406030611927,-13.046285895970614,1.0814501152214102
956,-1.4919775262595976,-22.077627824892712,-11.923042915413495,1.53428598441238
957,-0.8629489969302528,-21.281410010646667,-10.770757646862036,1.9820196932142042
958,-0.13960507504153258,-20.351535171085164,-9.627645923110354,2.4128654328290966
959,0.5952633963983467,-19.285839263995946,-8.5490116787242,2.788849368853514
960,1.269253459022816,-18.102475501502145,-7.5962688597399985,3.0557396299626163
961,1.8515394699512513,-16.836788498224102,-6.820965129783338,3.176611885005898
962,2.338688254568101,-15.526613426696127,-6.254549001476471,3.151027329355343
963,2.711350014506328,-14.199180370029506,-5.905564620367857,3.0034526256192455
964,2.9234207795047307,-12.865107675582358,-5.759109630836693,2.769062933245482
965,2.9310046434847874,-11.522229759181409,-5.780090845630565,2.4883721854869685
966,2.73788015744873,-10.165421666525578,-5.921376898206151,2.2032761066425652
967,2.4215046727761154,-8.793541259953722,-6.132608882613158,1.9563677342938022
968,2.076044308071661,-7.410151576390655,-6.36720595764886,1.7805104762138018
969,1.7476827457957718,-6.023230488426839,-6.585345201306142,1.6809302937206452
970,1.4337765082827907,-4.646657307493682,-6.755704508858926,1.6400963340305
971,1.1167918472019809,-3.2990297498467305,-6.857834668380664,1.641760549677636
972,0.8079279648801021,-2.0004038938389703,-6.885337606080396,1.6801114869382618
973,0.5508135525502335,-0.7726618889302003,-6.846937085087127,1.7533454990538617
974,0.377805827351245,0.35784489100113204,-6.758288362652342,1.8542046674216794
975,0.2710979160494424,1.3624375757793907,-6.631266052386931,1.9716691209491009
976,0.18402285680072666,2.221655413636419,-6.469920578572682,2.110655340312943
977,0.09994855656819404,2.9371882496341786,-6.275047759706939,2.295470210056719
978,0.04703683410226063,3.527766085024897,-6.052193715250807,2.5532542839884638
979,0.06473852164986393,4.0134172206240555,-5.811840687063059,2.8988566357277903
980,0.165285937104799,4.408759541627065,-5.564127543415565,3.329440249519773
981,0.34755505965024547,4.729325985769915,-5.3148920408253595,3.8340755003926934
982,0.6391722317265491,4.997770925463533,-5.062617006848268,4.40079060025917
983,1.0873609802574804,5.238408717632428,-4.7977834585071095,5.0171140490008845
984,1.705770675562531,5.464198700581666,-4.5054976633228865,5.665424508630104
985,2.4473826244664996,5.672879217473804,-4.167899035412707,6.318386406814539
986,3.259467277030086,5.851616522142639,-3.765395142479556,6.951946767776813
987,4.1335812216808305,5.981740742931847,-3.280030965711602,7.558308444634029
988,5.086721663188873,6.044029859955318,-2.7012585329355208,8.142176923250119
989,6.111905751639135,6.021524912540968,-2.031033491745814,8.708893020723698
990,7.146245566937957,5.901308783235936,-1.2833911497446857,9.251670800106275
991,8.122407160654035,5.67889593840351,-0.4791445272145317,9.756341271998046
992,9.032403114628506,5.35611454303847,0.357189100818485,10.219605423466472
993,9.913324742150003,4.929192778242449,1.1983929326937641,10.649211514790247
994,10.777016345030193,4.383578480192592,2.0159383299701483,11.045805352364953
995,11.569498055628781,3.701112312901328,2.783717550880934,11.38890184216675
996,12.220359739421152,2.871131943386779,3.482730435226554,11.644264456447067
997,12.70796258622336,1.8996329839980541,4.101664001316129,11.787472183884427
998,13.068027745973867,0.8054543332994812,4.635296494340305,11.815984601249191
999,13.332150831604348,-0.38961484041149325,5.083200547346471,11.738821185434583
1000,13.481862621682666,-1.6558102267150325,5.448260651156864,11.560532611575379
1001,13.47920217837128,-2.948204166733329,5.735579905201423,11.279264764840564
1002,13.316326078899706,-4.216199972260979,5.952877415121867,10.902652565956304
1003,13.041996940410309,-5.416663655501935,6.111977518777195,10.458425055316008
1004,12.707718250447268,-6.5160892596803395,6.226976664182624,9.979499694883636
1005,12.306909317868454,-7.487618411726789,6.3100792153863265,9.488891731659969
1006,11.801576895494458,-8.313341657733355,6.3707311467911545,9.005496754987643
1007,11.187114866063048,-8.987968166188502,6.4167784726880335,8.554535530977434
1008,10.524411782845734,-9.513258180064852,6.452087043005616,8.166398563317903
1009,9.877596700410443,-9.887982069246073,6.474108772121791,7.860826020412378
1010,9.255290262668522,-10.104182559120776,6.479995023576123,7.639617452286382
1011,8.643446719855572,-10.15107592026613,6.474309325835743,7.497967481810778
1012,8.065057315782598,-10.023924998225873,6.468556479780055,7.434561932963071
1013,7.590545468837113,-9.730512636585875,6.477657522231118,7.449112786674632
1014,7.29844090500167,-9.352082272077348,6.448224580399463,7.5297657336993495
1015,7.150534939895975,-8.812614239276002,6.507241041676628,7.674052325643792
1016,7.093741126797253,-8.092625539874646,6.725306911364145,7.865334544423581
1017,7.109336577218601,-7.210808461133251,7.127073794543502,8.090256951428804
1018,7.204562373093918,-6.215003731229612,7.700208489909668,8.34232241166175
1019,7.364713092916704,-5.168152412798502,8.403805782130528,8.610604728578108
1020,7.535303484774909,-4.137139246026808,9.176492084149908,8.873048339408301
1021,7.6544107099231535,-3.18961164917059,9.94751013788571,9.104364920323661
1022,7.710573876146153,-2.3871271055814183,10.650461786658587,9.290360285759036
1023,7.739358681495176,-1.77281916633399,11.231775318493236,9.428799059463332
1024,0.7628154901855785,-0.0914928495360855,-0.06127671453245189,0.6482827082910749
1025,1.4905882614616053,-0.37502148399765534,-0.11180979677931921,1.3910417767430194
1026,2.5336300807623067,-0.8291012416442147,-0.17604961540273162,2.4429220842221167
1027,3.847061934760208,-1.4659657349996407,-0.25922989727951495,3.7901252062947575
1028,5.381019307184589,-2.2752945059017695,-0.3672109339231538,5.391683243187494
1029,7.10351043851384,-3.215863072762936,-0.5077450862973542,7.19006714302972
1030,8.981022843991937,-4.221621733745133,-0.6922817982778898,9.114897199426537
1031,10.94409510706517,-5.2193741522641774,-0.9351973212051992,11.082828064068108
1032,12.903550983092327,-6.150296402081995,-1.250923395236752,13.008052801605249
1033,14.814402094152774,-6.988391501520601,-1.6505790107852303,14.82883744671998
1034,16.72030365805334,-7.746555037381109,-2.141924134705354,16.543698685043083
1035,18.621117197651465,-8.457510117506889,-2.729736361218081,18.13854306012106
1036,20.467944368373708,-9.164128813103043,-3.407761487667341,19.599578092404464
1037,22.209024640255,-9.902736298922694,-4.1535148916114055,20.91391732857563
1038,23.844935074437352,-10.693784018639056,-4.936794978849034,22.081712122757704
1039,25.4122575242782,-11.538744994203741,-5.732413131467486,23.121386219624306
1040,26.92392172115319,-12.415079728481299,-6.525198431965654,24.05750391004132
1041,28.338865757988145,-13.27468986387844,-7.303787464386708,24.909731065690963
1042,29.60637545897085,-14.0523112270574,-8.055462889861532,25.693088633785987
1043,30.722644962446466,-14.681109650271361,-8.769895795132967,26.41840957751649
1044,31.73438815196951,-15.111774840554915,-9.445286336838507,27.089260924212535
1045,32.66734973920563,-15.32333241626162,-10.088292057639338,27.69415094846178
1046,33.475793664992125,-15.324054377892478,-10.708079888931557,28.20393119833459
1047,34.088107193669615,-15.144371311339178,-11.311883331709765,28.582548279404254
1048,34.47370561684821,-14.822775018602096,-11.902651148086619,28.80542017393137
1049,34.66270351479605,-14.393627408071756,-12.48248690675792,28.871120590886957
1050,34.68451724517749,-13.878983688512783,-13.058680319082505,28.788873005712603
1051,34.515084762571355,-13.29013861917782,-13.641428468030695,28.55827597021531
1052,34.11206446737108,-12.63625187172328,-14.237863530791044,28.17181427426505
1053,33.47733726266082,-11.927682640663086,-14.850802316852622,27.63354346373977
1054,32.67421679959681,-11.173972682736206,-15.48200777506013,26.96496172980967
1055,31.76129353757441,-10.38198730141047,-16.130836363235623,26.191273763966986
1056,30.740672524780383,-9.555887963427828,-16.786865250008187,25.327905489113306
1057,29.587873820322205,-8.700201072537727,-17.426579028537844,24.381986203288125
1058,28.30448644508227,-7.824778129690864,-18.01699150901519,23.364028986322595
1059,26.943352847077552,-6.944874290358735,-18.525761905033846,22.294576250960773
1060,25.5584354115866,-6.0753055073562745,-18.928144726724046,21.203190938425763
1061,24.146170244582976,-5.2245042943874385,-19.20299705352506,20.12319889773714
1062,22.669644928378858,-4.393889329577887,-19.327707150732465,19.085163003168617
1063,21.13064928313529,-3.5811833138376072,-19.280096749140526,18.116057668303196
1064,19.594067323417793,-2.7822979391241547,-19.04443423805787,17.239185934638222
1065,18.128266682737806,-1.992922623856066,-18.615996182194642,16.4691051285543
1066,16.75364543813525,-1.211366955406073,-18.001901073221624,15.8035548233192
1067,15.452083826568149,-0.4399866337489625,-17.217357582865013,15.22126413796374
1068,14.223951095494604,0.31739359325884997,-16.285080857478913,14.697949306261236
1069,13.11975467861632,1.0589850782129995,-15.23691646555968,14.21908795921569
1070,12.191206845348049,1.7861518788597,-14.109261654489863,13.773410249786837
1071,11.436023808121448,2.499487764005313,-12.938661939161866,13.346747922008014
1072,10.789373735912104,3.1928533311083966,-11.759206745425544,12.923813162788429
1073,10.181835828744374,3.855297503838419,-10.600693814882227,12.493493425448603
1074,9.591531021013434,4.475995081457978,-9.488879223131441,12.053015363604482
1075,9.02114085374754,5.046014556239228,-8.443520585909551,11.60818353855149
1076,8.449485338631426,5.556976838340314,-7.476377563533424,11.162408719629578
1077,7.810247418189439,5.99747795089225,-6.593879063523839,10.702401724078898
1078,7.051391824955433,6.352068959312138,-5.801607964369212,10.201570566240422
1079,6.185765724838993,6.601605544911473,-5.107831778814281,9.633472997612772
1080,5.255920017345807,6.723693493518377,-4.5231801675604295,8.98145204006669
1081,4.285108501073962,6.700106476075953,-4.055538863078899,8.23667700373201
1082,3.2575918568617386,6.5287301667675814,-3.7053696611528064,7.391399182150742
1083,2.1653565501870333,6.224007087182126,-3.462357072661848,6.447831008188579
1084,1.0581303816619174,5.808211566704267,-3.3016065907731957,5.433623135075349
1085,0.02080570514226443,5.306685807115804,-3.1858337606925806,4.401531578748105
1086,-0.8896407852775262,4.746983966341958,-3.0753724948617225,3.4073778525428335
1087,-1.6769245966951691,4.157028989086724,-2.9368911684859267,2.4906417073460694
1088,-2.359592765616027,3.5618597673725962,-2.7458742990162235,1.6774204611896526
1089,-2.9166967655864813,2.9796348585467767,-2.4864425166346122,0.9869855868065601
1090,-3.2937688511771412,2.4157802268026116,-2.1510629095086267,0.43370212786395446
1091,-3.4662355416088393,1.8621575949951215,-1.7375083520137835,0.027779779360660464
1092,-3.473961199809024,1.3073556155695907,-1.2432063403461613,-0.2286847662244721
1093,-3.3770987649729514,0.7488724057248641,-0.6616419188954726,-0.34338954355706913
1094,-3.2041554876017955,0.19678754079072663,0.01706374797964874,-0.3223230996483538
1095,-2.942616168646389,-0.3309748904040093,0.7996580370394819,-0.16222701853736707
1096,-2.5979451676026937,-0.8162525120840398,1.67992221526753,0.13470914666389305
1097,-2.2339046527608235,-1.2441951903048132,2.637070304988717,0.5464263589217221
1098,-1.9314815489315358,-1.6053960828150917,3.642199106249742,1.0307581308076832
1099,-1.7342711036574046,-1.9003526483155229,4.661519101618552,1.539709263071535
1100,-1.6266446741924159,-2.13710820137366,5.654176688105783,2.0324568630167916
1101,-1.5893499314894384,-2.3228137865523935,6.570411383327854,2.467436555677619
1102,-1.6505289322205488,-2.462885115522797,7.355735058979372,2.7964866474372743
1103,-1.853532697804691,-2.5659549864100564,7.963655486859424,2.977717875191115
1104,-2.2065686834369007,-2.6459886765183795,8.367040571883459,2.993065128038769
1105,-2.669586904908655,-2.7205842258370367,8.557997200601424,2.846695900347078
1106,-3.2052153065915894,-2.8067858893785465,8.542333493982118,2.5483946767899903
1107,-3.8232248066111896,-2.9176368914745345,8.336687101741907,2.1038457252832656
1108,-4.5630344090195,-3.064267366647469,7.966819973406064,1.5095869921982679
1109,-5.44105206029947,-3.2619110497001578,7.4604986377449585,0.757896189231111
1110,-6.417207684558903,-3.532436418756017,6.839098489852452,-0.14829248407876605
1111,-7.436887214486892,-3.8969786724974824,6.115925798550371,-1.1993719962663425
1112,-8.491511715171203,-4.364311389234474,5.299874666241232,-2.398499445550757
1113,-9.61770527369557,-4.926387370081952,4.398226278058648,-3.7572991619516283
1114,-10.830961771286862,-5.5590102574413,3.415703894730558,-5.269687778746522
1115,-12.086352405730146,-6.2266058894324265,2.3541011198237096,-6.90014552003297
1116,-13.321134209127857,-6.8905016668888805,1.2160681967676874,-8.59483656718525
1117,-14.508689600716615,-7.517170545090435,0.01058747685262279,-10.302452487609655
1118,-15.665067776280118,-8.088231681926043,-1.244044728561688,-11.984869716091978
1119,-16.786956563986173,-8.605727983012814,-2.5193728182134203,-13.611385117702008
1120,-17.815623116564023,-9.085422646502904,-3.7783404897745276,-15.153009290761798
1121,-18.686160035681727,-9.548366809579575,-4.981438458019896,-16.580590605324836
1122,-19.366237087532856,-10.0162039215717,-6.09282928509845,-17.86510012173144
1123,-19.845254710532974,-10.505901355390927,-7.082928077303266,-18.979354259783257
1124,-20.106661710393873,-11.024463699089308,-7.928816530853127,-19.900497641394566
1125,-20.13138536694857,-11.567159590650368,-8.613089132041376,-20.61181901290954
1126,-19.93267070185095,-12.120416619303699,-9.123578442606156,-21.10252439421662
1127,-19.578230107582165,-12.663842615320789,-9.453879477006325,-21.375236077447944
1128,-19.164058075477328,-13.171105786572749,-9.60243587169299,-21.452171340925418
1129,-18.754568402633208,-13.614569738642166,-9.57091199823179,-21.36086524171386
1130,-18.370789102030855,-13.969949856356928,-9.363975243784477,-21.12053005294885
1131,-18.02579625504478,-14.218426924042776,-8.98812066921577,-20.745275949019558
1132,-17.75897932195125,-14.34829928914533,-8.450283729040141,-20.251891946175096
1133,-17.638216591499386,-14.354867158050581,-7.760303697102295,-19.663666960177363
1134,-17.706535265710894,-14.239493853232533,-6.932165107508388,-19.00422227864782
1135,-17.932118763400652,-14.010004242296933,-5.98284572202689,-18.288357275166298
1136,-18.21702789139221,-13.679914552995008,-4.933983580419981,-17.521193132782283
1137,-18.46781332418135,-13.266654178841959,-3.8137210735061764,-16.71166316711438
1138,-18.652656793636858,-12.791073011204764,-2.654541889717525,-15.889959467771922
1139,-18.77909254800354,-12.273600911386122,-1.487167968203211,-15.10263198760942
1140,-18.848703226194953,-11.72968554657616,-0.3356333953811552,-14.38673207248876
1141,-18.832817808750296,-11.167655494852527,0.7791212275265328,-13.75551495633829
1142,-18.66859927140599,-10.61297887848139,1.8368163384665572,-13.191570378140076
1143,-18.385707718659404,-10.015761091066844,2.8111508154240763,-12.70293876363066
1144,-18.026759788603922,-9.356883713659691,3.678645778392302,-12.292511009076556
1145,-17.641196996511315,-8.642935764659196,4.423824689805721,-11.950122155858123
1146,-17.278599887088678,-7.898720013186132,5.037291395544514,-11.657480525316894
1147,-16.981499654753293,-7.159239213245755,5.516593793437823,-11.405358760974833
1148,-16.777744919142094,-6.464824015945743,5.86803894300128,-11.19904127817557
1149,-16.672485870368458,-5.855956430402195,6.104609329630028,-11.046884417071889
1150,-16.63984116631713,-5.365524755109799,6.2437754334025835,-10.94845574244771
1151,-16.637820505449472,-5.011918583344544,6.306903541452216,-10.895201343072467
1152,-0.11661592578595323,-0.31587222690652883,0.0,-0.147883485236004
1153,-0.351676076821277,-0.6587751732799332,0.0,-0.3922548902016646
1154,-0.7031164895581403,-1.1706604235107627,-0.0030616590151045222,-0.7431665805706856
1155,-1.222642918916076,-1.8696897682428824,-0.012841001586654565,-1.2135302002472519
1156,-1.910305800243386,-2.7560948205813984,-0.022908285766973097,-1.7995502443315916
1157,-2.7115527956829615,-3.8105582741160946,-0.01952516162922102,-2.476156932817626
1158,-3.5722858434983276,-4.998168197805116,0.0052255083157148954,-3.208544575382156
1159,-4.474905687608628,-6.27352166961977,0.04661020010928965,-3.968966973582192
1160,-5.419683204141076,-7.58405361645092,0.0862630138853712,-4.7396931733297
1161,-6.376657060220946,-8.877509409911275,0.0964305110593601,-5.505176389366916
1162,-7.291092332421362,-10.120073386754154,0.04672089023117977,-6.2568032781246075
1163,-8.13906148366707,-11.268997372216301,-0.09032913369213123,-6.991247147539892
1164,-8.940086725580324,-12.296278257988277,-0.3336893282150247,-7.704356164097555
1165,-9.695519580558203,-13.194775217267251,-0.6886396983679552,-8.377266866424998
1166,-10.34790443560783,-13.97650701411057,-1.1456314649354122,-8.97480232155208
1167,-10.830578666368305,-14.663017427965785,-1.682763895244602,-9.458430878392761
1168,-11.130539349508364,-15.271660380867374,-2.2692811962132504,-9.80047229624345
1169,-11.290204716793268,-15.808469002148932,-2.868559159067827,-9.983575825873187
1170,-11.337508309772641,-16.271698226783563,-3.4399044951060773,-9.98970331823669
1171,-11.236972558783918,-16.659920982234034,-3.942668046794599,-9.789855765803427
1172,-10.930841876193323,-16.975615855133317,-4.347852126530027,-9.349772540440936
1173,-10.403713331007873,-17.223144503971973,-4.653579015106699,-8.65495075662886
1174,-9.698879355836098,-17.405641742841247,-4.882818277498401,-7.722805234469575
1175,-8.85672281293431,-17.52248499591681,-5.062823109211313,-6.591070042809505
1176,-7.8676896679658235,-17.56832391550118,-5.214070473563868,-5.300841417525507
1177,-6.7037546775346,-17.535243597643884,-5.349522661655292,-3.8918787482386774
1178,-5.378319145303483,-17.41799955656955,-5.475669189931356,-2.4150066271257864
1179,-3.972949938550988,-17.21541229414542,-5.59517920730507,-0.9374555103591317
1180,-2.579417495421338,-16.92588521270335,-5.707182646593231,0.4657317956358429
1181,-1.2410644886699311,-16.546466640313835,-5.809764945593756,1.7209038147916347
1182,0.03364977813864323,-16.077331918204354,-5.905624384157905,2.7623328703181516
1183,1.218023945368331,-15.524679851354172,-6.003200803361677,3.5384281956991708
1184,2.238252414548037,-14.902707251669469,-6.112836408193557,4.018120986713746
1185,3.0280210681849535,-14.237840282311733,-6.245785625831413,4.194311298017499
1186,3.5846822744912203,-13.56767933363258,-6.416605931952594,4.082132254009884
1187,3.9539124333792874,-12.930225167761021,-6.645632416338932,3.7156288130420068
1188,4.164968443982354,-12.35292544010836,-6.9586034468741635,3.1351603924812594
1189,4.188004495613855,-11.847175278583759,-7.378165591938828,2.3689159376388202
1190,3.9765350313572756,-11.410329961814144,-7.913499327378978,1.4356640570213008
1191,3.532409703017661,-11.03444261803811,-8.558876794295456,0.3621758890575151
1192,2.920789494609871,-10.71013741466321,-9.299155828344087,-0.8104263873246469
1193,2.208368330891873,-10.425624088664117,-10.114410386451196,-2.038967905744696
1194,1.4077257494925564,-10.170024795109812,-10.98250742672672,-3.295092515776999
1195,0.5046013551611739,-9.9348714791927,-11.880457376121685,-4.564375121076233
1196,-0.48703981489664194,-9.712931454141023,-12.785588037183864,-5.829618261936208
1197,-1.505504470292773,-9.503256515777954,-13.676644439003885,-7.0599127239911175
1198,-2.497295245467406,-9.315430346627865,-14.534284661373642,-8.216701222690164
1199,-3.4656320798203484,-9.16619309091612,-15.341912654083265,-9.268673900493244
1200,-4.447101663796041,-9.075838399701457,-16.08575103075824,-10.198755127329598
1201,-5.4581421455366605,-9.064113730723498,-16.754144468027437,-10.995912690380768
1202,-6.466942034093594,-9.142129251326105,-17.33626467802216,-11.64455142431695
1203,-7.442060465476313,-9.307721536110536,-17.82148840543966,-12.127217514935383
1204,-8.397073405647255,-9.54987800124649,-18.200354899051472,-12.439904535185283
1205,-9.367747035072442,-9.85614723873943,-18.46250944387416,-12.597090448498365
1206,-10.35554499727737,-10.21348928876731,-18.59469469670279,-12.613353375581944
1207,-11.302700333997022,-10.603733036808993,-18.583791737412213,-12.492576075114547
1208,-12.149229517100627,-11.001164650638088,-18.419887562158852,-12.236952944364784
1209,-12.885380000031319,-11.376630148537847,-18.097868454278935,-11.854694194827944
1210,-13.53773108535691,-11.70854061603499,-17.617705143043352,-11.36008869876856
1211,-14.109937041783683,-11.983207594249578,-16.983068750820436,-10.763601035969264
1212,-14.55227538160778,-12.180970686639585,-16.20158092472999,-10.064289460643192
1213,-14.809221669057829,-12.279211882159402,-15.287190144510488,-9.259052342071078
1214,-14.874921733869712,-12.267597557989161,-14.261144233821254,-8.35678172975215
1215,-14.802711622491453,-12.153180011663764,-13.14938101707838,-7.382883322687963
1216,-14.643791131295774,-11.960525952072425,-11.978399103436434,-6.370168187150153
1217,-14.388968848359552,-11.727844701487912,-10.775219660854917,-5.34664818643467
1218,-14.0020597013164,-11.493784211780223,-9.571406335492002,-4.340455218243787
1219,-13.489085931107232,-11.285312259856973,-8.403787323299289,-3.395389485523233
1220,-12.919021154891482,-11.11880096065895,-7.307768044899028,-2.5685963997253327
1221,-12.359761563581683,-11.00600881417472,-6.308778898138131,-1.9059803932324662
1222,-11.82146870196464,-10.956267092872388,-5.421895823604,-1.4231535917839244
1223,-11.286315503649,-10.977446349421195,-4.65849590250304,-1.1108483592719804
1224,-10.769781232557795,-11.076705812785967,-4.029990680901739,-0.9549836125079703
1225,-10.335024441230102,-11.260398284883395,-3.545284587039512,-0.9515498810886212
1226,-10.038013288946683,-11.536154029323232,-3.207417388638728,-1.1002660653702125
1227,-9.890976908948314,-11.911589335746593,-3.012539698483507,-1.3859425959375715
1228,-9.88386465146427,-12.391829184583374,-2.9506359399945112,-1.7733495520275488
1229,-10.013055068070065,-12.983503221168336,-3.006229552274865,-2.2230353493792685
1230,-10.268872422927547,-13.686797341605502,-3.1587185408099376,-2.7075169349092802
1231,-10.595419458376464,-14.475332243693604,-3.382777559423348,-3.2109144076450016
1232,-10.891114448078094,-15.294655548409068,-3.6489228603384323,-3.7202523684267423
1233,-11.054165632412763,-16.077285694831076,-3.928299633097425,-4.220356543595685
1234,-11.032514594171564,-16.75500776270097,-4.198276796784083,-4.704444573383758
1235,-10.816954552029832,-17.269765201062157,-4.443583106773797,-5.185315794826193
1236,-10.388337844481406,-17.58441497045849,-4.6550903264583745,-5.681651995960263
1237,-9.708480456258997,-17.682523233646222,-4.82954660776743,-6.203643382534812
1238,-8.767898133609464,-17.560013396328152,-4.972567559616122,-6.7571490784917065
1239,-7.6198912103779355,-17.223530092059033,-5.0965277228183,-7.353424205228206
1240,-6.330452330560219,-16.693583410122848,-5.211058543304908,-8.010808214902035
1241,-4.931577262212217,-16.004446173882112,-5.319317270551686,-8.74303047703677
1242,-3.453718360069354,-15.195777930558156,-5.422644365412839,-9.547479022124945
1243,-1.9519465444339064,-14.296993094189617,-5.524315519236119,-10.403521985478855
1244,-0.49162425518021063,-13.3156894814124,-5.628602056170727,-11.27889438677222
1245,0.8849202564412415,-12.24092002531504,-5.7375196028120925,-12.138027247741537
1246,2.153815094077969,-11.051520259066006,-5.847686229487649,-12.944663915878682
1247,3.26186525834224,-9.72345947625395,-5.951830715693154,-13.65914567869046
1248,4.126571910879692,-8.238809013160651,-6.043773244002537,-14.24273346054516
1249,4.685625045785106,-6.586678392808713,-6.121588154539829,-14.672960322016356
1250,4.927723224725788,-4.762625614241316,-6.186158441925536,-14.953765599898974
1251,4.882884056011323,-2.7733019491958943,-6.23587288151554,-15.107292169422218
1252,4.602306040034508,-0.639861333035763,-6.265831838777858,-15.152220956150797
1253,4.152306625967462,1.599919736220243,-6.273158015221282,-15.096140360114953
1254,3.59961141360141,3.8927290443532216,-6.260935525387512,-14.949800668961771
1255,2.976312462899033,6.1743476258148,-6.238343632395462,-14.733855519920448
1256,2.251702492669026,8.375562154784728,-6.21781593296222,-14.47411259827242
1257,1.3489712633553452,10.429650726024754,-6.212173024186953,-14.19481472370251
1258,0.22007082613404338,12.281345310686701,-6.231838892203261,-13.9136616152978
1259,-1.0983403495005006,13.891029409344451,-6.2816352109718405,-13.645937890344884
1260,-2.5332118859916486,15.229348702510128,-6.3629914858900625,-13.413383814764229
1261,-4.065295536574803,16.27205626468455,-6.477058067478319,-13.25188530813268
1262,-5.7206876416976105,17.002824289748425,-6.622357634498323,-13.203019283068862
1263,-7.479953304718516,17.41998059138478,-6.793071737064345,-13.291870223603935
1264,-9.240533317179166,17.534793469188003,-6.981893491481889,-13.523419030452114
1265,-10.88349206091737,17.362136272252524,-7.185249579596391,-13.89512172083432
1266,-12.370864453414734,16.915318448952238,-7.402918621329473,-14.398430545251724
1267,-13.745891939214326,16.20516104854855,-7.631613810348956,-15.01156858958088
1268,-15.05496269603795,15.24333920547909,-7.864325267621952,-15.699889936277282
1269,-16.304820459996975,14.047373252790887,-8.095188483294155,-16.42347054141618
1270,-17.479541169097764,12.691251306340483,-8.322489623926778,-17.16036185821585
1271,-18.620452049950355,11.115425186808391,-8.542467838249868,-17.877241012023124
1272,-19.71635559710021,9.343100511047052,-8.747984964227525,-18.538349056667933
1273,-20.71445654845197,7.451318009921149,-8.932087231666888,-19.108859108306884
1274,-21.565225701066844,5.545266448525301,-9.090449802729724,-19.563424406473075
1275,-22.26379583827925,3.7345189338233236,-9.221267559644625,-19.89434998934432
1276,-22.837153047806098,2.113872517895949,-9.323402348975245,-20.111584621808444
1277,-23.29414457173563,0.7539846095650061,-9.395711693460063,-20.233754402475434
1278,-23.61782647669694,-0.3019108087392194,-9.438859059793218,-20.28052365568936
1279,-23.802420294027648,-1.0417662370045682,-9.458591762211215,-20.27276769229276
1280,-0.24883319468562975,-0.4789793216621046,-0.29639794644032785,-0.4297072107596197
1281,-0.7866945614136645,-1.0722737790456498,-0.6158535271825623,-0.984624982262673
1282,-1.6196382151498112,-1.9152550299333058,-1.077360158043203,-1.7664440615702497
1283,-2.793216464397647,-3.006641279530764,-1.6931145542583426,-2.7721581643934665
1284,-4.2817943451257605,-4.329298071672817,-2.4632244803617587,-3.973340903143815
1285,-6.006169829465512,-5.853924964264799,-3.3769063724612014,-5.321505305018515
1286,-7.886627642740214,-7.541148085059159,-4.413152265617896,-6.761659575820646
1287,-9.865215869349065,-9.341912547928134,-5.5417914723970005,-8.244657582886749
1288,-11.88969501178644,-11.207877592932773,-6.730853951711703,-9.734797785108913
1289,-13.891023472775638,-13.112209579085734,-7.958119774414016,-11.216330706606344
1290,-15.81551613546498,-15.068490105366562,-9.2233024953333,-12.705981362538788
1291,-17.672138526288713,-17.073385726802687,-10.516339038931859,-14.212597740062673
1292,-19.507696996404515,-19.119284259842154,-11.828784298979167,-15.749212126167183
1293,-21.34139237724038,-21.18555596516087,-13.154044290792223,-17.317984595976572
1294,-23.13503977096981,-23.235152647983035,-14.488276361764195,-18.895402021530067
1295,-24.846498410078794,-25.224608770363414,-15.831556600058855,-20.445696703255376
1296,-26.48849392864302,-27.11866379320749,-17.186279250927768,-21.942122767924044
1297,-28.10655505731482,-28.894713774936502,-18.553117084932154,-23.37119067573788
1298,-29.709773875345196,-30.537892377060523,-19.925888164447016,-24.7234371615329
1299,-31.243961202363998,-32.03826900913831,-21.289415247937473,-25.98759720990828
1300,-32.65612299163948,-33.391461802631945,-22.627222053893803,-27.15901802338731
1301,-33.95375725390364,-34.59878153994933,-23.930771611402598,-28.25304799835518
1302,-35.19462294975913,-35.66652864401429,-25.19980964527887,-29.30662147737515
1303,-36.42691749194627,-36.606794133943104,-26.438534284070112,-30.35972320538363
1304,-37.644348488811914,-37.43928417216434,-27.652271336338863,-31.434419955816928
1305,-38.81985852167708,-38.18554796222288,-28.843188403798646,-32.530584293711456
1306,-39.9645022256675,-38.85714486231726,-30.004952003156617,-33.633869360526425
1307,-41.13514366108219,-39.453024524761034,-31.12071581140041,-34.725323629745915
1308,-42.365749943984106,-39.96733243228118,-32.16526230745151,-35.78637150433792
1309,-43.61708065155528,-40.39315338072928,-33.11053180118971,-36.795167354655376
1310,-44.81727769607924,-40.72036168091526,-33.93219153307864,-37.72326029178554
1311,-45.920827448113236,-40.93458664613117,-34.612907185099374,-38.54760419031327
1312,-46.9235572080171,-41.01961800461348,-35.1427527002337,-39.25948976690688
1313,-47.80399324514829,-40.968690165951,-35.5177212592272,-39.856513988372555
1314,-48.4804259353738,-40.794628226952,-35.737845125422176,-40.336921031796265
1315,-48.854540826301694,-40.524214747881395,-35.80687726464141,-40.69787983537675
1316,-48.87117597959123,-40.183154671224464,-35.73327286412352,-40.93587672741722
1317,-48.53643104163699,-39.78527303289462,-35.5268402756928,-41.046012226191564
1318,-47.86882189809033,-39.33261912504878,-35.1909776187043,-41.012822715107745
1319,-46.85394604545196,-38.81808203066977,-34.723152565426716,-40.80648745645224
1320,-45.45948819891693,-38.223356776899045,-34.12371132014231,-40.39209406085008
1321,-43.69267726811062,-37.52154312646637,-33.40104078509535,-39.74874396370492
1322,-41.62970770713934,-36.687870970700594,-32.57002540107595,-38.880937870502855
1323,-39.35703637772934,-35.706321362562214,-31.64733239192474,-37.806644745747846
1324,-36.92578174681252,-34.56930948846195,-30.64812670690186,-36.54041034927799
1325,-34.37843182222749,-33.27846680688017,-29.584411071542007,-35.08900057156776
1326,-31.782732818017884,-31.846253700696963,-28.461570031303978,-33.461052747864706
1327,-29.209051151413345,-30.297593738711072,-27.274527391462627,-31.680735463679504
1328,-26.673346950976203,-28.665085767735633,-26.00794645872867,-29.785412924534494
1329,-24.125603928201027,-26.975834276212257,-24.64246705449461,-27.80441545751742
1330,-21.495737586242466,-25.244739036741063,-23.164664013693493,-25.74485845344171
1331,-18.751278913623537,-23.477401195117835,-21.57470105577752,-23.609551347414424
1332,-15.894913381804564,-21.680452524346737,-19.88922769007621,-21.42645834866934
1333,-12.918612071178796,-19.871284128738058,-18.14222546539219,-19.247956889609426
1334,-9.800956480141402,-18.07844956699167,-16.3838932731061,-17.126027712382346
1335,-6.53914643693857,-16.338838784630934,-14.675824373812558,-15.100814830914969
1336,-3.168524433975855,-14.694391213201662,-13.082769273885011,-13.2078019875594
1337,0.25447393325327694,-13.187252808024018,-11.663579557890854,-11.486136000364567
1338,3.672964465339002,-11.85255797970037,-10.463581737302047,-9.978382989485478
1339,7.019210420479684,-10.70972289068093,-9.510892830390654,-8.71805039858283
1340,10.206856446952685,-9.761327963693438,-8.818531640773479,-7.721125664191786
1341,13.146964616891859,-8.998996699762067,-8.384328471957792,-6.993221455582308
1342,15.781593904711295,-8.40554395979032,-8.187904989236378,-6.53411889750848
1343,18.077181536966076,-7.956545993678721,-8.193599061553702,-6.334485662576542
1344,19.979087329091655,-7.626479843405862,-8.358713470212262,-6.371150509945126
1345,21.411695564073877,-7.391810622209545,-8.641935032487218,-6.604568202872179
1346,22.314431816679118,-7.228905229793287,-9.00805917629328,-6.9905328785813134
1347,22.658498153606672,-7.117212503890622,-9.431304745950337,-7.498171197417994
1348,22.43481802333779,-7.048701735166324,-9.89856539455123,-8.107880691040709
1349,21.665045994401027,-7.031523833493465,-10.407531388639322,-8.791897132153212
1350,20.443959802774586,-7.080646495769538,-10.957839637430844,-9.510141156593344
1351,18.92353654247211,-7.207671184941244,-11.544142282165183,-10.229713502444131
1352,17.238218009335814,-7.417380850002253,-12.155993839715448,-10.93841296663817
1353,15.446415010900619,-7.703758940704123,-12.777399070144913,-11.636627174632935
1354,13.551838969605488,-8.045396700588048,-13.38403191005223,-12.318310513635364
1355,11.59233321662725,-8.404610034754898,-13.942005849416677,-12.954968018292913
1356,9.673726740108979,-8.73011495240094,-14.411083648607914,-13.496733428505907
1357,7.901210582228576,-8.96034536007146,-14.750041176080801,-13.888789333282563
1358,6.29134071305714,-9.031451680115367,-14.92319137881539,-14.085081096750057
1359,4.773744192744128,-8.891922924031666,-14.909487618700181,-14.051649346237083
1360,3.270541168807827,-8.51653376305284,-14.706338598002427,-13.765311958450738
1361,1.7605381826109443,-7.911591260555581,-14.327928118931455,-13.214018666436665
1362,0.27996506694886325,-7.1119069331177025,-13.80322745263284,-12.408082080792047
1363,-1.1137884222967533,-6.173951203769347,-13.168370986041285,-11.39027872306434
1364,-2.350570001008158,-5.162753781686442,-12.455508886334838,-10.224098577873596
1365,-3.341798221225307,-4.133998444530861,-11.686486155639768,-8.97317192705498
1366,-4.003097942878183,-3.126259119745344,-10.874943327554183,-7.6889104695123
1367,-4.293745249825938,-2.166394220219766,-10.031616516480959,-6.416182470589947
1368,-4.208893686330724,-1.2719572932191625,-9.165265300712948,-5.204643383218214
1369,-3.726662097609586,-0.44529838572952785,-8.280926207003548,-4.102257905245381
1370,-2.811789295467824,0.326043116329122,-7.381327791668477,-3.140646522333615
1371,-1.4671527770738102,1.0594436902986948,-6.46986439758147,-2.3298708224457414
1372,0.24083376786365085,1.7719864466578978,-5.551065466862204,-1.6697592288903336
1373,2.19941090427937,2.4794563683052027,-4.631903339523761,-1.1624962475752265
1374,4.307731413700248,3.1908576474280954,-3.7209020504327492,-0.8046890890628186
1375,6.51770617871237,3.906850425856259,-2.824827986076361,-0.5728653971374604
1376,8.819218455690502,4.628201453021679,-1.9506268690237818,-0.4251856924600113
1377,11.190167029785467,5.361092338350108,-1.1092572860953693,-0.32081778030385516
1378,13.546697960586492,6.110944772123242,-0.31670515631478835,-0.23844274875522697
1379,15.750845847198256,6.871650557310181,0.4076036366095599,-0.17195132910764224
1380,17.666140333545364,7.623364557555156,1.0430424541709953,-0.11251727377659378
1381,19.203588545823926,8.338669631529097,1.5679333344124933,-0.046984962142624834
1382,20.31769658319492,8.989526759130714,1.9600222560662,0.02290941206684391
1383,20.962379525702378,9.555117204821169,2.20036654645485,0.06583679583808487
1384,21.077155181027823,10.029990523144619,2.2795955565918744,0.03296991826478446
1385,20.61884416511643,10.423656101212707,2.2032702717285413,-0.10797812961553147
1386,19.59277954821909,10.75083350220107,1.9923277118933636,-0.3526561277542656
1387,18.06429385166799,11.025230270269484,1.6776165379107653,-0.6764379261013468
1388,16.15316170774764,11.260650003605063,1.2928548521542167,-1.0612027945726983
1389,14.013528627371716,11.473457282267319,0.8721022517167146,-1.4987500312027409
1390,11.814612634969418,11.680116778269474,0.4525861867795262,-1.9705584119636397
1391,9.725140881135657,11.89133629125799,0.07304406399531789,-2.437045524955239
1392,7.882715251611339,12.108711913022406,-0.23791019173395256,-2.8551755299617616
1393,6.380859537964521,12.326420143819696,-0.4675892836014207,-3.1956948973804953
1394,5.283391273851192,12.538245669629953,-0.6110212700429849,-3.4400876679573824
1395,4.650775377699657,12.743105105642043,-0.6631940655863131,-3.568339783373356
1396,4.553423470817614,12.947049311811286,-0.6179260121903553,-3.552870941602761
1397,5.015521956459307,13.162893208939545,-0.46913840124531003,-3.369148444598536
1398,5.956106127638712,13.403499280485484,-0.2522365963373006,-3.0665433339219654
1399,7.20073085007494,13.67706427182359,0.10346326713029472,-2.5633401719082225
1400,8.587193960549577,13.97837789844765,0.6210107254539483,-1.8363300160182803
1401,9.994652069992814,14.291488048871361,1.2861384007761654,-0.9045475695094328
1402,11.321984933338122,14.595621496417156,2.0567340733158126,0.17424759080277147
1403,12.477693555988218,14.874041152936224,2.875147734413394,1.3107228633653163
1404,13.395030029926932,15.116022749604033,3.6809150220218543,2.4059981094723804
1405,14.041641131510481,15.312500184085641,4.419525370093926,3.38116780365652
1406,14.420245921041333,15.455238427718237,5.045627008037685,4.188177937857019
1407,14.565698277604168,15.540647999513622,5.524614007526954,4.799737380772994
1408,-0.4126660854371007,-0.4282483974359336,-0.45714255349695315,-0.46862969178537994
1409,-1.047187083805594,-0.9993203251483291,-1.0342990116220105,-1.0683806980672612
1410,-1.9980626144949984,-1.8616093818283712,-1.9019091558586638,-1.9499772834038778
1411,-3.2891103698251887,-3.0409526097383086,-3.067361872962266,-3.1378664134673198
1412,-4.878966383432933,-4.536898995639451,-4.4959270729696446,-4.628132136241045
1413,-6.688330961644706,-6.3158853410517155,-6.113134139743253,-6.391706197807557
1414,-8.642939726750347,-8.302871536360819,-7.81395326756245,-8.385103707952187
1415,-10.685539812482316,-10.393245511420389,-9.477671219851517,-10.559931657865507
1416,-12.757016084350623,-12.481853996546112,-10.987430480549579,-12.867501783010363
1417,-14.793469153531172,-14.488326681417693,-12.253480375351112,-15.26305265461539
1418,-16.768374458393374,-16.380086448728605,-13.24601732601414,-17.726093688740274
1419,-18.71561026403036,-18.121160807520802,-13.93752241521821,-20.228035050722674
1420,-20.68462773527093,-19.69264985442247,-14.30484065193818,-22.740403777320616
1421,-22.678569214674273,-21.093066822360374,-14.33765446858884,-25.21196273272134
1422,-24.656811718036483,-22.335557166576116,-14.060105273268961,-27.572961115400833
1423,-26.592553459641287,-23.442626601876224,-13.535498529634346,-29.762832808640784
1424,-28.510812768359354,-24.43754858681664,-12.854523455807701,-31.747238023780106
1425,-30.440521692302937,-25.33839071348845,-12.10902633043126,-33.50918427458566
1426,-32.349065404950636,-26.15481770671463,-11.378945735124264,-35.03155441934196
1427,-34.13629925150998,-26.88317699736855,-10.74443491494661,-36.29575581730443
1428,-35.7103973416241,-27.509166669882,-10.287998109351472,-37.29691880138545
1429,-37.045690197611194,-28.019416532294894,-10.082033446345159,-38.05217816417937
1430,-38.15155254372848,-28.40928461267511,-10.176294581553321,-38.59361200584845
1431,-39.041599665964,-28.68437102177834,-10.586316331718818,-38.95367162502552
1432,-39.73467290147284,-28.85307404288974,-11.291529817507053,-39.15246614480667
1433,-40.26658457841722,-28.914313434738144,-12.243198751405428,-39.20194446929128
1434,-40.67727510905618,-28.85973411957635,-13.372919652570346,-39.11690734740018
1435,-40.969320383476195,-28.68237891413361,-14.600611198318738,-38.9120392183425
1436,-41.083454738860716,-28.37600068702108,-15.849856021841747,-38.588824153565106
1437,-40.92491178438161,-27.93664725856483,-17.072528015015422,-38.13724148507286
1438,-40.42376329652285,-27.3673830171466,-18.25172641344719,-37.5578078270858
1439,-39.5468384409436,-26.67808621908549,-19.378067650296213,-36.868820054198295
1440,-38.26275843328743,-25.885819246662344,-20.441980540882465,-36.089582626348985
1441,-36.521530256459435,-25.016901941396753,-21.440068292051443,-35.22865763494691
1442,-34.28692961829568,-24.104111024342945,-22.3770840579788,-34.28916959715893
1443,-31.59859141696058,-23.181127752736323,-23.263646542861153,-33.2809182946794
1444,-28.56882351350312,-22.28212541075214,-24.108759016528776,-32.22659653567635
1445,-25.325662589113207,-21.44173835744449,-24.910492392688038,-31.157584859557645
1446,-21.95761530142833,-20.691513165790735,-25.655178081720027,-30.10378567980477
1447,-18.496894946699534,-20.06125436010573,-26.327237071834283,-29.088842148158058
1448,-14.965335187683232,-19.5786883781822,-26.91726058027239,-28.137132621085264
1449,-11.423787957042183,-19.259793867665923,-27.420202834304813,-27.28540389242934
1450,-7.994744198636508,-19.103443152770538,-27.82809057175058,-26.581269253253033
1451,-4.836043584637786,-19.095780458341537,-28.132457641520727,-26.0643529246795
1452,-2.078734619300382,-19.217617175631965,-28.33537132368113,-25.752735354227518
1453,0.19373055681335474,-19.450783192519562,-28.450055941486376,-25.64184714689885
1454,1.9176295716848937,-19.779459541995948,-28.489986918231747,-25.708993259490793
1455,3.020394078515164,-20.185447336928316,-28.462213184095944,-25.91984080695986
1456,3.440892649425064,-20.647430215593243,-28.368156587362005,-26.229451166295696
1457,3.180032228490365,-21.1463847359948,-28.208099452222328,-26.585826433663346
1458,2.3243146743321415,-21.664395181406675,-27.98699700319593,-26.940569796191493
1459,1.0161047265405632,-22.179705810402194,-27.715925985762524,-27.2523108153163
1460,-0.6121477470422293,-22.670612757551456,-27.409440745085902,-27.487331730472917
1461,-2.459795328904361,-23.12073247534963,-27.081279522175883,-27.62640842915628
1462,-4.431491051815305,-23.51761645385647,-26.74301871878256,-27.66152571651044
1463,-6.424040867985231,-23.849922650112354,-26.40618672352649,-27.584100004551836
1464,-8.357222235027264,-24.107419574747162,-26.080703954045532,-27.384940946148248
1465,-10.210093186189015,-24.28700754968767,-25.770856244758903,-27.060578633571136
1466,-11.98018738057971,-24.399829285920724,-25.472568059768246,-26.608920429194203
1467,-13.625364150320635,-24.464087120502324,-25.173347654544695,-26.017261296024852
1468,-15.068388916033683,-24.488239722738044,-24.854503127684687,-25.260853513191996
1469,-16.255300236220243,-24.46780534629423,-24.494186462338583,-24.320709245134555
1470,-17.200355124175097,-24.39294862625268,-24.07208300044532,-23.20083493154068
1471,-17.94193892964477,-24.251165797135517,-23.574566869960577,-21.925957561146785
1472,-18.481650796456904,-24.02578965945247,-22.99688550345759,-20.52925527764117
1473,-18.788147670464987,-23.697533102783993,-22.341703112368652,-19.045059672956345
1474,-18.858036466816287,-23.24994568138765,-21.61661408367219,-17.51392009815706
1475,-18.759306882941015,-22.679416474666315,-20.831813457405353,-15.988465623254097
1476,-18.59353127265854,-22.00643486342323,-19.99925810096987,-14.525551810519842
1477,-18.42188884704647,-21.269686889234578,-19.131572084447697,-13.17001319131167
1478,-18.236731652904368,-20.50688777866582,-18.23875123808271,-11.938780075939606
1479,-18.020333982020926,-19.746607060519747,-17.32722732237295,-10.819887361030165
1480,-17.790247719883443,-19.009919106563483,-16.400430237456483,-9.78971270586022
1481,-17.570647398505884,-18.31064393644858,-15.461044622554972,-8.825258012355919
