,TP9,AF7,AF8,TP10
0,-0.7491124186019794,-0.10011308227801971,-0.4407384399998722,-0.07920788331858963
1,-1.5429595370166553,-0.2972192599083013,-1.0400328063249888,-0.4507901906978851
2,-2.664933103695195,-0.6133528087888092,-1.8900839230073732,-0.9917182154531977
3,-4.107098814266284,-1.074809320470628,-2.9806800126109314,-1.691518690342623
4,-5.83292326328615,-1.691147573148482,-4.286506858916065,-2.5395527430838354
5,-7.777968190215109,-2.4446744681517782,-5.763305267781263,-3.49587767511263
6,-9.848834533162387,-3.2917386502375288,-7.344727944848043,-4.489824999398174
7,-11.932507852627841,-4.1733314511626025,-8.952739217474418,-5.444372006648174
8,-13.914470110458986,-5.0293139233528,-10.51862210883651,-6.30337198172226
9,-15.704052657039476,-5.811897076873216,-12.002321949991032,-7.041888046372569
10,-17.26561897064564,-6.497575944588037,-13.408746741942073,-7.659175534801965
11,-18.5362125449635,-7.072716820381579,-14.73434245121867,-8.159199281571208
12,-19.463088016959336,-7.53499627209112,-15.982192787894153,-8.556103497143233
13,-20.01941109113221,-7.8959108846463435,-17.167488581329053,-8.893843095356605
14,-20.20780385016374,-8.186603612541411,-18.31200802018607,-9.230627436888476
15,-20.059846151552915,-8.44517793782857,-19.429220864461897,-9.59767492888759
16,-19.6199835400939,-8.700239849073428,-20.520629290757334,-9.996751677485076
17,-18.90699019029446,-8.969774551929987,-21.584728135767985,-10.42985931313951
18,-17.926135805809018,-9.256537776743054,-22.621019073417262,-10.909804871938183
19,-16.72264912113101,-9.535526325842564,-23.622035270828718,-11.44961811109562
20,-15.384741467024902,-9.76291748593846,-24.56427423608499,-12.034694232974731
21,-13.999209406606164,-9.903713566788957,-25.415662472453413,-12.606003626926208
22,-12.621084830154837,-9.94243268745954,-26.15238287124983,-13.107146318657875
23,-11.28691839141901,-9.87897826876755,-26.766147169716533,-13.528684002609713
24,-10.041041235637898,-9.730529105016057,-27.257735982024897,-13.885062607697748
25,-8.938338102132033,-9.538298653431054,-27.625825881700926,-14.183680088028245
26,-8.035676740972455,-9.363077351895747,-27.865880141531377,-14.423233382289009
27,-7.387739446716163,-9.27132708221144,-27.975720724997444,-14.615677600031901
28,-7.034687809522436,-9.327180576186706,-27.9556598186295,-14.801507960154561
29,-6.985937173381327,-9.585662680657249,-27.80019750429261,-15.022033152540377
30,-7.214268727112248,-10.078449420744278,-27.488408828786955,-15.28056249593034
31,-7.658874634535363,-10.80139536699276,-26.986880771982374,-15.540861133179797
32,-8.236009216954129,-11.72463981539774,-26.262704922131647,-15.758799519772868
33,-8.85600247780782,-12.815357844369059,-25.29166880521206,-15.900313205263389
34,-9.445479476692071,-14.041510053485947,-24.060530741970673,-15.929001586879114
35,-9.943755567824127,-15.362857314067586,-22.567920348671937,-15.794630924993424
36,-10.270675939666244,-16.735336186596683,-20.826150411734577,-15.442301071750368
37,-10.341261325282776,-18.12648969552997,-18.861740060396176,-14.833629217330008
38,-10.117279179681216,-19.519105479654513,-16.712189720801895,-13.973076507380826
39,-9.621897087019281,-20.902387281577646,-14.42332154337377,-12.908992523693573
40,-8.918344114005563,-22.26364947368403,-12.046689241822873,-11.687533169073992
41,-8.07095479657464,-23.57408324559977,-9.635153786104352,-10.329444732318821
42,-7.118792813166431,-24.77321257495412,-7.23845537435947,-8.864301647805561
43,-6.080932468416439,-25.779453618807032,-4.901948145046776,-7.349986097984031
44,-4.966084974395112,-26.52037730075345,-2.6693485717994743,-5.854414536499682
45,-3.7838273309917856,-26.944240913606976,-0.5820858348876875,-4.428094874714207
46,-2.563064629482573,-27.012229028424485,1.32771768408077,-3.088827461344226
47,-1.3446148355688285,-26.70679806247764,3.043851458786609,-1.828518396795476
48,-0.15090243292810324,-26.05011744991794,4.563939004628999,-0.6307983736573854
49,1.0102957984406868,-25.09690829756213,5.892135183330938,0.5070365804424483
50,2.116010744477849,-23.91248290662642,7.035015201231772,1.5758451479618718
51,3.12258780941793,-22.561175451144322,7.999040147084831,2.570250938780925
52,3.9817584834960953,-21.1024431433559,8.786023696851606,3.483228952311398
53,4.656636602603744,-19.588828632049772,9.393592982800174,4.300952661158895
54,5.127086930188618,-18.061399717226983,9.822296883231731,5.0056971694827554
55,5.385993533324721,-16.549000179398682,10.07760414181439,5.58256088599043
56,5.433850603272329,-15.077258858738105,10.167209826478086,6.033515986384238
57,5.282241842147548,-13.672341284043389,10.097698827612657,6.377669611499605
58,4.958974468756443,-12.3626903858224,9.871996350780016,6.628071335132306
59,4.495814945526121,-11.187421098126535,9.491758355747065,6.781556558108637
60,3.9157166023958005,-10.192304358211173,8.963078484452007,6.839641664175324
61,3.2346490994851256,-9.412777492593378,8.302681876782847,6.821192070711241
62,2.470376039487299,-8.866509038297444,7.5363531200660585,6.756411934746454
63,1.6441225771705963,-8.556602759490891,6.688376770299812,6.6624787829752945
64,0.7707597292460111,-8.468132885375326,5.776227405154857,6.512894238126692
65,-0.1488155195664104,-8.556500202123386,4.8168535902753336,6.258251325704351
66,-1.112887518035389,-8.7549127107945,3.8349481332706254,5.879436489142199
67,-2.087828816102535,-9.002682427119503,2.8618980311637463,5.3990611503474835
68,-3.0114026294530385,-9.256425998797514,1.9281361127376322,4.844635398881401
69,-3.8233165511442366,-9.476649124530965,1.056572637621576,4.2245074966168845
70,-4.476902419990225,-9.626632146787085,0.2589852696901949,3.5410434488564664
71,-4.936181388157048,-9.68936084259013,-0.4658506223924044,2.8081504326828886
72,-5.172407953663802,-9.66874085996818,-1.1296221318243382,2.0563887439073
73,-5.1669813489219525,-9.577345812797628,-1.7476491078774823,1.3116566881515868
74,-4.924678171835381,-9.428462671358433,-2.3345405853815584,0.5684207997299979
75,-4.477413280026996,-9.229582066374435,-2.903436907666267,-0.19387926610977774
76,-3.8594528813798807,-8.973546793807342,-3.4626904090828803,-0.9733809372256443
77,-3.0935489799413176,-8.636032797471241,-4.008144118080816,-1.7409459943553618
78,-2.210710023572758,-8.185741140115775,-4.524889066707872,-2.4610953855551134
79,-1.2556749799721985,-7.5959908273314385,-5.00123337536577,-3.112199443964222
80,-0.26386103501192637,-6.848986909022982,-5.43731985211954,-3.6948245182253454
81,0.7425346700551352,-5.9365422481686325,-5.840309151618824,-4.204658118540137
82,1.7260374335597872,-4.8635557593844085,-6.216213327577496,-4.613236086569865
83,2.616286993106883,-3.6506898359062774,-6.566978847890588,-4.896998906801694
84,3.3353922121104893,-2.331168286560978,-6.889638749040552,-5.054355789704044
85,3.8412779519142943,-0.9466978956333489,-7.1769918683018625,-5.094059628204995
86,4.134913376893124,0.4529757314345339,-7.419944320629246,-5.020372795993106
87,4.239285106716481,1.8224243686788908,-7.611742997332776,-4.830306967129271
88,4.1896445851684865,3.1478383762068383,-7.751509285062032,-4.5301305929434506
89,4.034980876464044,4.442931238673223,-7.843040930291016,-4.146925428130831
90,3.8296423618593582,5.716374569507166,-7.894203177021999,-3.723061583604717
91,3.612309178911209,6.960427859939542,-7.9170149054928025,-3.2991933456147065
92,3.396384512639752,8.159420366356002,-7.924376406974039,-2.907687814992842
93,3.178459338248647,9.299119722761965,-7.927730556506908,-2.5781652270615214
94,2.9607517578125346,10.364804891637071,-7.939812615188689,-2.341443764915339
95,2.761658936596731,11.335726190864142,-7.973093986182085,-2.2343116435482124
96,2.5820883881093826,12.187637313625112,-8.026784412184442,-2.283976684232155
97,2.379500730156621,12.895684830966305,-8.081875205256582,-2.4749404152730348
98,2.107414405192854,13.436782042692352,-8.113703262454928,-2.751614946665798
99,1.758787762000583,13.792888568666308,-8.105587045841645,-3.063069614220968
100,1.3469732853148628,13.952621963868559,-8.051097601497553,-3.3877226933777402
101,0.8709783976549035,13.909229471674537,-7.947362298143269,-3.716421402916188
102,0.30691657756235224,13.662794044317074,-7.789693764766385,-4.0340473499755225
103,-0.37127353271221486,13.230157803321363,-7.5732513248692594,-4.323311955872704
104,-1.1579950565258224,12.63898325772535,-7.298657386022375,-4.592539344155529
105,-2.0133515892295017,11.902764848487843,-6.975202216834174,-4.894820082501323
106,-2.8804807071593577,11.013015899228343,-6.621604093591351,-5.299701058201869
107,-3.690488679614325,9.964326034235494,-6.261542891568622,-5.85259775978216
108,-4.362523652247988,8.777900493753815,-5.914604080743533,-6.561182843921896
109,-4.819372157120822,7.49174327218339,-5.595682321266138,-7.406237727401016
110,-5.015289299113997,6.137321709981401,-5.320058653040006,-8.361418636609265
111,-4.946362667234089,4.737499847827293,-5.098857602761451,-9.383600458570848
112,-4.635052980500154,3.318956496459524,-4.930418402847103,-10.379908099834257
113,-4.103129458235109,1.914107237556245,-4.801110503409378,-11.221712213391266
114,-3.3622713582775328,0.5529124947796724,-4.693542299822375,-11.806909937223333
115,-2.4375603503279666,-0.7464900470724725,-4.592071414302424,-12.095303483325553
116,-1.3827421268392632,-1.975157832396539,-4.484333156983766,-12.090586909004724
117,-0.26342677839035344,-3.120635892639522,-4.361142863622186,-11.810269036038324
118,0.8197970421769208,-4.180858787495376,-4.240305387976666,-11.336351568288261
119,1.8857522083416731,-5.111291739507111,-4.077878236978954,-10.614572882007097
120,2.9221513361899727,-5.889013404509736,-3.8578937572582745,-9.67562111459567
121,3.903722509367501,-6.5070674606551355,-3.5801593912130616,-8.584094402342107
122,4.8016260266261375,-6.95804121378071,-3.2542239659729364,-7.40172251358803
123,5.590486440281454,-7.232358109767821,-2.8975100385608035,-6.186390583968092
124,6.253109230796837,-7.336413205308213,-2.5328231324651425,-5.008991499032691
125,6.782974048016823,-7.306076563229899,-2.186618777276189,-3.945846685922023
126,7.184614988392314,-7.196202848831774,-1.8842959988593402,-3.0561724537116426
127,7.4720131763685815,-7.055738813337069,-1.6425888357854017,-2.370225622758997
128,-0.41802779717253014,-0.011202183367671342,-0.23009379420355067,0.258026921814123
129,-0.7560650084483531,-0.19946962214968572,-0.5478481501627832,0.2707150382262591
130,-1.167937245814029,-0.5259369344178408,-1.0173193809468108,0.19441545963117246
131,-1.624601489720769,-1.014803429892433,-1.6475319128682906,-0.01718759808164899
132,-2.0894890454955743,-1.6806582357295208,-2.4384975822822517,-0.4084513583736663
133,-2.5230144492821034,-2.5257952208178867,-3.3779135283443966,-1.000155665487076
134,-2.892259769822185,-3.539101844321719,-4.4411001539747375,-1.7882671934351908
135,-3.1735350282269934,-4.696722526548686,-5.599373948425976,-2.7626424063824886
136,-3.344745535241845,-5.967616387292941,-6.83219386080902,-3.9100070342750755
137,-3.396022786268027,-7.317955033442604,-8.129880054399662,-5.201258779834085
138,-3.3545680089250456,-8.710907970589048,-9.491123957979367,-6.58498213314299
139,-3.246603246828494,-10.101779000781283,-10.891765532141301,-8.016981609594435
140,-3.094270428131794,-11.445385912640761,-12.29905297457122,-9.470604539525356
141,-2.9213352625907567,-12.713134185371946,-13.678680004126395,-10.940391464551737
142,-2.7796100627160274,-13.895199027387928,-14.99731979433176,-12.427741823896476
143,-2.742418321088378,-14.991160637240169,-16.221567319140224,-13.922971480462525
144,-2.873661277435927,-16.002819476754844,-17.321275051241184,-15.395313472752933
145,-3.210578785847864,-16.930626539308612,-18.277535600176247,-16.804650452922438
146,-3.7649827571466634,-17.775360308370562,-19.08700460998045,-18.12571491880201
147,-4.532699285810965,-18.537202093134344,-19.75728534080516,-19.33884441025597
148,-5.4975504738507155,-19.21075282078574,-20.30286532878226,-20.40604490076992
149,-6.626872495684373,-19.781595666517834,-20.747923830644453,-21.28110646331713
150,-7.864041551362684,-20.227764820915535,-21.12637184102124,-21.94220138952601
151,-9.137946657387271,-20.524344602613013,-21.474581563564293,-22.406928881267078
152,-10.39001023286353,-20.648602399803227,-21.818640818830183,-22.70639035403679
153,-11.597847442850924,-20.580128135075416,-22.16365737184224,-22.86203735133399
154,-12.765186743968197,-20.298286110957644,-22.49821317449591,-22.892264163476785
155,-13.883478979398049,-19.79522137274777,-22.812231283735375,-22.823864468917286
156,-14.92976845932872,-19.089225504869002,-23.10616545358906,-22.702010714131074
157,-15.89539712990152,-18.214569592747903,-23.37981626407255,-22.56856610844933
158,-16.7930675010845,-17.20296503162873,-23.61755365853117,-22.41957381859462
159,-17.629180904105127,-16.083379540452512,-23.787717197190247,-22.2072531345629
160,-18.38208674312662,-14.8952735385006,-23.85410128660236,-21.88634743708455
161,-19.023011013519827,-13.686522486129832,-23.78762277918804,-21.451693525812413
162,-19.54039925678363,-12.501505529563898,-23.572005647922396,-20.92730515481649
163,-19.94645477426891,-11.373673117619237,-23.204987724038755,-20.324869413390548
164,-20.261336692598466,-10.319537388759203,-22.697606408245665,-19.630663660416506
165,-20.486745654356007,-9.334803648201886,-22.07021203595934,-18.844908150006255
166,-20.612491120527842,-8.403188703113187,-21.346888099069584,-18.0114064510674
167,-20.644681186473953,-7.5144414098578665,-20.556325857511005,-17.186066690170406
168,-20.61830747305499,-6.666831709146239,-19.73129505933194,-16.397808826034403
169,-20.57026716209198,-5.8597361403105355,-18.901234410594352,-15.650188588366392
170,-20.50566581948785,-5.098208645370272,-18.08958113231195,-14.94751975729845
171,-20.40811051322817,-4.40255656835204,-17.31125987163122,-14.305433955760252
172,-20.274483581786612,-3.8011937650088257,-16.56772333835966,-13.738359956315394
173,-20.128488599734524,-3.3094728235190374,-15.849228687225537,-13.24229918256419
174,-19.991829206851353,-2.928183455027334,-15.145191163625281,-12.79543967880061
175,-19.860376816765267,-2.6580364489172457,-14.45444764358246,-12.38435812643661
176,-19.72047833865422,-2.4994639471830427,-13.783099699281255,-12.013621501942136
177,-19.57555050515967,-2.442736257985918,-13.134651744030434,-11.695508572066988
178,-19.447628418481695,-2.4667614359701564,-12.50739857302966,-11.436629932835226
179,-19.350585894331306,-2.5435765049623242,-11.897247035709379,-11.228518725292467
180,-19.272769529985446,-2.6381209519412137,-11.298367446341675,-11.055757183481408
181,-19.18568150082993,-2.7174653799308226,-10.707147272121198,-10.907775654093276
182,-19.06981692761235,-2.7681694748505525,-10.128509520169889,-10.778396307608443
183,-18.925129127475923,-2.7965211183883887,-9.573467141326294,-10.646744079080875
184,-18.754759603031122,-2.811579291156341,-9.05224412751914,-10.473375267185869
185,-18.551889931694735,-2.817345868695782,-8.572362038356749,-10.224201521141406
186,-18.30079433450474,-2.82362968493987,-8.141959950019807,-9.884080932599316
187,-17.99874981135879,-2.8513599444820206,-7.769969067373803,-9.458841236371539
188,-17.66572022079457,-2.924776499344877,-7.458765773078607,-8.964053966945396
189,-17.311690286302035,-3.0651289967888986,-7.198173175600746,-8.405256930446274
190,-16.911598687668143,-3.28821323775971,-6.966212258950772,-7.776788694368244
191,-16.42251568703415,-3.5979207404677083,-6.736147494484611,-7.086300776852273
192,-15.819794355092768,-3.976317020098921,-6.4867988538141725,-6.37901525356509
193,-15.111245071033256,-4.387086656046311,-6.2070428962364055,-5.716302718181353
194,-14.322440799392037,-4.79154258327402,-5.8926899380627225,-5.1315039870701575
195,-13.476840842446128,-5.156687827351431,-5.543098692491234,-4.624497249586605
196,-12.585140830282633,-5.4577018887904565,-5.16359210213259,-4.197333565648975
197,-11.657949786137717,-5.6832079765213415,-4.770485090964145,-3.882228499634563
198,-10.727787646033086,-5.831712127364673,-4.388102462785183,-3.7178642033778404
199,-9.852145688840148,-5.895191990822967,-4.038322089017868,-3.7032021275246745
200,-9.083439240350202,-5.853677565928275,-3.735305479267023,-3.7950740136350984
201,-8.432455796021067,-5.69014279785562,-3.4860604058971787,-3.950754565723221
202,-7.88001842849697,-5.405164517936292,-3.290488894224533,-4.16153823959926
203,-7.419245226567037,-5.014281625180084,-3.1395714048727834,-4.438369966418284
204,-7.066533720994943,-4.533805513555152,-3.012156481265449,-4.771690241107671
205,-6.830733520179677,-3.9759410857663875,-2.878231430327212,-5.118117448905455
206,-6.690289956807234,-3.35644336465777,-2.712848488724407,-5.436849137801115
207,-6.60887141561838,-2.7000175422976374,-2.506990467894344,-5.724603327512337
208,-6.555349462922577,-2.03614593841907,-2.265628469334675,-5.9931836190871
209,-6.513288516079662,-1.3925589891147911,-2.003757056106861,-6.226968995169245
210,-6.469739372292069,-0.7908564521676718,-1.7433820017217838,-6.380837227180625
211,-6.391721217151232,-0.24264842883802457,-1.5098270278036952,-6.420523008753145
212,-6.241125273863805,0.24982004867704388,-1.3287166614684915,-6.3431084163736084
213,-6.008496814094912,0.6913715705627345,-1.2155151281076306,-6.156451059712504
214,-5.720078757578014,1.09849113362583,-1.1603002991746285,-5.856589065996649
215,-5.4051749642855995,1.502620721059397,-1.1268780416065887,-5.428652361681221
216,-5.058167434011418,1.9330373470661495,-1.0681007014432808,-4.875363548610481
217,-4.656353914448857,2.390905393597359,-0.943866210051182,-4.223894721477374
218,-4.211506487345579,2.8536799848924774,-0.7337302305613125,-3.50129420952911
219,-3.779142187250349,3.3009901684257112,-0.4367786026968943,-2.721214921046441
220,-3.4125703476940266,3.7210145630412024,-0.06867980333304838,-1.8894688611348098
221,-3.127185921502293,4.10045130947853,0.33419971949910443,-1.018431552365887
222,-2.9169151606267945,4.421973983984492,0.7185239066316611,-0.13608486181749752
223,-2.79323061309229,4.67225754577441,1.0368779163418458,0.7172186410235718
224,-2.7898317808936355,4.8499803705527995,1.2770488003322564,1.5166543055490171
225,-2.9244782411086447,4.970153316650334,1.465661045202195,2.2667278599081118
226,-3.1658692009439404,5.06648953447852,1.6485572982243903,2.9750910813886535
227,-3.439357055428135,5.182943976556451,1.8719540448428649,3.6420036968854306
228,-3.668264855454355,5.356708481611701,2.16465711787374,4.273040253702415
229,-3.792271140934102,5.609698162033936,2.5276437553017113,4.894183072065429
230,-3.749401541133655,5.94779488559885,2.937011421019025,5.551621971468473
231,-3.4788054495900695,6.358315731157012,3.352671738165849,6.287836542993395
232,-2.9440413944728694,6.80979895682518,3.7241774626595188,7.117012764397696
233,-2.1610956393003624,7.265183129097806,3.9974852189961947,8.012333981351626
234,-1.201714957634061,7.70101100925268,4.127774308964,8.924046407060656
235,-0.14669890055240015,8.105375042605356,4.091490676234588,9.80940885034461
236,0.9468210774999088,8.459776839375865,3.887867841730834,10.636097344004078
237,2.031527037767428,8.741363550976885,3.533892706906921,11.365850861897876
238,3.0514196842744887,8.937644823497488,3.064484081796218,11.940050254943092
239,3.953073213175,9.045941027704218,2.5288451152068916,12.300543290209015
240,4.714956116675087,9.064443000217446,1.97638260400535,12.438365306626874
241,5.364618193152485,8.987951473060383,1.4406586615980381,12.406424061321772
242,5.972900568694094,8.809429798286438,0.9351493319070244,12.273972041433565
243,6.6138646561979435,8.52004106603512,0.46578379257518143,12.085466555633007
244,7.319034364751426,8.112636411119535,0.04048652977213083,11.86129776926134
245,8.073268395249503,7.592701482755394,-0.3290465446862634,11.6081439020862
246,8.841094414478986,7.028414466519404,-0.64338703350332,11.36187744565533
247,9.566350190072452,6.3546844651413394,-0.8806172341808953,11.034352379018223
248,10.195731564611657,5.556651956916806,-1.0391301018230845,10.572657530676986
249,10.682823296349385,4.657092663402456,-1.1312941351291144,9.968134052290436
250,10.999721014108609,3.7025030052997723,-1.1695091731464122,9.255259341610513
251,11.15005347546274,2.7479925916723715,-1.1638611953141975,8.491489118458295
252,11.163606492960161,1.846729135576403,-1.1285762052168986,7.727368305882149
253,11.074849284423655,1.0447412718468858,-1.079513668460307,7.003371804354222
254,10.919234850426351,0.3767886128719131,-1.0269962223166778,6.3684535112717064
255,10.741876016101058,-0.13579229904593837,-0.9751366097275435,5.878536902311527
256,-0.3713519090481812,-0.1789819808185308,-0.2800609837649727,0.0245009618029966
257,-0.8602138572370361,-0.46243379298896753,-0.7021418384346003,-0.21227245217334575
258,-1.5708107026674707,-0.8443496703011903,-1.3253248618545646,-0.59898793007576
259,-2.5027455329342683,-1.3034733905781644,-2.1557127014757995,-1.162181233909207
260,-3.6560613970900797,-1.815297914251985,-3.1820724470045336,-1.9122643436544742
261,-5.020796057950952,-2.3422961985561006,-4.375387668630741,-2.837737565453535
262,-6.547857039949521,-2.839873124796821,-5.691118529652721,-3.912083945556398
263,-8.152434332638753,-3.2776720401437878,-7.077463865324895,-5.106739749490115
264,-9.750276142129149,-3.646412463274164,-8.488906889574286,-6.3950324147798225
265,-11.294580660504876,-3.951421638434151,-9.897173705960347,-7.745805706603259
266,-12.788268531539433,-4.212267619221462,-11.299904806186948,-9.124412570252394
267,-14.214798271232832,-4.446442048446014,-12.689062747922373,-10.511051137558242
268,-15.553610964294961,-4.677797051680751,-14.063618579638055,-11.913932279464376
269,-16.79956057132134,-4.932621690068417,-15.424505208838871,-13.347714330659004
270,-17.964315447182198,-5.23028398679925,-16.769133211642732,-14.80007539633558
271,-19.058518174921225,-5.57008507177177,-18.090307707231464,-16.234996455651114
272,-20.082844982242797,-5.930005056083883,-19.376495879586653,-17.6323119863789
273,-21.03279661398297,-6.2855573852880084,-20.611209353347007,-18.99532151041014
274,-21.906630537045697,-6.623447188756902,-21.774342681305974,-20.32400211114728
275,-22.706267063218093,-6.940966070095614,-22.844236500470444,-21.601071648919106
276,-23.429930786728686,-7.236748074959447,-23.798752029792038,-22.78783702837998
277,-24.06333580334843,-7.506741264383162,-24.617907840687536,-23.84342345840619
278,-24.57941912520975,-7.753630312790008,-25.28981270047952,-24.750989287282554
279,-24.9636073107416,-7.987818089844056,-25.816202488072182,-25.517745093485548
280,-25.22456400689072,-8.20925879434926,-26.209825202805142,-26.158127749358524
281,-25.36957946020425,-8.400532874001309,-26.485081282691702,-26.678792882950294
282,-25.38916273727297,-8.54269986368705,-26.652014225281867,-27.082836404177023
283,-25.261735664267015,-8.624678096665201,-26.71934493586214,-27.37915818102209
284,-24.97646578168566,-8.633737626122265,-26.693675536981615,-27.58263086248853
285,-24.54595127032251,-8.54353219241204,-26.571851737933866,-27.701306261303117
286,-23.994168249085106,-8.320701554647018,-26.342065307587802,-27.727298181958883
287,-23.34968220755292,-7.940713758583211,-25.9939688828342,-27.64760352895776
288,-22.645253170155993,-7.390825236693973,-25.528769954988064,-27.457397297510703
289,-21.914638379877285,-6.678757229320431,-24.962462609585405,-27.168632309497646
290,-21.195863603322188,-5.846762264254973,-24.323348156589116,-26.802586036972887
291,-20.536483075194013,-4.957209836203404,-23.646940360689975,-26.377522330118886
292,-19.979626038975262,-4.064380882710325,-22.96893662125749,-25.90848750696242
293,-19.54414657486955,-3.2069078498080317,-22.32181035915423,-25.417111651838468
294,-19.223744855486963,-2.4160849106384235,-21.732739730468147,-24.936935199684008
295,-18.997856030441746,-1.712208262319039,-21.21645526001609,-24.48712409286033
296,-18.828651084609564,-1.0913558295137555,-20.76766252343409,-24.05219325088188
297,-18.647713296149682,-0.5288004418414076,-20.363757858489276,-23.5944435806647
298,-18.36737040326869,0.0028504012974459314,-19.976131892959202,-23.080846768323095
299,-17.909427769899466,0.5241374089223693,-19.57935497684597,-22.503217987482195
300,-17.223558388019757,1.05310152623321,-19.154653528659622,-21.86860108422194
301,-16.286426543082985,1.6068599323187827,-18.690157008150617,-21.174480984488603
302,-15.091296431950765,2.1937116290548184,-18.18297999142429,-20.393824994619024
303,-13.645325024503949,2.8074522535937514,-17.63844253618783,-19.49458218083515
304,-11.969916036841068,3.427257532262457,-17.065937612630975,-18.46459795593944
305,-10.105071575703787,4.0212612737908815,-16.476511792710706,-17.306794787135996
306,-8.114484618408888,4.558194352518084,-15.879544951327503,-16.025672871630224
307,-6.067522463500386,5.026177808347338,-15.281055504063795,-14.62486042643282
308,-4.006930576330779,5.43674663893028,-14.683554519795567,-13.120429013497914
309,-1.952754138232077,5.8024041322106426,-14.08749125529842,-11.54451976237352
310,0.05948383383615247,6.123060886741433,-13.491850210707094,-9.932688680491463
311,1.9581306115192807,6.394450441602573,-12.890883077888907,-8.308702744833393
312,3.65403574164185,6.611966488720547,-12.277831525976518,-6.683549193327826
313,5.075916201356233,6.764512411407303,-11.653290641543038,-5.079798545491497
314,6.181069117357612,6.835215100516673,-11.026367418578394,-3.542115046368876
315,6.943946666056709,6.813577161800297,-10.412278515120331,-2.12025124380121
316,7.35052489894475,6.703681847869005,-9.829532493149664,-0.8437793981778592
317,7.401742334753025,6.523819951924916,-9.295650227347165,0.289153351023001
318,7.118934300666573,6.301956346668207,-8.823834929481727,1.2825256577024238
319,6.547775310072233,6.068283496484158,-8.422008608185719,2.108452171107119
320,5.749199281331333,5.849523453473584,-8.089886126410779,2.7213085873674414
321,4.775904166563109,5.667643917386133,-7.812865734925044,3.0991497507924013
322,3.669946296443711,5.536537739533783,-7.561527622952461,3.2545023853749715
323,2.4820159915003583,5.454437411591068,-7.303712466783055,3.216474345730911
324,1.2674001875932568,5.400848294981555,-7.019806604008793,3.011419755161511
325,0.05796452164983626,5.33662730743147,-6.707529517080378,2.6521530368721966
326,-1.1446497761066818,5.2142829342980965,-6.377416341590583,2.1514442346170153
327,-2.3333027726367015,5.000671364345159,-6.045387162873629,1.5422834589411942
328,-3.466725746409132,4.683367216828477,-5.728787693620066,0.881695319975144
329,-4.4863283358103905,4.260480413137428,-5.442820469930255,0.23381833252839426
330,-5.35477804163099,3.7384644421380773,-5.193984973968019,-0.3530354133772562
331,-6.070240599978965,3.134500507815039,-4.978494976473896,-0.8400701904534582
332,-6.6437151537279675,2.4747267549250753,-4.784185691132796,-1.1834794276310778
333,-7.077790884916867,1.7902719671965173,-4.5906777672416155,-1.3449681083893077
334,-7.361446402520513,1.110736475952329,-4.3718178227476105,-1.3077854854122835
335,-7.478848655068166,0.45844482348406046,-4.101534161952818,-1.0766046906271267
336,-7.425925645230914,-0.15095580603663933,-3.760824187316306,-0.6580249606540459
337,-7.21754054240486,-0.7023010743965455,-3.3445045236912407,-0.05478887103694391
338,-6.875048832748511,-1.1776397722216188,-2.8656269212351084,0.7189664098260774
339,-6.413448525407722,-1.5652973687915472,-2.3533542082519134,1.6288865618721522
340,-5.847875939361622,-1.8704311157402573,-1.8411679165724677,2.6173467252676224
341,-5.2014298291205066,-2.1103933941363167,-1.353707635742919,3.619796906991684
342,-4.5087198890409566,-2.30459985802286,-0.9032896028953835,4.591424154340123
343,-3.804499723090834,-2.4726819348734614,-0.49423670683254195,5.506590739550301
344,-3.1057919745765608,-2.6369970155692584,-0.1267228252243967,6.337074344078122
345,-2.4250084065950963,-2.8134363671111093,0.20445505044966011,7.043371685855255
346,-1.7832880234314419,-2.995863009739062,0.5137956217386899,7.596099067035303
347,-1.1997179457096558,-3.157877562030537,0.8222588796731829,8.005946329097908
348,-0.6757122183285895,-3.2682131761739712,1.1495685713194552,8.322864793082694
349,-0.18750223099068541,-3.3046081732150223,1.5104057776750424,8.596053248020224
350,0.29173781573884183,-3.261703104488848,1.9098538853102105,8.84599928836948
351,0.7611752062130142,-3.1522773466363283,2.3357884504673523,9.073166865481344
352,1.1886186004793866,-2.9987492110947302,2.764277983597188,9.272323658512883
353,1.541040411282597,-2.819979885467871,3.1761816763055952,9.441065680946238
354,1.8184179289693738,-2.6362180899438643,3.562875800983333,9.57225927852669
355,2.0455830385616873,-2.487702479411074,3.920208649011465,9.641723542180594
356,2.233446752544391,-2.425652821179629,4.24257027420605,9.623540595792944
357,2.356790735832608,-2.481092201759075,4.526567701789234,9.51600508692322
358,2.383606205914279,-2.657202854702939,4.7793428911371825,9.341440451698958
359,2.3211523481230145,-2.943076620667146,5.016653174348723,9.11855802118397
360,2.208789765443339,-3.3207555101927655,5.25285416452604,8.84619121618034
361,2.0681472744819414,-3.767297636722451,5.497214744052581,8.516410230771282
362,1.8879565022875389,-4.261080060593726,5.75689059596098,8.135244514096257
363,1.660093473432287,-4.785773823173134,6.036081641690124,7.727632834944043
364,1.4023952943314075,-5.322983497172626,6.334887566494711,7.316465835208844
365,1.1451966997914853,-5.848180596451198,6.649109217430442,6.906388188800353
366,0.9099463678365786,-6.343229278955558,6.965907398255698,6.494645751885009
367,0.7056953688852377,-6.7991889889142705,7.266506724246993,6.091131710936809
368,0.5495835820410732,-7.205144808968293,7.53996930652358,5.721044951113837
369,0.4731535400477799,-7.548869078066373,7.78843732061969,5.405023950156108
370,0.5004204714248768,-7.829286922448635,8.014412826703847,5.145345400332623
371,0.6229473261868383,-8.059326112222944,8.21284562927323,4.929820415434606
372,0.8016935021812932,-8.247958571474804,8.379163252654052,4.747477963452637
373,1.0060952248503199,-8.393341316890302,8.514629050960902,4.596195315469795
374,1.2383381801203526,-8.502526449290588,8.628125929926249,4.484721299084849
375,1.518108672050467,-8.595590894567994,8.70664138703064,4.385789411196243
376,1.8286072853015953,-8.685397818830914,8.741148634450067,4.28332335488504
377,2.129643899564382,-8.774949262854982,8.733191577973221,4.17990326993708
378,2.396993598279054,-8.862054753390312,8.691894049313134,4.088951607511859
379,2.6321714147714164,-8.9436688607312,8.624238100739378,4.016242444812771
380,2.8430731140469905,-9.017723666767365,8.53413680223627,3.953881337179608
381,3.0255853984603394,-9.083634044866653,8.428649739024811,3.891444875050271
382,3.1670310501945376,-9.139937236817238,8.321027451472348,3.8292126657232544
383,3.262269874492828,-9.179279746574885,8.22951496695787,3.7772451680545087
384,-0.19673513024284817,-0.06999491336681982,-0.2984247723825938,-0.02705147294263216
385,-0.623678379025528,-0.2908662433107485,-0.7636205857672818,-0.35430311805039333
386,-1.2675940048783572,-0.6422320172941292,-1.4508328617365425,-0.896555516791153
387,-2.1319674800435435,-1.14579281823566,-2.378575845673187,-1.7041959540511447
388,-3.2296101669022343,-1.8146064299711226,-3.548988178708857,-2.8026621474574323
389,-4.567253530890887,-2.650562185908636,-4.938730618302416,-4.180950537035622
390,-6.112630399147939,-3.644453720188132,-6.499656809682888,-5.797710353923794
391,-7.797592833780102,-4.775359382883645,-8.169413805152638,-7.598016304344421
392,-9.551924451245718,-6.0104230080704335,-9.881717332030435,-9.521554554057383
393,-11.324984702389727,-7.308835889334459,-11.575812213193585,-11.498510767001445
394,-13.091278780461122,-8.631897889036297,-13.215478931905066,-13.451639521573071
395,-14.80718637977364,-9.94220468186585,-14.764270282650429,-15.319161787561528
396,-16.430234106967873,-11.206771917448956,-16.195532105638435,-17.07619739596058
397,-17.94009633039106,-12.401143279180985,-17.500804860961324,-18.72041575835528
398,-19.339765875547503,-13.508038668391718,-18.686965385754792,-20.244861843101663
399,-20.63401298540755,-14.5075517571454,-19.76254503360999,-21.63203362368726
400,-21.803477632533486,-15.381524752652636,-20.734542724739157,-22.87446696052906
401,-22.813782338673015,-16.132766555094104,-21.61221375907868,-23.985852486453936
402,-23.6540943763274,-16.780093946378617,-22.404166749259748,-24.97975444045926
403,-24.34989522353883,-17.33088290571557,-23.10814413655744,-25.84213617717625
404,-24.92315394469663,-17.77760796804112,-23.709402391533303,-26.524737936767206
405,-25.36070538118725,-18.112807238000794,-24.189550774081564,-26.97475035360606
406,-25.634478992865315,-18.331271740605477,-24.537997970494697,-27.16878615717272
407,-25.736958257952463,-18.427264309183137,-24.75916662266968,-27.12013116872788
408,-25.68877867106343,-18.39685738299423,-24.868837698734627,-26.860825296885814
409,-25.505902042188485,-18.240472378568697,-24.887649899539433,-26.421774615730612
410,-25.18098849226151,-17.964074952674444,-24.83809790803983,-25.837158426978004
411,-24.70284832979388,-17.57893441607414,-24.741037385596993,-25.14801115790154
412,-24.077658234979843,-17.10230435341708,-24.608570411570085,-24.383160787592583
413,-23.333610948456176,-16.557901777051253,-24.437863341612754,-23.53173870862049
414,-22.49251882979774,-15.969836916791968,-24.20989748074693,-22.548108469446884
415,-21.544882592129948,-15.356145020214035,-23.89928619032224,-21.39285161010246
416,-20.47410320972117,-14.731123812369304,-23.495161709108157,-20.05953876359343
417,-19.29707585533307,-14.1056544385545,-23.009612875147795,-18.577278538837884
418,-18.065987593996397,-13.478817160903455,-22.46831051106953,-16.9953783195361
419,-16.830309302407866,-12.839727043337925,-21.902711782827804,-15.365489928694595
420,-15.609215230014692,-12.183584437831808,-21.34626979874183,-13.741400406746871
421,-14.397950329320167,-11.51702472887284,-20.830049200114622,-12.183861706375765
422,-13.198342756367852,-10.845233138077669,-20.376998354530606,-10.752772399706895
423,-12.03207206289018,-10.16393548284129,-19.993733092060847,-9.47681799721434
424,-10.926262481057448,-9.466468245877136,-19.6644023833949,-8.331779146337782
425,-9.899655095126967,-8.748323092367627,-19.357035596772242,-7.2629006155981575
426,-8.956308953964701,-8.01372252753795,-19.040121934104857,-6.229956106885814
427,-8.104300678049713,-7.2873925485103355,-18.69464818913426,-5.2330867369599074
428,-7.370629015296366,-6.607782693420135,-18.314519000130908,-4.302559166807027
429,-6.784460974068197,-6.005638014759929,-17.900888905176302,-3.4817356192010154
430,-6.360462049083545,-5.487374642019507,-17.460907854001082,-2.82299084252572
431,-6.097793026005859,-5.045092618280552,-17.01177722348767,-2.384750498371453
432,-5.99439923165154,-4.685575613419973,-16.58350353625132,-2.219855335489153
433,-6.057338775903863,-4.427014548237932,-16.208632339011377,-2.3511443328125736
434,-6.300903666758158,-4.271495718094393,-15.904573036764639,-2.750584060773363
435,-6.726700996039742,-4.198560036001671,-15.669984255576587,-3.345001615399443
436,-7.296656726437205,-4.176599470401127,-15.493905425141065,-4.055122186151357
437,-7.94454720140228,-4.172791647834134,-15.362259918263971,-4.83549214324217
438,-8.611055150314918,-4.155521673413136,-15.260679000917023,-5.665055583237368
439,-9.260997187904914,-4.0992722876021555,-15.177218378824218,-6.512995260545177
440,-9.867539064150973,-3.991803885550719,-15.10380111865735,-7.331539906564675
441,-10.392431537609633,-3.8265519107197163,-15.034572234441047,-8.08652997466513
442,-10.797483753747942,-3.5954885196244906,-14.960673457765429,-8.790302481095399
443,-11.072026792890112,-3.2949851596422297,-14.867138379586471,-9.471992640694722
444,-11.244460590031565,-2.923173417869075,-14.734225832722956,-10.119925003162047
445,-11.349826137560903,-2.478471166368666,-14.541221612341971,-10.67988165801281
446,-11.392092673913947,-1.9733583063577897,-14.270730859417153,-11.095650565314516
447,-11.357366108670805,-1.4391876064742368,-13.909675288176505,-11.331860070864476
448,-11.248060945415515,-0.9089314251385984,-13.446861059427215,-11.368431338757828
449,-11.091805247997547,-0.3901361995436985,-12.871724494392101,-11.191706713862516
450,-10.909701859518146,0.1380615199419376,-12.180620097139554,-10.79918201122886
451,-10.677133809042147,0.6930602765645574,-11.390641199919635,-10.211975753787634
452,-10.34685637679987,1.2690756993469232,-10.541878839296746,-9.47586613312293
453,-9.911628059537996,1.851783033135931,-9.682945998247527,-8.653568430580183
454,-9.411904063734188,2.4368253625767378,-8.85736823342562,-7.795736593974084
455,-8.882902474596339,3.027347639511233,-8.095790051473843,-6.913796659694903
456,-8.314329734935901,3.6181587670890756,-7.41217992588842,-6.010648987378067
457,-7.670896573325604,4.187574884664408,-6.805482010039404,-5.11243270491264
458,-6.945666631682083,4.699511618160489,-6.265314905455606,-4.25253017168738
459,-6.176231247800386,5.1148111040175674,-5.777717588602797,-3.445658997804279
460,-5.406165701984056,5.4105811865963735,-5.32788510533185,-2.6942356553352544
461,-4.647869638575786,5.5868013340683325,-4.899018579897095,-2.0243776451377022
462,-3.8949233813825193,5.657234252769682,-4.478469150797648,-1.4818575782862902
463,-3.1605869098277664,5.644249552279968,-4.072612911667496,-1.0973419935333721
464,-2.4821306305971467,5.5764171023510825,-3.7009775480152487,-0.8782796918809601
465,-1.8837134100743747,5.483192291703969,-3.3643184950725638,-0.8101487975306424
466,-1.3589568485478154,5.38863971730805,-3.044292198205077,-0.8553752017892947
467,-0.8996394289757896,5.307356585309338,-2.74333841583744,-0.9682352647450405
468,-0.5332129481421846,5.247285014051428,-2.478179307928993,-1.1203013180686159
469,-0.31543210554909445,5.209481632026548,-2.2291396055670685,-1.3051165365606598
470,-0.2934760388727512,5.181955232849016,-1.9267065044724836,-1.5174273072667006
471,-0.48321956308601727,5.132515895863577,-1.487380707189028,-1.743883019696697
472,-0.8464366870933782,5.014022512098551,-0.8680064815293664,-1.9751886407954706
473,-1.3221810888599046,4.791536179562114,-0.0667365055612022,-2.218683795121925
474,-1.9077742259584907,4.46115853619101,0.9391474821252679,-2.5233246117039383
475,-2.619756976074483,4.04415915781861,2.1838432119347413,-2.9515236692945637
476,-3.370830062325323,3.5875997099469674,3.630978015037692,-3.4724285503955286
477,-4.012094625904091,3.179944640814502,5.173796596987097,-3.979570647529064
478,-4.49728000118735,2.9452411172304425,6.7017193990973025,-4.426140564042486
479,-4.91980258504744,2.999882427261833,8.12474690602209,-4.847095698485074
480,-5.4272391415514285,3.409541780606981,9.380889190607439,-5.29323578278765
481,-6.131384837462468,4.172789677041122,10.453185235034532,-5.778301118507937
482,-7.0602230031965,5.207562306546139,11.346376349428084,-6.249521851162244
483,-8.172567064463278,6.35597066892411,12.051846087431354,-6.624641691837471
484,-9.382142972841752,7.433106246276313,12.572863230644016,-6.856064811492795
485,-10.574352707665774,8.286961121558125,12.942957933421347,-6.923919021965418
486,-11.636660519374125,8.83602392556813,13.175749600561971,-6.800772048948641
487,-12.4707570058919,9.078975180343168,13.24717183203924,-6.474373186624431
488,-12.966056144805751,9.091677022379773,13.13109259775696,-5.978298924593493
489,-13.06138103718826,9.030047146425531,12.814592133518888,-5.376805758909764
490,-12.882237673469323,9.103636664933832,12.285881366270074,-4.744854261282695
491,-12.644796700852394,9.512566833058726,11.492445610527529,-4.114989009024805
492,-12.480638921621674,10.426648424644277,10.333309668344366,-3.4382922174775534
493,-12.448323435795189,11.953647788796903,8.7601774393427,-2.659711173257419
494,-12.518256041322545,14.051117099562994,6.834404426798284,-1.7199944042306563
495,-12.494500239408765,16.558218901000718,4.651415317430558,-0.4381523017403176
496,-12.064832394271756,19.354697025087578,2.297998638928624,1.4430346290559166
497,-10.942677019401593,22.41301033730827,-0.13514698847222206,4.084856022578675
498,-8.943826708201357,25.729805966704443,-2.5697877625095273,7.4905142693539
499,-6.000336476467304,29.312607022308306,-4.952320316375257,11.520681663743186
500,-2.1392319496789196,33.21471194528108,-7.2434010731675516,15.957409287085781
501,2.555332450588055,37.52264864099641,-9.426630803809358,20.61267800876939
502,7.786900469855423,41.912438853706476,-11.524980402658061,25.315821634088646
503,13.684134223774926,47.17726808453779,-13.626626318427032,29.941812551749987
504,20.078882347664155,53.61453706287675,-15.756485898758642,34.29233915237074
505,26.620748061312003,61.14272164877252,-17.891299296067825,38.20108077494115
506,32.93641112850786,69.40728625502209,-19.9792478137346,41.57885825634071
507,38.790452826944986,77.89351216124442,-21.947452003475792,44.40720971820708
508,44.07164672099677,86.04567296416607,-23.705617604642786,46.71202949786224
509,48.62082023182195,93.35527277735122,-25.147587758172886,48.51173012180892
510,52.23568508138652,99.42207324811889,-26.184775658580637,49.81395954444201
511,54.80665847617763,104.02597048574484,-26.810683442481665,50.658271392873665
512,0.15693557637246774,3.226787289643775,-0.7264277672427563,0.29812863180475013
513,0.384138064853927,7.262290943870529,-1.580212307884148,0.4712735618901657
514,0.7902766987916301,13.10844872647207,-2.757866640319336,0.7043565962185977
515,1.3847673437153727,20.831794237569365,-4.240101988958257,0.9780342397793109
516,2.1096275637149047,30.328768489905872,-5.977228442781299,1.2725942895834912
517,2.882714422970286,41.31010216761221,-7.891229368494486,1.5838590445909233
518,3.6341716526276495,53.323411561688594,-9.884294463698634,1.9160207658183013
519,4.317741344773547,65.81066556012512,-11.851903571002904,2.2618575106346643
520,4.902309813114036,78.20862817107648,-13.703367171426033,2.599112434548045
521,5.371067217092074,90.08652581772873,-15.388246166166935,2.9154424655134754
522,5.737028271986077,101.29590543137495,-16.92246687644661,3.2423569377427186
523,6.023458703736715,111.61432895276741,-18.30447054515451,3.591815615184311
524,6.233309035853783,120.86657508183318,-19.530761237970907,3.9033844553830335
525,6.3261203147165785,128.93068547309352,-20.591199440032227,4.0674631640352
526,6.237890633475774,135.73818977561982,-21.461149511946317,4.015028515675754
527,5.939074578680767,141.26345908609602,-22.108462553495116,3.7479288194031657
528,5.454039184728461,145.50842130710046,-22.519072336364463,3.287167473448167
529,4.807147006038053,148.490264271077,-22.705713368076474,2.623960458395286
530,3.9880997405386016,150.23656192392423,-22.698048306634306,1.7358133270649572
531,2.976999145279132,150.77101790281742,-22.53458049986792,0.6345817051205639
532,1.792323791654161,150.11186676666614,-22.26176228630184,-0.627394712122967
533,0.4998642996733423,148.30236772472665,-21.93581502678488,-2.0111839401088583
534,-0.8473874205257507,145.42637245371347,-21.62219753532161,-3.538288864785386
535,-2.2552312120876525,141.595933274675,-21.392889351731128,-5.274533013384785
536,-3.784603362585136,136.94171539447873,-21.315462633783927,-7.283731779675249
537,-5.516846296338379,131.60614436117226,-21.434629246216094,-9.603219581814926
538,-7.507169965682934,125.72225146548216,-21.763389058966887,-12.263788878489665
539,-9.778459824334064,119.3999861581547,-22.294253723677194,-15.316562412917213
540,-12.342788604931995,112.73107620928975,-23.01563712927623,-18.796878357811774
541,-15.199503822461605,105.79006405140471,-23.914484648316098,-22.65603951113474
542,-18.302254632733746,98.63514514962438,-24.969043490765053,-26.76853225025269
543,-21.544041221179878,91.3149459711785,-26.143523672053778,-31.0055016937921
544,-24.800802157863146,83.87736219113893,-27.389841602342145,-35.261736428016384
545,-27.978249915710055,76.37514761006416,-28.65178386079577,-39.4303709918047
546,-31.00957771689355,68.8688023266762,-29.869131523835268,-43.3802953500676
547,-33.82488045381954,61.425441959090044,-30.983783926058482,-46.964828545885325
548,-36.33651523703257,54.111935638850326,-31.944084507297568,-50.0686776558872
549,-38.459269461675085,46.989914031335424,-32.70579211025796,-52.6340834418955
550,-40.146173404925584,40.11376994467089,-33.233541620389396,-54.6280597662024
551,-41.39310940788222,33.52643217686369,-33.5006469019908,-56.001853948349876
552,-42.19899344788783,27.26013154199289,-33.48748181549179,-56.70089019202694
553,-42.544702926148624,21.34117626906112,-33.18751951557146,-56.708898995849715
554,-42.41587962400823,15.78250588377756,-32.61979166058189,-56.06257490927385
555,-41.83208490618267,10.57600259961498,-31.82785629210352,-54.829205166135786
556,-40.84373797635705,5.703436353954481,-30.858990485619543,-53.07313090829085
557,-39.4926429442269,1.1507509380036383,-29.746271581856874,-50.84786485577367
558,-37.79121864026463,-3.094434065906652,-28.510109747062515,-48.22144061480017
559,-35.74840001294989,-7.054860287266452,-27.168282907914463,-45.28717887427142
560,-33.41074384518097,-10.767708582370396,-25.734632271391792,-42.15728507322451
561,-30.86684131126046,-14.278198370340137,-24.2131972508376,-38.94659831617358
562,-28.208639496268198,-17.635129985673927,-22.601011663307688,-35.73902324005081
563,-25.500697143549562,-20.890373955223293,-20.896510143896556,-32.57188854357617
564,-22.78448765055963,-24.09789745908578,-19.112544707559795,-29.466917162954896
565,-20.10359724519301,-27.308268222967307,-17.28684409275498,-26.461415744390205
566,-17.51713575232162,-30.558761070701046,-15.473844093529301,-23.596138361787443
567,-15.095638587571127,-33.869549607930914,-13.725922241098026,-20.90182046745789
568,-12.909434438036078,-37.24807601581262,-12.085054868019741,-18.41057255786888
569,-11.018297827479774,-40.69564282650525,-10.584902918375452,-16.165112094588526
570,-9.472956174237858,-44.2144464667711,-9.252080079610792,-14.22138300323576
571,-8.314937011814575,-47.804248114016225,-8.100805468630087,-12.630016602630068
572,-7.570172955936726,-51.44811284260944,-7.124156664959858,-11.402510608183912
573,-7.2320638910501716,-55.113236690899484,-6.291700890110004,-10.50258269118333
574,-7.24169776131204,-58.76898970391311,-5.562962494791506,-9.873109537756115
575,-7.506034340582911,-62.392795366424096,-4.9038290220809015,-9.469544095309859
576,-7.937900661958611,-65.95958560024566,-4.291376431574703,-9.260910471733915
577,-8.471238138057618,-69.44081469075977,-3.7156196878584047,-9.211684017309706
578,-9.047186878353594,-72.81403062208359,-3.1771836013868175,-9.27231817676567
579,-9.604683143934622,-76.06456031635872,-2.6843071828724767,-9.403089882965897
580,-10.099128682533529,-79.17977551122529,-2.2552749416249713,-9.608105996528769
581,-10.523107936356762,-82.14692022297422,-1.908662595499885,-9.91223163254323
582,-10.901132917158366,-84.95522357297853,-1.6464826499955652,-10.309520231025282
583,-11.256029662745073,-87.59720988222368,-1.4529636183024366,-10.754352903978694
584,-11.573531960977881,-90.06451019728932,-1.3047987639326177,-11.192091761710598
585,-11.812663984036803,-92.34387868842038,-1.1703725185252936,-11.578603054728696
586,-11.94794553301396,-94.41845578724141,-1.0004877857359702,-11.867460973599092
587,-11.983866505820144,-96.26874393526772,-0.7300134030113958,-11.990939024514805
588,-11.92401099358335,-97.8753339778843,-0.2918395807500128,-11.875485863474271
589,-11.73341323519087,-99.2295488525143,0.3649021346321672,-11.484650285604365
590,-11.356914586778567,-100.34549612747615,1.2611104319239947,-10.831813401245439
591,-10.778124310379619,-101.25432567665442,2.3906773651576794,-9.962770293921343
592,-10.039167706792027,-101.98716330362565,3.7379140970873017,-8.9228428861698
593,-9.195657357232708,-102.56760893327336,5.280308461777379,-7.730347610007006
594,-8.27400704268431,-103.00948360248637,6.979006570708227,-6.398934022240093
595,-7.281202184849956,-103.31336518044904,8.779291304889119,-4.964458218050593
596,-6.236715691071847,-103.4707738370952,10.619771983703476,-3.472771949942581
597,-5.1878134743648765,-103.47285881476297,12.44667496356735,-1.9487960618475926
598,-4.186826537083109,-103.31076813763887,14.212242868314197,-0.3962274528320685
599,-3.2598032386216422,-102.97242953877748,15.858797594306012,1.1680312367848307
600,-2.4087204961827777,-102.45141919108022,17.320271800585317,2.701024124100252
601,-1.6423100361505507,-101.76327043798463,18.532161630698667,4.146526602225474
602,-0.9910633797768161,-100.94985889174853,19.439859158488783,5.455049499353168
603,-0.4817729421114918,-100.0677254562517,20.009206747735366,6.59628277463522
604,-0.12015913704041288,-99.17203797461927,20.23197040854875,7.543573168598671
605,0.09610701462228076,-98.30885585169808,20.12557808851309,8.263629625054524
606,0.15257813785002836,-97.51327052616813,19.729497561526955,8.737740236108658
607,0.0182692023573561,-96.8016958276079,19.098298619574997,8.980905567871245
608,-0.3138322823376364,-96.16655802465188,18.290226990131828,9.041144488720953
609,-0.8099972010360588,-95.58803694645249,17.355789971144663,8.981489558495456
610,-1.4226261677424648,-95.04747253926116,16.336970712761822,8.844952977716657
611,-2.124800685646965,-94.52976090596032,15.271746417561996,8.643170459291701
612,-2.9122049409057067,-94.02613213787448,14.189995458900656,8.38696966632686
613,-3.779887881408651,-93.53590851214278,13.106972417577335,8.102174494846883
614,-4.700143397805209,-93.05861038733465,12.023964063912256,7.813746272411588
615,-5.603999959685127,-92.5897358778869,10.93566508801102,7.533178813482656
616,-6.412142321297136,-92.1243859729321,9.839591633926805,7.260318895901169
617,-7.086137936096235,-91.646026393568,8.740392371801173,6.993589148308587
618,-7.634647476705623,-91.10524824735793,7.650098925798351,6.737041401806335
619,-8.078116592270533,-90.42938851677313,6.587200192096951,6.500096782158571
620,-8.414810539099534,-89.55491801448309,5.571336883628552,6.28644418671204
621,-8.634885423151232,-88.44638653441781,4.618531573182291,6.0835300141474775
622,-8.745921851656226,-87.09590799838453,3.742238333258605,5.879712561464914
623,-8.768054119595881,-85.513662593416,2.9576287699771746,5.68179914868529
624,-8.710911195585993,-83.72938274509046,2.284556999286202,5.510773523087767
625,-8.55930632430409,-81.79528895745668,1.7423079880307728,5.3906977172680515
626,-8.286915073021628,-79.76899569573506,1.3387301472044482,5.332436397502276
627,-7.874246134276826,-77.69605525621994,1.0648253649081054,5.338469183685938
628,-7.312753979574682,-75.61226369216506,0.9015440347775814,5.429023289672729
629,-6.595497112528566,-73.54092981272973,0.8297015144168622,5.644901343428641
630,-5.75348095820762,-71.59996530062772,0.8165001744878574,5.98704275674885
631,-4.700303178768525,-69.55923131463274,0.8460206613885985,6.474258511413638
632,-3.456787385673255,-67.31967087738946,0.9022662976280611,7.091399826581937
633,-2.109890344213694,-64.8811192831467,0.9694810543053093,7.806391639868941
634,-0.7424274227066422,-62.31447186510842,1.0340827780453095,8.573527523153764
635,0.5933132633116974,-59.742081841232306,1.0863909992726977,9.33553022918499
636,1.8489632282305113,-57.30991524523265,1.1215168991087543,10.032183616976166
637,2.9585581959418463,-55.15102621063725,1.139938882915092,10.61507271005351
638,3.8563561643200037,-53.366294207354706,1.1478011250547981,11.062629957351264
639,4.5132672909209814,-52.01833399997945,1.1538967375540323,11.3772452545415
640,0.14045252358332216,-0.6032413765779245,-0.3477124838324902,-0.12641936959511108
641,0.057751828593998605,-1.174616583804998,-0.7587992409168884,-0.39879306205934156
642,-0.1331363096611473,-1.9491267245000408,-1.3358124060463417,-0.8253902698402473
643,-0.47332490505968267,-2.924203800739165,-2.0873299761862683,-1.4428673654944455
644,-1.0055416375969866,-4.080793673237904,-3.012803950053443,-2.2647958165724638
645,-1.7476800590611974,-5.374906902287954,-4.092177909626113,-3.2833612802389425
646,-2.692735505191429,-6.748417179463524,-5.288733143769864,-4.48771594396025
647,-3.8295620397163304,-8.156392050115418,-6.56510590577833,-5.86714150322004
648,-5.152015575945968,-9.578589946601777,-7.8913439148826345,-7.399061163321002
649,-6.664546470689264,-11.018085679296325,-9.246112030713135,-9.048551728167144
650,-8.374029127212655,-12.50969447150716,-10.628151114998154,-10.77964482110594
651,-10.271914840445193,-14.052477759196373,-12.025171332085497,-12.565868951435725
652,-12.344224265561607,-15.631897670946714,-13.428138094648123,-14.39645749383368
653,-14.578421744467123,-17.229379076365444,-14.828127440250759,-16.26266481094655
654,-16.93137082304025,-18.827141114853653,-16.213061799074698,-18.14131050086725
655,-19.31431793146329,-20.408736059246415,-17.569913989824933,-20.007318762674757
656,-21.625519945195258,-21.960117533985958,-18.89252212189799,-21.852788151846383
657,-23.796059469580882,-23.470219126490274,-20.184867418115168,-23.686784991055156
658,-25.796759336269645,-24.93128416905068,-21.451403506752435,-25.509758312653815
659,-27.6063771252879,-26.33229447391837,-22.683232233343357,-27.2908260882835
660,-29.19444563473578,-27.645716553044178,-23.853309258366338,-28.970832190433683
661,-30.521817900642716,-28.834956928837148,-24.926257009879638,-30.48233294169458
662,-31.56110290737732,-29.879552621308452,-25.87547699371749,-31.771728602393758
663,-32.31579451984139,-30.771295996655752,-26.686180481880257,-32.794103860827505
664,-32.797063478217424,-31.485441232811592,-27.341721769109878,-33.5047540811099
665,-33.004565688929794,-31.977718034992634,-27.819581560963567,-33.87316031563142
666,-32.93087800587385,-32.209384539702555,-28.102827837655752,-33.89351879342297
667,-32.57178984845429,-32.16053704555822,-28.182851603538175,-33.583730796194104
668,-31.951759755939207,-31.827140460472094,-28.051687286872,-32.974726054910846
669,-31.135095365871678,-31.217779439826856,-27.702420607295302,-32.08896292309308
670,-30.190830273348265,-30.355009599498157,-27.135340387047965,-30.934669018839386
671,-29.152102098082537,-29.280004154377696,-26.36078164376774,-29.53449486812842
672,-28.029489236403332,-28.047020129963634,-25.39910899777611,-27.94136406689819
673,-26.838360323272482,-26.7084467607651,-24.277669538883135,-26.209510846275712
674,-25.59062411909387,-25.30735084442546,-23.02645054656013,-24.359417095944682
675,-24.279225916332265,-23.874866510948134,-21.678613439671317,-22.385332411042437
676,-22.878664999901247,-22.428311570470537,-20.27527219181585,-20.300332386763195
677,-21.368323610096045,-20.978841850474474,-18.867706063640664,-18.159462776896426
678,-19.763779958639603,-19.536060280483603,-17.508762837404035,-16.037381602724903
679,-18.123518658970784,-18.096919222842143,-16.236423065938546,-13.9947695607165
680,-16.511780627909605,-16.645129013148935,-15.06897391603975,-12.072587607167895
681,-14.961232264060937,-15.171759395390907,-14.014220815717447,-10.317310145535206
682,-13.48981921267553,-13.688364600360906,-13.076731822079957,-8.79265053351054
683,-12.132352669215061,-12.224316184629515,-12.257727627222565,-7.556802346900133
684,-10.945066177065337,-10.821585531557348,-11.55418205605712,-6.636015155276863
685,-9.977141531848213,-9.531361485002497,-10.96168227782864,-6.021735699263968
686,-9.235780002385024,-8.409833714754704,-10.475342503850861,-5.68381502810658
687,-8.695293192327384,-7.508615400752684,-10.08786785046793,-5.581591017319242
688,-8.33814348555177,-6.864296917168934,-9.790343353310881,-5.667784762635383
689,-8.167078652936818,-6.499765826808976,-9.573170855075254,-5.882001591036461
690,-8.169516725792777,-6.4251357559655755,-9.424788670589471,-6.156243694929816
691,-8.301743951989696,-6.62654553982926,-9.333074832950677,-6.4415577390236765
692,-8.519375067371845,-7.067028712837768,-9.288808490073947,-6.721198839280955
693,-8.810089697155258,-7.704479417348627,-9.282268184019554,-7.002172679612763
694,-9.192962070342764,-8.494759032028439,-9.29443644342154,-7.2939791692026565
695,-9.678910902775304,-9.378909230033134,-9.296831313295206,-7.592585531877545
696,-10.24213936484744,-10.28654757831524,-9.263434370772588,-7.890083087044382
697,-10.832560413143687,-11.155186951508211,-9.180122919073966,-8.186171247172448
698,-11.407724620441748,-11.942496216460588,-9.043647634039715,-8.480580694858292
699,-11.936408795743247,-12.623755831936506,-8.857281753542939,-8.752867683789532
700,-12.37116584505602,-13.186945445192391,-8.629061984592436,-8.954654281648148
701,-12.646494214323665,-13.634601597249706,-8.37181642057028,-9.038860167786906
702,-12.705407836402644,-13.982751609839706,-8.103457548033006,-8.990558758215897
703,-12.530096355663856,-14.254220036807059,-7.8469308082586195,-8.827612419217381
704,-12.147804226428837,-14.47241680496755,-7.627712475291783,-8.584865538185177
705,-11.604873088193687,-14.652029995488464,-7.468636357044419,-8.293901075646536
706,-10.944557050842942,-14.788153531507911,-7.385183343862199,-7.97518212394557
707,-10.200378220033071,-14.861047003678635,-7.383623918258341,-7.651150096781428
708,-9.409459561760555,-14.853929803789521,-7.4606591814425,-7.356409848023774
709,-8.619706110693233,-14.761911498402577,-7.603120239785942,-7.122320370622664
710,-7.870064006225885,-14.588387566043076,-7.789613580064029,-6.953221818961989
711,-7.171741872058267,-14.343078679320548,-7.9948825721826005,-6.825024584373028
712,-6.509129823497643,-14.048280634935178,-8.19468810585821,-6.710440368286404
713,-5.861165837735685,-13.739437295350758,-8.367861949130054,-6.5952088785405065
714,-5.220618009591008,-13.451705043170428,-8.494244043277474,-6.466984010280327
715,-4.597836442714487,-13.205779175393685,-8.555292576452631,-6.308674739585031
716,-4.002059701321769,-13.003147199977665,-8.539756570701751,-6.104940912021825
717,-3.4107742572610644,-12.826409245283132,-8.444347597287233,-5.852976604383139
718,-2.7779446851822693,-12.641532889116249,-8.270263123044067,-5.5658665300690116
719,-2.0785446022402225,-12.406797258482579,-8.02415431041534,-5.253261129705063
720,-1.3353200077753433,-12.085529539343767,-7.719094675255759,-4.906550290628151
721,-0.5903561173223448,-11.653376479094764,-7.370891745930635,-4.502926867920142
722,0.13761110388202608,-11.100910038393259,-6.994648874313105,-4.0240306341544265
723,0.8508231088577427,-10.436834614508827,-6.605229245188006,-3.479527028138244
724,1.5489958786264526,-9.68479009947772,-6.2143381844782395,-2.8994126436994025
725,2.215169894643043,-8.868033369239312,-5.821784176894131,-2.3024801100150305
726,2.8326470663830867,-7.996087735905239,-5.413659263304095,-1.68539671984392
727,3.411913980774626,-7.069171395248851,-4.9722165797572755,-1.0468352541446273
728,3.973693950435064,-6.0959807958513155,-4.487569442097301,-0.40770939813885193
729,4.507452759873805,-5.099277545348378,-3.9602858576335533,0.19850423010878723
730,4.958108756172944,-4.103103407080628,-3.3964671266375963,0.7439571770673744
731,5.265903343083503,-3.1291717376572916,-2.8059962055303846,1.2137970887103624
732,5.414128183889943,-2.2082175786120732,-2.2072701841352336,1.5933315331957232
733,5.41759898639774,-1.380660593503393,-1.6286997631169133,1.8551047755288557
734,5.274701280848463,-0.6830718599179263,-1.1014486018191396,1.9751106827442402
735,4.965216188815892,-0.1393040870063349,-0.6501229973409236,1.9663686431595002
736,4.497229757919266,0.24862220425860493,-0.283972780966516,1.8856293920287805
737,3.9279022553629055,0.5110908652116979,0.007052094936048803,1.799788504954706
738,3.3377130555415335,0.7020120678275145,0.2471397272841897,1.7556536104420932
739,2.785719034280807,0.8792192895448943,0.46617753166804615,1.7813042222339663
740,2.2955042793098124,1.091394621392726,0.6950308715891403,1.9061788009148066
741,1.8851993059942915,1.3731440832022275,0.9611037139889955,2.162333137040391
742,1.585167842007157,1.7375451214544841,1.2783520072359038,2.557577235133217
743,1.4229446331659703,2.163309883736102,1.641751368078657,3.0593643956685925
744,1.3933365882137856,2.6058788637772876,2.0312726687668174,3.6039498836411075
745,1.455412908907276,3.027421386620815,2.4218562528047185,4.125866370902304
746,1.575308925389501,3.4033946913299795,2.794639352495188,4.586192466624971
747,1.7569696095092857,3.7110727347050894,3.136272334081119,4.981923682098806
748,2.0136685746404677,3.934735896497056,3.430697443440934,5.332047565478206
749,2.3186635827946573,4.081696750335297,3.659230961797262,5.648959812249961
750,2.6109287217735098,4.182250926507894,3.8092053943276145,5.9381889973691475
751,2.849433081437431,4.278567055725839,3.8800616087130178,6.215668198632596
752,3.044531509597987,4.420940564362572,3.881789811073809,6.506255721140861
753,3.244592956954764,4.6628053003475625,3.8305470107372535,6.825783751085169
754,3.504305929434315,5.039563614225225,3.744157424788529,7.168879114690478
755,3.8566484542002075,5.551150352300022,3.640340544980518,7.51856170580307
756,4.30055192514581,6.170228579350447,3.537602541950853,7.855898968044937
757,4.817025472497018,6.858975286721703,3.4531410631283785,8.162850165639453
758,5.405928100300065,7.548471593773221,3.3890706946683196,8.423426339730415
759,6.021489951806647,8.217427044257526,3.353114415109052,8.573453592683967
760,6.607466335928386,8.843911383042332,3.3483686624212816,8.58752235729895
761,7.1183343763600835,9.410383375873401,3.3750285577315533,8.4794972828149
762,7.528676791667973,9.89742605138024,3.42766805858975,8.282622064783846
763,7.82650867975453,10.28864094021796,3.4913252821779874,8.022843233862748
764,8.001731074959116,10.583199446369818,3.547064015504099,7.7140692648672475
765,8.053680416267545,10.795318814864899,3.585975172355343,7.37827543113441
766,8.013426263405488,10.94489411350817,3.6116992154904892,7.062774222669742
767,7.937742345328426,11.052010867662279,3.630787870955137,6.823401192308135
768,-0.12182782522446842,-0.23581531646985715,-0.3861095131058646,-0.35352318375383834
769,-0.459232380835139,-0.5444044138900783,-0.9216699493842038,-0.7568498195510387
770,-0.9565548209935681,-0.9612302975717637,-1.7068914880039041,-1.318226366384438
771,-1.641070581960298,-1.4893211311645296,-2.7547122365309185,-2.045612511585988
772,-2.545614806059793,-2.129627264889989,-4.057306409667794,-2.9180184590581657
773,-3.67202169926233,-2.882082012701479,-5.581818867793439,-3.8981111476907957
774,-4.984032627901685,-3.75231823358841,-7.274037378224599,-4.953192016480839
775,-6.431086631870866,-4.7467476262198325,-9.063764453328028,-6.060499719651585
776,-7.970401237273364,-5.858717476341531,-10.870199202738085,-7.199425643735599
777,-9.567061474968922,-7.070133419328848,-12.618586848255333,-8.350152229861862
778,-11.18478892704984,-8.365895326062194,-14.27023118880515,-9.507247795631448
779,-12.76861791541694,-9.723099449620893,-15.79278124326857,-10.663260743017895
780,-14.272898436794199,-11.11233421056083,-17.172910032190334,-11.803182093858071
781,-15.66973825945203,-12.503947724478287,-18.406192340954846,-12.889861764236464
782,-16.929281965889185,-13.870777425758556,-19.491250185001675,-13.867004541205135
783,-18.006736728322277,-15.181621579873482,-20.428908145227044,-14.688889339855713
784,-18.864314715403445,-16.406832580263224,-21.22464826516686,-15.342038860195379
785,-19.508466624286758,-17.53086345975025,-21.892157091498284,-15.835518863444298
786,-19.976138861594823,-18.55102899823094,-22.44828104900397,-16.17175737288517
787,-20.279772844097483,-19.46513778130149,-22.898061545872604,-16.338907153222216
788,-20.396581369833232,-20.269425707309683,-23.2266811713645,-16.344176169864
789,-20.300867004319183,-20.965961451002876,-23.4095500388608,-16.225523059715016
790,-19.991649917753694,-21.56626658779383,-23.42934983258871,-16.028305257554514
791,-19.485288876086656,-22.08180880839802,-23.284078000982326,-15.788547436891776
792,-18.78689200405616,-22.513046480953136,-22.988100445807103,-15.526076975970767
793,-17.887456614091633,-22.861899507523706,-22.571938287710935,-15.2466900102113
794,-16.79003704419046,-23.143072935986666,-22.076771174907122,-14.952384395554285
795,-15.525247907329476,-23.376083508783157,-21.54412046088496,-14.650888021901121
796,-14.130580784729666,-23.577148705636223,-21.00680555940111,-14.352725714059083
797,-12.633001124131173,-23.752952954801273,-20.48751442383399,-14.065871242741858
798,-11.064388852378137,-23.89778996022622,-20.002598079435828,-13.80024647773251
799,-9.467407468871283,-24.003782783027102,-19.56029566727497,-13.583771954897955
800,-7.878609744383797,-24.07794290761654,-19.15863044744867,-13.479726296781877
801,-6.323655046179855,-24.14337192633849,-18.78933712595162,-13.561042859510037
802,-4.832171951634988,-24.218398870827322,-18.43742784852875,-13.865286557907663
803,-3.4516227796215815,-24.295818524744178,-18.07965955988228,-14.38385750015661
804,-2.240894563535182,-24.351438826104356,-17.700894964842423,-15.086241638476316
805,-1.2473509482580236,-24.372802556207635,-17.310140455848945,-15.944779606087115
806,-0.4935146168375163,-24.359180902529094,-16.93068344728984,-16.924213343696234
807,0.018878469959666883,-24.300002743488456,-16.583694003176074,-17.96561197604987
808,0.29716180548576715,-24.175264055076738,-16.283368895336224,-18.98756566698017
809,0.34747422397170025,-23.973508133064957,-16.039435270891666,-19.913942182088128
810,0.17309002434591736,-23.69520418642818,-15.858909185680858,-20.719722516564957
811,-0.227935937590734,-23.3402508568261,-15.742426444851795,-21.420856365080013
812,-0.8677798747908125,-22.90471070521595,-15.67862910015991,-22.025259054114247
813,-1.7628119751197848,-22.384382790570516,-15.643223322609053,-22.518993323865168
814,-2.9084049185576992,-21.778168290585594,-15.60606157833131,-22.889242505192485
815,-4.25753817597837,-21.093923565191023,-15.541853137492733,-23.14571090226302
816,-5.742786842407102,-20.348675141940117,-15.437303649143534,-23.30335517595352
817,-7.320324829984614,-19.559186154616217,-15.284991526406483,-23.34551919763411
818,-8.959501053293517,-18.73359110233734,-15.068317823030632,-23.22148554641577
819,-10.589914100717143,-17.876699067182567,-14.76380269360704,-22.887143250807785
820,-12.10267232259855,-17.00042412589454,-14.358096854289892,-22.323739736146326
821,-13.404598458621525,-16.11625636833631,-13.849021617981387,-21.51670536106064
822,-14.460661995125996,-15.214112663952207,-13.229200000902795,-20.437360889895555
823,-15.281999472861322,-14.26320467323012,-12.483515024557189,-19.052329463319513
824,-15.871340392484482,-13.234961420770675,-11.60419980000413,-17.360196419115695
825,-16.207656388217472,-12.111731598602795,-10.598395686343464,-15.409127926993452
826,-16.273429072000685,-10.883651271948697,-9.485383652418227,-13.277596575753675
827,-16.074979480881314,-9.55308906429731,-8.292424393332105,-11.03694358194529
828,-15.634954448522334,-8.138851792077316,-7.054414186157447,-8.736694113402887
829,-14.965868648507978,-6.676482414607502,-5.814939952264263,-6.43755219810657
830,-14.07676680656093,-5.214572136399754,-4.6217553258294055,-4.223841139979007
831,-13.002261607386714,-3.8032504934368525,-3.5182929191108836,-2.1768105061283296
832,-11.804688564262301,-2.4827653849975433,-2.534153496435212,-0.3455908910005264
833,-10.549569492961991,-1.281220260678467,-1.6807726376292615,1.26161846951921
834,-9.28516851619721,-0.22002560875200006,-0.9582098441892412,2.6478059897647133
835,-8.049681553449885,0.6805374941811275,-0.366456650309899,3.803923662302729
836,-6.896336190222911,1.4083824727975731,0.09524772573141203,4.717895674589557
837,-5.89594880970008,1.9757909383921146,0.4391009628804015,5.389115583333837
838,-5.097352033541674,2.4180872239969027,0.6861399922200614,5.830540188705308
839,-4.5028639663414065,2.7713880974127574,0.8510793584648303,6.06244971301218
840,-4.095974176991164,3.0511512070571856,0.933983878742747,6.1034070031350645
841,-3.878886178729583,3.248739690937966,0.9248099251796862,5.961129850869034
842,-3.8722951262958594,3.3475662708647147,0.8131506701078698,5.645329172658053
843,-4.08367481794999,3.340606457976699,0.5943446902285733,5.186224680071478
844,-4.494970927996054,3.232192881537046,0.26818128821513576,4.62268015595471
845,-5.075847609485556,3.0310002479215816,-0.16320285693838266,3.974582841886133
846,-5.795797299962337,2.7473317838398734,-0.6932784968158653,3.2387557603019856
847,-6.615879875131661,2.3926521355893926,-1.311018888068532,2.4179139107485477
848,-7.467614355167027,1.9809487083679147,-2.0009824933080806,1.5398697892104691
849,-8.258151398159296,1.5373724353502534,-2.740382466737677,0.6503310589031379
850,-8.894395935834998,1.0970084389998398,-3.5016422417381765,-0.2106846798932663
851,-9.30115006629256,0.6881971052258768,-4.261443608968786,-1.0296322486773588
852,-9.426973649690293,0.32604743826958515,-5.002224269575232,-1.8064312951039605
853,-9.238044841471275,0.015866157277876266,-5.704244989202646,-2.5342597329584273
854,-8.717152453631078,-0.24665071117749995,-6.341050481578536,-3.192376957597675
855,-7.870849906235068,-0.47076537464142565,-6.884254075188281,-3.754595716607196
856,-6.733837270269872,-0.6600420840090141,-7.310111745429071,-4.209646275831407
857,-5.363965232799701,-0.8078285536476777,-7.600985351904724,-4.558930736724083
858,-3.8333993842813214,-0.9027445608035362,-7.746188486092132,-4.792033963557907
859,-2.2116560683456528,-0.9337298031660791,-7.743875941824998,-4.876915073862332
860,-0.5413156155331842,-0.8861284039269541,-7.603116642490988,-4.790307949668516
861,1.1563012201645286,-0.7402651968423843,-7.34418832291725,-4.548725678179279
862,2.8502168299141166,-0.47956731983032935,-6.991238693582918,-4.18183256745814
863,4.479641193355543,-0.09659730823977569,-6.5643030197592305,-3.6934853455014016
864,5.968928322264236,0.4072468868413142,-6.075538959865162,-3.0714635665601637
865,7.2684297881468085,1.017287307260335,-5.532182620051652,-2.3228759655520537
866,8.360349583350086,1.6958690130259384,-4.9457334499955845,-1.4920910927094273
867,9.224615833251072,2.3885554027908182,-4.331233786593388,-0.6402516369780208
868,9.821859706684833,3.0465728251521638,-3.696275220439275,0.1889741480876982
869,10.110291628543028,3.6361976517849164,-3.037478097452266,0.9735701064977977
870,10.068169312106551,4.13271659479962,-2.3503448360193855,1.6923290505272668
871,9.704457412029885,4.521549667696559,-1.6371838473857112,2.316182525460992
872,9.059230661268323,4.804232746535012,-0.9043328057814644,2.822066532379331
873,8.195291220764389,4.998837405800943,-0.1567619923415966,3.21617426064874
874,7.194522941349469,5.13271818860933,0.6003620678687074,3.534619108659683
875,6.160983373376932,5.231095920756895,1.3539195911632365,3.8066837813712757
876,5.204329325585253,5.3122556440240665,2.0792683595249937,4.024119722980038
877,4.407988140479841,5.3824421998831316,2.7446079848931384,4.154235131696637
878,3.817552139145529,5.431111375664064,3.321185728242791,4.179897152353712
879,3.4666634952859368,5.440831614395283,3.792996461163308,4.113207184926114
880,3.405960693919071,5.393721413718489,4.158298609869377,3.956592048981584
881,3.6755606408478014,5.266782489907697,4.426116254928255,3.681969425231623
882,4.242023622077269,5.041780164427308,4.614766903669266,3.26070240171612
883,4.991082267906728,4.7257968583072465,4.752670418977287,2.6910866743578357
884,5.797847699914146,4.354261266273766,4.873748416498854,2.0036960061858364
885,6.583904561556323,3.979899235737519,5.003731597827007,1.2474226364323202
886,7.331050663671984,3.614680496863736,5.14745701466584,0.4571539245188315
887,7.954961253491641,3.3804532200765935,5.277336635638229,-0.32831360062364345
888,8.399739150324539,3.3459984952491757,5.3707298827493934,-1.067242943682996
889,8.642117784276264,3.532919602836869,5.411569070151136,-1.7239455775232533
890,8.688990418857678,3.9225473294614646,5.3905803417946325,-2.2792721234034543
891,8.5728800032261,4.466043806495309,5.307389495879981,-2.7330978389051452
892,8.34539059882351,5.095166658293808,5.173018001771286,-3.0909062856076117
893,8.068705510428096,5.732924877726186,5.010631274916609,-3.3474540073602306
894,7.805217497604653,6.306866906394726,4.850413056920744,-3.4940042428035074
895,7.605393021247478,6.764845252839034,4.719247261242872,-3.5429546368758897
896,0.022750328103975093,-0.04291590046207509,-0.34094731099557485,-0.11543679865167403
897,-0.10904540837256091,-0.042346098759004164,-0.6909241389824833,-0.17918517718476168
898,-0.3343299479624794,-0.01640912142068308,-1.153779647892557,-0.27332835229162616
899,-0.6845386432901936,0.040865759105372684,-1.721688985638655,-0.42710005003782503
900,-1.175307871078994,0.13119385801297337,-2.376720805376593,-0.6461889796141451
901,-1.7864089711121112,0.2411856773372186,-3.093519096443471,-0.9190508539149262
902,-2.472160720103118,0.3415643988744661,-3.846343924066128,-1.2407815850197466
903,-3.188789750702937,0.39333593536803413,-4.615474810556248,-1.6181693322401527
904,-3.9131629385974143,0.3579419460740994,-5.390089175711362,-2.0540077864378667
905,-4.638820850825398,0.20907789038795843,-6.168764936105968,-2.5347790155590784
906,-5.354496194588422,-0.0647287931714415,-6.969212907693693,-3.040914941502802
907,-6.051225376744712,-0.4660211773421724,-7.802113502215877,-3.5645613890619385
908,-6.748722917149487,-0.9891838247835331,-8.67614410945676,-4.10298294427729
909,-7.495523001542317,-1.6102938851848483,-9.589028635165885,-4.640682651285882
910,-8.338750549488061,-2.2802915179918397,-10.524873063083916,-5.151554811183816
911,-9.290419762798596,-2.946147110207642,-11.464977723198782,-5.629800081072518
912,-10.33129386076619,-3.5883507115792512,-12.403556505231228,-6.112211194468143
913,-11.444473901399984,-4.224611642574332,-13.346316170924142,-6.651959909285679
914,-12.637881258155213,-4.884464634383832,-14.29591799003819,-7.270543774481294
915,-13.917628944911604,-5.595917492855977,-15.247932206899957,-7.948378249247629
916,-15.252745754029682,-6.386836485100865,-16.197429736018197,-8.667551323598344
917,-16.598952888714546,-7.282702848689486,-17.144880026892004,-9.443814860874658
918,-17.93918245406629,-8.293835240924276,-18.093138362707027,-10.309170067183386
919,-19.28663844474314,-9.41110077603203,-19.03985362416551,-11.277487967608451
920,-20.64722356403702,-10.609546537481423,-19.975190263335524,-12.33462289973632
921,-21.98334584857782,-11.84630779378439,-20.881955536088416,-13.457253695142889
922,-23.230020906195325,-13.066808305905917,-21.74018311857626,-14.625432050405854
923,-24.3439523611492,-14.219542399730491,-22.532103922673194,-15.809877272984608
924,-25.320997137545355,-15.26529384300759,-23.238961075967623,-16.95308431978183
925,-26.15644688183752,-16.1794450965881,-23.840974814906,-17.97475470799715
926,-26.819442257463955,-16.957463436207615,-24.324569619663794,-18.800696745694744
927,-27.275926559864402,-17.61583401723573,-24.686765261492173,-19.383805375495907
928,-27.517128850276233,-18.173170026584934,-24.93097263245428,-19.703356004479797
929,-27.561755571378725,-18.62864180126195,-25.058223619460563,-19.74816778143029
930,-27.42757913573173,-18.962631033826575,-25.06577647032664,-19.51100178633065
931,-27.107442369977026,-19.15043198333189,-24.95187367255113,-19.007381529560302
932,-26.571437667560385,-19.16495501737615,-24.71645451449868,-18.28444207284794
933,-25.801138926797734,-18.97555964714122,-24.35919496449742,-17.40237228707044
934,-24.808403560707877,-18.550833222865897,-23.87820006247286,-16.39680779596439
935,-23.599598857666614,-17.862755134863562,-23.27116861536323,-15.259987663706282
936,-22.152241201906243,-16.89275337481613,-22.53946152075334,-13.970349387785072
937,-20.442625193542575,-15.646272524489719,-21.691500875669746,-12.527405399990288
938,-18.487994199604287,-14.171813850257543,-20.747244809736134,-10.962120476341477
939,-16.350822621410362,-12.55339127520041,-19.734563866883146,-9.325006915420317
940,-14.099529968306975,-10.874238848964358,-18.67475816794541,-7.667821101358109
941,-11.783140180296607,-9.190778145827826,-17.579164368182774,-6.042443816960586
942,-9.443541229230616,-7.538144334926177,-16.458805382211352,-4.5098746547436175
943,-7.138948018408706,-5.945629242922758,-15.33123130718038,-3.143332983207271
944,-4.946590988247982,-4.435427253541666,-14.218143277348245,-2.0125304227888394
945,-2.948835432036774,-3.0147672291809147,-13.139217082796389,-1.161003222080946
946,-1.2104897003203432,-1.686249271590039,-12.112623278832226,-0.598560704676537
947,0.24407679860818204,-0.4661232330594318,-11.160473668541426,-0.31835227468264277
948,1.4170863747048648,0.6117728887421646,-10.310129915199534,-0.32002063439147443
949,2.305871111624962,1.502645754634278,-9.587163345879256,-0.5992699931407717
950,2.901330242577818,2.1592383723918456,-9.005723236603748,-1.125460591631657
951,3.2167954367863087,2.5430403301469777,-8.56576135541006,-1.8449205833351863
952,3.2984197725136077,2.627312810802701,-8.256633176618218,-2.7056003182223876
953,3.194464816484849,2.392689939373925,-8.061175531754879,-3.6747148262423988
954,2.9344297516060176,1.8376173947193128,-7.955778314823789,-4.718005433685074
955,2.535488328727453,1.000242066136399,-7.909989162958224,-5.776870597859603
956,2.017822170399782,-0.039134836471648504,-7.8915386960657035,-6.7813802764156215
957,1.417116184901267,-1.1905745567272692,-7.879533398996364,-7.684575738371269
958,0.7725510736196444,-2.3894848864600267,-7.874791080198537,-8.48488592328302
959,0.09675185796889157,-3.5927478196233826,-7.889694448845407,-9.20945686038494
960,-0.6428901018466285,-4.756731740866402,-7.9320639708420835,-9.88280182041686
961,-1.4878411964015612,-5.835535546165929,-8.003553102205329,-10.512846549219763
962,-2.424324308634725,-6.795410977217297,-8.105444617807361,-11.106808097174738
963,-3.389378243456505,-7.624156991522679,-8.23705747120553,-11.689269660705689
964,-4.331713117491205,-8.321674419420216,-8.388319073064109,-12.289014028951756
965,-5.236482059255948,-8.89264111566376,-8.538933949969781,-12.90771485059076
966,-6.0935876533652795,-9.346406809579015,-8.665489847255884,-13.508067295683162
967,-6.866950345243175,-9.687723566659747,-8.748659821015643,-14.049439110659105
968,-7.512098275514903,-9.912575874561881,-8.775192801822211,-14.516849699257477
969,-8.013796046108045,-10.011088001691906,-8.737375726876692,-14.906260207863161
970,-8.39248575368935,-9.96746004622034,-8.634710481057681,-15.200552406920174
971,-8.675121619729927,-9.766529123603163,-8.473084473170866,-15.362250834087636
972,-8.872323835739387,-9.405448797873182,-8.25892458533495,-15.365208860658615
973,-8.984773589096765,-8.90022902863188,-7.996770839585346,-15.22057192875597
974,-9.026207549878727,-8.285433727446613,-7.690671660004241,-14.95728840237623
975,-9.029758769881717,-7.597217354760831,-7.341164434086659,-14.594898354787896
976,-9.012914072842188,-6.862980105368388,-6.945105484213019,-14.136840109730267
977,-8.944110094698516,-6.1147977733272985,-6.506475999239825,-13.583042927008737
978,-8.765422290996629,-5.391851734644472,-6.04113876375783,-12.939751170663584
979,-8.452307725551487,-4.721704989132635,-5.566464492037583,-12.218048410796584
980,-8.022911607257294,-4.102472646028186,-5.092884827505228,-11.417002082677858
981,-7.489947757680355,-3.506991242852019,-4.624980065676441,-10.515638059634439
982,-6.847252011084695,-2.903302201057553,-4.163043417492958,-9.49872290379317
983,-6.09602762921548,-2.2731153594822104,-3.705136624452532,-8.380499658060701
984,-5.2684680978725105,-1.6251079520222718,-3.251546018640246,-7.1969410026271525
985,-4.4241870736233455,-0.9933214509495834,-2.8054041290989487,-5.972780634494205
986,-3.620758994527974,-0.4182013195593557,-2.368021033743623,-4.711782283619605
987,-2.897925514338507,0.07398177123458932,-1.9357337313696135,-3.4244416905763546
988,-2.2771734521098272,0.46924429940178725,-1.5068286751543383,-2.1523159441236066
989,-1.7718343916079693,0.748263740434477,-1.0923811067315066,-0.9670215285391576
990,-1.3964540444153741,0.8910605750462065,-0.7144329219690987,0.06581402884416862
991,-1.1519575428986184,0.8984115230329319,-0.39222407307506324,0.9122398569030059
992,-1.009521299164851,0.7928202190801809,-0.13303890610032582,1.5606717125867928
993,-0.9216747861606819,0.6016973874258615,0.06244445649984641,2.0026691557532748
994,-0.8548048052956404,0.35206566915130133,0.19164797404259715,2.2114251497696213
995,-0.8032256881977259,0.07349982047429833,0.253477458523344,2.1551801998474938
996,-0.7764723312067339,-0.206792150054473,0.25201384405891275,1.840294189223153
997,-0.7778051664444028,-0.474006109289715,0.19243640691282685,1.3284943403183296
998,-0.7853644295750317,-0.7241287877091847,0.08252691410646139,0.7026597682798155
999,-0.7641526712531679,-0.9534053460299747,-0.06326309723620013,0.02301112658779711
1000,-0.700549286324148,-1.1602545492169374,-0.22791845814816003,-0.6688076674837933
1001,-0.6244900727929542,-1.339042657479421,-0.3990990882806344,-1.3342881424037734
1002,-0.5848762564951828,-1.4661914562786154,-0.569662019988298,-1.9448476960369083
1003,-0.6032646470846192,-1.5141497823590062,-0.7338390882685766,-2.494687756122567
1004,-0.673959379783505,-1.4754426184716267,-0.8876695615572187,-3.0064985842653362
1005,-0.8000321691000556,-1.3562799035599313,-1.0281688917188343,-3.5080548242361567
1006,-1.0095509609561333,-1.1490879991882248,-1.1501678115498335,-3.9977117148971875
1007,-1.3228002589464989,-0.833469739058558,-1.2505061580969414,-4.441285006656816
1008,-1.716937498081896,-0.4043766638147062,-1.3362794661455797,-4.8040253054277064
1009,-2.1387276458053717,0.11713862887777368,-1.4265101020030362,-5.077431395383911
1010,-2.534903820207555,0.6974254180272615,-1.542060123888121,-5.2746054533278155
1011,-2.872965716848116,1.3044015870726742,-1.6907811314314842,-5.401701851482434
1012,-3.129063948505632,1.913840936084161,-1.8649479887118394,-5.441442579316188
1013,-3.257390278344988,2.507845788561144,-2.051099230248881,-5.386228559371722
1014,-3.219605816174336,3.047172134002787,-2.264413259142713,-5.296442031451128
1015,-2.9851686246546096,3.548933376766109,-2.466338857533766,-5.18498105453399
1016,-2.582561863372305,4.0229045609561735,-2.6297280647803785,-5.05032365488509
1017,-2.0517316608679197,4.476967408388047,-2.7345789155154026,-4.880506617290636
1018,-1.42241533745833,4.915232957476104,-2.766453095441892,-4.680911013116142
1019,-0.7320674363406727,5.327102906098033,-2.7208608512367807,-4.471807610198838
1020,-0.04950896772018981,5.692167476526772,-2.6102740421104214,-4.2660952860248935
1021,0.5439645183199091,5.999762387193244,-2.4611193589078155,-4.060577537850727
1022,1.0028042167676294,6.249076203585516,-2.302134820310904,-3.848276623533091
1023,1.328365915034109,6.435791123257391,-2.1583777359415706,-3.6454435873642512
1024,-0.01363707201738873,-0.3455094285943817,-0.45815401161897523,-0.4715414642589797
1025,-0.46752412004856264,-0.8667205502547299,-1.0309673577991676,-1.0363163400605955
1026,-1.2119541019747277,-1.631404557000845,-1.8652893769232142,-1.8372072507565087
1027,-2.247400252535951,-2.6471328714308178,-2.9741653683220406,-2.8853518686451216
1028,-3.533142199560815,-3.8960685020170662,-4.347371635013556,-4.1652552949554815
1029,-4.991391077011367,-5.335264135280182,-5.950398819641153,-5.643173442082132
1030,-6.516606023198289,-6.902347794922873,-7.727786364805933,-7.290071436968857
1031,-7.989126855092373,-8.528800843355302,-9.612891812119232,-9.084576897362595
1032,-9.292310993531082,-10.155778070492131,-11.541639950514408,-10.996330709979038
1033,-10.332427408234073,-11.745034685777032,-13.4677547896564,-12.982020954383708
1034,-11.069497992524568,-13.291968326037637,-15.381280915723547,-15.013199512338494
1035,-11.51568586589502,-14.792074171643291,-17.258897960928607,-17.059525849717172
1036,-11.693484590262866,-16.237306905616474,-19.076927064004284,-19.095627857529063
1037,-11.614024011243629,-17.610008140696618,-20.811625212796137,-21.086242559893932
1038,-11.300957280666413,-18.885307261477603,-22.443407100922812,-22.97694593509745
1039,-10.804473209724618,-20.034440617081675,-23.959491316054187,-24.707410347326938
1040,-10.194923685595414,-21.029007436480054,-25.352990423779453,-26.247479495624894
1041,-9.552479549863241,-21.842691460560655,-26.618684533794518,-27.595341469833436
1042,-8.968218157030327,-22.45425559673869,-27.748904058207195,-28.738755459973987
1043,-8.546585993272087,-22.851035226289078,-28.73217485228347,-29.638668722853733
1044,-8.39464708011004,-23.03137501524909,-29.555676264741933,-30.25691182784858
1045,-8.6000594795981,-23.009212717034476,-30.21027472257245,-30.591045943343094
1046,-9.20842238843212,-22.81945001605238,-30.694224357629235,-30.66151760751074
1047,-10.214376133341826,-22.507597185106558,-31.00949913304947,-30.469924889375264
1048,-11.566264121416781,-22.10402136605099,-31.150693997820838,-29.99302704846092
1049,-13.174955012765265,-21.619717178009086,-31.10574170679319,-29.223324674956537
1050,-14.927678360975479,-21.06515486533672,-30.870481908692913,-28.197665050870746
1051,-16.712879130649558,-20.460285742384592,-30.452802773175684,-26.976703092599188
1052,-18.449760005599316,-19.82620414038327,-29.86371741968601,-25.606128671634384
1053,-20.100978498118387,-19.172856206119697,-29.109910671908057,-24.105472620571078
1054,-21.636903778354014,-18.504315302126724,-28.19787719695333,-22.495675062784013
1055,-22.999646160435418,-17.83258331609175,-27.145028255810004,-20.826042536616463
1056,-24.1351589114421,-17.177688773228414,-25.976716578109542,-19.160999464814424
1057,-25.036968853870505,-16.558545435124373,-24.711935856027164,-17.537555270688813
1058,-25.730810768651786,-15.987109594847508,-23.364540383794854,-15.953827572671342
1059,-26.230158151036058,-15.466698427939544,-21.956300304786314,-14.40905280416329
1060,-26.52288425276553,-14.991080308789526,-20.516911735159766,-12.935782312144807
1061,-26.591446713436984,-14.54657955650794,-19.07180080593523,-11.57548760324922
1062,-26.44291836831783,-14.116937347082638,-17.635259338011377,-10.328952235954588
1063,-26.113743242236858,-13.684455660334562,-16.21398586744034,-9.158537061534256
1064,-25.641169715141015,-13.232152314305054,-14.816648767491381,-8.044587852232993
1065,-25.04912418863856,-12.759818485111298,-13.46363850498188,-7.014090635206086
1066,-24.35897582542117,-12.292043765937798,-12.184964007999723,-6.1172943371685005
1067,-23.59999745236616,-11.855123256652707,-11.005556492620345,-5.391833238054168
1068,-22.801868898709397,-11.456198313465613,-9.940562533143485,-4.845309794435238
1069,-21.98243505131094,-11.096785110351469,-9.004966543141707,-4.474096283761687
1070,-21.157512839680685,-10.797250091270417,-8.216859819757714,-4.285087128940746
1071,-20.36656203909488,-10.588066180639256,-7.591504946418236,-4.289315278029003
1072,-19.67471657885789,-10.478899490713603,-7.1300925525861,-4.478972698886909
1073,-19.127757144430824,-10.452718347201964,-6.814636083999504,-4.818076044038735
1074,-18.72137818661322,-10.480241756030402,-6.62096187870836,-5.259210144142369
1075,-18.424548955624637,-10.530660058539386,-6.526224239324625,-5.762254106392252
1076,-18.215394161543713,-10.578110393973652,-6.5031195725701,-6.301410822864597
1077,-18.084348803172393,-10.602952594390969,-6.524356277906574,-6.850385694793625
1078,-18.009384579582917,-10.587121475718941,-6.575703850345147,-7.376812462024212
1079,-17.944580062192134,-10.507193707094078,-6.657507781167515,-7.865686022393811
1080,-17.830243402641806,-10.338329461716075,-6.778242689141907,-8.324074213893834
1081,-17.621967499330836,-10.068557536921249,-6.951791149195747,-8.76315763377137
1082,-17.307837942504953,-9.697454257738958,-7.190923749992577,-9.179167926422103
1083,-16.893624015565624,-9.219127006468167,-7.498570181905306,-9.545738762210059
1084,-16.386961399026088,-8.624185890526686,-7.86679268196336,-9.826305158772282
1085,-15.788137773701315,-7.921063292387641,-8.279586835750358,-9.995215336184764
1086,-15.097898358393984,-7.134891317246884,-8.71328208838772,-10.051513976944795
1087,-14.333761637213618,-6.281106858490664,-9.135364182119169,-9.997065134868913
1088,-13.530651977642501,-5.357237324362727,-9.508136950844406,-9.812086717739284
1089,-12.714137473911652,-4.359522130272519,-9.796240227350618,-9.467209299658384
1090,-11.86857185499006,-3.2889922989621687,-9.972701194126774,-8.956896341562324
1091,-10.958903295488026,-2.145691914133444,-10.019277568926327,-8.329046459359647
1092,-9.96680409358333,-0.9300017781927313,-9.92435126183496,-7.65724753738316
1093,-8.895340766803503,0.35237861972051343,-9.688954005758141,-6.983013422453628
1094,-7.754838527103074,1.6865260058193372,-9.330425634066668,-6.311246737710571
1095,-6.541679124803331,3.04594447236949,-8.87503536533192,-5.642364587970813
1096,-5.247285989694104,4.39369655782231,-8.351690284678664,-4.9823847945306525
1097,-3.888178041349404,5.692679746880357,-7.787871157051483,-4.3292892463704415
1098,-2.518278521412382,6.9204716930447905,-7.20365951906625,-3.658983155467511
1099,-1.2032187358183846,8.0652354606947,-6.614557542715905,-2.9300893804688437
1100,0.013662490376989203,9.108891981374638,-6.0408587080916325,-2.120253205946828
1101,1.105192706625135,10.026733072604328,-5.507363912658023,-1.2567089939588163
1102,2.0307104121295274,10.801711198345679,-5.03772282159459,-0.4014508033192252
1103,2.723785209869932,11.424321567482716,-4.6514896545660545,0.3813883689019342
1104,3.133552971745297,11.875649977604429,-4.3631117942369775,1.0373679028455471
1105,3.275032196964347,12.122794502727528,-4.182174431336078,1.505961282473732
1106,3.2059048668934746,12.129439818928777,-4.114501266683466,1.7184661083427095
1107,2.9618014577547345,11.868558180013311,-4.16487980412607,1.6368370144313782
1108,2.542426535271092,11.3326974289198,-4.334526384430478,1.294180130357673
1109,1.963718585704836,10.540704858079064,-4.612369221305436,0.7854199265157887
1110,1.2887247592532356,9.538034981555148,-4.971570193615139,0.21247520982380386
1111,0.5961506853919275,8.386119280264491,-5.3774306728832535,-0.34710168456670626
1112,-0.06969840285185562,7.152408988411813,-5.800959457942516,-0.8405963968845795
1113,-0.7125952533183838,5.912162653976515,-6.221485895104615,-1.2433987322665485
1114,-1.339218096791956,4.750200773276647,-6.617730046486604,-1.5552340078321572
1115,-1.9211870853624855,3.7425270192630484,-6.964140300030715,-1.789519509363579
1116,-2.412112311360197,2.9328209004828194,-7.235937005263923,-1.9674536601651231
1117,-2.7870547923062743,2.3316330336724924,-7.4138992975583395,-2.109691477319471
1118,-3.0504617609446636,1.9251274051873097,-7.487710658031875,-2.2168332641556754
1119,-3.2049698721979767,1.683040876249384,-7.4590322117545185,-2.2635140085478285
1120,-3.2338884401504755,1.5722770415857366,-7.338053240813877,-2.21999666343333
1121,-3.12041053351164,1.5708789911938394,-7.1356542583638864,-2.070176693871107
1122,-2.8771000269461613,1.6669492252187614,-6.860123581815669,-1.8153563764441685
1123,-2.5325851844032927,1.8448617393939628,-6.519367243895465,-1.459919851148297
1124,-2.0856129048013208,2.0878261278489827,-6.119484973559027,-1.0005354177800998
1125,-1.50097818253822,2.3933319354447002,-5.659396733559797,-0.44590036695155766
1126,-0.7452400355790552,2.767706914089164,-5.133594146345367,0.17226930872396296
1127,0.18569482418815736,3.208550806658162,-4.538703766472969,0.8145290133833751
1128,1.2750403684188436,3.701803517887821,-3.872020658593837,1.4577669099580415
1129,2.5155561869356835,4.22349088289449,-3.125510875622634,2.1156258396377354
1130,3.9110451214920015,4.736019184228502,-2.287046997341242,2.8284839331828344
1131,5.455877151121336,5.191194771502875,-1.3528042285720523,3.625296929814184
1132,7.126481165285354,5.54600183291207,-0.33718167357523454,4.495983114248083
1133,8.884148940024295,5.783274126257324,0.7340762388542901,5.4013099438226595
1134,10.678652364074296,5.916548515178952,1.8383498377479852,6.302728424228691
1135,12.459263686191912,5.972551473248852,2.959302384278876,7.173142457540864
1136,14.193339787973155,5.975883036223278,4.081490934038259,7.974774270564399
1137,15.856919792823687,5.942504967366693,5.184640097252593,8.633515714627304
1138,17.407480153890535,5.875158025643068,6.243428965544265,9.070253533203072
1139,18.77524274718338,5.76639662569661,7.236897841343174,9.257953025699846
1140,19.88216417726517,5.606766999617962,8.155988309417188,9.228652664811706
1141,20.675647824637423,5.382452707371204,8.99803094710875,9.03763758854039
1142,21.195647584320362,5.103754984021312,9.750961602337652,8.725501057119986
1143,21.33533575148774,4.649919451473932,10.39949430403316,8.336812493705605
1144,21.07359109410513,3.9782834768633144,10.937671207736456,7.929859671705846
1145,20.456636202779308,3.1096902749015016,11.368784651308555,7.558826549609537
1146,19.577796317035222,2.10115908317492,11.69793839010687,7.2562317006750305
1147,18.55561835545582,1.0276067805632774,11.929897467091836,7.029308169225563
1148,17.510584525551877,-0.028996499146571333,12.073798882227903,6.8739804238950235
1149,16.5406482991158,-0.9893819809928309,12.147223533441812,6.785506999113754
1150,15.714668290800914,-1.7886133413274412,12.172275256201528,6.753351100894229
1151,15.085054014768454,-2.388381493393311,12.166700999461733,6.749835004645707
1152,-0.048088247865750916,-0.3759082705473912,-0.3188501741402182,-0.32549607772078015
1153,-0.31631799801990174,-0.8129030681740695,-0.6662482043681528,-0.508928859742799
1154,-0.7416979692204542,-1.4356446213582825,-1.1721933106448494,-0.7224241519859183
1155,-1.3499122214126111,-2.2493187174409455,-1.8480276810085476,-0.9566243222659271
1156,-2.132861496473117,-3.228658382487693,-2.6812759721433332,-1.196533516713729
1157,-3.047974189929316,-4.320348466416183,-3.638011287153169,-1.4329854855263757
1158,-4.043581674087425,-5.464340315423801,-4.677101227665447,-1.669107218880539
1159,-5.080191611389772,-6.603752910668336,-5.759304476775629,-1.9149641993961923
1160,-6.127970327269197,-7.6807834101995764,-6.850882324508405,-2.174434894628473
1161,-7.15149444144042,-8.642322097021294,-7.928244901210341,-2.4489818522069458
1162,-8.113664707994507,-9.462355280389001,-8.98895435684305,-2.7568709284010873
1163,-8.995815014693951,-10.112044299838127,-10.01793134828841,-3.110976132372875
1164,-9.806721651670406,-10.57929101553667,-11.00036716008199,-3.511364539654405
1165,-10.556997523638044,-10.872961463672995,-11.925950970262589,-3.941532390110051
1166,-11.23994644341489,-11.021157679293928,-12.796928026183355,-4.387414256712146
1167,-11.841791317995503,-11.063806285990651,-13.625634143457345,-4.8529480051575495
1168,-12.36863527126041,-11.04461449491277,-14.422437725906784,-5.357203954907781
1169,-12.851429178021547,-11.003530766855452,-15.191191477449212,-5.914999982379394
1170,-13.313790299323475,-10.971471462421462,-15.932344442897872,-6.527951694001384
1171,-13.756474350088316,-10.966980637903408,-16.647110194581956,-7.194080782975679
1172,-14.170321547583967,-11.001641261654525,-17.33743485596692,-7.918413017778002
1173,-14.555798774612231,-11.092631860733816,-18.009972360651194,-8.719126666984389
1174,-14.933892285301006,-11.259450676916579,-18.678802437556847,-9.617558668145179
1175,-15.332918653957389,-11.509375264082779,-19.352537315740275,-10.622064284357862
1176,-15.773260983398727,-11.841487960364779,-20.025419302525336,-11.718702104941553
1177,-16.263265070497745,-12.265191680797408,-20.686182778593913,-12.885512713195949
1178,-16.81637676676717,-12.803467389407748,-21.329826753358446,-14.115128005864435
1179,-17.4663883810747,-13.476362248708481,-21.955622968120263,-15.403820313967461
1180,-18.248221912047004,-14.285981714646123,-22.5573247536354,-16.730746565554
1181,-19.168754108569686,-15.213961890135938,-23.12061752099199,-18.04962762993881
1182,-20.191319219466408,-16.22747022127456,-23.626247734038586,-19.309599342987983
1183,-21.251486420665323,-17.28805467175228,-24.053613456044427,-20.491250680330616
1184,-22.288656712200847,-18.355353561687803,-24.383877409243013,-21.596742881362175
1185,-23.26418691381303,-19.38626636554261,-24.60178057177797,-22.61705880411336
1186,-24.14653808078731,-20.337882188190804,-24.694020156845916,-23.528051234871498
1187,-24.88783717504956,-21.17415512862345,-24.650161382911588,-24.311280567402857
1188,-25.442494315445906,-21.87190535645984,-24.468963105745086,-24.968869360649453
1189,-25.801397052491776,-22.422176759423905,-24.160383402065403,-25.5089031096001
1190,-25.99651792619037,-22.82447845863312,-23.73983963755449,-25.915318408488908
1191,-26.067587966745656,-23.081565427997905,-23.21962314647694,-26.136755333136712
1192,-26.029285608781166,-23.199866649844896,-22.611294776422696,-26.122682844555037
1193,-25.882815461294857,-23.186142044789154,-21.93742147321746,-25.87254703817277
1194,-25.644515799895245,-23.03928718914208,-21.228791111784744,-25.42352430867589
1195,-25.34770069047538,-22.747335373859894,-20.507764783646408,-24.794793377773356
1196,-25.010241285748357,-22.294250764012173,-19.783328609791226,-23.976726535774983
1197,-24.61493738540978,-21.670474024071435,-19.060624352509002,-22.972147029531133
1198,-24.137409024105413,-20.878310047959246,-18.346482756114586,-21.82493416302356
1199,-23.580798095462196,-19.931399967197134,-17.64984174527747,-20.600804903844846
1200,-22.976352318240544,-18.851756392246497,-16.981504334175373,-19.343384051613143
1201,-22.351250208951356,-17.668552490819415,-16.35228248363671,-18.06834852602919
1202,-21.707326809881756,-16.417657212219403,-15.772960057587676,-16.80047008905836
1203,-21.038759339664427,-15.137642119326562,-15.256962122333702,-15.586558198239995
1204,-20.36281081186602,-13.864224048342036,-14.820009960650033,-14.4717270202752
1205,-19.71698677464565,-12.621073776226261,-14.472583052768076,-13.475603568545038
1206,-19.118446659579195,-11.410756514340209,-14.213516856632403,-12.591327836031581
1207,-18.541126320459753,-10.223973352884826,-14.032145948441471,-11.81155761105885
1208,-17.943070932048023,-9.057742864610645,-13.91307363740449,-11.149696767107269
1209,-17.31106743539364,-7.91828219862478,-13.836414671421021,-10.6287100650563
1210,-16.665817065250806,-6.8161514973897965,-13.776190971192921,-10.249782152483014
1211,-16.02748203538152,-5.771424037352245,-13.706016086725388,-9.989268648626378
1212,-15.397871567762031,-4.820966997064308,-13.609323625095492,-9.82985074482336
1213,-14.775010577340169,-4.0130620411885225,-13.486839596608608,-9.77026111925282
1214,-14.175918026348116,-3.393995469437081,-13.357708901229193,-9.81245085579923
1215,-13.639297532039633,-2.9962717083777592,-13.249232218171137,-9.945900737431437
1216,-13.19652775204555,-2.8247867003585334,-13.181185682508533,-10.140624020270323
1217,-12.851010482057166,-2.8441428507801305,-13.157519483667539,-10.362656478993618
1218,-12.582857536366744,-2.9912706372004307,-13.169005876850955,-10.592012160071203
1219,-12.368107087042844,-3.20451629589415,-13.1978601207906,-10.828862940361894
1220,-12.196112142628646,-3.432669542509281,-13.220245277342892,-11.07778621768541
1221,-12.064183274253308,-3.629187887543783,-13.209746762453829,-11.329062622574881
1222,-11.965338525612225,-3.7565061924393257,-13.141680611997003,-11.563619614314565
1223,-11.880430186667326,-3.7963206062837322,-13.001120659367722,-11.770121190378093
1224,-11.790645498902498,-3.749588792629748,-12.7912046906222,-11.955164373542711
1225,-11.693863040576485,-3.625868027446559,-12.530688671338408,-12.128234589217708
1226,-11.586014361701764,-3.439054592258409,-12.24433183791794,-12.276660476805262
1227,-11.445268306185918,-3.2120796198049706,-11.955361929771756,-12.353029303312406
1228,-11.242097278732222,-2.9713722018071067,-11.680196615459614,-12.304072209431258
1229,-10.949852416399562,-2.726130771703835,-11.422334983192638,-12.123508802411804
1230,-10.546676004960602,-2.4523499804365745,-11.16605495398222,-11.8419143784539
1231,-10.017698373279721,-2.0992476493082264,-10.875482248486275,-11.472291855377351
1232,-9.346908779518998,-1.6091337116713902,-10.507364346825552,-10.997102285532023
1233,-8.502436761854739,-0.9408056865724794,-10.031130845467313,-10.399469820279535
1234,-7.452726196491202,-0.08916885192255358,-9.436807782811021,-9.685344759482996
1235,-6.19651639576799,0.9214570616189711,-8.730157604724265,-8.867431559092843
1236,-4.774084764561083,2.0637790377190033,-7.926404518843839,-7.9409762199367
1237,-3.2403072246793774,3.3120931642819538,-7.047365420744037,-6.889081268774253
1238,-1.6307041557631685,4.626827571396203,-6.121021382996555,-5.718232575913851
1239,0.028937612914056776,5.954913828651888,-5.180936528204653,-4.479660495027139
1240,1.7007433608997176,7.244199586290487,-4.259826844568625,-3.2463888219381323
1241,3.327157481516068,8.453713528206558,-3.377973466901055,-2.070489906906519
1242,4.857580645640375,9.558801290913415,-2.5387400199635946,-0.9656798471671129
1243,6.283365581608615,10.551863397885443,-1.7350195585542543,0.061711200990316725
1244,7.615526789536685,11.437809595450794,-0.9572140171019305,0.9797734085152988
1245,8.842459826740066,12.225443558360253,-0.1979875306944842,1.742227261754409
1246,9.917232679803268,12.915165756312433,0.5436999882690063,2.3340061034290063
1247,10.78171194670403,13.48932742167051,1.2608320454888318,2.782705307796471
1248,11.408796712622749,13.915806961183979,1.9417689193045047,3.105185933583442
1249,11.800205709534858,14.158077209473445,2.575750738303213,3.2826689036307117
1250,11.94634481240704,14.179630846850971,3.15579098127134,3.294954526347917
1251,11.82551539384162,13.953992149066336,3.678206591124281,3.152078178282676
1252,11.444271015198632,13.475002980769371,4.140338497460165,2.899923408870884
1253,10.856935928236394,12.75206773494419,4.537646001717698,2.5897547124050515
1254,10.14000914050859,11.804228254232779,4.8630610752047305,2.2455605325806256
1255,9.344021149381339,10.664495373299735,5.109882664343531,1.8793342895622958
1256,8.480780427345065,9.38542691314223,5.278471533308952,1.5248995344931855
1257,7.561313415846888,8.036254093343834,5.382404644249978,1.2373482078708102
1258,6.622639432521554,6.689956383044927,5.442510847105164,1.058006655500761
1259,5.712039445351614,5.409173795598187,5.476051368743181,0.9827557874051025
1260,4.8504881665466435,4.243317102823475,5.494344934450315,0.9679398807449867
1261,4.03411998815043,3.2280550790724987,5.505018559744049,0.9751273283523212
1262,3.280402833472573,2.3800849643413127,5.51375743943641,1.0036001059093203
1263,2.6395822792461052,1.6979852027345705,5.524728650425982,1.0840332617048638
1264,2.1632568336589144,1.1693193396820976,5.539112906181837,1.2531307859041545
1265,1.8772213890636034,0.7788990732599322,5.553412974729064,1.5326227351468655
1266,1.7841834422207135,0.5173548472489031,5.560982258892047,1.9465964913264693
1267,1.8923118216949435,0.39025952604636105,5.5581993138055745,2.541498603431622
1268,2.224056693659753,0.42017807130655793,5.552658990969052,3.3663558486468816
1269,2.7990526335062467,0.6317596977021326,5.56203752739141,4.442238713583251
1270,3.584243399775512,0.9742852469588947,5.5825784949414325,5.703751217170705
1271,4.594315952421171,1.5535574903926754,5.661376537222078,7.177929951481504
1272,5.794836932750126,2.40123780549843,5.823843498441806,8.8349777754501
1273,7.128852274266822,3.4859792958014904,6.072296000319414,10.5848272934335
1274,8.519607926264207,4.730174069377409,6.387329233176483,12.299248079248283
1275,9.868042284609707,6.0325859410880005,6.735727259897015,13.855226501347955
1276,11.072152564446416,7.2894420524704895,7.083611010399624,15.169507926674582
1277,12.059085640014107,8.408924897947639,7.401949257615734,16.211022773496648
1278,12.797791270778651,9.321019320242852,7.6664536999302095,16.98291179813482
1279,13.290969487162767,9.98958070013238,7.861726170010675,17.49739744554677
1280,-0.05288457230130983,-0.05224670642484684,-0.2243796694995067,-0.33751196919177995
1281,-0.3156603653862058,-0.09270036785070515,-0.5693521669144717,-0.704327404863335
1282,-0.7181798882781095,-0.1734861118163556,-1.0864360061738385,-1.221998237090807
1283,-1.2932874894364854,-0.3080598571175406,-1.7837780936651748,-1.890458698678325
1284,-2.047307074659388,-0.5084244517160748,-2.655655231312231,-2.7010773319265984
1285,-2.9567275695395523,-0.8078611491723041,-3.684610975227804,-3.6511819760444055
1286,-3.998010416937694,-1.2573799206076948,-4.8454501995607595,-4.7444603231006885
1287,-5.169172042671249,-1.90387988501111,-6.109386034146132,-5.976502273230555
1288,-6.479336516018213,-2.7767510073143313,-7.448059390114673,-7.320628868046852
1289,-7.9226648889688995,-3.882257030719938,-8.839615159293768,-8.743399087418757
1290,-9.480628907776044,-5.204129137266929,-10.279271678527044,-10.243397605887914
1291,-11.147036079984712,-6.699387819565863,-11.756031072626778,-11.82863502074284
1292,-12.92492170076414,-8.307792874940047,-13.259901703478912,-13.474029322901934
1293,-14.7829417037807,-9.961766848727638,-14.775846137921292,-15.120748238649945
1294,-16.634627054796063,-11.59193372442004,-16.2816306276759,-16.722816093467387
1295,-18.37779594942297,-13.137186829764632,-17.753030745993843,-18.266446045798848
1296,-19.94644638982024,-14.560052539804351,-19.16944268945165,-19.741274637970246
1297,-21.324440734142648,-15.843959555712665,-20.515486794161266,-21.106124275981344
1298,-22.52198761641108,-16.982313154544638,-21.77956189212371,-22.29443273681322
1299,-23.553415945263744,-17.97944497093094,-22.95610340919961,-23.253521968188515
1300,-24.430658658810064,-18.85432314061445,-24.0496082300007,-23.961604065979227
1301,-25.17811181000535,-19.626164807977986,-25.06897990525816,-24.41072616302654
1302,-25.836725109705934,-20.287232248868424,-26.01971108805853,-24.59400305338636
1303,-26.423335314229075,-20.806647118505545,-26.901309657184154,-24.50974966838885
1304,-26.90532291348156,-21.15983324441439,-27.706192224443576,-24.171387438932104
1305,-27.224210284803586,-21.335660108133137,-28.420855695616112,-23.617307934974757
1306,-27.332199347632056,-21.329793047839278,-29.028687509508597,-22.913644750322806
1307,-27.206228399881187,-21.147396722306702,-29.511267470244356,-22.123130709236833
1308,-26.82935543611991,-20.803484060919633,-29.84790848694628,-21.27699117469612
1309,-26.18043514833889,-20.315597479433194,-30.01710798796389,-20.38890901098502
1310,-25.252785819032546,-19.706386622365255,-30.002117457093117,-19.470464970617595
1311,-24.07758089483742,-19.015181262394016,-29.79768088534887,-18.538417906982847
1312,-22.723037947334774,-18.29207940937564,-29.409327597229492,-17.608427640042716
1313,-21.25645218811034,-17.576063862678026,-28.846208919627973,-16.681394547273946
1314,-19.71323523716938,-16.889216356590886,-28.122358811705382,-15.749654889179771
1315,-18.10474118805954,-16.250292033142166,-27.26364019755305,-14.811351104205148
1316,-16.43957589780417,-15.677371854104626,-26.30725184525194,-13.880210593439825
1317,-14.743155485945676,-15.177971294872115,-25.291885454468023,-12.978848521229537
1318,-13.07152802859777,-14.748272761705348,-24.24885099567058,-12.120072341268976
1319,-11.488866880325974,-14.38284980943684,-23.20514361776028,-11.297646253162679
1320,-10.03490775027248,-14.084922990084685,-22.18759186803689,-10.503691118336722
1321,-8.738499521774248,-13.869526977973033,-21.220325089188382,-9.758511667630069
1322,-7.636094022773825,-13.757881228059652,-20.322910195681196,-9.104063188788308
1323,-6.762153014722886,-13.769807723367178,-19.50702894614811,-8.56463950139066
1324,-6.131797980798996,-13.91730793784177,-18.770623948574162,-8.128529750572772
1325,-5.73042497849318,-14.199541832971418,-18.103457218905856,-7.785149165586748
1326,-5.530133747994297,-14.604999411370136,-17.50072934721845,-7.561690649156401
1327,-5.508568416024428,-15.114249670316699,-16.964380287779036,-7.4985411415472685
1328,-5.6481579066911465,-15.689768717751415,-16.49472476623271,-7.608932478615028
1329,-5.924195464146786,-16.2679590328383,-16.086362120274348,-7.869669320150582
1330,-6.292063651308744,-16.784309150189472,-15.731863168854023,-8.250245430727603
1331,-6.705738562046672,-17.20654842634406,-15.423701443114174,-8.740073240660115
1332,-7.147915031823139,-17.530563243697973,-15.150650859370543,-9.33267619792359
1333,-7.631914604448647,-17.76050339267446,-14.900217643242657,-9.99798701642133
1334,-8.17294569521458,-17.905089482139825,-14.664918849695486,-10.679972386699728
1335,-8.749727499467447,-17.979588582733033,-14.443142826379601,-11.330151581577619
1336,-9.31100398784379,-17.995229004780825,-14.233100167931923,-11.938019791454904
1337,-9.828961746002658,-17.94414942161135,-14.025515844778164,-12.507868633318509
1338,-10.320223692397358,-17.796450610716327,-13.805627633856828,-13.014361055215364
1339,-10.802553380557978,-17.507289562755112,-13.560690558570236,-13.406257066996817
1340,-11.257596558050349,-17.02423306924578,-13.283812741122915,-13.651166585227665
1341,-11.647271751974968,-16.29598088782945,-12.97458054611431,-13.754932378038497
1342,-11.946539228715114,-15.28515398579174,-12.634080562104891,-13.736826710150405
1343,-12.150056758215356,-13.977669495316727,-12.253757641100574,-13.590431460489114
1344,-12.249762070801445,-12.384538204034188,-11.815619540160181,-13.282283248640006
1345,-12.217871464945702,-10.545674986511392,-11.305474768948482,-12.79280698327431
1346,-12.017471088694577,-8.537493673838817,-10.720222327396376,-12.133893015943267
1347,-11.631293079191392,-6.456431699985493,-10.066992467023303,-11.336657567208103
1348,-11.077439377741083,-4.379414539473915,-9.358494322676854,-10.425386133426828
1349,-10.381776933168696,-2.357918817152736,-8.60992990464321,-9.400258653376419
1350,-9.551227980526429,-0.4406829709480732,-7.836749936513682,-8.262443735755188
1351,-8.594895781533369,1.328099032326662,-7.050633043454603,-7.040074131400706
1352,-7.562408513630763,2.9230101141525076,-6.260673503817212,-5.7811854847518305
1353,-6.542852819279169,4.336875872945785,-5.477115460319296,-4.529637254056997
1354,-5.616238174881025,5.570095458681984,-4.711223178326034,-3.3181444082847373
1355,-4.819457513508038,6.624458632579138,-3.972758235252208,-2.1840636327657967
1356,-4.161342321792829,7.502095920691511,-3.2690586202926215,-1.1676433513364246
1357,-3.6524261877759465,8.200037121898314,-2.605962931265441,-0.2946878593873753
1358,-3.3016087761801716,8.709573013063538,-1.987483879507293,0.4329779055417183
1359,-3.0928161858483545,9.024540290330258,-1.41536188350373,1.0359456478892657
1360,-2.98478221802914,9.145433638410173,-0.8920449053062319,1.5461625738712979
1361,-2.9239537013209604,9.077911243525074,-0.4245336805342174,1.9869840956582254
1362,-2.8696962882415105,8.832075372351326,-0.02294195611212316,2.3560835749158584
1363,-2.8205954815585894,8.426343127976704,0.3057354079911982,2.6375580899793065
1364,-2.7990950379640136,7.888485067417787,0.5634846756070907,2.8223234559610386
1365,-2.814732682155669,7.246005744923493,0.7596783484226769,2.9088188905484005
1366,-2.855150961006872,6.520751953711617,0.9025145600925795,2.8833455918336073
1367,-2.911590046916061,5.7311769391253256,0.9970944977738563,2.707560855795257
1368,-2.992188337432744,4.891676452638021,1.0492231770117983,2.3528699306580174
1369,-3.104878792853295,4.014822932949632,1.065701355188422,1.8381635376113787
1370,-3.2431068410733763,3.118857773089302,1.0554856277790856,1.2287720676344638
1371,-3.3861522171907996,2.2273946665159006,1.027445596224705,0.6029189683273684
1372,-3.5147065080571536,1.3609493877144356,0.983041276014853,0.00745864927719847
1373,-3.6253580918263175,0.5343291194698979,0.9160022104775996,-0.5445422912625667
1374,-3.731889427389844,-0.23589045720088492,0.8194858320400589,-1.0489265646548946
1375,-3.8517769704599325,-0.9212035281189316,0.6924887725090267,-1.500620176116521
1376,-3.9816675927494094,-1.483596451340968,0.5401688890242671,-1.9001079358423039
1377,-4.097649261639899,-1.8894832678586257,0.37229877023185587,-2.263710898414383
1378,-4.1822403979259715,-2.113584181725102,0.20531048331047125,-2.6069802922286027
1379,-4.2378715112064524,-2.131125018917583,0.06294732463524563,-2.912812220157497
1380,-4.258448218161581,-1.9227696156833807,-0.03028826274213802,-3.135253542940911
1381,-4.2018849327641155,-1.4935389211409615,-0.058288232602882045,-3.2298822052392966
1382,-4.021301865365997,-0.8780147531466265,-0.013997539948636076,-3.164704018643932
1383,-3.7064580982636164,-0.1251924239843291,0.10651700802986161,-2.9178293661456114
1384,-3.28615740165615,0.7200841774897322,0.30430235965599894,-2.473061490114654
1385,-2.797509848768591,1.6269034259639208,0.5725022404559706,-1.8233925381774498
1386,-2.2541120165343793,2.573441997006501,0.8973215417619068,-1.001083414733402
1387,-1.6556324009104963,3.536958994120538,1.2623375098636642,-0.08724643657691668
1388,-1.0196792678734292,4.4973844728335886,1.6483288591976688,0.8203979189383023
1389,-0.3912527076770887,5.447498591864722,2.0406736374753134,1.650884048219574
1390,0.18727678048756313,6.392668686285127,2.4384910784331084,2.3786353075444935
1391,0.7087727136405326,7.342401537701695,2.847988541431198,2.991846668798293
1392,1.1903309241121889,8.302245145374387,3.2731392930371284,3.4693848722184755
1393,1.6373782495806235,9.27127497065399,3.7136158989027335,3.7967688442407788
1394,2.0317497035115624,10.24638358463164,4.1657703468186265,3.9812616331651434
1395,2.3592519954639033,11.21793340593538,4.623642712336162,4.050959436610595
1396,2.629902659782996,12.15715796943528,5.076926505915587,4.043063676242309
1397,2.863791153419103,13.024185185392072,5.510154589232788,3.9960218259677327
1398,3.066023723946462,13.78238639144486,5.905586982332955,3.9304026088029715
1399,3.2016518676387826,14.441012264216196,6.255600175518084,3.870884919585112
1400,3.26418943574256,15.007812177449761,6.551966177532084,3.836179706654215
1401,3.2780215681375577,15.482469257303737,6.786345135799768,3.834859682000268
1402,3.2675748428420146,15.859911450106223,6.954132351904762,3.8593700532792083
1403,3.235609853518155,16.14014506199036,7.057394203863283,3.8923286657431992
1404,3.173078975291813,16.336272887942517,7.106998288276606,3.9249354150792515
1405,3.08887700941951,16.470818057079768,7.121928404095194,3.9610078982405446
1406,3.0124845207878104,16.56458859094146,7.122458601176448,4.00263334392732
1407,2.9682004859433424,16.63224632915705,7.120343627685837,4.037091503400759
1408,-0.3290077777650913,-0.17178436403974673,-0.4988294075366599,-0.5166232561668309
1409,-0.8116010594734104,-0.4191241557468228,-1.0914884883780902,-1.0406236328267784
1410,-1.5177257278069562,-0.7789905464406528,-1.9455936611367803,-1.8033553071500557
1411,-2.4749090101944486,-1.2460090797667513,-3.065696610572664,-2.7961731663234364
1412,-3.6753463507494852,-1.7994297844272098,-4.436501554050074,-3.9800701328297574
1413,-5.073165327703626,-2.4107329787623257,-6.02823260789669,-5.321638734905523
1414,-6.603906625917096,-3.045929606038617,-7.799015153708406,-6.79412529403834
1415,-8.195735313615057,-3.6645120140674785,-9.697444295938192,-8.348414573330794
1416,-9.76840697017155,-4.223310610462461,-11.66853185678392,-9.908955771261958
1417,-11.239425119793756,-4.686826130135836,-13.66487103022027,-11.402366852429227
1418,-12.548352508653112,-5.042246101741519,-15.665705130140537,-12.802368768314178
1419,-13.650165697085168,-5.2865280579668985,-17.62422105091064,-14.074577184890407
1420,-14.519462898963834,-5.414499616558666,-19.48762648483186,-15.175760794942494
1421,-15.148723997272212,-5.413630376482662,-21.198253698126972,-16.0521311389055
1422,-15.552423194584605,-5.278209070397868,-22.704839425858868,-16.66988567075347
1423,-15.7645015687466,-5.018349082019405,-23.97575873848447,-17.049147142451243
1424,-15.830929205505537,-4.65226431484021,-24.998123007389385,-17.24719997828906
1425,-15.795426773722628,-4.194289042652582,-25.77304143678867,-17.303714735095806
1426,-15.678774858030554,-3.6613758111137664,-26.315721854767133,-17.224610857608802
1427,-15.473163653644024,-3.0905166918866023,-26.655050395368306,-17.023204916305023
1428,-15.159586020430728,-2.53811630820214,-26.826250240377213,-16.748502333128364
1429,-14.726502802969385,-2.0645047097721885,-26.85817838894683,-16.45543594880613
1430,-14.175159146209275,-1.7240271411114216,-26.7671042754381,-16.155155422351573
1431,-13.500751302038735,-1.5668879793722548,-26.5606426881316,-15.813403668334889
1432,-12.67335618893775,-1.6386070804778379,-26.24494446980164,-15.407364521913836
1433,-11.663942419951367,-1.968744039952083,-25.829828375573893,-14.960526692616568
1434,-10.486267747568903,-2.561679298457733,-25.332203607463388,-14.524241726712578
1435,-9.209649983034948,-3.3938986422913886,-24.774815678320294,-14.146887789484396
1436,-7.9305337996979794,-4.415716447941806,-24.18083396764635,-13.85980283984095
1437,-6.7292569420698705,-5.562552867750872,-23.57537022945505,-13.690923972655831
1438,-5.66024153435,-6.770714555922172,-22.99514948042425,-13.670927782540899
1439,-4.773294212816897,-7.986102430451902,-22.487616990637704,-13.814248732121293
1440,-4.13174977206257,-9.166357201646647,-22.092047268654834,-14.10054498528722
1441,-3.79274255396809,-10.285433462808163,-21.825531305058398,-14.4796886609182
1442,-3.7651497254384427,-11.339070664109691,-21.686920120333657,-14.896465624694391
1443,-4.005443261240843,-12.340527903163325,-21.664087826784694,-15.305543472158112
1444,-4.446026168083758,-13.308341923868863,-21.731852148157362,-15.671228587950642
1445,-5.018163345597696,-14.25953820652506,-21.84837521954858,-15.953965627648175
1446,-5.658847480022155,-15.207583096778261,-21.962037832989644,-16.109319861815923
1447,-6.308473815866353,-16.15471960985828,-22.022381832632373,-16.12130174542822
1448,-6.922716541820531,-17.08877707652651,-21.986905847526295,-16.02092937979259
1449,-7.503596627578784,-17.994614636722293,-21.826267633482665,-15.866064830040255
1450,-8.097879120342858,-18.863744076063945,-21.52716932985684,-15.700129032997348
1451,-8.747521008688173,-19.689023471083626,-21.091984230765576,-15.522290688501263
1452,-9.459499808045864,-20.457055456925517,-20.537369854983915,-15.308491999892961
1453,-10.213853821001244,-21.153552943903737,-19.893137572389765,-15.050476733248026
1454,-10.989024127706474,-21.77130916577431,-19.19679151757241,-14.76291375011556
1455,-11.770952467937464,-22.306476440547627,-18.47896193685158,-14.459325876717944
1456,-12.531240470336819,-22.753440335840086,-17.753529270887267,-14.127242481612095
1457,-13.213087037454516,-23.108384951031038,-17.024263451955136,-13.726042671433785
1458,-13.7476971825206,-23.37390249455158,-16.29472791774193,-13.214537198669584
1459,-14.091822167412163,-23.555867212539884,-15.568293934479748,-12.588599763408524
1460,-14.240027572775254,-23.65696011313508,-14.841072448812167,-11.876049638129857
1461,-14.208641368419404,-23.676354354808574,-14.100798394226896,-11.095897209974657
1462,-14.02070147377466,-23.614727343442862,-13.33606887142219,-10.244876190254985
1463,-13.689128140120928,-23.47409692244246,-12.541186923225276,-9.324443597759327
1464,-13.22345157541641,-23.256081727973275,-11.715378927406316,-8.362020848487424
1465,-12.645386736632535,-22.96705300446912,-10.86563296663434,-7.38834851263607
1466,-11.981781861848665,-22.607935407059692,-10.004127458679038,-6.408717903748121
1467,-11.253302480392584,-22.156022104714015,-9.138798376099892,-5.414561151696703
1468,-10.47185140495636,-21.58098113653005,-8.273555686096303,-4.418572174370009
1469,-9.652241834463442,-20.87394468425801,-7.415636450297935,-3.465766628539781
1470,-8.829079444678941,-20.05035085696439,-6.575775925026927,-2.6009272254123417
1471,-8.064062560790056,-19.134267415245372,-5.764441659899377,-1.8428468712493986
1472,-7.4177677720966075,-18.14588720601358,-4.9903323094259795,-1.192748966997078
1473,-6.9094289119913475,-17.105000979255053,-4.260197507034427,-0.6588484959296611
1474,-6.5280128971135705,-16.03985143131968,-3.5779204822143713,-0.2730545594121211
1475,-6.2690368987823195,-14.98437985683159,-2.943636932365016,-0.07021509863511381
1476,-6.148246981146363,-13.970595637932936,-2.3553263064044057,-0.04880317198392932
1477,-6.178624888946181,-13.025605624245392,-1.8131885314280984,-0.1658784968721683
1478,-6.339159413916445,-12.168267733298492,-1.3238690561955677,-0.38127878075790744
1479,-6.588590829434063,-11.402167754821143,-0.8981736745758377,-0.690687641045453
