,TP9,AF7,AF8,TP10
0,-0.7399420835608418,-0.5570218896229936,-0.9132790661558061,-0.6694961612984471
1,-1.6536186303507678,-1.2282334613423773,-1.9237349692284442,-1.4713339334945537
2,-2.9597465503924503,-2.187915078166654,-3.3399083617783907,-2.602678474100479
3,-4.667178853172642,-3.4430097472951795,-5.164994133997288,-4.059432030243002
4,-6.729407914182832,-4.975223598171269,-7.370643542950487,-5.811611028694192
5,-9.056874081739378,-6.741471512191435,-9.897450306789942,-7.806750093179794
6,-11.551338079630014,-8.679829154124912,-12.659183310653173,-9.978812096841184
7,-14.119744347902,-10.718218231298328,-15.550812026624037,-12.258724204065924
8,-16.666241549108882,-12.786772788009324,-18.46852709586643,-14.584696747195965
9,-19.10508092989812,-14.83543383394939,-21.34102517198884,-16.918206542711335
10,-21.408350111298006,-16.856357017057526,-24.16293532819313,-19.265729961486475
11,-23.562162738530393,-18.823193759880944,-26.894179723328225,-21.60565721332203
12,-25.572695011173337,-20.70927760996691,-29.493420007734194,-23.915635152200537
13,-27.441744698722218,-22.485338065836693,-31.920282202331364,-26.169521424545565
14,-29.165237984937477,-24.122725420676986,-34.139033095039004,-28.3287582964858
15,-30.75771034820568,-25.60019149035161,-36.12505266075682,-30.343590434695276
16,-32.26536390208177,-26.908213063358946,-37.86978219201489,-32.16395589604854
17,-33.733980781218555,-28.051520577801416,-39.37717552614849,-33.74570092645369
18,-35.16523399515265,-29.047572703000192,-40.65160859887742,-35.04936588775063
19,-36.50474391891555,-29.916344445473747,-41.689696994105105,-36.039173686351596
20,-37.68178193264187,-30.672028286250576,-42.48199126686863,-36.683077356749095
21,-38.651404283308175,-31.321915866174795,-43.019442683896294,-36.96129524476268
22,-39.38954961643173,-31.865389231824444,-43.2991145003451,-36.8808488894971
23,-39.86474220386575,-32.29491809662472,-43.3278037788942,-36.47305786545922
24,-40.030863659531676,-32.59919672836522,-43.12369409238187,-35.778448353891015
25,-39.861700395669494,-32.7653082483835,-42.71254707695053,-34.83964276169174
26,-39.37617067693923,-32.78142179920461,-42.12134270131547,-33.702028935094
27,-38.62708708056568,-32.64126836665617,-41.37786624233702,-32.41464845432246
28,-37.672317318983104,-32.349903672701195,-40.51207928629613,-31.02509641142907
29,-36.550070219911674,-31.92728108400278,-39.55501021135357,-29.56699172641979
30,-35.29212852120843,-31.407527490880174,-38.539261630203036,-28.054633365952018
31,-33.94390645720062,-30.832369275674022,-37.49663777871067,-26.495796679423126
32,-32.560798872020946,-30.241391770470035,-36.4498553224882,-24.905454761302035
33,-31.183115977335856,-29.665806004390497,-35.40595829329137,-23.304887874367914
34,-29.814851368146996,-29.12458534656361,-34.36075587814175,-21.716092964108537
35,-28.456810564510572,-28.62213087619327,-33.30972689215921,-20.164147787852016
36,-27.14347061322719,-28.153202113157143,-32.251558220241414,-18.67969400365867
37,-25.923929341814542,-27.71154062743419,-31.18489175501551,-17.29477660541478
38,-24.820795102480357,-27.292559961232985,-30.107306326082842,-16.036172904744788
39,-23.821029929291125,-26.891869744989524,-29.016165919187507,-14.914509780246616
40,-22.906236824188184,-26.504500768421625,-27.90895521379957,-13.922832620134898
41,-22.078504507912694,-26.126287012757544,-26.786902607729353,-13.054088565784154
42,-21.359181513862914,-25.755335502074274,-25.655163472432424,-12.311377383465743
43,-20.758133490141812,-25.388960025904133,-24.515606221684887,-11.70123704928487
44,-20.246252793119407,-25.019941690342254,-23.367128670730043,-11.226526748118587
45,-19.77190756958917,-24.63768136944395,-22.213710744422766,-10.88496578997908
46,-19.307002172548717,-24.23233456210111,-21.06640950866269,-10.674540819043006
47,-18.866639261972658,-23.797737583637364,-19.937513793145733,-10.600916192936788
48,-18.468321983092636,-23.329594808976417,-18.84085213600198,-10.674018181814798
49,-18.095603773110515,-22.821690939733013,-17.802104284081803,-10.891173259386752
50,-17.70983224222443,-22.2644645830753,-16.862354971784114,-11.224932589779423
51,-17.281976914961174,-21.646208469149656,-16.067236542570313,-11.62909959628605
52,-16.811463928383493,-20.95420660641144,-15.451677408222153,-12.048072997560158
53,-16.293680179128053,-20.173856135036598,-15.032291158769322,-12.4232986000541
54,-15.69171618703915,-19.28966695626634,-14.804464035582182,-12.700466645039324
55,-14.957399467002247,-18.287484810319118,-14.739031565423629,-12.833439441968236
56,-14.06179509457242,-17.157404162667913,-14.784145472734076,-12.792092421725714
57,-13.017228044707918,-15.900384828973376,-14.874313588939101,-12.572198350874961
58,-11.862752804884723,-14.531742481069221,-14.94082624145941,-12.192916090779596
59,-10.629706261781283,-13.08024853686136,-14.920288542480964,-11.685127393583393
60,-9.33541185529807,-11.589483732197433,-14.76215365847039,-11.084504819259088
61,-8.011663748951863,-10.117510889974247,-14.42997173597153,-10.427920026356775
62,-6.72499436218524,-8.73055555806519,-13.898671881922153,-9.751850213896168
63,-5.542814575253104,-7.4936836774363185,-13.159896794897893,-9.093554530043123
64,-4.49018819496082,-6.462413178354624,-12.224833193721686,-8.481711339871104
65,-3.5525096576701567,-5.68190614257446,-11.114985724320407,-7.923205471950081
66,-2.7204881256620808,-5.189840869660365,-9.855755557416412,-7.4067156884285525
67,-2.018613787058102,-5.011247556401658,-8.480637904364244,-6.91951343537321
68,-1.4775631181162723,-5.1496633272168,-7.033365852990051,-6.456226737258961
69,-1.096587980949949,-5.582803186766446,-5.561454960986181,-6.013302768014837
70,-0.8406461114975056,-6.263701794023592,-4.1106043815892495,-5.5828224810990115
71,-0.6841042070649274,-7.129670673591416,-2.7246032095063684,-5.158250594754053
72,-0.644121997782077,-8.1161010036116,-1.4480598835188845,-4.74744773703596
73,-0.7500022783218758,-9.162696349554476,-0.32553884336579997,-4.370038221885687
74,-0.9932089883055215,-10.210831288221245,0.608023193642416,-4.041302064575655
75,-1.3148860937113762,-11.20529797775632,1.3366111034830783,-3.7656809061644405
76,-1.6511854434898807,-12.102253262950933,1.861062780744004,-3.5396312271879165
77,-1.9753065501613047,-12.87234653610202,2.191884073378609,-3.3553600798783716
78,-2.286205116409384,-13.498429379675782,2.3458416838924014,-3.2042554123278295
79,-2.573860736322484,-13.97330405590219,2.3463568733290168,-3.075706514627137
80,-2.8058413125855752,-14.298298710045028,2.2221183746199786,-2.950620683502481
81,-2.961163521357161,-14.48150737256326,1.999155593328173,-2.803288192015051
82,-3.057484248314046,-14.534052645778681,1.6925552141167595,-2.6151697943924557
83,-3.132437938187064,-14.464373857089775,1.3099836678350376,-2.3827763491954985
84,-3.207352355089905,-14.277837050229508,0.8615056030889051,-2.111268602440565
85,-3.276488395307951,-13.982646893433284,0.35857760663876087,-1.803876966635669
86,-3.3283147321303765,-13.59102214328184,-0.19463621182924923,-1.4598293779626872
87,-3.3581365321928893,-13.11735385478545,-0.7996595307451493,-1.0812427829055025
88,-3.368685113256526,-12.576706368537783,-1.4508657351111145,-0.6768730194206142
89,-3.347015242043642,-11.97964373046737,-2.1260464361015647,-0.2552359258785924
90,-3.248758831904108,-11.332486286031468,-2.785844633926726,0.1791377931946762
91,-3.037144841047016,-10.646084188716275,-3.3827817775234394,0.6204892344883938
92,-2.7173926546503178,-9.93686107499442,-3.87487240423231,1.0598203200340273
93,-2.327626387435206,-9.219079834715982,-4.231421333489145,1.4867993771041506
94,-1.8984593192395998,-8.500018391303753,-4.43054434898288,1.8919693257645256
95,-1.4281449465898592,-7.77946923245722,-4.458407780071116,2.2716686917829803
96,-0.9002340592557404,-7.051253630286654,-4.313513506326573,2.6321127958769295
97,-0.3132541474449461,-6.306978877779959,-4.009935245677339,2.9842946626555227
98,0.30398666995160134,-5.540776636116545,-3.574069985587619,3.3357141891118087
99,0.9216254069160149,-4.74960949763728,-3.036137429246983,3.688577374704556
100,1.5393292876346307,-3.930341481128633,-2.424671779819017,4.042220655659082
101,2.173550505276505,-3.082599693052557,-1.7686129663344787,4.391456491528377
102,2.828974211910928,-2.210713888054219,-1.1004065003325294,4.72206689749344
103,3.4799523699623767,-1.3187146465140296,-0.4520813612380994,5.012037722766407
104,4.089985041810506,-0.4111773769082503,0.15215447648208252,5.239673181563874
105,4.65024325307234,0.5026808894946122,0.6942393585221796,5.393213481000837
106,5.18504549526676,1.4079943309967962,1.1549640372948164,5.471680043447258
107,5.709171719366596,2.281173681435383,1.5146383207125358,5.479066118196035
108,6.198783078823295,3.0903786143767613,1.7587982152552621,5.419323423887341
109,6.6237308549409555,3.803335693812044,1.88058824588661,5.292783193784256
110,6.984567187144324,4.39495618136795,1.8803286972827562,5.097658344618208
111,7.3118796091986455,4.8508786620082525,1.7658259013077335,4.838688782944458
112,7.631317682131078,5.169333010443454,1.5521288674655178,4.536546820453087
113,7.93749527165916,5.364754501912846,1.26262529559296,4.224399817062549
114,8.214652851743995,5.47118996475788,0.932153182450585,3.9379757928757884
115,8.471176992662482,5.537531881205609,0.6022487395012769,3.710204686063975
116,8.74394683135674,5.612286643625024,0.312076288956132,3.5660993436878163
117,9.06372334087513,5.733633807902766,0.09117288052755929,3.5219124948075438
118,9.405807200616456,5.9210269372619955,-0.06982086988848939,3.562446208986737
119,9.777650531275208,6.2215041623576965,-0.15593633960008796,3.697670992775503
120,10.188826542980827,6.639696949674386,-0.16458503022013296,3.919380036853023
121,10.64237260100124,7.147720037894661,-0.10887923788662957,4.204289109161943
122,11.112512308585023,7.702011515325195,-0.013130416935535386,4.518304487495472
123,11.549206965184773,8.255241364955547,0.09789284940023005,4.823087181144092
124,11.911454674237815,8.764525547000249,0.20404097573090552,5.085392363485001
125,12.192285345300588,9.1995744104494,0.29071779492439337,5.285572275252752
126,12.408413420456451,9.543450156768037,0.3517813064086586,5.423132698152015
127,12.565880671043981,9.78903294585124,0.38993611663553795,5.5130895751863385
128,-0.2954980659109151,-0.31706559542156054,-0.597711189052679,0.09765805680045081
129,-0.73264813978605,-0.6541241700643883,-1.4064401287100021,-0.18106466656231945
130,-1.4237912257385175,-1.106504618264983,-2.639756222394543,-0.7660768848205615
131,-2.413727805649053,-1.646535389292702,-4.351718638635835,-1.7686386472337141
132,-3.72054406360663,-2.2307916018754264,-6.573412697573028,-3.2849300076852703
133,-5.349599867744178,-2.8043142958834526,-9.309651965927458,-5.379008633429094
134,-7.308317035497749,-3.30312346644596,-12.53705536277102,-8.075284521418201
135,-9.59614052188546,-3.6613673039371095,-16.20642571453043,-11.361321718355802
136,-12.179367028852631,-3.823242584192804,-20.252312752905567,-15.18702253483664
137,-14.994635046188463,-3.7600523046125782,-24.61234870337064,-19.460939228499893
138,-17.98942207078286,-3.4876637128091454,-29.255642897611512,-24.065584532391952
139,-21.12057106782113,-3.025342277046974,-34.114196828719905,-28.88716940391211
140,-24.3399249377211,-2.39022019216783,-39.10942420191876,-33.82625821950281
141,-27.57393057146258,-1.593761284249955,-44.16143076648631,-38.783989093344246
142,-30.726259540151865,-0.6483599740453658,-49.19929859647376,-43.658814865310084
143,-33.704516933971036,0.43181216508262255,-54.16112381619777,-48.35542643001903
144,-36.44954207759431,1.6303799094663183,-58.99083576968065,-52.788933682933035
145,-38.91948634321127,2.9256663345132563,-63.6359987762019,-56.8832008729188
146,-41.06851291780796,4.290369880016666,-68.04758559727709,-60.56660141422268
147,-42.85176772328824,5.689337672792204,-72.18263254970452,-63.76750965061299
148,-44.24412178164111,7.0791676727494846,-76.0022863225243,-66.41642210983385
149,-45.258855689567014,8.412259505827357,-79.46903177667842,-68.45968026614715
150,-45.923055376931586,9.637047558498427,-82.55007561040058,-69.87432076717562
151,-46.24233447259748,10.696565761625031,-85.22097574534928,-70.66222261604796
152,-46.207733107243996,11.539121084833617,-87.46495049267256,-70.82921426395046
153,-45.82816271881761,12.13674618990257,-89.26978817609393,-70.38715405735749
154,-45.14191943543006,12.491696630534898,-90.6236481005297,-69.37692415774191
155,-44.18809434205728,12.629854735169666,-91.51519245274443,-67.86651306278546
156,-42.97487543886595,12.586714373981144,-91.9407724627631,-65.92545282344888
157,-41.47458498481871,12.391371818303524,-91.90796729707088,-63.60836529891073
158,-39.66432974464694,12.062282117951918,-91.4306893393296,-60.95593018592489
159,-37.57241616966079,11.618534584651474,-90.52385515242345,-58.00455771180112
160,-35.26217413454298,11.087246956235228,-89.20358451688705,-54.79073986729801
161,-32.778444115927385,10.495816943525512,-87.49009774666773,-51.34831365343057
162,-30.136556154418667,9.862544369694833,-85.40878141605762,-47.71022965082356
163,-27.3640086459373,9.192645534558173,-82.98819912506575,-43.91522611938845
164,-24.519069287519603,8.479449397853267,-80.25628714067321,-40.0084493227346
165,-21.670420283709472,7.711295231309789,-77.23965978828143,-36.03765490006078
166,-18.86919029472785,6.878267856432952,-73.9647604356232,-32.050844920840944
167,-16.13728889009744,5.973486683400375,-70.45934110674737,-28.089275708272545
168,-13.497317330015761,4.988097538077779,-66.75681857563953,-24.18484505540259
169,-10.992113736819142,3.9104921403500557,-62.90056290341668,-20.3737591552397
170,-8.669857318635437,2.7329876781940943,-58.94446167536907,-16.698088843730364
171,-6.560236345729542,1.456953767706182,-54.947191222269936,-13.187807193255622
172,-4.656673379875817,0.0937706950221569,-50.962096442199645,-9.858446879174389
173,-2.9435740238811174,-1.3355376221768833,-47.027484504526036,-6.724516445634106
174,-1.4414816612474532,-2.7980986466635316,-43.1636987974259,-3.807072550596188
175,-0.20467759493712137,-4.251459519221186,-39.37912654856934,-1.1379144922159885
176,0.7350964931975699,-5.655027778448275,-35.674303372104006,1.2440671293371492
177,1.4015972412268418,-6.985050060464726,-32.040816748393844,3.312375523923582
178,1.8480464476161977,-8.242484848986708,-28.46526580477832,5.068337010105325
179,2.126409562896779,-9.442135776941228,-24.93838385702715,6.538998835019762
180,2.2709142510738247,-10.594198241622927,-21.46138259911922,7.766488312667235
181,2.3099332554049385,-11.703388434899702,-18.048766640336208,8.794617612424593
182,2.28576744851452,-12.780874351121517,-14.726838857675215,9.665587239828945
183,2.246882271752215,-13.84357616773586,-11.52689614216816,10.428293541546617
184,2.2256876763503923,-14.902009284922249,-8.479016820698122,11.136050138518295
185,2.2269118877778715,-15.953227689481016,-5.6087405923370675,11.82784709557755
186,2.2494732936569046,-16.98411084380645,-2.9341992784386286,12.514110487139117
187,2.305126998933108,-17.979482880495823,-0.4662837492327616,13.182076270200962
188,2.401674067260064,-18.924165576230408,1.7847621914935805,13.807600298033854
189,2.5161106832417586,-19.801444205684028,3.8041231443105583,14.357399882479193
190,2.595296081730316,-20.59923987318532,5.578742525437786,14.784626464393652
191,2.605608843201759,-21.319473631768982,7.108672202484582,15.043863457834073
192,2.570209607711284,-21.975554972294244,8.412162426437286,15.120549253138735
193,2.5343053863802054,-22.578801363403088,9.522102909634578,15.036899480562548
194,2.506490689125029,-23.128097894128143,10.477639483839452,14.834597292758543
195,2.449653913520613,-23.608928157142312,11.318765793759304,14.557737244334554
196,2.330373633243163,-24.003221998678946,12.08438567425721,14.248695844435403
197,2.1681903938140334,-24.303370660865937,12.809265491736678,13.95188718400683
198,2.0297994017568706,-24.510752016581506,13.520697438199107,13.710897665396494
199,1.9725672327018562,-24.619815410126005,14.233872164556871,13.558062205162324
200,2.001998046569563,-24.61794756928077,14.95280302621119,13.500114655048334
201,2.0927076346005684,-24.502135433525265,15.67847493723347,13.512408718086794
202,2.2362577885161916,-24.281801925716405,16.412370774555388,13.55677269197895
203,2.4548737442015742,-23.96996200160072,17.155396026590598,13.609197101722662
204,2.766311057154975,-23.584769105575585,17.90698986244045,13.670385212830636
205,3.1533417689193763,-23.153302712473028,18.66602949920582,13.754801577635243
206,3.5774191208890396,-22.707480991794334,19.430285370600583,13.880737300298359
207,4.003679798062889,-22.280491556946345,20.19123922744808,14.06889441721728
208,4.410851003154853,-21.903236053651042,20.92796258042905,14.332008802056611
209,4.770576887504702,-21.598435239970062,21.60710103538644,14.657478615855485
210,5.033420457295513,-21.37735446653634,22.191659815365803,15.00791095005274
211,5.162996887819529,-21.23942314343708,22.652915425377294,15.332511234532275
212,5.163124805448224,-21.172061440953605,22.97923605247561,15.57846404659777
213,5.069523074822299,-21.152098528830145,23.17895703276634,15.706802005586445
214,4.913802010817522,-21.150833089050828,23.274868059093496,15.697970232844618
215,4.695877710750027,-21.14314430143869,23.292400080056538,15.545887022226676
216,4.407570301034595,-21.11132509970227,23.255169793955197,15.256336457980701
217,4.0717074460107625,-21.041476184022674,23.18653181130515,14.850859312420488
218,3.744139602067912,-20.92571023158141,23.101728422688463,14.370890859652176
219,3.469376573586076,-20.76842514651456,23.001963757000347,13.873501154571946
220,3.2542602261180757,-20.588131394951734,22.881488693747144,13.409494133038196
221,3.0870665972400047,-20.410752238651263,22.73532217520118,13.004245505211648
222,2.9683912807632735,-20.25903172798556,22.561635507269248,12.662518759372587
223,2.9254619897022565,-20.149305165909986,22.362203941919425,12.382100226416567
224,2.978847157530348,-20.09047371475309,22.14024259523357,12.158595605703258
225,3.1030432931693106,-20.083057681342623,21.896026784156156,11.985206321992184
226,3.2387043551875396,-20.12228159635057,21.62954060286347,11.854124489152413
227,3.340188554602479,-20.198727532148855,21.345429706188536,11.759061216023257
228,3.3964793849238584,-20.297893057217408,21.04855491227795,11.697065290008391
229,3.405843516954928,-20.401656009808413,20.7377964082961,11.666928583095876
230,3.3527053163123837,-20.48920057382427,20.40807372746237,11.66498202269379
231,3.2129656579428976,-20.538116518765143,20.059623046822615,11.687846575736156
232,2.9880969915491025,-20.528909437564565,19.70262582323026,11.737498305059603
233,2.7221706113801614,-20.45321992013537,19.34801503390076,11.81524850104082
234,2.4670873346694253,-20.318847289660436,19.000051208251193,11.915844251513006
235,2.2477411438239807,-20.143962694433363,18.664432467949105,12.032942577600549
236,2.0590946632082026,-19.946136976587095,18.356622323505622,12.16411376029467
237,1.8937078117492667,-19.737492292816,18.0976234260501,12.31022195904938
238,1.7672390154865958,-19.52288080166091,17.903534010127157,12.47732373718625
239,1.7119814314281172,-19.298090773253783,17.779468201479094,12.675678819464647
240,1.7463965091831637,-19.050901981452963,17.72166226147409,12.91052283566949
241,1.8520901814998987,-18.765525267835,17.71999921195608,13.175525387332208
242,2.00717420482763,-18.428243822609065,17.757437371109898,13.452719013059063
243,2.2184930745472458,-18.030730395782488,17.81104893230421,13.71445754450151
244,2.5024614713007622,-17.570677291048302,17.854376230890303,13.928037197794245
245,2.8592089299673695,-17.04961420748739,17.863023663762043,14.064194480078177
246,3.2325284567318584,-16.49801933605767,17.827653570606973,14.101842676267488
247,3.6311987917983264,-15.875555811048077,17.7323659224391,14.01460843999215
248,4.064624959787402,-15.180376761551132,17.576632746623943,13.799528986318771
249,4.531093202136418,-14.433902947072983,17.373230914502717,13.480130724828593
250,5.003705587389938,-13.669268298997196,17.147486039294247,13.102051431156003
251,5.442782682922897,-12.923715224599572,16.92991501514792,12.717888519289154
252,5.826128740513374,-12.234196457157509,16.74275788086021,12.370332707782191
253,6.154954801756006,-11.632399106094386,16.595448037902322,12.08516166565565
254,6.433436176311311,-11.141227309986597,16.48933354530803,11.875026590961742
255,6.648362572556525,-10.775474851210436,16.420712385688606,11.742686240916221
256,-0.44008999064900584,-0.3664230183411515,-0.7631654234226353,-0.32517544453493785
257,-0.823635549575892,-0.8502133610659048,-1.7039414280546397,-0.800797716700627
258,-1.3969496288758814,-1.5509092848408228,-3.0593709693474405,-1.4971472830901833
259,-2.183649249512356,-2.473820546955608,-4.828220025220896,-2.423952738266861
260,-3.177386196382112,-3.6076579140709533,-6.970303486420688,-3.5612251878583017
261,-4.367551606436674,-4.928204117188446,-9.41241664599587,-4.861073628553601
262,-5.747041404753292,-6.398746313239534,-12.062457514414193,-6.2621540594134775
263,-7.291727224019325,-7.971525742004641,-14.821499581694168,-7.702119512213485
264,-8.935909196495476,-9.591533450930392,-17.592719713614017,-9.122128147008759
265,-10.593464596547529,-11.203072343486104,-20.303443870968024,-10.469782636937914
266,-12.21298220579436,-12.770897288777434,-22.94120773737213,-11.718642767429799
267,-13.748216329632886,-14.254420635230028,-25.472979479485083,-12.849717982455651
268,-15.150410209419032,-15.623789090191043,-27.87700791399963,-13.855295526794219
269,-16.369681217363624,-16.85454348215298,-30.1450117967562,-14.738818788488103
270,-17.395371117910273,-17.932541422954515,-32.28127056723782,-15.517812071012814
271,-18.26990375555138,-18.86234888021912,-34.29614633330131,-16.21998752271434
272,-19.06183412368669,-19.659001690080203,-36.197433004429655,-16.878940150730894
273,-19.828405161496757,-20.339659472574372,-37.983873380148324,-17.527248631986694
274,-20.588598918707277,-20.926272013073483,-39.6434290425002,-18.18499480093348
275,-21.33892252100602,-21.445647158531678,-41.15780071111838,-18.850987662419417
276,-22.08377881159998,-21.924700129774127,-42.50563094306177,-19.50605113401579
277,-22.83657282246025,-22.384858000074075,-43.66266911943909,-20.128121832324023
278,-23.588204971768743,-22.837127450236558,-44.60423928117824,-20.702634994967124
279,-24.295559644860894,-23.28175366910628,-45.3066166585639,-21.216512025349722
280,-24.915568014171452,-23.712075904651417,-45.7503779241191,-21.655127401574596
281,-25.43638958923794,-24.1175262136122,-45.93052900107523,-22.01219789031404
282,-25.877169459487387,-24.489367897108842,-45.85923425505187,-22.298617111259166
283,-26.251464818195892,-24.8240427665395,-45.55802670317535,-22.53876571965818
284,-26.54696565504304,-25.1155509896819,-45.05399365077209,-22.75610368275541
285,-26.74901656013301,-25.350990637953846,-44.37889233218146,-22.966811458043754
286,-26.866303161806524,-25.515864042999624,-43.56447092885411,-23.180837636718113
287,-26.937538565688683,-25.59962892775786,-42.63827181502842,-23.401103080276012
288,-27.0028756689984,-25.59977461513671,-41.62432153480456,-23.62309505745888
289,-27.06975724897328,-25.52638143464674,-40.545267814029664,-23.832788048703996
290,-27.117040069048212,-25.399478295381048,-39.42347989991924,-24.008407196079638
291,-27.12964335219491,-25.237880442466416,-38.282669366772055,-24.130068225694664
292,-27.117909241722572,-25.054524433928407,-37.14657887784484,-24.18882075152052
293,-27.090328580656635,-24.858932888918442,-36.03148535208425,-24.188635518880343
294,-27.023265112849664,-24.656759166869698,-34.93856034755319,-24.138882847226228
295,-26.860618916916273,-24.44917888094128,-33.85539983788018,-24.04388548735749
296,-26.548883519090637,-24.23499825849325,-32.76809672998983,-23.901510213013683
297,-26.077567760304177,-24.012356976757072,-31.674386174968113,-23.711064924311707
298,-25.464955348531834,-23.777575990268065,-30.5840056167778,-23.477416754330715
299,-24.719309698965397,-23.522355560292645,-29.509762191197225,-23.20363237038153
300,-23.833305992020982,-23.23162925037378,-28.461618288452396,-22.88072032394888
301,-22.81513895000323,-22.884005178708044,-27.44556825148925,-22.486058237580046
302,-21.708826898797504,-22.46273045415845,-26.465160241022133,-21.993945765649258
303,-20.56857489518715,-21.96712329388451,-25.520211106806688,-21.389385186238826
304,-19.42513259914574,-21.40885935500507,-24.607334552855164,-20.671841071899728
305,-18.28121618195266,-20.803252602633453,-23.725986459446275,-19.85002026584996
306,-17.14529544867366,-20.167077995786677,-22.87575508340327,-18.9387358153074
307,-16.06200592300942,-19.521420403072113,-22.046107226480935,-17.961382025878283
308,-15.085349798232542,-18.890147211098753,-21.213221539459582,-16.951591531383514
309,-14.2289958889837,-18.297221223526495,-20.343871613920996,-15.94232748321868
310,-13.460702908086013,-17.75358092295885,-19.409652563567093,-14.945324418189362
311,-12.751789084046512,-17.232387108480605,-18.407681631573634,-13.95885877159494
312,-12.117334452003307,-16.681037154741517,-17.357373555379105,-13.000580033133245
313,-11.593187897581357,-16.06346183512182,-16.27597416415006,-12.111829047477798
314,-11.188381473173566,-15.38003254858799,-15.168469597850558,-11.336052249659083
315,-10.88199063501689,-14.661291264643665,-14.041250227684554,-10.706417915595296
316,-10.65232838096364,-13.954363648006462,-12.921454268118078,-10.234693651900377
317,-10.497536172402404,-13.309207320544004,-11.853772920565355,-9.890590658376908
318,-10.443917528848669,-12.763792627142578,-10.881420399682858,-9.62255718037086
319,-10.528190667352769,-12.337452655309832,-10.022039960900194,-9.423337940372889
320,-10.782609072213702,-12.03992478092728,-9.248010098140654,-9.357194187687151
321,-11.24502310284399,-11.86483964640841,-8.494292406555857,-9.517699923690673
322,-11.956271201050832,-11.75860909602992,-7.691241658639687,-9.969627855181349
323,-12.926088459147419,-11.624498964838603,-6.816334417437978,-10.723293832520785
324,-14.088058178005252,-11.377572728149067,-5.905152465049066,-11.73549803731584
325,-15.306466050803284,-10.991263669853053,-5.000103291868169,-12.917688791125435
326,-16.440850251718707,-10.501077123568665,-4.126773477854595,-14.171029204159895
327,-17.419307602216136,-9.957350096993158,-3.310627515368996,-15.440382804544802
328,-18.276051307362255,-9.371450003548667,-2.5911459464513227,-16.7109731608386
329,-19.089401545191986,-8.716965262101137,-2.039012828749849,-17.93825309044476
330,-19.894726022909175,-7.950389373886353,-1.7620035004641528,-19.00577075697202
331,-20.687086929758213,-7.0261562818058,-1.8811977184565905,-19.75879499394063
332,-21.440283068063895,-5.92999099966536,-2.502574493881058,-20.055016571033565
333,-22.08874706855833,-4.710303878341505,-3.6872172901164464,-19.799800162204395
334,-22.52616579517267,-3.4669122916402793,-5.429115449007998,-18.968685583029163
335,-22.620801306406747,-2.317822044199576,-7.671933803647072,-17.58761051640033
336,-22.233675743449137,-1.3704754301926925,-10.338341667563409,-15.667295608418817
337,-21.263092216305722,-0.6938494787786601,-13.344746881809275,-13.19056607013879
338,-19.689824040427137,-0.3197321882840072,-16.597141314544942,-10.181649976962607
339,-17.571917785045112,-0.27039573514601456,-19.97889059261849,-6.751627486245512
340,-15.001159251334819,-0.5494392064083997,-23.35787516702606,-3.0638918358449065
341,-12.074392146021035,-1.0942920636115367,-26.62127287806116,0.7325804191955746
342,-8.899873047350649,-1.7755565934436288,-29.723396496273086,4.531973727537238
343,-5.596873311685112,-2.4556381720004414,-32.67953502562122,8.278984595492073
344,-2.2445390724267105,-3.044859628631221,-35.51005544587191,11.982995122855518
345,1.173804196577386,-3.5283082670932804,-38.21793184763589,15.691521385191814
346,4.731324126925642,-3.9413473689806615,-40.789427088404295,19.4240394177327
347,8.447519649715941,-4.31756822942294,-43.19130321950952,23.137168719416852
348,12.253191266497284,-4.677350100651492,-45.37591527984227,26.740716773547266
349,16.03210579354935,-5.033230742687074,-47.28409065708849,30.132554030634576
350,19.651590566247055,-5.371311945289922,-48.85625756047022,33.21915976313982
351,23.0064106333998,-5.6518546165680945,-50.06129126229137,35.92656339974059
352,26.04773335653966,-5.839363698331007,-50.9022838334739,38.20760479894502
353,28.750321320102152,-5.912433656806707,-51.395770273291895,40.040051070651366
354,31.090211206409947,-5.865330603072896,-51.562928176061384,41.42083810866575
355,33.07856324284389,-5.713898541610424,-51.423943022026876,42.36705626329942
356,34.774136335302394,-5.4775816157149695,-50.98834509015127,42.9111706953384
357,36.21852967184844,-5.155533117173831,-50.25660706636008,43.07972370675829
358,37.39270589419262,-4.726915216821023,-49.226230130251245,42.88118974527411
359,38.25314647027455,-4.171362985241025,-47.896184329861235,42.321987188702046
360,38.788104387061985,-3.4834388233876457,-46.26865558005379,41.43158610208545
361,39.02836448913848,-2.6751580569785567,-44.345344350796374,40.25925376457881
362,39.00209752045809,-1.7674746024678945,-42.12521604525675,38.858054119481935
363,38.70989334083278,-0.7735397707821008,-39.61069067936537,37.27959646208956
364,38.14293677630619,0.305741726528182,-36.8162618166453,35.56570048323759
365,37.31344491941089,1.472095142002241,-33.77105170576027,33.74189423135786
366,36.26863274690482,2.718104727913538,-30.51498045781796,31.82333679262026
367,35.056171320219896,4.023652029542236,-27.092635463256137,29.820478170148643
368,33.678966466608614,5.357437670991293,-23.54900264076847,27.739142894824415
369,32.099294188567676,6.680188622291758,-19.927742209601206,25.581011008297132
370,30.301591210331562,7.952270558286436,-16.270850344407133,23.352096901176687
371,28.33227223870778,9.142277990921686,-12.619217455358136,21.072604836542947
372,26.261794360944187,10.232512399614434,-9.010393096230194,18.776940285857638
373,24.142553855019337,11.2146088924137,-5.473877410930053,16.51167229651861
374,22.050877150891115,12.118433167508968,-2.1254364753334833,14.396161296154224
375,19.954986225121285,12.857693907463709,1.1974761589871346,12.347493065748695
376,17.89879029792793,13.389161009765028,4.536432313171971,10.346526996157374
377,15.948542399903676,13.70811377887272,7.847738151794564,8.410044886909686
378,14.159077254841993,13.830424684239588,11.03746904343897,6.574644023004823
379,12.569442996470212,13.784374364481867,13.992303361655951,4.885459056647946
380,11.216422658740532,13.60857663259973,16.605953536818763,3.3845753957037275
381,10.131083939823007,13.347954548756027,18.796205773013057,2.1054535795239944
382,9.319327920986582,13.049955787073541,20.51256071048368,1.0744380293989775
383,8.751383633997072,12.759917042979476,21.740435663010306,0.30698418018154155
384,-0.6006519139655219,-0.6840544971782023,-0.5408269231192292,-0.36816749296052886
385,-1.281172776137026,-1.5454080158761774,-1.3312761930129375,-0.914599745322572
386,-2.277991550794429,-2.798117953895466,-2.5021764304129923,-1.7468145375562967
387,-3.573466306174021,-4.449033958465497,-4.054316389791582,-2.8896243247507263
388,-5.118166556930726,-6.464174266248492,-5.945553773691266,-4.338908201945464
389,-6.862357292793964,-8.771041371670957,-8.095916848801027,-6.059722708752879
390,-8.758607181001647,-11.268005247688796,-10.394529530403648,-7.98828052685213
391,-10.738557206771683,-13.840592315435908,-12.716120653513341,-10.040474815903181
392,-12.708486181576847,-16.382460687239536,-14.945770477710417,-12.125605163107661
393,-14.582510551691373,-18.818537962908604,-17.00643286796735,-14.164226089595923
394,-16.336237185377488,-21.133592646773096,-18.890137423914283,-16.111700966089384
395,-17.940863114967595,-23.296510261211573,-20.594519113966008,-17.923311745877776
396,-19.370323186560466,-25.28642184432553,-22.13025254995672,-19.566395607760008
397,-20.60044219909127,-27.09122450903792,-23.51146153344608,-21.02006730599745
398,-21.63371362339758,-28.70464570480104,-24.752012189964148,-22.277977315951286
399,-22.520377011464184,-30.12100760867184,-25.862523952241766,-23.349969855589787
400,-23.333433644071047,-31.329246011992822,-26.849334302489705,-24.25574701051605
401,-24.123978429706778,-32.31555191095298,-27.71164537919145,-25.010299196126525
402,-24.90969318711009,-33.07516511016253,-28.444559944806034,-25.620671895369316
403,-25.709076586112268,-33.61314942727933,-29.0486035217961,-26.09473977750399
404,-26.561631977315283,-33.9360124227222,-29.53073839416925,-26.445170611867663
405,-27.500944573033664,-34.05202456591271,-29.899169525561653,-26.688246789135572
406,-28.523196809520886,-33.97547355712196,-30.159490078866714,-26.842812362781917
407,-29.578611386764706,-33.7260693431348,-30.316676229548484,-26.925745090554024
408,-30.610537283688053,-33.32685698452873,-30.379024473317155,-26.943828801332966
409,-31.594616654321477,-32.80316604140108,-30.356221347781496,-26.89364363689755
410,-32.53008316816742,-32.182495053492055,-30.25593830817283,-26.767907269565566
411,-33.41392781182112,-31.493074369816263,-30.079897948384605,-26.559135528711764
412,-34.22948895093153,-30.759605332538634,-29.82190227778016,-26.26143936934664
413,-34.97006551290555,-29.999329277109815,-29.476450270536514,-25.872380132170854
414,-35.656808499504535,-29.22027765651656,-29.04701824717066,-25.397519126204852
415,-36.31892707259281,-28.42494618658973,-28.541211905200907,-24.85716591770745
416,-36.962997497856,-27.618489422152805,-27.96444804960266,-24.28675361801308
417,-37.56382050489618,-26.810058403155857,-27.321093392872356,-23.72858978025854
418,-38.09846564362264,-26.0040316793373,-26.616960338888035,-23.222788991978234
419,-38.576132818245775,-25.198074896034967,-25.859737182553747,-22.799353989943036
420,-39.02310647265107,-24.397320909767647,-25.058935842412023,-22.470219706062316
421,-39.44324177998706,-23.62742516825212,-24.2287155532753,-22.22751761022015
422,-39.80106735773968,-22.925902266761067,-23.391902411131518,-22.045137788413005
423,-40.04889252448761,-22.32192645216421,-22.577302773405897,-21.88165104379214
424,-40.16710951841279,-21.829642789445497,-21.81003029364268,-21.6937008032419
425,-40.17747570548674,-21.451091187205613,-21.104965865757155,-21.455352002873617
426,-40.09893773712692,-21.174542546913624,-20.469537998064105,-21.166298550440523
427,-39.908147353553034,-20.973029831249853,-19.90793977798935,-20.842227525006184
428,-39.55386571268797,-20.808498755214647,-19.421739056706894,-20.5020406071446
429,-38.99086970794107,-20.63838696873902,-19.010400808224773,-20.165447654466735
430,-38.203821728883874,-20.423180855602094,-18.669408164473687,-19.85468223260931
431,-37.189744292641336,-20.131943359731856,-18.386241621680554,-19.589945434099647
432,-35.934760703481786,-19.741280606829694,-18.14260216963849,-19.379607652425094
433,-34.424159415138384,-19.234960788846127,-17.924297638584914,-19.215048728154347
434,-32.668098833489076,-18.611397238423066,-17.726947894494035,-19.07602663960717
435,-30.717955609315958,-17.88954460762811,-17.549745803593098,-18.941975086679925
436,-28.638027509878953,-17.101766216355326,-17.38799616841633,-18.80107546896991
437,-26.474147006932505,-16.278371912830213,-17.23377575813972,-18.651180859359492
438,-24.264611715139505,-15.442103040379612,-17.079260069877844,-18.494202966017813
439,-22.06212091021755,-14.615384951125447,-16.916346599201805,-18.330916111898624
440,-19.935216585052505,-13.820840185452784,-16.735028792379392,-18.158953414315572
441,-17.936031803376657,-13.071262426786022,-16.524765831303597,-17.967901864262377
442,-16.07053414674363,-12.366124877168794,-16.275704889759044,-17.733657462692523
443,-14.3129578542103,-11.698724145312502,-15.977741478806141,-17.42266536764591
444,-12.65262372587824,-11.063026114134331,-15.624434458430716,-17.00413272436674
445,-11.114812833069667,-10.453777897152102,-15.21998704143108,-16.460718101176397
446,-9.729015104435181,-9.86671680472077,-14.77737094726338,-15.791500864778234
447,-8.494236904985215,-9.302468007447429,-14.312948936798858,-15.010375233138912
448,-7.380142783628036,-8.766118701611502,-13.846421288293477,-14.147239917324885
449,-6.366431262746435,-8.272433036335947,-13.399075604124123,-13.247897477146239
450,-5.471182390752053,-7.852377289616747,-12.987697435843515,-12.366056172222434
451,-4.724515821870293,-7.53663003531575,-12.618825418571078,-11.549829607624797
452,-4.123689192131573,-7.333579611288734,-12.289820084455085,-10.828409448249394
453,-3.6232156712468133,-7.220228975687839,-11.99711907698096,-10.20434534410909
454,-3.17594186245684,-7.141786263562434,-11.739252651329059,-9.653964687018679
455,-2.767451494313175,-7.0178783705169465,-11.513517183489903,-9.141331325090006
456,-2.406982234969137,-6.752389455344147,-11.31361221687318,-8.63786369678395
457,-2.1028008437383807,-6.247548013005883,-11.127781893101842,-8.131194703686356
458,-1.8447619325579752,-5.419868461497184,-10.939186921023097,-7.619385041349474
459,-1.620466300248937,-4.214391209096047,-10.728517547855079,-7.096396273738489
460,-1.4363110814670057,-2.617738476122101,-10.477235775270893,-6.550050927004464
461,-1.3053139630914605,-0.6646471331488584,-10.172027202482486,-5.973835783910141
462,-1.2206943023786203,1.5686366111151173,-9.807930972963248,-5.369861388534863
463,-1.1465512499751274,3.9808013734692245,-9.388677865350832,-4.739471582768077
464,-1.0431177022931168,6.469725067228758,-8.924215372677217,-4.072577858685398
465,-0.8873264726003809,8.957837761230735,-8.42733414479549,-3.3496803894647202
466,-0.6640043243342589,11.400777766844511,-7.912073525555066,-2.555878219194226
467,-0.3454858053379375,13.780788870548188,-7.392819435231348,-1.6891178021800843
468,0.10957050545773794,16.097368127641474,-6.883749447166961,-0.7603361156183791
469,0.7265884302561587,18.358516758012538,-6.400267555785949,0.20761160975151965
470,1.4937153584776512,20.574574400398973,-5.959611432853103,1.1852337391276382
471,2.3673432762126616,22.75135565807262,-5.5763401568699,2.144033630814556
472,3.3072038477339705,24.88320312080726,-5.257758146135082,3.0631055911267824
473,4.303534908331917,26.94872171575762,-5.005607336698857,3.9395703215658244
474,5.364815355595285,28.909984555462813,-4.820447399291006,4.78866950002347
475,6.4919118842836125,30.71702579926089,-4.699929536906101,5.626586308665353
476,7.661790178213777,32.3215417033768,-4.631440835376538,6.455123148987915
477,8.850930015154525,33.69659283169778,-4.5895074810787815,7.258724649316222
478,10.065784955654868,34.84023229858162,-4.539828443347849,8.01941209041566
479,11.335282977448372,35.76012876758821,-4.445035941033304,8.730529719151361
480,12.6798038528426,36.46094980216929,-4.270716822430728,9.388708676919501
481,14.08340478187397,36.941814819758015,-3.9921677494782233,9.981269940851318
482,15.509097181871667,37.197952468569675,-3.5998014426576055,10.490008683254063
483,16.928443418002125,37.22526823067351,-3.100688185451507,10.907786465143761
484,18.3181671922879,37.02632716975907,-2.518086507160482,11.243984294625214
485,19.638532600300447,36.60596166538387,-1.8836865817252706,11.516264128464343
486,20.823998931060533,35.95560452735245,-1.223429035840982,11.737965475748798
487,21.805740564845273,35.06127059326041,-0.5539120367274052,11.90324163526114
488,22.544087621236137,33.93377664432015,0.10875091808858714,11.984959174554245
489,23.03597899699238,32.612651345771006,0.7392890113883144,11.946338699237424
490,23.28352232509536,31.14550390139378,1.3029192024374956,11.755599227205101
491,23.27096174956487,29.56960208325132,1.7644863226528515,11.398255177765826
492,22.985149186328982,27.902396010317492,2.0978827117448375,10.879131695337685
493,22.446752733657814,26.13974243646806,2.2923411395404254,10.217317599183447
494,21.717676004327842,24.252771490964744,2.35447440934381,9.445434225342982
495,20.859893406952057,22.18993558057893,2.3082370156653638,8.609524752761022
496,19.9011942336613,19.894934311502702,2.189600844392618,7.755049605736908
497,18.85584007275186,17.3233096414717,2.0334442277816995,6.9128103250439175
498,17.75827757370673,14.448989738181515,1.8713804392359394,6.100557826131481
499,16.669549521236156,11.274021941483516,1.7403024236265292,5.328753781716391
500,15.640386851177093,7.842972973414442,1.6798293352876081,4.603842456725928
501,14.689455884856836,4.2484487161329465,1.721288743363771,3.930501814222924
502,13.821220055222593,0.6714756204669393,1.8659998687833934,3.3065512781456983
503,13.032894514728742,-2.8628688010464396,2.1328268300157203,2.7677089616396318
504,12.337201280424342,-6.264923705181074,2.5045958936430064,2.345560923533288
505,11.737521174356926,-9.43319799384335,2.948650457132444,2.065657186159174
506,11.221198255608291,-12.283663461382567,3.430367161289361,1.9362055757164727
507,10.774707249406195,-14.751185313735949,3.9180489190841135,1.9441878740926801
508,10.402238401150896,-16.791610974109588,4.382721250137078,2.0578795098928726
509,10.119088162908346,-18.389638734741112,4.796516679936642,2.234190464364243
510,9.925141531440962,-19.561178088201675,5.134458605618405,2.432115909892781
511,9.79743752152321,-20.348117247687192,5.378726012376892,2.61682904444502
512,-0.5797951162466117,-0.6997592094562741,-0.5984251770184612,-0.2160947249464441
513,-1.1430718217636187,-1.5036421747177346,-1.272905930657561,-0.49905992576010844
514,-1.950166623566853,-2.648629899265892,-2.2361049356387146,-0.949032344378267
515,-2.9801720066901596,-4.1385515981601895,-3.4906943519541005,-1.5988386745510532
516,-4.20269436403816,-5.948046691595164,-5.015180097289814,-2.4700565303355138
517,-5.594590772322721,-8.023496595952668,-6.765522125990411,-3.5681608034831154
518,-7.130766987724883,-10.29010470363162,-8.681054339138695,-4.87751431055495
519,-8.768250841378565,-12.665097427508666,-10.694830350808166,-6.362484693026129
520,-10.451617603192519,-15.074244634763325,-12.745720991159818,-7.974267060996224
521,-12.140140985783678,-17.472621046449095,-14.793354484231239,-9.661214725066078
522,-13.839955305647154,-19.866818657853724,-16.836929101668133,-11.3824347352884
523,-15.524143352834665,-22.231340173790922,-18.84400463150604,-13.086686078480975
524,-17.140479265645247,-24.534019196828524,-20.77699683627241,-14.721980550790084
525,-18.631383060434704,-26.73804217330998,-22.602994813572728,-16.241535799027464
526,-19.968615531996253,-28.802746494947005,-24.30010604610152,-17.61573525092356
527,-21.16463747997653,-30.68802059615612,-25.856695217447545,-18.837997116036853
528,-22.23600198259897,-32.361066759796344,-27.263644608193943,-19.916697933163622
529,-23.171695974171808,-33.798980152425194,-28.51141098149248,-20.863906012497637
530,-23.954920672427637,-34.98631856840711,-29.600415497294275,-21.690716684482563
531,-24.601727673198162,-35.9128397526241,-30.54874148861336,-22.411943745221464
532,-25.167665765644063,-36.577809812284734,-31.38546289163849,-23.054109253069107
533,-25.697760527372562,-36.997645855526606,-32.139895762642624,-23.64704038952828
534,-26.186563275415367,-37.20124921364828,-32.8371506807998,-24.20691862689182
535,-26.593372587294862,-37.21467595426546,-33.49880589422823,-24.735631861000506
536,-26.878483414898596,-37.05353858036774,-34.143199853531456,-25.228622914440614
537,-27.030047250981518,-36.72587413530242,-34.78455656667087,-25.680140131662665
538,-27.051420538779773,-36.23703722152612,-35.43050414780713,-26.085997627634924
539,-26.935710710548786,-35.59390590282976,-36.07855534987633,-26.443090343131658
540,-26.66431205604354,-34.80972552476112,-36.7166891237202,-26.743861548016966
541,-26.232383447857174,-33.90605428304549,-37.3255058047261,-26.967368979135976
542,-25.66654691817943,-32.908148607919,-37.8787947808203,-27.087604128199605
543,-24.99999803756868,-31.838230279070387,-38.346623822522275,-27.090382425132205
544,-24.24224126044982,-30.71407335277459,-38.702695147565365,-26.97140434758218
545,-23.376862825688583,-29.550798282048913,-38.93202559590448,-26.728599899763633
546,-22.395626753107432,-28.362966308234828,-39.03337078089486,-26.36349121172102
547,-21.32288342209337,-27.170496547776445,-39.01292486726784,-25.883594187077634
548,-20.19044823187596,-26.002682963415943,-38.87518822128282,-25.29831393578273
549,-19.005292015506214,-24.89105808508389,-38.6230183390615,-24.612108860326668
550,-17.746974705149892,-23.85608102694936,-38.26373866263808,-23.825079383722766
551,-16.40731445887794,-22.90070553775211,-37.80633371144762,-22.94352565314761
552,-15.01731188690664,-22.016173730302814,-37.25197773255461,-21.98111903400914
553,-13.625274348923119,-21.19069107373868,-36.59318954299281,-20.946500087353943
554,-12.265982250981411,-20.41547522878364,-35.82056885563043,-19.839767720108586
555,-10.95041674452497,-19.686499137070577,-34.928023114505834,-18.659328071367852
556,-9.694555250858953,-19.000977596938473,-33.91838108997331,-17.410302217060263
557,-8.541064615432692,-18.3564105025875,-32.80814819616258,-16.112407979217604
558,-7.541414660714114,-17.75425230822842,-31.62547087991452,-14.803940492847335
559,-6.724810565996992,-17.20477921101651,-30.40480555759145,-13.535087082395691
560,-6.085378090934884,-16.729037256719764,-29.180544541886363,-12.349086974115718
561,-5.607621050521619,-16.351839144702645,-27.979602512062346,-11.274080329020737
562,-5.292674576014714,-16.089076670062823,-26.817848873329556,-10.328942681075157
563,-5.153858400271036,-15.940631710322808,-25.701570240083996,-9.52323703051936
564,-5.185262418042871,-15.889137294646133,-24.630285240479743,-8.857781897361187
565,-5.347686021144757,-15.899997325071636,-23.598645567541364,-8.32951178061954
566,-5.597163900164427,-15.93021414308994,-22.597097009234222,-7.93482157289298
567,-5.919324129666404,-15.945822889222018,-21.61197470591741,-7.671721339770365
568,-6.336996103298262,-15.931104456521828,-20.627336211509796,-7.540489259907876
569,-6.867709284308269,-15.884881826260086,-19.632079260499808,-7.544308488613431
570,-7.484151991634803,-15.808037887117287,-18.627232655592312,-7.6823554737805955
571,-8.12378038478469,-15.691010919166459,-17.625013855474013,-7.938046205297118
572,-8.720250169151802,-15.51562493169229,-16.64511693938624,-8.277665513687683
573,-9.231112020780158,-15.266482011865024,-15.709624123306357,-8.662085299726266
574,-9.62221669785033,-14.932044120568158,-14.834360309694286,-9.059315015561708
575,-9.843238362638967,-14.495494534160308,-14.025231801227614,-9.44347783590084
576,-9.846969981673574,-13.937142256746363,-13.281397768999804,-9.789088996439803
577,-9.624271921121258,-13.244260707910806,-12.597804155521056,-10.071917665279594
578,-9.214175934275744,-12.419324194821025,-11.96405199568056,-10.27424940786061
579,-8.67782871388897,-11.488231155703764,-11.363213772720973,-10.388452933802359
580,-8.065884114949931,-10.491258912173032,-10.772952759320411,-10.410442390703794
581,-7.402701833588531,-9.462833784531654,-10.17291473905677,-10.328718675582296
582,-6.7075590687475,-8.417911536690607,-9.556297179707851,-10.123421874408951
583,-6.020799791772775,-7.346167421091518,-8.931978692842407,-9.77790040052739
584,-5.380494417711285,-6.213953773151206,-8.317634712778391,-9.289913809537532
585,-4.785096867718312,-4.971899456062467,-7.732506987356509,-8.673597645028346
586,-4.196408831177536,-3.564243820745901,-7.190914530043084,-7.951375300048598
587,-3.5915096627648686,-1.9360713916718613,-6.696787633966312,-7.1436334642564345
588,-2.996617945210711,-0.041993488142255786,-6.243604190357445,-6.2782609226805475
589,-2.455747655283241,2.140761783394092,-5.820061397349086,-5.39954312094527
590,-1.988700851995111,4.600687587904922,-5.41410059849582,-4.552683411745622
591,-1.587504238056727,7.2892212955075175,-5.01425095605134,-3.769097404082712
592,-1.254110020121223,10.126054862077773,-4.6110974609084305,-3.0664298228020463
593,-1.0228243309243508,13.012528190316464,-4.197510071644917,-2.4543143352121866
594,-0.9226307527113112,15.85301991622214,-3.768204619507927,-1.9333629536816799
595,-0.9351470959029196,18.566284629890298,-3.3221595078232427,-1.4920782757254383
596,-0.9989151685816878,21.088020913652578,-2.86559045693178,-1.1115545776883176
597,-1.0554858385337418,23.36667311185337,-2.4126022855503124,-0.7743112219941456
598,-1.0953339731274645,25.350076668044583,-1.9834676881296087,-0.4709292186476586
599,-1.1442325552648622,26.990435152972623,-1.5941965179326059,-0.19633696237821396
600,-1.2077173274983792,28.259921311297415,-1.247301934132628,0.060819098950472966
601,-1.2566256960972455,29.155074091295493,-0.9387301555549682,0.3211437960610973
602,-1.271143013854528,29.694539657087734,-0.6652278558621878,0.6065064342555192
603,-1.2721711961541406,29.91148831118755,-0.42330081862053487,0.9267216200114411
604,-1.302320744203327,29.842948472677232,-0.20697252561180418,1.269976004660426
605,-1.3830064195563556,29.523850809521043,-0.005477663681215404,1.6104338595064664
606,-1.495030572258798,28.991552238069207,0.19475280195740988,1.9290457998796193
607,-1.6097661664205216,28.292808467255988,0.4047496969925568,2.217683441584756
608,-1.7197780589406941,27.4777510569317,0.6305233296986318,2.4687589348650887
609,-1.831609037912148,26.58416233265169,0.8728216272180732,2.675222774598557
610,-1.9380166264937873,25.634061002075168,1.1270227524780325,2.8344232300222467
611,-2.0086059257383555,24.644309068882663,1.3823371445777763,2.9477607190249397
612,-2.0231510504835666,23.633899204238457,1.624169543296904,3.0206035944553014
613,-1.9881409696590817,22.624905791549647,1.8409885126088317,3.0646921499628426
614,-1.9118240658451624,21.63965611087744,2.033712413681991,3.099762836951168
615,-1.775961403886031,20.69740219407388,2.2220026605201793,3.149719328903711
616,-1.536648540904832,19.80852802217608,2.434943970461494,3.2368553610397797
617,-1.1580435657214854,18.96528233250973,2.6918389860071206,3.37573314519669
618,-0.6391303719741748,18.146058393294737,2.9947416114274508,3.5668328073829563
619,-0.01720316177636122,17.329941673631932,3.3355702074607114,3.797092044642987
620,0.6633836393446052,16.502485731162576,3.700499372193577,4.0491391677874695
621,1.3802242976175099,15.65710545795654,4.0698825181580025,4.314344140555653
622,2.1186259615022043,14.796086006938003,4.4213825854100985,4.5981142713796475
623,2.849451861842019,13.926487182402735,4.735268535842077,4.91280441720288
624,3.5264784060352663,13.054567944385271,5.001748578280744,5.264992786803844
625,4.117509739750311,12.18524124910883,5.22307318986152,5.647002998737998
626,4.629426165851902,11.323912299336893,5.408569623169055,6.040938444704573
627,5.093367744352406,10.474038174518052,5.571402481070094,6.431072480800752
628,5.532487482249983,9.631786203813517,5.7266501766910105,6.813403706379057
629,5.942619769340405,8.786787351765158,5.887972373996354,7.193887139927837
630,6.309505687304067,7.969063636607628,6.055005819913135,7.570429899869265
631,6.604583368904479,7.101541443741253,6.234784389162833,7.959709031430995
632,6.807137450905432,6.159824582136079,6.418174038285108,8.361073130257065
633,6.896108579447598,5.1581304941034825,6.587859025734892,8.764274440289979
634,6.8586302167895905,4.137222943855877,6.73066205067815,9.156433265522187
635,6.708737728507987,3.1507313960568775,6.842704024729371,9.528509026487551
636,6.492278112815139,2.249016108904731,6.926878342795033,9.87552882211398
637,6.265076065968962,1.4713473482100519,6.988180708996292,10.189435996194222
638,6.0594971869659435,0.8457199676033694,7.031857114184205,10.453962298664843
639,5.883870094803717,0.3857214454681061,7.063042682177451,10.648333988075601
640,-0.7526750395790273,-0.5994204009261903,-0.6000928313320743,-0.4830707879832717
641,-1.496732277539301,-1.3625087283195243,-1.35363980106868,-0.9943736058197035
642,-2.5440374335074796,-2.498864852644303,-2.4520031938662443,-1.7214721973662515
643,-3.8758971764208563,-4.041276030052204,-3.903673725799489,-2.670488598336626
644,-5.459417352476124,-5.9872466006584375,-5.689316986043683,-3.8250172012703283
645,-7.251409112615459,-8.294938994741734,-7.764600608736938,-5.1517441436557725
646,-9.183248022989513,-10.893327099145791,-10.063068947214843,-6.605610461298789
647,-11.155043747825648,-13.68817743176093,-12.503561846317098,-8.128776154993249
648,-13.057897312690354,-16.567572110632998,-15.004390576068266,-9.649713764129839
649,-14.8181362439495,-19.4223950211247,-17.50174468705705,-11.099920564244233
650,-16.42899461409392,-22.179283219499986,-19.97135682916099,-12.44530270734663
651,-17.839801290299967,-24.739947752873864,-22.35938352593616,-13.641908817582605
652,-18.980044132510834,-27.016978878601428,-24.61349634043857,-14.650924290661651
653,-19.802075675093633,-28.940250080911483,-26.691023990867226,-15.43908606978903
654,-20.31105417217713,-30.46087838865254,-28.562369872749404,-15.992862461076399
655,-20.547902267358683,-31.55624189900506,-30.20973629180921,-16.33318352865556
656,-20.558536663144373,-32.23377169939106,-31.625788659697204,-16.50866256667235
657,-20.37675576446514,-32.52505159017765,-32.81592990103504,-16.571703481721787
658,-20.03688885042737,-32.47527073714492,-33.80096325842536,-16.564753791035418
659,-19.587921985034402,-32.139048501782824,-34.61532283684016,-16.523538813874964
660,-19.090032402155302,-31.576131029333958,-35.297564093741435,-16.478908207040597
661,-18.587706171187598,-30.848412428603165,-35.87726888164833,-16.4522917111333
662,-18.087508563045496,-30.019379628351537,-36.369440978586105,-16.448842996541654
663,-17.586651117155217,-29.143510625225435,-36.77937280756567,-16.46156645011502
664,-17.108411633966632,-28.259039927479055,-37.110238332753624,-16.489326891262852
665,-16.701222957576658,-27.393184010223994,-37.363632190206566,-16.54433227826708
666,-16.405029483334918,-26.563123091316807,-37.53710400812222,-16.639898792193836
667,-16.223940920882775,-25.775221994021912,-37.62747208105211,-16.770188216107503
668,-16.141744249441793,-25.028405145880814,-37.63493522958674,-16.903586791796627
669,-16.151625026542117,-24.317012544034114,-37.562678090945745,-17.00373943367871
670,-16.266273099536484,-23.638073560837938,-37.41465631749054,-17.057082958285473
671,-16.489542436582635,-23.000997354646053,-37.19444514814089,-17.069955146779204
672,-16.788089941520735,-22.42177234040771,-36.906018952246974,-17.042032157908586
673,-17.0998928376356,-21.909450371556048,-36.555679515651136,-16.95640733058653
674,-17.36762775943382,-21.465280956994647,-36.150957732494085,-16.79544521501523
675,-17.57244613574344,-21.08894347756923,-35.69582907759194,-16.55624402260249
676,-17.719479610880526,-20.779303341010923,-35.18911423680522,-16.252224493439794
677,-17.804477824983607,-20.52716917643109,-34.62798149010281,-15.90583323237384
678,-17.811057835154966,-20.310271544168554,-34.01408329306018,-15.538217809808772
679,-17.737213861627335,-20.099297447219843,-33.35666637877956,-15.16763391494484
680,-17.61526740607901,-19.871307838067032,-32.66853445057376,-14.814127358139876
681,-17.47518864462351,-19.620622754465803,-31.95988475282871,-14.494197206647938
682,-17.30967276524553,-19.358994752668725,-31.236506411403294,-14.21617512784383
683,-17.09262247520917,-19.11164928598753,-30.504612013091094,-13.987306075197242
684,-16.815438691625474,-18.914009711594883,-29.772716151914622,-13.820400050838575
685,-16.50263272382017,-18.803732019060167,-29.047574751127375,-13.732813035531732
686,-16.177886150709572,-18.810494664197375,-28.331259546151205,-13.732098749285516
687,-15.822568175326062,-18.94548065913595,-27.620266961795803,-13.797833734933507
688,-15.385113261830117,-19.19213157108593,-26.90843361216176,-13.88879704657312
689,-14.83479150479908,-19.512636699613402,-26.193219608234728,-13.967739127172756
690,-14.195690738890983,-19.86879552786844,-25.47892709042572,-14.007210960480306
691,-13.516670162275686,-20.22779970161355,-24.773560377545145,-13.980075680858347
692,-12.818525598056967,-20.55369559696091,-24.08521684373452,-13.853681697845579
693,-12.083711700407342,-20.808017345239513,-23.41991168822819,-13.594470689458255
694,-11.305464372064804,-20.961495577603554,-22.777226033383045,-13.178236788736665
695,-10.52120818475415,-21.005765791581393,-22.148815937814287,-12.60272134157376
696,-9.787954635791776,-20.95163531859296,-21.521942336784548,-11.897081333411462
697,-9.140188120349837,-20.818116672545123,-20.88240089839034,-11.11016997853468
698,-8.572881490418021,-20.627410849698222,-20.216049451723173,-10.292804692795379
699,-8.079500665422435,-20.402023928107877,-19.513626993859347,-9.491353809531395
700,-7.6821246146460975,-20.157340071713843,-18.777205865276205,-8.746488866050644
701,-7.40908428062192,-19.896471216290767,-18.017863141238404,-8.093737091203003
702,-7.2650152149775975,-19.613732898115252,-17.24790570818693,-7.559018655658821
703,-7.223465876387359,-19.30323797506313,-16.480965273645573,-7.1522222520796666
704,-7.262912574782626,-18.9607469995199,-15.737561467338924,-6.866165477176173
705,-7.394281442643135,-18.58008869861318,-15.044529653748242,-6.679518024334774
706,-7.637069059955694,-18.152249231902086,-14.426185211553182,-6.566815981216732
707,-7.984135376728423,-17.665217068383278,-13.895919794119205,-6.5126712082861005
708,-8.392707218357776,-17.108499383943716,-13.455257581343796,-6.5151404160971484
709,-8.816592226086176,-16.483948940658486,-13.098244098127376,-6.578760046244147
710,-9.236784565908918,-15.80958364146533,-12.81378611959923,-6.711732532504224
711,-9.65644072887758,-15.11137264361181,-12.587012320829809,-6.925195327182537
712,-10.066925868683576,-14.41243900312911,-12.403503674995093,-7.227135485239045
713,-10.43073853701487,-13.728863208035401,-12.251884369575743,-7.61024271359623
714,-10.70541836327461,-13.070735453961493,-12.12426338520137,-8.048604069652377
715,-10.872134576469998,-12.441431691120638,-12.016863560420612,-8.512093455196995
716,-10.947402234741372,-11.83696293800401,-11.926779609285967,-8.97606048821476
717,-10.950474772821208,-11.24666195889026,-11.846404375483566,-9.417410928388842
718,-10.873848867194878,-10.653773826992557,-11.765847057979796,-9.809168622959737
719,-10.70214173667852,-10.037513287597246,-11.681182070573545,-10.124663243960217
720,-10.436239515097157,-9.377829274140726,-11.592555051015188,-10.34886985419028
721,-10.101699167747396,-8.661171368766201,-11.493127998952378,-10.484353535309493
722,-9.719127768339135,-7.883202191827104,-11.365976958720335,-10.543952738577284
723,-9.277006398510217,-7.045307924357911,-11.191106729282794,-10.537475579680837
724,-8.750617953779436,-6.149219669067704,-10.95270767149018,-10.462411270830168
725,-8.132870007465879,-5.197411854516456,-10.643305088825068,-10.299367541739416
726,-7.4489710842479955,-4.192204391860167,-10.264919902854878,-10.025784530303534
727,-6.735575498151502,-3.1277580113389534,-9.826689143800744,-9.637526594151678
728,-6.008829503883003,-1.9877349931713049,-9.340526456000779,-9.145981132862667
729,-5.25578959377444,-0.7530512421802433,-8.816060252573342,-8.563138685781976
730,-4.46784347701128,0.5870434117999079,-8.257262159280131,-7.903877286901315
731,-3.6751332076886336,2.0260822803401504,-7.664015439140113,-7.198717964980153
732,-2.92402162353501,3.537971466638309,-7.036099956822212,-6.489783894208587
733,-2.2333375324006077,5.081168831051332,-6.3728101099735595,-5.80813786449527
734,-1.5881054209504604,6.607991232448917,-5.6696356183964935,-5.159475954010568
735,-0.9805244368193591,8.071769405430175,-4.917882773817584,-4.532439871825072
736,-0.42947058596268006,9.430467445840897,-4.107157995887397,-3.9155688027087594
737,0.04201539254471098,10.649703717324877,-3.227595956285137,-3.305429432990867
738,0.4260178179921553,11.705375012148762,-2.27169015704936,-2.706084113366752
739,0.7354954715291533,12.586148592304994,-1.2352510373813927,-2.1286315844190336
740,0.9716884407379548,13.292677790784614,-0.11708188078275555,-1.5960293717562717
741,1.0949315903696335,13.834439075693034,1.07942377535418,-1.1438658186841346
742,1.0576146892074658,14.222090496568038,2.343525919646355,-0.81313078425092
743,0.8516648360791774,14.458650621083311,3.6563360997876746,-0.6350032573065392
744,0.5170496459848324,14.537547331827142,4.991688141592515,-0.607529543730265
745,0.09971634633930329,14.44826754350506,6.317161897570424,-0.7000379008142814
746,-0.3926799596771427,14.188895709323154,7.596167875155957,-0.8829004337480788
747,-0.9795441295358899,13.776428472708227,8.792085712204383,-1.1321613248220377
748,-1.6560237271786744,13.248572683811327,9.873093230959025,-1.417727358001612
749,-2.3719128466196193,12.657896386763147,10.816999816267822,-1.7060554900519391
750,-3.07317937024049,12.061282376413212,11.613893176674772,-1.9731369503745149
751,-3.736894946033934,11.513357740699732,12.264269228262389,-2.2083072612294425
752,-4.357964673019684,11.067878422764018,12.775534810701764,-2.4050338974285563
753,-4.918729689186028,10.774678309452723,13.159713923271365,-2.5541789493008284
754,-5.375382437699508,10.666946579313995,13.430495539740459,-2.6444330062560972
755,-5.676954819920922,10.754987530643097,13.59816870201094,-2.6646345970522622
756,-5.799947221725848,11.028613729951129,13.668896516569799,-2.60461722310378
757,-5.757990656915006,11.462240274699326,13.648930632659638,-2.4556159605445957
758,-5.638185109983333,11.990298611431223,13.556736632244775,-2.26666364901383
759,-5.345977641603521,12.64160645756043,13.387738829530509,-1.9481333137913612
760,-4.863233822152527,13.409927898022376,13.152044587450648,-1.4681079451506778
761,-4.23801407528247,14.2649395970563,12.870282591035823,-0.8404879528994433
762,-3.5397881748032933,15.159077948014426,12.568851889708208,-0.10806302042995235
763,-2.8202529195423813,16.038311033010892,12.275478572939917,0.6781205213525916
764,-2.1096856697164923,16.851493418054304,12.014915602614082,1.4680410949384932
765,-1.4413241490597581,17.557111816234194,11.804760784689833,2.2111320455654577
766,-0.8618242128253182,18.12804388044428,11.652109759330699,2.8597640373813378
767,-0.4136540444770338,18.55218534918331,11.553176437735832,3.375370599168628
768,-0.44719568792414605,-0.09796665992484707,-0.5863671411218125,-0.39739330853550975
769,-0.8688330750663099,-0.33079558000075804,-1.2524258430219553,-0.8477232460186512
770,-1.4506624741878853,-0.7088372427800842,-2.199710801999741,-1.468972023277117
771,-2.1640589002448425,-1.2499853726378978,-3.434662089430355,-2.24013310426108
772,-2.9884326532381826,-1.9616851864820772,-4.943372360371017,-3.1275941756925807
773,-3.9161269792137,-2.8421181348806375,-6.694130608979497,-4.09199620732649
774,-4.926505222359146,-3.8812142486547923,-8.639657938717187,-5.093886414583553
775,-5.970376337502308,-5.059122241704649,-10.720039519198483,-6.098040786014042
776,-6.992145213579474,-6.344891720402328,-12.872868006200378,-7.07602568426143
777,-7.973572986115731,-7.702939040403545,-15.05074981471769,-8.01875996028346
778,-8.950688526576464,-9.106533512219098,-17.244897122613104,-8.957849214849261
779,-9.928754713547614,-10.527640741239004,-19.421863747525542,-9.92056303762457
780,-10.891325923663976,-11.942042932342545,-21.549043395929793,-10.931407355159989
781,-11.83498778088418,-13.331157984445902,-23.60195528599791,-12.003516462189943
782,-12.78806955799766,-14.681555952093799,-25.567252790935058,-13.137236182978816
783,-13.776283304362074,-15.98352534047137,-27.440133830730193,-14.319485331074173
784,-14.792527013788565,-17.233380570131978,-29.21878903866658,-15.523713007927482
785,-15.80065863616455,-18.43205606507302,-30.898029536625156,-16.715656798070317
786,-16.76802668981072,-19.578993552788376,-32.467432035697364,-17.86420010703454
787,-17.69707662616262,-20.67049340069438,-33.91090954990051,-18.949921749287437
788,-18.605563611752682,-21.70391530724406,-35.20527748675286,-19.96341669532996
789,-19.482745223411282,-22.67888562300624,-36.32291916094435,-20.89870786665027
790,-20.28725185694608,-23.59159109698299,-37.23728336724619,-21.746854074596033
791,-20.987077619125998,-24.430613859220166,-37.92905129524596,-22.488968413234172
792,-21.579954123765617,-25.179283435886177,-38.39214318825322,-23.09883161609045
793,-22.069370047935053,-25.820626744375367,-38.63418388702456,-23.553781014846354
794,-22.435420420789857,-26.34061427342672,-38.67291430724607,-23.835905016831525
795,-22.642454313759323,-26.72461542974252,-38.53406823020249,-23.92129505833974
796,-22.67097272760768,-26.953033688173207,-38.24899781759669,-23.779253556247873
797,-22.522611275807844,-27.006865822615204,-37.84993165160874,-23.388623492936112
798,-22.199535706369918,-26.876190371889216,-37.36279644339261,-22.750850808019866
799,-21.688197687658015,-26.560055145424226,-36.80187267646161,-21.89201215888423
800,-20.969513878468938,-26.062060839521152,-36.17300450646246,-20.856391051908652
801,-20.04719331053484,-25.395250298028635,-35.48028280516401,-19.695853204710893
802,-18.94969562811682,-24.594097750376818,-34.730102121071575,-18.464470898968184
803,-17.70546377128004,-23.714655917297858,-33.93245862414468,-17.21717777344409
804,-16.321614991103118,-22.817914983107787,-33.0996723704817,-16.002114807578952
805,-14.793485039180322,-21.95091690678058,-32.24646277954787,-14.851016905704716
806,-13.136960476880983,-21.141185707176774,-31.38975416752584,-13.780256446592285
807,-11.391559728234636,-20.40493194152803,-30.543739170140334,-12.799696717438264
808,-9.59769620762574,-19.752761853086938,-29.71493893617222,-11.920818133651059
809,-7.783638247372848,-19.188193265346946,-28.902849447836477,-11.151372392329815
810,-5.973141272231039,-18.708538443595575,-28.104171541734527,-10.48118142354232
811,-4.193094159893286,-18.30809104126918,-27.31566834321841,-9.888086011017055
812,-2.4610751181453945,-17.98506907077546,-26.534090239196043,-9.359217533976999
813,-0.7833783521712193,-17.7519947231023,-25.754364478695567,-8.899173278011625
814,0.8273749510383074,-17.63272660831705,-24.96858426594672,-8.522867489376397
815,2.335016095542998,-17.648579320027245,-24.17051262954926,-8.24761572499057
816,3.6898539102501573,-17.81336837057808,-23.36291719050862,-8.08735732798218
817,4.862367080291545,-18.132542495453475,-22.556854859413754,-8.044565615818563
818,5.8435277576021285,-18.59452492362092,-21.76320546264205,-8.111467628957424
819,6.619360986425974,-19.16408764675679,-20.989583880039007,-8.279518044004867
820,7.163029276264315,-19.79244707862412,-20.242989249443845,-8.53454781606967
821,7.445529744596208,-20.434072637202128,-19.530534291611666,-8.847914727246009
822,7.43998321109365,-21.052682215592252,-18.858771015654018,-9.180078409847244
823,7.10628962726565,-21.62182847244231,-18.232951149117255,-9.486215780091669
824,6.4037351266330695,-22.125457463924445,-17.655556470564743,-9.7217024214632
825,5.334715696436986,-22.555269398032895,-17.12590075073442,-9.849941047538529
826,3.963268752729949,-22.90779331624874,-16.640972943320783,-9.850363782992302
827,2.390048201341913,-23.184214788456213,-16.194320721491167,-9.725105788811842
828,0.7068350920020777,-23.39198640623768,-15.778090698549466,-9.49768582296622
829,-1.0302289425612283,-23.54195001635029,-15.38983145678612,-9.202379120739957
830,-2.7865507877299445,-23.638782300555206,-15.034892554318324,-8.877159635258494
831,-4.510844590279789,-23.675970240223975,-14.72283580629443,-8.555322536050097
832,-6.1404782779843305,-23.63903385237265,-14.461276909225761,-8.248980060327659
833,-7.648635837365423,-23.507903883869478,-14.251124722506557,-7.949407338117089
834,-9.066937406705815,-23.259886242268156,-14.085704026068989,-7.643974948989395
835,-10.453312585288902,-22.875149444982952,-13.950520095465302,-7.3194522190098334
836,-11.828866101097251,-22.337234088864268,-13.82479547698029,-6.952592533416428
837,-13.171585363477645,-21.629892711464965,-13.685690928233178,-6.514723270902762
838,-14.454643330219334,-20.742271448993712,-13.513533111156764,-5.99060485320197
839,-15.653655255290019,-19.6804035044914,-13.295006762131466,-5.3853766201200015
840,-16.723828887657348,-18.465085632290403,-13.021434715117197,-4.7186342446283716
841,-17.592748982343032,-17.12028780017206,-12.688292274786312,-4.018255906905198
842,-18.21018681578515,-15.671221544665665,-12.298895365589473,-3.3156685531638495
843,-18.58409191888159,-14.146730140045989,-11.865620942768695,-2.6426261137319678
844,-18.752860760978788,-12.579027692228467,-11.406776991763508,-2.0274285487996613
845,-18.74518225354029,-10.998882134722082,-10.941307332638694,-1.4884065168917555
846,-18.56328816782108,-9.43174403472764,-10.481233079933233,-1.0280591592855475
847,-18.210273021958688,-7.904794635413542,-10.030438636157019,-0.6393771915583466
848,-17.727894229960437,-6.453759382780882,-9.5926870241757,-0.32134418060916187
849,-17.193807224325102,-5.119921593774162,-9.172616557846977,-0.09041936831832398
850,-16.676621828279053,-3.942246483183746,-8.768711047159645,0.022645914247808263
851,-16.205793662805235,-2.9541163664286176,-8.374569921017262,-0.004498348933840726
852,-15.791852068439841,-2.185609153352817,-7.988077877326151,-0.169915935338946
853,-15.451524191669195,-1.6602305047672394,-7.611026523923792,-0.4531032812027757
854,-15.206721029924768,-1.3850302802956886,-7.239361038167843,-0.8237316612633082
855,-15.054628057100803,-1.3424808722328836,-6.861044251687221,-1.2457014694075057
856,-14.950450909272833,-1.4912243794111286,-6.460622947671266,-1.6805468344894763
857,-14.837351771909548,-1.7792265936211262,-6.026914573351327,-2.0925983906504615
858,-14.688135760070333,-2.1642114782276907,-5.560361544056311,-2.4542922460712964
859,-14.515308889163874,-2.621370702442146,-5.069151214521312,-2.7501530732861426
860,-14.333754942769673,-3.1328835409175473,-4.559915801482217,-2.980396471821341
861,-14.134683214616098,-3.6790426118909236,-4.035810055486256,-3.1617805267402774
862,-13.901909389113287,-4.235643824266282,-3.501017994944511,-3.3212346105046344
863,-13.630220984574656,-4.773806123785084,-2.963790111352717,-3.4861006834634103
864,-13.323419483437295,-5.260859899841977,-2.4305490329212143,-3.6760571271490297
865,-12.966053180449496,-5.65927933413962,-1.8958903239908826,-3.8940010098178077
866,-12.511786004643646,-5.9288894822821865,-1.3452612043709329,-4.121333811934687
867,-11.907293149771796,-6.035683464991952,-0.7691876786230814,-4.325844939737678
868,-11.12807801862192,-5.959056839330677,-0.1704405325630065,-4.478597855638096
869,-10.202340195930727,-5.690789730639141,0.44303073898958867,-4.567690962783052
870,-9.181957688494755,-5.2356782215691595,1.063996826697121,-4.595035221912524
871,-8.10323010378891,-4.616122396561128,1.6825784783106201,-4.5635012983836205
872,-6.989689138061636,-3.8682760022827747,2.2846279944348185,-4.471664906702111
873,-5.875535754239778,-3.03174297366643,2.851790892281374,-4.319048474842467
874,-4.810499043535376,-2.1414675215826033,3.3619581960848652,-4.115054687258719
875,-3.8298592666819977,-1.221498804080709,3.798523071650656,-3.875011194702708
876,-2.9263615362687805,-0.2814103784101769,4.15789529307738,-3.606049821640706
877,-2.0544254512255913,0.6780945309943733,4.446178986157052,-3.298598539787
878,-1.1691180357767834,1.655033696504768,4.6768805433264475,-2.9264807231386736
879,-0.25527710798409287,2.643489936533376,4.8701873871724395,-2.457511422392943
880,0.6788248716418759,3.63446714481,5.046550394824944,-1.8694179238377169
881,1.6190824829239192,4.6131649817044735,5.217476323563954,-1.1606066142241598
882,2.559599355201759,5.557021990480688,5.380379915133251,-0.34835902282462317
883,3.491420247939181,6.437270239189545,5.522844386976102,0.5393795309655021
884,4.3848534032992665,7.224423274714739,5.630450294110474,1.4686679741487894
885,5.196754542786122,7.893994301706648,5.690039057044675,2.4016298838702657
886,5.905665122500637,8.457244543985468,5.685801239306192,3.3108527436870396
887,6.471643162311179,8.843061542980244,5.609929576227205,4.109412152116418
888,6.863392661190926,9.019809917044432,5.463963045721824,4.7343515090185635
889,7.056055523933376,8.988649038871724,5.260379136218381,5.150780457178437
890,7.055918220880129,8.7765159577498,5.021517151309521,5.355001661192572
891,6.906155037843107,8.429550712899559,4.776361148602231,5.375690795643473
892,6.669718309808762,8.004734041893677,4.554013164158659,5.264227595836893
893,6.4012017225884295,7.559763120850369,4.374543027939251,5.075439933024719
894,6.13293005594978,7.146068135153848,4.246459597514566,4.85782398342187
895,5.886691397031834,6.805204039677122,4.170064219548904,4.6515835951219024
896,-0.04592686351316094,-0.5254882279591926,-0.6613613923509197,-0.6019121602373423
897,-0.32761261820651516,-1.2294595445603589,-1.5521309377196046,-1.2707632689786519
898,-0.8256103541096591,-2.2654387882057114,-2.8756179720107014,-2.2299114024864046
899,-1.571180793715253,-3.666907700687884,-4.656778909537155,-3.4775421142209213
900,-2.6037374476434527,-5.450251491565689,-6.883046165220564,-4.983913207150199
901,-3.954517755853015,-7.606047163392613,-9.50526630604164,-6.697171212725605
902,-5.608791445473904,-10.093998270517327,-12.444686768287902,-8.54727858686654
903,-7.50004565563844,-12.84549389479233,-15.603357120642572,-10.449160061386086
904,-9.534465005619627,-15.772984119476597,-18.87947306427935,-12.308829081843601
905,-11.618785407395919,-18.790057315250465,-22.18989198716318,-14.044356717845746
906,-13.671229545727867,-21.843701663928876,-25.50039928102029,-15.618623935915764
907,-15.588439026642945,-24.859476530052834,-28.7504774477664,-16.976719117224473
908,-17.26948396505153,-27.761525037971854,-31.885725513205934,-18.077307979850318
909,-18.656664220365062,-30.473733406999212,-34.859420377831825,-18.902964346422692
910,-19.750166699323255,-32.9245982510673,-37.631892128430344,-19.465977255918574
911,-20.56970143798938,-35.05697310865772,-40.17166965691401,-19.8073253339936
912,-21.121953166846627,-36.8400896723633,-42.45472958129126,-19.976242633745663
913,-21.409763839651234,-38.27884912647372,-44.46206152884894,-20.003114127855373
914,-21.45349147548011,-39.406281009832114,-46.179827367180714,-19.903402583368564
915,-21.305896022927453,-40.26078240304803,-47.59985541534567,-19.695982001913034
916,-21.02515289095389,-40.8751214098196,-48.71881738073313,-19.402223776342847
917,-20.629686800009143,-41.27769917219678,-49.5387917309176,-19.034419656146333
918,-20.10236700412375,-41.49293762093444,-50.06540854067227,-18.59090793135248
919,-19.436808373588367,-41.542788962453805,-50.30246898523698,-18.062948208061048
920,-18.66334306557966,-41.44709838981083,-50.25087350580366,-17.44689069305116
921,-17.82384879637644,-41.22247026617489,-49.91253342880307,-16.754289971300167
922,-16.940815519304316,-40.88217317570197,-49.29247023647897,-16.01107999790174
923,-16.019065793299443,-40.43672705168228,-48.40369905493379,-15.246953442406685
924,-15.076798449531205,-39.89539438878878,-47.275354360851274,-14.490892202006517
925,-14.16441302992025,-39.26965050195471,-45.95202572115544,-13.772390063083689
926,-13.33758873368848,-38.575361726453124,-44.484381493639866,-13.122523057188697
927,-12.62712452817667,-37.82971336290302,-42.91805089641182,-12.566807167314444
928,-12.039123302945626,-37.05013865570962,-41.288769898976724,-12.112169281567251
929,-11.586731428369427,-36.25536750373784,-39.62645913377257,-11.748605277127313
930,-11.308973423652873,-35.465275041867876,-37.95782121751969,-11.470062349860674
931,-11.24018856111808,-34.70253312316056,-36.30380940422824,-11.285770815121563
932,-11.377013153132953,-33.99138935500127,-34.67524618856434,-11.206835710570807
933,-11.68186510370595,-33.355549367602926,-33.06791436421712,-11.235002906948626
934,-12.117670733166111,-32.81864672419174,-31.462198072004515,-11.360953005332101
935,-12.66365975765683,-32.399563432829645,-29.833692983452767,-11.564893319610164
936,-13.298135010832208,-32.104013597231145,-28.16938230729014,-11.821086118348095
937,-13.976856030579388,-31.91996512205175,-26.4735590961753,-12.102351469956307
938,-14.627845762453267,-31.820408614200364,-24.765261434044316,-12.382237632895055
939,-15.18717144787374,-31.769031079429055,-23.075866040753553,-12.63540457460932
940,-15.628391659749314,-31.723956752426183,-21.44107692971214,-12.841112677591124
941,-15.947842797614065,-31.642583919975017,-19.887770164764984,-12.98676561773174
942,-16.13564489277575,-31.488163603893558,-18.42961759294977,-13.066924252360083
943,-16.165462928604263,-31.23095477240739,-17.07408575937765,-13.082267960139284
944,-16.021750395673198,-30.844563397736657,-15.826757096937078,-13.038973976358815
945,-15.725461343252967,-30.30927952536373,-14.688174666604025,-12.9484713529039
946,-15.323836796096312,-29.61657358556989,-13.647435978052401,-12.822374898565858
947,-14.852355919869991,-28.76548583840507,-12.677841295691746,-12.657712857915937
948,-14.310667268002945,-27.756311299061966,-11.742233735363842,-12.41971499213014
949,-13.68555427851142,-26.5878320749409,-10.805876412451914,-12.045799108731767
950,-12.979868382847803,-25.25727327928285,-9.849752773607163,-11.47860971740422
951,-12.218311531521664,-23.76112094215066,-8.874839981263518,-10.696684687319072
952,-11.42571181146704,-22.10006895634561,-7.891594498187439,-9.716267789205826
953,-10.59855139843297,-20.28475263307538,-6.913821146313889,-8.578145983937091
954,-9.717950024585923,-18.33544341577106,-5.966776215617485,-7.341937000883653
955,-8.787906740698588,-16.276256914477326,-5.086981533017172,-6.080509894005465
956,-7.846624217740859,-14.128415838611568,-4.307484843778251,-4.870262526925766
957,-6.928325901145391,-11.90949979742187,-3.649189097911259,-3.778467704459192
958,-6.025801390210107,-9.638970314237582,-3.1235139232477924,-2.8462174143746752
959,-5.108260365125084,-7.338816858498452,-2.7337266685475603,-2.082736335449881
960,-4.162617380583047,-5.026817958248925,-2.472982064437359,-1.4725795277045186
961,-3.2102747858711416,-2.712999235259097,-2.3234021361184056,-0.9861341306824674
962,-2.2807003601531703,-0.40376198597519997,-2.2584459859107815,-0.5924011704275484
963,-1.3851198795402033,1.893017208421042,-2.2516763713332946,-0.268338700885023
964,-0.5274862618621571,4.161515597610591,-2.2877292044403017,-0.0022996977978359187
965,0.26808477279696635,6.3712154565957375,-2.36277532823129,0.20343059003532588
966,0.9451724877170572,8.478462394536225,-2.4739707093005197,0.33311126241106126
967,1.4492665557669542,10.432065121725515,-2.6137806275409443,0.36840431526531187
968,1.7633192044541173,12.179896840363787,-2.7732237993950974,0.29998806850478876
969,1.900815530676982,13.678458845770994,-2.9465367135801266,0.1284126041196927
970,1.8723861773646056,14.897078521169941,-3.1318102257576226,-0.13821325052350172
971,1.6650717172271596,15.816400253140992,-3.3262798952335015,-0.4862689795545223
972,1.2709600554404634,16.4296682923932,-3.5256487247722403,-0.9042626159196733
973,0.7174220792311814,16.745470457114887,-3.7296595684049216,-1.3863462760939091
974,0.05788703984971069,16.788389625327447,-3.941766295008672,-1.9273156847202522
975,-0.6662227072735292,16.59757685196776,-4.161603914047453,-2.5214273872792408
976,-1.4461964567588912,16.22143071594939,-4.380280438330701,-3.1622858927103947
977,-2.2715470030283056,15.707941812252143,-4.58317271176213,-3.8360034593632353
978,-3.1016718329682087,15.099709035363704,-4.755425886891741,-4.515255885073835
979,-3.8822305392732197,14.437303904913124,-4.888167336084587,-5.159607537455062
980,-4.577401198793929,13.760853360365756,-4.981707393287083,-5.721288607917036
981,-5.1821121000389825,13.106683562972872,-5.040106726469179,-6.157421501076207
982,-5.706256432712083,12.502560708313753,-5.067172042880116,-6.44272342412713
983,-6.149512777395908,11.962744763309912,-5.0690219246405475,-6.571764609315099
984,-6.490363589160114,11.48909130626689,-5.052674697843135,-6.554595810419129
985,-6.712364119018619,11.078004116546587,-5.019383097216553,-6.409050781429195
986,-6.820218027102209,10.72544334079596,-4.960314400584897,-6.149731709831028
987,-6.819212257699152,10.429792980741663,-4.855133597059501,-5.7854475499707085
988,-6.693262164947023,10.194712339259247,-4.675282072303219,-5.31997754662058
989,-6.409681880485286,10.02926825829723,-4.394717176368957,-4.748340963487177
990,-5.951396591078295,9.94331796984081,-4.000817724542417,-4.059597201416811
991,-5.333995311644522,9.942414677996725,-3.4972178060247723,-3.2507261352980312
992,-4.600235207696535,10.026319541879134,-2.899029084229041,-2.3369590541251415
993,-3.7927009132804206,10.188499824872629,-2.2254281687126256,-1.347877609222838
994,-2.9289732334460274,10.418093648163751,-1.4967341382408965,-0.31855296446647563
995,-2.0233148086751993,10.708632385155529,-0.7352880068996579,0.7146831571955741
996,-1.1050234996077308,11.063193817698242,0.03788831323311698,1.7158113784122992
997,-0.20554428631003044,11.485438324474167,0.8114031948347307,2.6533199232909657
998,0.659691253255012,11.965792567258646,1.5865513494702226,3.506733238378658
999,1.5028927405895716,12.48107327688522,2.369648222562174,4.272476553601488
1000,2.3495252603445484,13.005407173217572,3.164112917358988,4.963077036858979
1001,3.20598142285382,13.512846242642759,3.9676353910976414,5.599069816107744
1002,4.046024345446183,13.972835085436236,4.771671475147376,6.197718063754111
1003,4.83766116033924,14.350442976793419,5.5629662049943125,6.759843018722824
1004,5.569134105205926,14.609065068497529,6.325482099217428,7.269613731235464
1005,6.242714676455491,14.714161726712359,7.042382025246701,7.708991869030098
1006,6.858098803259576,14.639077282415863,7.699676899863187,8.06636493848691
1007,7.398313342194119,14.373412224435224,8.289731175038426,8.33780300315277
1008,7.84748680874008,13.933116729026391,8.810571684798763,8.529085860101436
1009,8.226024543261733,13.36191304255913,9.261090792651549,8.655088692441812
1010,8.583789770325936,12.715417901453314,9.63689953803592,8.736183910939117
1011,8.951065930004377,12.039084180041458,9.932974375348005,8.796138202920988
1012,9.311632998092394,11.355805761690668,10.148874197257427,8.853903477754054
1013,9.630911413143059,10.66699966135938,10.284137221964315,8.913574289994068
1014,9.899234196080304,9.99538936507349,10.350705835738625,8.98610469505236
1015,10.050455157032694,9.280574015838745,10.300021253983987,9.017008163409358
1016,10.040124578155094,8.505868229375542,10.113125848848517,8.973514198409
1017,9.848283535668672,7.677232702197858,9.799498508717614,8.839375548598142
1018,9.491842544670376,6.814225092136428,9.38981629619375,8.613291485413328
1019,9.024730112555211,5.949676091294978,8.925323752052853,8.309709708609535
1020,8.516012355317791,5.125878594482412,8.449944091290002,7.958893465013229
1021,8.020212294428262,4.389346395171052,8.005001977267764,7.600652820096564
1022,7.573936797720398,3.7837452660097797,7.625752117272586,7.272601489557405
1023,7.212496199283031,3.3393084001110274,7.33743460872639,7.002274054835005
1024,0.1970997877384929,-0.6750328319587173,-0.5561077832973162,-0.3687040951352807
1025,0.14828641372965692,-1.491006071958099,-1.2534292114031629,-0.7756575464317291
1026,-0.03263076722077518,-2.6740480092967154,-2.261265524577472,-1.335695273201873
1027,-0.3789922054025851,-4.2327279069636035,-3.5831570491433036,-2.03210490231029
1028,-0.9237266770481496,-6.134779920377174,-5.192751785664175,-2.8352005988977154
1029,-1.6822552311352674,-8.3080078926635,-7.036706503628597,-3.7059333735518254
1030,-2.6264387766236124,-10.653675479514835,-9.040720591614244,-4.601568048390611
1031,-3.6906261269508684,-13.066366618159288,-11.118234816927576,-5.483301388599
1032,-4.803198612777768,-15.455512118326316,-13.18425023415554,-6.321978358478749
1033,-5.906116877936559,-17.766443898626616,-15.17482908664898,-7.109241095589838
1034,-6.955896936381738,-20.002678008618542,-17.074447572630422,-7.876739403523047
1035,-7.914391021940916,-22.150167652306195,-18.859741297015418,-8.650964639518806
1036,-8.764671381351821,-24.21045833829598,-20.522911842023053,-9.448335021082409
1037,-9.540757140633767,-26.19974618617762,-22.06910081392849,-10.273087410662892
1038,-10.314106183185508,-28.139032006255437,-23.509820922665607,-11.12794958542415
1039,-11.141040268390194,-30.043836764954623,-24.85883354579084,-12.015442982630681
1040,-12.03694831490597,-31.917786650528154,-26.130687608166554,-12.931237162057903
1041,-12.998139674694437,-33.75106340439626,-27.3377847233619,-13.863106488477335
1042,-14.025361657135656,-35.52283563039697,-28.487144015393348,-14.7995359655527
1043,-15.124649120435878,-37.20727634837588,-29.579203737703146,-15.732745308146024
1044,-16.283258632627508,-38.78140882306574,-30.6090854368225,-16.651637215755837
1045,-17.45559033604114,-40.23152285093492,-31.568834084007413,-17.539976064618948
1046,-18.583186196627263,-41.55376077976157,-32.44953198767192,-18.382290173286297
1047,-19.630015183467908,-42.748873747151464,-33.24317037965139,-19.17248291672974
1048,-20.602391741689555,-43.819680158132186,-33.947256523256435,-19.919009311337778
1049,-21.51911863035411,-44.77320999695574,-34.56934669651797,-20.640367801872927
1050,-22.381080814647696,-45.6205322032144,-35.124335720656504,-21.35259553150252
1051,-23.17140336000431,-46.37344408408862,-35.62601542606877,-22.055558707731766
1052,-23.87280435201137,-47.03931861427254,-36.081616793558375,-22.732920125660762
1053,-24.489147801205835,-47.61454207815564,-36.49388148971067,-23.366656203022828
1054,-25.017908948935624,-48.08536615626099,-36.86233434243227,-23.93994032998588
1055,-25.41583897454879,-48.43569196622422,-37.18179744312443,-24.425207510248732
1056,-25.616462240036576,-48.64892022553027,-37.44262274202251,-24.78395144365114
1057,-25.568833840031985,-48.70343710126668,-37.63186599580591,-24.976489110139255
1058,-25.26149013632092,-48.574458049643276,-37.734800105835255,-24.970161274857915
1059,-24.711261893219618,-48.24520732868547,-37.7366104669172,-24.747295293261125
1060,-23.9391547184056,-47.709460154252696,-37.62301060287318,-24.306253552657466
1061,-22.95816313080021,-46.96405879806407,-37.37924421844261,-23.658339004547514
1062,-21.791982042264113,-46.006445380046024,-36.99209268015662,-22.823831698679207
1063,-20.495878930540627,-44.83657319870344,-36.45233311067947,-21.825526339797662
1064,-19.134893489166927,-43.45970838841242,-35.75353844170245,-20.682050437886797
1065,-17.74623235315698,-41.88891763570818,-34.89362658714837,-19.402461021451742
1066,-16.328244322255305,-40.14637677352451,-33.87901559525272,-17.987434495441775
1067,-14.879209878523707,-38.26522333638204,-32.72919218820234,-16.43577329590811
1068,-13.431157975413788,-36.286725196294455,-31.479722564639474,-14.752949208053314
1069,-12.032264669541492,-34.25140463678195,-30.1777539737174,-12.961610163876525
1070,-10.710384979334576,-32.19438159303762,-28.868401591484286,-11.10628951395594
1071,-9.462263633181523,-30.146755016554838,-27.582409287329064,-9.24463003503625
1072,-8.292152596257635,-28.13830131702044,-26.336413937844192,-7.434760164142152
1073,-7.23467301845125,-26.199234241479715,-25.133877923894467,-5.729761619313497
1074,-6.32214321824553,-24.360415575292777,-23.962561163692794,-4.174185564343235
1075,-5.54575690711468,-22.64898757092056,-22.80075764994974,-2.799802137564097
1076,-4.851407098010818,-21.08040412673613,-21.629349414413724,-1.6195961815317381
1077,-4.185004682633277,-19.660280769693053,-20.440930658041808,-0.6231087783241073
1078,-3.537603813604091,-18.395250604135402,-19.243696274192196,0.21851213156204408
1079,-2.936449422264802,-17.294465593736394,-18.059514565270565,0.9407481541752304
1080,-2.4029998358763183,-16.36374335672033,-16.918091455671465,1.573985937654529
1081,-1.9394303578600576,-15.605217109693552,-15.85432307194811,2.134556035636446
1082,-1.5587640284000939,-15.019685995591336,-14.904425012198919,2.6185911523227197
1083,-1.3067104114747965,-14.606842593875294,-14.09594483910752,3.000532526567469
1084,-1.2450218631032555,-14.363813413865454,-13.441668341511724,3.2382047833650125
1085,-1.4083050255774614,-14.28431009167047,-12.937668293570034,3.286481054175685
1086,-1.7851078859367644,-14.36014553438847,-12.563381304247667,3.1141506771769616
1087,-2.3437822402560955,-14.579376383130953,-12.289909113833218,2.714130691619548
1088,-3.0603818169809283,-14.919972350402308,-12.091562871819809,2.105150921351542
1089,-3.922454509726087,-15.34994429610378,-11.948726118014935,1.3208801600465716
1090,-4.904313972564273,-15.835844101727561,-11.846241985531458,0.3950960256162195
1091,-5.954933678425977,-16.348999168683147,-11.778964827824117,-0.6440143124133386
1092,-7.030265215326938,-16.866854730548113,-11.754132621475096,-1.770754378625051
1093,-8.117475972269052,-17.373976586848837,-11.780622084587518,-2.957545679259102
1094,-9.215504404239205,-17.856281138628308,-11.858277762783658,-4.17758720698669
1095,-10.298110745784577,-18.291424913837073,-11.9781492287044,-5.407823930521629
1096,-11.304411450061508,-18.647404825056984,-12.12860056547549,-6.622704808269484
1097,-12.166323045300263,-18.883717919884674,-12.29870424454364,-7.786663538738274
1098,-12.841153387148202,-18.949748885455268,-12.477421200538721,-8.8595695642373
1099,-13.327521977139309,-18.789155875407918,-12.651989850682991,-9.809811051835736
1100,-13.642227934762452,-18.35476336344272,-12.807671258353631,-10.619813398471875
1101,-13.788153768349636,-17.62236593984725,-12.929493759756726,-11.28193570294015
1102,-13.755712677670902,-16.59199260206993,-13.008437722152095,-11.792582838443167
1103,-13.550469100367756,-15.279974783430646,-13.047526206029652,-12.152769709503556
1104,-13.215991169743278,-13.716746319260029,-13.055712321293141,-12.37224901481357
1105,-12.810368387192362,-11.95075364582437,-13.034379670298252,-12.471845402647874
1106,-12.365740851477065,-10.04107926050981,-12.975167603647884,-12.478457902480443
1107,-11.878789231691117,-8.03765054520459,-12.865566891115325,-12.40778712524509
1108,-11.337645065669106,-5.966789683932021,-12.687634904761968,-12.254274923625273
1109,-10.749118348435033,-3.834785366647819,-12.416241432201726,-12.00603553395622
1110,-10.126508674050594,-1.6393526081152647,-12.026236362848474,-11.664953854879577
1111,-9.47202458719114,0.6204164157180088,-11.50144362605964,-11.249794018450203
1112,-8.780742437676633,2.9356681807794858,-10.837853374515248,-10.789105004400794
1113,-8.058647002271805,5.2873963350132,-10.042501839709999,-10.316798787457902
1114,-7.335959168027269,7.648044394487213,-9.132963035821659,-9.868682077200091
1115,-6.646126720084984,9.97912503355453,-8.137596872934033,-9.47500498006293
1116,-5.992613157964833,12.231805467062483,-7.092983006662569,-9.152780006394662
1117,-5.3492416847078115,14.352748358416697,-6.037992681935975,-8.904705579745528
1118,-4.70480234298237,16.28936118569136,-5.007327603257347,-8.7273243492286
1119,-4.092472901697333,17.993284316562047,-4.022788266721773,-8.62024580500071
1120,-3.560896021243686,19.42838948859832,-3.085663162459315,-8.582922328587298
1121,-3.1343365784965567,20.58135457875734,-2.1823008250317653,-8.604451321204891
1122,-2.8110646709539395,21.462443109616974,-1.297355736707401,-8.66313843792675
1123,-2.6000108813128042,22.088805953083675,-0.41977227061966005,-8.733569007182066
1124,-2.5439545593256367,22.46887634793892,0.46042721324331914,-8.79040900473029
1125,-2.6978956987822142,22.60514132710744,1.352556930189894,-8.81252872845068
1126,-3.08538189420195,22.504241841627394,2.2583377152365847,-8.784303714526038
1127,-3.6767419892539674,22.1826131250157,3.1693450564987917,-8.68798601155135
1128,-4.419017848554496,21.665604360605887,4.070238819977314,-8.499962968417549
1129,-5.268514248967189,20.984364794188462,4.94211378006106,-8.196982417111547
1130,-6.181620845672082,20.175512718416343,5.7670301183698545,-7.764076309786985
1131,-7.087795070676125,19.281928773625275,6.530759324697599,-7.196789772475592
1132,-7.881574316189844,18.353074598450043,7.225298840123411,-6.498968414900014
1133,-8.464075519531354,17.442341686941,7.850631412682453,-5.677375786160666
1134,-8.786763561617882,16.601538551636096,8.410506639192938,-4.734705291277299
1135,-8.842140802016646,15.874292452981376,8.911369942948014,-3.6712836551042223
1136,-8.624124778492115,15.28739147355574,9.36558098575814,-2.4937407878241635
1137,-8.107594274771278,14.846185571990043,9.788779946336602,-1.2172605404245975
1138,-7.27519904874975,14.53901772994924,10.197288629720282,0.1389940404408156
1139,-6.146833614883218,14.348523839455803,10.61012214550994,1.5541265579703847
1140,-4.780685763224067,14.263711248846299,11.048164075809504,3.002972227807329
1141,-3.242972027545041,14.282901679973081,11.529614486639218,4.453894736103896
1142,-1.5999018641527198,14.384106173287565,12.05808368813637,5.837408885607436
1143,0.17524402489956187,14.60550004079078,12.646532274331436,7.179952624473236
1144,2.0320860205308753,14.95345229765547,13.282653323256982,8.476886093171192
1145,3.8815337164142356,15.412112132037795,13.9381983466383,9.703864338425644
1146,5.642199674980923,15.948484293324734,14.576451953332569,10.829208855149915
1147,7.252981826182801,16.51778316846552,15.159829705451918,11.82630850337139
1148,8.656408641955535,17.071733401722454,15.656762458715377,12.678007672159417
1149,9.796301084570596,17.56773718363759,16.047057148569014,13.374147826369574
1150,10.637533573466095,17.974940296959694,16.324618629237932,13.910052847956928
1151,11.193738217509656,18.277212329439926,16.49842582406843,14.287112238419523
1152,0.12481102155478338,-0.404412234006092,-0.6318083150870288,-0.45568576422435153
1153,0.05019922557164136,-1.0170056377918102,-1.3739506272436142,-0.9655069472391302
1154,-0.11309618078699807,-1.9569379388629018,-2.44568376736703,-1.688228954711069
1155,-0.4004533447549301,-3.261962814151664,-3.861414409288999,-2.612516384176058
1156,-0.8642496116231286,-4.942111582316846,-5.605225249374132,-3.7185766643670224
1157,-1.5489589915013973,-6.977556185066913,-7.632866357126605,-4.984381075799883
1158,-2.4710589057802377,-9.318537322367453,-9.880943420235633,-6.381354249784543
1159,-3.6200495501980683,-11.88814744265379,-12.275370017371632,-7.869641588148231
1160,-4.980572055302748,-14.594283220884025,-14.740011772587922,-9.40582877826654
1161,-6.533843439602792,-17.35054779756205,-17.21640500013377,-10.962330397289358
1162,-8.23309572924899,-20.102634804731835,-19.690535423148358,-12.543511109504962
1163,-9.992394180502187,-22.784555011493026,-22.120736555848033,-14.126740519755735
1164,-11.720734634504103,-25.33693748180775,-24.465686012852572,-15.682178358743696
1165,-13.360425183128832,-27.710973936015392,-26.692557890012367,-17.183225977132366
1166,-14.870814560712816,-29.873688415613795,-28.78151252580984,-18.60590266004585
1167,-16.20487177465455,-31.808330906069937,-30.726504133077807,-19.92044830035719
1168,-17.318604793847896,-33.51265189917568,-32.53272290522916,-21.095035996643514
1169,-18.202282656890965,-34.993226969614526,-34.20907328416192,-22.106293429961667
1170,-18.89863589105794,-36.254907296457105,-35.75755237861266,-22.94466117396297
1171,-19.476273542806364,-37.295963144551855,-37.169986157439,-23.61572163777703
1172,-19.98350298286271,-38.112234419043816,-38.43287965028109,-24.1327898551953
1173,-20.42582936740585,-38.70152031053863,-39.5293268147496,-24.498224930495216
1174,-20.792458809806682,-39.06168323771756,-40.43787893449446,-24.69665941513222
1175,-21.085337797357422,-39.1887136336357,-41.13520403167297,-24.71297717770909
1176,-21.315929908946686,-39.079965036384465,-41.6041943358929,-24.55074910839989
1177,-21.483583237088375,-38.73481093376993,-41.84204456911517,-24.22991130816052
1178,-21.562863615648226,-38.15366628594986,-41.860517675741185,-23.771375219883122
1179,-21.540858383997897,-37.34394249867592,-41.68367240923019,-23.191727048439503
1180,-21.45312979909121,-36.32787944295331,-41.348659599046265,-22.511070053334652
1181,-21.36071204930433,-35.14646743820796,-40.90040587272416,-21.7573500296811
1182,-21.301533914846544,-33.85861438213781,-40.38162675157889,-20.963732198968824
1183,-21.273412466948855,-32.53179085299574,-39.829384586089716,-20.16107433403291
1184,-21.2658106340128,-31.229853528188155,-39.274352275780345,-19.36844410959668
1185,-21.283171586793195,-30.00273589482405,-38.73937633266995,-18.593386693030837
1186,-21.33613139354768,-28.880218915044804,-38.239428138340706,-17.84210264574785
1187,-21.41909292552831,-27.873495108508422,-37.78060245722575,-17.127546255160652
1188,-21.50051731437781,-26.980238226771842,-37.36070264717424,-16.466372966767487
1189,-21.546244049010188,-26.188929485331936,-36.9734187336887,-15.869260294322515
1190,-21.547366816553907,-25.481062753851102,-36.612984743066335,-15.34261425400143
1191,-21.52638537863919,-24.832761774430075,-36.276447624531045,-14.89939859706757
1192,-21.51316150500184,-24.21999144129154,-35.96140242040727,-14.556141901112786
1193,-21.526901523853244,-23.62662177574767,-35.66336884226652,-14.318091612615712
1194,-21.5815744376587,-23.04603238801418,-35.379588483579,-14.175857721445766
1195,-21.686910045181154,-22.476413314507674,-35.11258174175763,-14.112904371911528
1196,-21.832355514372423,-21.915940053324846,-34.86428490639942,-14.107378554683986
1197,-21.96186607286358,-21.357131564231132,-34.627544420170516,-14.13179374532576
1198,-21.984881373560206,-20.782773878961564,-34.38577236268121,-14.158989913855535
1199,-21.817043365573628,-20.166143756327493,-34.11664380563637,-14.166233248325456
1200,-21.401312183519757,-19.478455901814115,-33.79235441605769,-14.13454828558521
1201,-20.702358422031875,-18.701719985882573,-33.3818522265136,-14.052901792224935
1202,-19.694231845465175,-17.83835513428879,-32.856656667254235,-13.91978996787315
1203,-18.360272493760384,-16.912554028454654,-32.19611081943994,-13.734038098922259
1204,-16.6979683132098,-15.959952481199524,-31.392273347959332,-13.490270372209277
1205,-14.739731897019984,-15.013470158623372,-30.4508543911732,-13.18276482214187
1206,-12.569860368235618,-14.09239485489333,-29.38553483213872,-12.812412994988462
1207,-10.29683261700405,-13.198723274144774,-28.211611019880653,-12.389293036289684
1208,-8.006533684850318,-12.32467077442291,-26.94348528255523,-11.924877658655133
1209,-5.738506416210691,-11.456655349213381,-25.59440741576882,-11.424929109594876
1210,-3.513062526585044,-10.573241921118283,-24.178027561050925,-10.886276272867459
1211,-1.3718723074253123,-9.650616058663033,-22.709268694745507,-10.300801680389808
1212,0.6227241610744478,-8.673095295304694,-21.204031991619793,-9.665826959851053
1213,2.4138023043040953,-7.638222429772297,-19.68181865784951,-8.986373450766422
1214,3.9727784239430743,-6.556309864866412,-18.167605558451218,-8.269296652167801
1215,5.292212021861805,-5.4491930041194845,-16.688775187913414,-7.517813728393708
1216,6.353292977428682,-4.348466103741511,-15.270625722251896,-6.735152873952948
1217,7.126966886348945,-3.2911950063262,-13.935336563195651,-5.935983825003613
1218,7.606679157865762,-2.3138786291778044,-12.701967010874721,-5.14329392981794
1219,7.8223537931946066,-1.445074758621266,-11.585046611938033,-4.372605062323765
1220,7.820418003435674,-0.6977153821914659,-10.593947541507289,-3.6304722173127755
1221,7.629628265990134,-0.06899137875166228,-9.730325194101034,-2.9249770122685272
1222,7.2579477089959665,0.4517000231003243,-8.986427035211534,-2.2697326874319788
1223,6.728021467830873,0.8759267669352369,-8.347724782096508,-1.677219446598576
1224,6.093458514511757,1.211903602197672,-7.79795104837107,-1.1470805820721144
1225,5.406846417226886,1.4636972748795554,-7.324283391906527,-0.6644669646026599
1226,4.68587737870134,1.634816859624268,-6.916783014412958,-0.21398259200703218
1227,3.9153406552788312,1.7283519170782409,-6.5624238959484895,0.2044351484284838
1228,3.0844365055261735,1.74698302967978,-6.240159912165102,0.5743046978782939
1229,2.214619283932762,1.6960292064435583,-5.924352195235367,0.876663390756835
1230,1.3337395763967017,1.5820161356921028,-5.593772213157664,1.0983845422986434
1231,0.44486631340668237,1.4100643681672822,-5.235994925508509,1.2288053424117475
1232,-0.4633555496512989,1.1832912134547795,-4.845929568554283,1.255895749370703
1233,-1.3778319527958978,0.905056585959518,-4.420521934444831,1.1687816492590986
1234,-2.24407752735488,0.5822994348196762,-3.954009932924752,0.9668285197136606
1235,-3.0062800897073365,0.22330034064872645,-3.4408875643808923,0.6654034391834062
1236,-3.6382434112442055,-0.1656749293932101,-2.882244165612785,0.29217530860409785
1237,-4.1308343904369,-0.5817374615678692,-2.2854330729772303,-0.11701490120256804
1238,-4.472226954042136,-1.0242808557689946,-1.6619402648417263,-0.5200134629278499
1239,-4.645904426624548,-1.4890823861461413,-1.0276700085199537,-0.8732896209532505
1240,-4.649596288209701,-1.962926807816362,-0.3992599659127837,-1.1394619227744394
1241,-4.513457637754516,-2.4219392218794376,0.21187901257414685,-1.296235545080629
1242,-4.297136770248672,-2.8337414515725907,0.80112059415619,-1.3399415383126976
1243,-4.052479971428036,-3.165431717880204,1.365383815492614,-1.2839724301831743
1244,-3.793467937689232,-3.393658779132554,1.8972623663370338,-1.1566791221467538
1245,-3.5098773459048953,-3.5079939422361206,2.3859961762998125,-0.9920836611685736
1246,-3.2013526895817477,-3.5090859958452527,2.8247481505088197,-0.8186295319053976
1247,-2.8912863173608323,-3.405247186958349,3.217885401055362,-0.6548111500591319
1248,-2.5905164239432965,-3.2095140127449264,3.578325447874101,-0.5062899882534306
1249,-2.269112103525823,-2.941025864582274,3.9192035367024425,-0.3618946219028594
1250,-1.8785926406424853,-2.623552397481855,4.248630993636413,-0.19461404890251455
1251,-1.3922928564026524,-2.27718859145309,4.566683886931342,0.02912853997582586
1252,-0.8247180307711818,-1.9098985800352637,4.86820274304289,0.33501669595950767
1253,-0.2052329782419164,-1.5189928941949664,5.147699879159249,0.7294361647697591
1254,0.44321287300815937,-1.1000722008507355,5.39715433971142,1.1993368694301876
1255,1.0981658885966825,-0.6499823435911447,5.601543320519819,1.720445153315839
1256,1.7354566269960514,-0.16877515760858386,5.739861279334585,2.266755181891089
1257,2.3379587106858457,0.33404962583349396,5.790382204235202,2.813118114185669
1258,2.9089986179771397,0.8392908653409796,5.737336145557723,3.333661805814831
1259,3.4749782093486976,1.3260550843332704,5.576175642546527,3.8051084932943304
1260,4.071130453165677,1.7803739744614857,5.3155284161055745,4.21204307679904
1261,4.7209036126893835,2.198559520474087,4.9772665592986245,4.548544590696173
1262,5.432599208450683,2.583064179289902,4.592737231742236,4.8119387526312085
1263,6.2163216460925526,2.935762120429183,4.196447422774922,4.990784703972979
1264,7.103615325879712,3.2572824140506675,3.8208794951682608,5.06062360164218
1265,8.14066105144452,3.550679424764869,3.495035648889428,4.995584281306569
1266,9.337104180000349,3.824351641190716,3.246181287020239,4.782940655325318
1267,10.634857316237069,4.090894870137277,3.0980843780070546,4.428657028491556
1268,11.941674485410797,4.361315335280775,3.068340215622482,3.9547522220439277
1269,13.17498435577239,4.640021321765633,3.1673902112313157,3.394317531121577
1270,14.312003227361105,4.904913046714199,3.377108173146716,2.76687550389086
1271,15.219584571559468,5.187783085111767,3.718680275875477,2.146711751437799
1272,15.815453097053235,5.5033925962008095,4.1829841182281005,1.5965447407017619
1273,16.07029682945489,5.851861631944596,4.7398176672245445,1.1553759596853899
1274,16.001375497449235,6.224058953260835,5.345797734818849,0.8376387462726907
1275,15.664067033898055,6.605091424636783,5.951395578270715,0.6403361175820509
1276,15.141504904262534,6.973736388640379,6.50922949792427,0.5480955068067036
1277,14.532468235719305,7.305025481955652,6.982662089229358,0.5349093573555358
1278,13.93769283104537,7.577018040523632,7.349766275032291,0.5692786810827517
1279,13.444774448868548,7.776982027924852,7.60289643814227,0.6225352113678616
1280,0.07825993391838709,-0.44579444252656714,-0.6368694270378907,-0.1118027233894511
1281,-0.11769737923107029,-1.0254119738570555,-1.383790604522934,-0.320204120486904
1282,-0.4459145259123229,-1.8504026532464424,-2.441878832701615,-0.643231302974807
1283,-0.9312399565950704,-2.9140944577761427,-3.807013041645689,-1.09192582844723
1284,-1.5986316739026338,-4.190904267925661,-5.446141417144593,-1.6679701313290516
1285,-2.4516665789038767,-5.638616306077325,-7.304287067760262,-2.3596522103510984
1286,-3.4676068527393404,-7.201944225943666,-9.313367975061787,-3.144387075609112
1287,-4.616958427223531,-8.820600087516214,-11.404015764070701,-3.996351380294574
1288,-5.8870940077682485,-10.43991351775256,-13.519466570581498,-4.893136478557049
1289,-7.273803776368673,-12.022285024129786,-15.629504346391311,-5.8221428839677465
1290,-8.753250370535005,-13.566256549316337,-17.745893010004835,-6.785063015647026
1291,-10.284054163406115,-15.063170881548974,-19.84929724434068,-7.7774965085752985
1292,-11.83000703320282,-16.511620370903817,-21.915312881647175,-8.795302413228049
1293,-13.37098988748013,-17.908763587376267,-23.918470870284366,-9.83946116368276
1294,-14.88303268303409,-19.244288076612975,-25.834696767849827,-10.912392787806667
1295,-16.319299319403388,-20.49978559652417,-27.64418938551036,-12.009781884197924
1296,-17.619898038440684,-21.656336529422852,-29.33292567957844,-13.11857327743324
1297,-18.745292074539993,-22.70430638315649,-30.89264079016646,-14.22364373297712
1298,-19.705573818181392,-23.645654104138575,-32.31955944429307,-15.31375640599548
1299,-20.53481518664341,-24.488991183887734,-33.61253237712529,-16.38042241570525
1300,-21.25320129584942,-25.243535004908203,-34.77384635260324,-17.414779998837766
1301,-21.867035375657505,-25.91759893435561,-35.80686863513959,-18.407243461768452
1302,-22.391450176664748,-26.519833113171906,-36.707316078782355,-19.34983373997257
1303,-22.86684286165392,-27.05825820631088,-37.45700338829087,-20.23580915917731
1304,-23.33297403557021,-27.54043167348423,-38.02478270045564,-21.055696744021965
1305,-23.795348936599176,-27.977282561738104,-38.374836564317945,-21.796866461722065
1306,-24.233246758282743,-28.38447799087813,-38.47964264257736,-22.44590877675315
1307,-24.639362402441122,-28.77551903399041,-38.331256226224255,-22.991607973255867
1308,-25.03509893242867,-29.1507364852019,-37.945222872892224,-23.431197831800166
1309,-25.440459868964528,-29.498152666930036,-37.354681261140584,-23.77004183121262
1310,-25.847219706259224,-29.80388961271964,-36.60000672979567,-24.01056943456433
1311,-26.22061606248177,-30.055866193450818,-35.72201981421913,-24.147200417130076
1312,-26.53392269946282,-30.244762148335138,-34.75981227724607,-24.170010739642148
1313,-26.794214454471376,-30.364979028710003,-33.74604987080966,-24.067744160358217
1314,-27.015643845142225,-30.411897109052294,-32.69975452371797,-23.828327993095645
1315,-27.177089324859992,-30.38021762952592,-31.625454140710165,-23.44072080732766
1316,-27.22128363189202,-30.26313807842715,-30.5188273378214,-22.898480988774942
1317,-27.102089688987313,-30.052266806417382,-29.371102140180376,-22.199095900208192
1318,-26.811077028536427,-29.73891319720361,-28.171462268444746,-21.344477706800102
1319,-26.35343131804963,-29.31615869090652,-26.910650645096336,-20.34599852479469
1320,-25.716773991987083,-28.779870843340085,-25.585605191012043,-19.226345692439164
1321,-24.872137458688332,-28.125235718687094,-24.204973291589226,-18.015291468075727
1322,-23.808902534244094,-27.34653579468845,-22.79039344897159,-16.743364700604264
1323,-22.551544571207522,-26.441521764623925,-21.372387011669172,-15.436699005288837
1324,-21.146774706930223,-25.414094824432475,-19.983717168680236,-14.11504834304961
1325,-19.640294986934414,-24.280478878442942,-18.65229946832529,-12.792090912455244
1326,-18.06003184229065,-23.074141868827596,-17.39904331712154,-11.470363454456587
1327,-16.431775440045566,-21.839622133052295,-16.240817632114755,-10.139456180599058
1328,-14.800322715486539,-20.624512939187507,-15.193180729602846,-8.793372994443088
1329,-13.230382308387803,-19.473720542330852,-14.269319030244295,-7.452368870518697
1330,-11.779004827010988,-18.423041235416676,-13.479138408681575,-6.1646309554982235
1331,-10.47100230331505,-17.497016276500766,-12.830457513452076,-4.9897283935075185
1332,-9.316342556193916,-16.709692334126867,-12.327483723330596,-3.9836960796618444
1333,-8.329688590666839,-16.064109763984664,-11.967054764429745,-3.195960402280832
1334,-7.527423621437881,-15.552043130653384,-11.7398755551362,-2.6696505920175744
1335,-6.907841585779411,-15.155560474429977,-11.634890477287644,-2.4348054492732656
1336,-6.441753038646019,-14.85098682562439,-11.641526249836664,-2.4969562338742914
1337,-6.0941271161044055,-14.613915634020609,-11.753015854266499,-2.8348678202070814
1338,-5.849369726814167,-14.424584798603028,-11.966056209855774,-3.4096301490081276
1339,-5.723150588116835,-14.270470792738315,-12.270565366827,-4.173620391035465
1340,-5.741669993980291,-14.14407062218955,-12.640882618273313,-5.075585017152572
1341,-5.91036762270651,-14.043046466879764,-13.040510875445317,-6.0639366135637
1342,-6.212254898526911,-13.967959364855986,-13.433248323677288,-7.092974176564084
1343,-6.634381992660758,-13.915655486539594,-13.788070162889602,-8.133711300197895
1344,-7.188420036535918,-13.882609571652898,-14.078512521252645,-9.178021755825924
1345,-7.878828702322116,-13.870989599581248,-14.28244014972114,-10.223859109319255
1346,-8.660296841397567,-13.885980165951722,-14.380782836171171,-11.255115694580542
1347,-9.457280650792642,-13.928919262216194,-14.354379179916494,-12.24014956104122
1348,-10.214716975031699,-13.991586077774691,-14.188216773441676,-13.145149853574138
1349,-10.90096144331423,-14.05611815779708,-13.881931419839287,-13.947238811139192
1350,-11.477417521368558,-14.099789890080782,-13.4501701656663,-14.6374217842347
1351,-11.89429511785475,-14.09972724900107,-12.915917097362215,-15.209129900369433
1352,-12.10706612980549,-14.03647297850637,-12.306191260820666,-15.645371682560626
1353,-12.091623734933904,-13.89712637368414,-11.646036885986156,-15.916971656957928
1354,-11.840315092903143,-13.67469448602996,-10.951192947767579,-15.989293374648858
1355,-11.341513825524087,-13.364901285832401,-10.224919295595184,-15.829599840413383
1356,-10.570999112444905,-12.963195674976838,-9.461673184432682,-15.41356589196069
1357,-9.508998389721885,-12.460811311862553,-8.654130809300879,-14.731957358337192
1358,-8.16926033510074,-11.84498273053513,-7.795313622973932,-13.791828311445373
1359,-6.59892604410137,-11.105618067179362,-6.875669653370064,-12.61327109537731
1360,-4.847784718851903,-10.243444136381912,-5.885511030633715,-11.227901347989555
1361,-2.938000990859649,-9.274685467884183,-4.822606339509422,-9.67888453999319
1362,-0.8679719692804604,-8.22831342480583,-3.697473583740525,-8.019312357236503
1363,1.3393691000146153,-7.140992158936286,-2.535996099077166,-6.305772372786292
1364,3.6152355664020623,-6.055046059121844,-1.3785219423536752,-4.590543880869886
1365,5.877308858655533,-5.01826917577131,-0.27074823082585486,-2.9185930357438523
1366,8.050843930647437,-4.076238542157004,0.7507033423839888,-1.3261966809363617
1367,10.069106657715714,-3.2567731539402485,1.6619196201074111,0.16064591273394763
1368,11.872370964323386,-2.566958194841527,2.444967512691095,1.5221338848394748
1369,13.396764354010513,-2.0019055835081985,3.086139037945426,2.737720696759837
1370,14.568578217715647,-1.548612288281335,3.5799970183161807,3.785225165701184
1371,15.32319346045059,-1.188634022109159,3.9325841258009118,4.644284699372775
1372,15.632642056127947,-0.9066453222448261,4.158523162320038,5.299787142544772
1373,15.515673259117483,-0.6976464129934881,4.273433064302795,5.747214470443959
1374,15.025305508034219,-0.5678731584634585,4.289673722145357,5.989391590557731
1375,14.222173055080765,-0.5293118198976411,4.217518649334096,6.022778562201308
1376,13.167921001631566,-0.5890902959774484,4.06690940278816,5.831645646891252
1377,11.939694252309874,-0.7411200913849334,3.845763646279562,5.401452452465895
1378,10.615187262489538,-0.9620813603073868,3.5578672651355405,4.74189310197821
1379,9.238853672616598,-1.2179658738956265,3.204850709570056,3.8852474009269646
1380,7.816627817116377,-1.4800782128514898,2.7895208803609113,2.864578194832855
1381,6.347260244781805,-1.7252049338785216,2.3189142270229715,1.7086390319762437
1382,4.846920084744098,-1.9239768315991461,1.8045420337189453,0.45177796115092306
1383,3.3390463713509595,-2.04345237630463,1.2598233050109555,-0.859170039238045
1384,1.8324081659135967,-2.0606406124635406,0.7018245204199403,-2.1693147814827087
1385,0.31189747553055214,-1.9663693370482194,0.15635032288408585,-3.4267838297935693
1386,-1.2267535014757056,-1.7545056385259403,-0.34080543471400965,-4.587843175583712
1387,-2.7363219816832247,-1.4164605984120628,-0.7503770293584577,-5.61559743212551
1388,-4.135965729941847,-0.9468129420118403,-1.0407727061209604,-6.476507852011819
1389,-5.3563693820004,-0.3479454612258124,-1.1927287491553755,-7.137063142170796
1390,-6.360336336697834,0.36988641583525744,-1.1968363702721674,-7.569704989195561
1391,-7.125012060405626,1.191951123097313,-1.0506340957345361,-7.759760101123612
1392,-7.6180073376549045,2.1034319951202574,-0.7564102215951422,-7.6985524804729435
1393,-7.80546686415333,3.091970023754554,-0.3244201361854955,-7.379936751984773
1394,-7.688770308560284,4.1477470001193035,0.2234752394164812,-6.812025068644904
1395,-7.316119412786552,5.263977703751671,0.8581708156752563,-6.028096643605834
1396,-6.744574837435605,6.440726003892343,1.5476680581502,-5.079356518286467
1397,-6.012889566016677,7.684922910543767,2.255451911612633,-4.013558253885074
1398,-5.235262691355953,8.942362844581668,2.96789085420326,-2.8859348768430078
1399,-4.31935751116226,10.279802096368808,3.59023282171786,-1.7128607149437105
1400,-3.2579149350909598,11.695940544985282,4.062239499974978,-0.5376891141615631
1401,-2.0769217084345666,13.152620016400821,4.355869535111921,0.5886302213949545
1402,-0.806600830241804,14.594762308200375,4.468670733051233,1.6200601063642543
1403,0.5115049335045765,15.959426485199735,4.418367963408786,2.5210507028671336
1404,1.801841393830617,17.183168677467727,4.238931956249747,3.26798810734979
1405,2.971083599541739,18.212808987575755,3.976663197472453,3.849225445960233
1406,3.9528598467205,19.016596686338644,3.684104657429809,4.263393516671224
1407,4.719896164420782,19.588394401673398,3.4114416710080593,4.5209181640418326
1408,-0.05156144983863345,-0.18619857300022646,-0.7068802854785748,-0.44399360320903397
1409,-0.03295363064339481,-0.6430954031340045,-1.64459518600986,-1.0076011973366978
1410,0.031977112868215224,-1.3650585723344963,-3.0234347830082617,-1.8213101803493597
1411,0.11022856548579679,-2.363116769680933,-4.861780907868829,-2.889736062504254
1412,0.15459319133642277,-3.6182230417790513,-7.136814712692734,-4.1989807927001275
1413,0.13167947560439808,-5.086504536412976,-9.78219872369458,-5.710142018595058
1414,0.01777326370794291,-6.708660831386979,-12.694367655363138,-7.363386238755973
1415,-0.22737949771396654,-8.423732663893254,-15.746427703036007,-9.091614354133418
1416,-0.6655479660425119,-10.175745233730652,-18.80865791280983,-10.832827326846546
1417,-1.353856382660682,-11.916869683870207,-21.77703443254431,-12.545014875240597
1418,-2.302849382483298,-13.622218334146778,-24.608305770511674,-14.221426663920907
1419,-3.4782720755336407,-15.272166543224428,-27.243115535773036,-15.831933000429952
1420,-4.842913429059481,-16.853020998706125,-29.63973487431013,-17.342775421411982
1421,-6.364640078119481,-18.351075850038757,-31.776300890378714,-18.725529530872585
1422,-8.002078375473637,-19.752826471487474,-33.65045295918023,-19.95947749355937
1423,-9.702116768094704,-21.047774762671782,-35.27849691918018,-21.025766680696233
1424,-11.407556768329595,-22.2253768176604,-36.690780095925334,-21.909273979960684
1425,-13.073338969863615,-23.273381331159563,-37.921570874505385,-22.608877331292806
1426,-14.659395259012564,-24.18430253264013,-38.99885878355926,-23.13925239037456
1427,-16.09698024732678,-24.95887355423741,-39.93922954946558,-23.522780926499514
1428,-17.29940342717338,-25.603895959129805,-40.74558907984785,-23.77633870606147
1429,-18.207863437669175,-26.126696522026894,-41.408609947854934,-23.90496994104411
1430,-18.805534913275366,-26.530337044756347,-41.91282156244274,-23.911574353216086
1431,-19.0994046711916,-26.812932937120962,-42.24120207853423,-23.804995716866966
1432,-19.084340752237267,-26.9683404780419,-42.37705344454698,-23.59388487676471
1433,-18.732674188526328,-26.989771398830964,-42.305956567055915,-23.283254175979735
1434,-18.03552727748662,-26.876706339895637,-42.020517937321955,-22.877314090198308
1435,-17.045761818783557,-26.636496038355713,-41.52764093881216,-22.378535242299755
1436,-15.873913910973993,-26.28245521615981,-40.853221754251244,-21.796285608230534
1437,-14.631732054079478,-25.83629275706781,-40.03694615985376,-21.156403429304753
1438,-13.39996137230373,-25.32777030796747,-39.11873535261155,-20.49472382609986
1439,-12.243099117705798,-24.788919385575987,-38.12940413307616,-19.846812846781646
1440,-11.218269632479688,-24.24581765236044,-37.08702924992629,-19.240382304816418
1441,-10.386963519224423,-23.715073578435817,-35.992996402175706,-18.69231526520235
1442,-9.807282314114852,-23.207996262355326,-34.83174096152311,-18.209127515394023
1443,-9.501409368428382,-22.72796292008694,-33.5789466437289,-17.78954002097147
1444,-9.444580612889805,-22.272326467626954,-32.213947872004276,-17.430117456868174
1445,-9.58292469565685,-21.84621077997278,-30.728673803332537,-17.129412777097073
1446,-9.867057552047392,-21.46539175861072,-29.129513099137043,-16.89134336117941
1447,-10.262706826135165,-21.144121004793828,-27.444600762585548,-16.7213906474975
1448,-10.728437549478574,-20.88234103179144,-25.73345408688175,-16.61300373382089
1449,-11.207735503052415,-20.66391788683107,-24.075394853936185,-16.546634804785224
1450,-11.660306874029681,-20.468280975662477,-22.55096627828326,-16.50723143655793
1451,-12.094134496407802,-20.290919780478642,-21.215172499876232,-16.50316877885131
1452,-12.551364758467306,-20.137341209073682,-20.05304227512256,-16.57278969051494
1453,-13.072634844987984,-19.982051339904967,-18.99392990355458,-16.77070469009261
1454,-13.686146449178864,-19.776593764550256,-17.98515829730991,-17.13611695350946
1455,-14.422791826849584,-19.5108068869508,-17.008744732403976,-17.669720461370602
1456,-15.320512531966056,-19.218271084442787,-16.044663220692247,-18.339713094747353
1457,-16.407330597581247,-18.92357414608962,-15.066526607015675,-19.112225686930323
1458,-17.690457725515078,-18.59968095090109,-14.055405245915468,-19.97798206550755
1459,-19.153751085265718,-18.196342800240902,-12.986578757662697,-20.947431147199485
1460,-20.757837982791077,-17.73286488595169,-11.846539097880674,-22.018191906031888
1461,-22.427382650507354,-17.27912560671257,-10.692951186900991,-23.13020183677706
1462,-24.04421679596573,-16.818850388219165,-9.636788917351836,-24.17773516734673
1463,-25.47600823238679,-16.253538515085896,-8.752670899585251,-25.079645455451793
1464,-26.607597980445597,-15.543283896968555,-8.049623654996331,-25.803298682522886
1465,-27.374491084500402,-14.724515047461916,-7.500146813690339,-26.35054470390903
1466,-27.794549857448274,-13.809216659664308,-7.070771750677131,-26.749164101883476
1467,-27.952166144098832,-12.768186940113004,-6.751285566620659,-27.022403376020748
1468,-27.916570973168508,-11.59040016018316,-6.570234251380793,-27.136493535883034
1469,-27.663664712535436,-10.315849965256255,-6.596927375798716,-26.97333627854704
1470,-27.094154166348087,-9.044596385606667,-6.910005988034196,-26.36656237175913
1471,-26.098332614792945,-7.895890334980428,-7.540075973540324,-25.163861676630948
1472,-24.589401231661302,-6.924801044979507,-8.482332679356226,-23.274468175952755
1473,-22.505529052013305,-6.12634829555329,-9.751727011150114,-20.686886500649184
1474,-19.808332809557825,-5.5147397831403495,-11.369612730223794,-17.44124282494913
1475,-16.493353667013018,-5.131208291295832,-13.329670551812963,-13.591810853154433
1476,-12.610961551134944,-4.982819513268499,-15.606330319931828,-9.214363028497313
