,TP9,AF7,AF8,TP10
0,-0.3536541438703383,0.7581651893898933,-0.2734076401233133,-0.15992398575493272
1,-0.7136351509716847,1.6719848586201218,-0.682839718064232,-0.4334064568079712
2,-1.1797469403058685,2.946091048266969,-1.2927884775222138,-0.8176290144548414
3,-1.7233447528449606,4.543284779993868,-2.1133951822183685,-1.3335307709984119
4,-2.339765758139628,6.3934021379322665,-3.1369723317916396,-1.9840898939506928
5,-3.038849893038284,8.412660322656498,-4.334187235604013,-2.738760822781834
6,-3.8285451423547805,10.518749544193147,-5.656876366131818,-3.5483719758976324
7,-4.70677285694008,12.635098947887894,-7.04651869499147,-4.37321235654801
8,-5.66047228967596,14.700146872825826,-8.445109616549985,-5.195634230354138
9,-6.67079962394422,16.686728661724892,-9.807864965459855,-6.0135581938938945
10,-7.72351774166023,18.62013485492631,-11.117535629704848,-6.8318027520083655
11,-8.766131495252475,20.486133413150068,-12.351715390793435,-7.651806821662828
12,-9.733150015937488,22.24888093683231,-13.498630846352228,-8.494025756490037
13,-10.570621056394916,23.84676623457096,-14.561284941089633,-9.398367286934123
14,-11.246022708781263,25.199642852083162,-15.548838896234798,-10.391455712120694
15,-11.725744212560212,26.230485958957324,-16.465615111061496,-11.466345795708275
16,-11.9517846098448,26.886538462317812,-17.308855694226878,-12.611786312062799
17,-11.871813829918246,27.141550220574032,-18.072285517416095,-13.831090302285933
18,-11.501616980925732,26.98944351025624,-18.749675039655546,-15.118294908076217
19,-10.93121390834826,26.451430510026658,-19.33347697282104,-16.43557756948349
20,-10.26667428271812,25.57993248109642,-19.812386318053804,-17.7232250577798
21,-9.596655873112656,24.434498993648035,-20.176621456094,-18.935760684333275
22,-8.997848964965119,23.05196980367715,-20.428079112148758,-20.0574784502403
23,-8.53913428265478,21.447060146691847,-20.580127885568626,-21.084089150253853
24,-8.280647886583534,19.637597367540103,-20.647832678910383,-21.999906469493567
25,-8.263955361790238,17.652365287614543,-20.642872982933262,-22.77341798884244
26,-8.49275306378335,15.515915507321925,-20.57490637457272,-23.37599842363849
27,-8.922526827157313,13.244510386424798,-20.457411402646873,-23.8015965085574
28,-9.47793854910323,10.859110945694972,-20.31159919618712,-24.06735379874989
29,-10.084576917843435,8.393765421567334,-20.159243125570534,-24.190609821907536
30,-10.686129800081984,5.892333866241876,-20.010760547659377,-24.17026380619281
31,-11.243182549872097,3.401437165513884,-19.862674619116166,-23.994402243386347
32,-11.73116961945621,0.9591686850624092,-19.706125878577083,-23.662215853650377
33,-12.159219545473896,-1.416410811979301,-19.532018887506318,-23.193261260791978
34,-12.575481638040943,-3.7190494532752907,-19.329055860591627,-22.609072733057637
35,-13.037466385946411,-5.931670504364828,-19.081803763705484,-21.92125591580086
36,-13.58566683416561,-8.022159011120301,-18.771144675402127,-21.135360536574535
37,-14.228602175274526,-9.959183298787545,-18.3811925557924,-20.26257346904215
38,-14.9534770519128,-11.719589522176529,-17.907175467195856,-19.338472233147506
39,-15.752756662665181,-13.279720264497326,-17.352997209438502,-18.41880934223976
40,-16.630391698155957,-14.618225182833932,-16.728840302335794,-17.553180981822944
41,-17.584075720465812,-15.736152283958841,-16.051651920295594,-16.7601304851687
42,-18.588357574783284,-16.658362909213587,-15.338101555381048,-16.038155999598082
43,-19.61005287776899,-17.408697761164397,-14.598326427851562,-15.396751421162827
44,-20.63195985456263,-17.993646089689086,-13.836689871434565,-14.846465121509123
45,-21.652776893471167,-18.409040262490194,-13.05044996951829,-14.367847423113783
46,-22.659086453213366,-18.649590411853488,-12.229865012863039,-13.907856420199158
47,-23.600549556643657,-18.713708313006244,-11.367317926742404,-13.411772001133837
48,-24.410001312306278,-18.61369218023929,-10.465517512967686,-12.85708272977361
49,-25.044346329832457,-18.38166522790838,-9.540911300221955,-12.245784322743402
50,-25.505960722788355,-18.052181932379064,-8.621145027856455,-11.575404904870606
51,-25.817754145995703,-17.643418495398233,-7.737849365037578,-10.838792389382524
52,-25.982774829457814,-17.16503920853716,-6.923769138984676,-10.052746092168872
53,-25.99342739629961,-16.627769282565723,-6.212595074761,-9.276087545078857
54,-25.87209566128419,-16.03607606229891,-5.633650031631495,-8.585691134995377
55,-25.67928430286782,-15.380281319904855,-5.201318215534369,-8.030648867597874
56,-25.467110062280437,-14.642630628198697,-4.911626893654184,-7.617796539707735
57,-25.235804470561995,-13.807783962664784,-4.751908407940812,-7.34460186371814
58,-24.957388187177195,-12.86391522892338,-4.710565701753793,-7.232664677611026
59,-24.62346858185455,-11.805746515429798,-4.779274496370571,-7.309133460535218
60,-24.247901806750495,-10.644593004123763,-4.9486017255312635,-7.549644447221372
61,-23.831893439486844,-9.416656120572384,-5.201614461915139,-7.8675738407616365
62,-23.344414314010884,-8.179389478628845,-5.515197120875072,-8.174032591552267
63,-22.74616171041149,-6.997196101920448,-5.8691086889823785,-8.426392953518212
64,-22.032973525413787,-5.929173745615326,-6.249956175088973,-8.622832774006122
65,-21.246334264349816,-5.015077519740925,-6.6440192238031575,-8.774965884983521
66,-20.42980925829286,-4.26581122972159,-7.0312751319838585,-8.89782494506906
67,-19.590794667056965,-3.6813314745085335,-7.387430333677008,-9.021799398418802
68,-18.719166314675718,-3.275466283021292,-7.692541533536599,-9.191812606061422
69,-17.832306727490334,-3.0664984505977393,-7.937941871288599,-9.450510518300726
70,-16.97802012573173,-3.053250512408594,-8.121765945305436,-9.815374785383137
71,-16.18555990946561,-3.2090081659144274,-8.244295041063117,-10.264723626919702
72,-15.437356736916577,-3.484968924948415,-8.308928378533668,-10.756623242568239
73,-14.699328095146075,-3.8161340557283663,-8.322284053152885,-11.25294131531594
74,-13.960402740002971,-4.130396164501602,-8.290033958472375,-11.727360224270912
75,-13.231758185873828,-4.363294751616213,-8.209200339039644,-12.150489479443946
76,-12.5255382843255,-4.463848082005378,-8.070901417569608,-12.481333076266129
77,-11.848704685206528,-4.385825009989398,-7.8725406993247535,-12.6957939134585
78,-11.203799131190742,-4.099960211054954,-7.620263145643064,-12.806547929902829
79,-10.592635648454658,-3.6194562745500463,-7.323136614529939,-12.845441591653982
80,-10.027542309167812,-2.9958874779549243,-6.989371225077564,-12.831029423384122
81,-9.538732831713544,-2.2963249496250877,-6.625691087109034,-12.759133044848056
82,-9.153096503590842,-1.5852600219633677,-6.241073176576013,-12.614880470766838
83,-8.861139727640715,-0.9194778772914564,-5.852645873343001,-12.38794472834988
84,-8.634458206900932,-0.34909485260006945,-5.484074597608299,-12.088578366148482
85,-8.453823291574565,0.0951815314159275,-5.156443238652458,-11.735004286230073
86,-8.300148942056074,0.4090302313747062,-4.881183609288852,-11.321432434495902
87,-8.144844850297588,0.6060344091007768,-4.6604573164850995,-10.814570381320577
88,-7.950580446480149,0.7171183802903158,-4.495910825443279,-10.191721622086032
89,-7.691602692750725,0.7883392872992394,-4.394829120721433,-9.471206094465195
90,-7.373548729762532,0.8700293842913029,-4.365462010241437,-8.694842410181753
91,-7.02642490135714,1.0109001573442324,-4.411704729382681,-7.897244788497784
92,-6.681069421736684,1.252530912086041,-4.533236999867889,-7.091985065928831
93,-6.337115624211334,1.614667214030295,-4.723478001549005,-6.294452448872689
94,-5.968065122540105,2.0801690399648742,-4.963877873159924,-5.54915741792137
95,-5.567884645658785,2.604269931698747,-5.224861807341656,-4.907007460056138
96,-5.168007604571016,3.142394560615438,-5.473070283938035,-4.389549342538181
97,-4.796920068923857,3.6576012585866633,-5.674256393126765,-3.9815400798807414
98,-4.439134666030779,4.105729513456142,-5.7922224159267035,-3.6512417110374855
99,-4.056090427032251,4.434142036233824,-5.7927966698454325,-3.373924935887282
100,-3.6466438499403346,4.603717947075944,-5.65271782775534,-3.1287745323232627
101,-3.260322868537905,4.608093100431219,-5.361166621598779,-2.878738928679082
102,-2.9444170471512625,4.46885650618783,-4.913935921312577,-2.5718723922335696
103,-2.710959270726715,4.220258184612608,-4.312090455709705,-2.1774928157983258
104,-2.5558593255651347,3.9061995806228347,-3.5616644794845467,-1.7052039252921212
105,-2.4857010926716994,3.5822134919192905,-2.6707867223127146,-1.1785994775814177
106,-2.5205110498345453,3.3070094962079812,-1.648768678761527,-0.5993199020532285
107,-2.659243411891821,3.1305714152544644,-0.5103534818093421,0.05737477185451728
108,-2.8551287155490397,3.0914886460125235,0.7170994747642137,0.8036881202902187
109,-3.042324526719424,3.2150627260535503,1.9939225381485224,1.6077924447740441
110,-3.1810417306410357,3.509302890154934,3.2738551941766283,2.4129629720938084
111,-3.269069781122179,3.975857273869981,4.508779867377285,3.1805232951778946
112,-3.306786057048685,4.626216083277618,5.652035293022474,3.8967370675336124
113,-3.2729517811974325,5.471121834320034,6.659726303379792,4.546392973644224
114,-3.1396885859855415,6.494843072841032,7.491765035805456,5.105653889284084
115,-2.9058056121159943,7.659895711252364,8.114189276453583,5.551144096393738
116,-2.610338930266039,8.93749469285222,8.505867586758407,5.8773904876542
117,-2.291870293012893,10.314695198348259,8.664997090606445,6.106617787611085
118,-1.971075348874828,11.790330030063659,8.628063603965757,6.275267138236211
119,-1.5742877009072322,13.34452026104715,8.358305398296828,6.402435845107985
120,-1.0851320152034867,14.926657722581579,7.8645449119333914,6.502056820382167
121,-0.526896188951588,16.46620161425685,7.190049182642107,6.592746989587418
122,0.07425706556891598,17.884996201990795,6.398352512844613,6.692405398415928
123,0.7012327477974374,19.11385007786949,5.5606508646489115,6.801612709653285
124,1.3316035911440633,20.10863588374119,4.747594097506671,6.900899910115106
125,1.9230325894235487,20.85475052178829,4.02153977221524,6.968801134226863
126,2.4245036499745862,21.360933071795497,3.430311212980995,7.004736599744293
127,2.804567068743984,21.656875061000903,3.0014084206167064,7.0252906088690725
128,-0.5155001699670588,-0.04375405063342212,-0.13614808795084146,-0.057145234680556434
129,-1.2812240296499842,-0.0710793506221623,-0.29369916721033257,-0.42443188957966027
130,-2.4098818151725854,-0.05926811184842326,-0.5247100096288547,-1.0160477201451563
131,-3.8929967505032987,0.01445111177776856,-0.8433086981114343,-1.8637854397331668
132,-5.710414563893345,0.17868224727090104,-1.262183955785848,-2.97558549877854
133,-7.822435312946094,0.47181493790352047,-1.7892648528520188,-4.316142205696107
134,-10.148713188980643,0.9374328785608721,-2.4278074367742746,-5.818434393427825
135,-12.574222713714946,1.6136340138540417,-3.1796246641775996,-7.428276629812437
136,-14.97927869494558,2.519756662127615,-4.044125680196008,-9.111064887108753
137,-17.27178333283299,3.647803569731956,-5.016417322366358,-10.822630197881619
138,-19.406578114942924,4.970495774886962,-6.090500383169637,-12.502007070735779
139,-21.30053197290182,6.458212115524596,-7.243408602113911,-14.092666134811232
140,-22.866541947938774,8.082555853755787,-8.439655685778575,-15.562145131421985
141,-24.054178333418484,9.814737906774663,-9.635530625599493,-16.890541703892822
142,-24.87494469929305,11.639289757392675,-10.784776979079982,-18.05134246018233
143,-25.371945155730224,13.560543090745675,-11.843517557862073,-19.013450950197896
144,-25.561818398896854,15.571892190746215,-12.779856920638505,-19.754033663263808
145,-25.442932644440837,17.625926260652427,-13.579617093366803,-20.272947749151108
146,-25.05727290150312,19.6478575888109,-14.241941750311577,-20.592805841413377
147,-24.505928053405732,21.56813520404811,-14.77547685528965,-20.738710928185874
148,-23.89007190671804,23.33309362481624,-15.195653755565392,-20.724352418581226
149,-23.250249127272557,24.892940249517604,-15.521349913709884,-20.567739544060363
150,-22.580173861533865,26.197150208349626,-15.771986747642798,-20.31203712095515
151,-21.879689592360414,27.20374554187093,-15.963955201778875,-20.00986865669982
152,-21.17510377185571,27.888823586069883,-16.10808056971777,-19.680960341049158
153,-20.49812656515349,28.252830361551,-16.21194623133504,-19.31012124070794
154,-19.868533075881402,28.31993126585548,-16.284975071349898,-18.899645748596594
155,-19.306839110025148,28.115035606195427,-16.338633526122933,-18.495397312948512
156,-18.855707729034844,27.632313183629403,-16.38486742660961,-18.149545330373027
157,-18.572500996308676,26.83218244547937,-16.436123978722442,-17.872889672377532
158,-18.488111605740905,25.668132134237393,-16.50453395388543,-17.64146138975405
159,-18.59313019331533,24.1117897836459,-16.60128362445882,-17.443408140129378
160,-18.866134615194913,22.153142305221795,-16.737518211679088,-17.298613236982746
161,-19.311079282037703,19.79871991266659,-16.922074928636338,-17.24388070263397
162,-19.955339544658592,17.08533261168486,-17.15437512655258,-17.309172001263356
163,-20.79655243322344,14.076771513992412,-17.42253361794635,-17.505183752507918
164,-21.779047246579076,10.838324241602551,-17.70763251783427,-17.830358480588455
165,-22.83111215672693,7.428289884672817,-17.988119258336603,-18.282784281316733
166,-23.913801655653604,3.9041985798133054,-18.24259812335502,-18.868613355630945
167,-25.016818669485563,0.31664069595189004,-18.449254194172106,-19.57967100783099
168,-26.11739491610147,-3.3018200936498467,-18.586015870667847,-20.367587167325325
169,-27.161371414534084,-6.931783509696963,-18.637722062782046,-21.16524733944175
170,-28.061895023886205,-10.559442375024624,-18.606602110825385,-21.914366316774682
171,-28.738333334801005,-14.184801493901128,-18.517592786785762,-22.572048534213973
172,-29.165064281508684,-17.79897377275279,-18.41197158960564,-23.104665000268998
173,-29.37170840292697,-21.329868270780942,-18.322017558929737,-23.48728670729458
174,-29.410189566179753,-24.65633392701702,-18.24857165133934,-23.72536449751179
175,-29.310341896999436,-27.677820582315782,-18.162177196663606,-23.86410174153604
176,-29.080833432188903,-30.344662827361635,-18.01589066307242,-23.970609664487025
177,-28.757065012171484,-32.63558875527213,-17.755337807541046,-24.113460931455386
178,-28.434100333518987,-34.529857052607646,-17.32090829911061,-24.352369632457503
179,-28.23464880376787,-36.02081658017141,-16.644403173454844,-24.74473680219353
180,-28.210281406859888,-37.13266171723902,-15.68502421859517,-25.313478370945145
181,-28.260312311952713,-37.91464352248845,-14.518296808684289,-25.953237073303665
182,-28.213690612132662,-38.413446400220685,-13.30062526681534,-26.474233224823312
183,-28.00909222830431,-38.632984320918695,-12.11771565812509,-26.78345122736723
184,-27.72838399023924,-38.53495768541409,-10.966552356663248,-26.93801369825649
185,-27.519119105507887,-38.0654589055427,-9.819789224717468,-27.087057643809782
186,-27.534807293100314,-37.186227050511064,-8.658989198018517,-27.407862881202476
187,-27.891904818627843,-35.888623473264246,-7.51718474006268,-28.00507828259603
188,-28.610168209166932,-34.169789088079774,-6.5037143658531305,-28.82494090577803
189,-29.546789003906067,-32.04317025057507,-5.76163806750471,-29.674121377040453
190,-30.45622161068082,-29.59840906802502,-5.391104519249692,-30.342866094985496
191,-31.159341431784817,-27.006805746910835,-5.42014615506602,-30.71577445448758
192,-31.618476898070718,-24.449855459360002,-5.8277433948194535,-30.753645428445356
193,-31.876392627994026,-22.08488767354524,-6.5795847789370985,-30.418681722799658
194,-31.932418641742295,-20.07089128719935,-7.645842424298174,-29.6372356434425
195,-31.66859925032848,-18.575896606097547,-8.999059489150744,-28.304347739226404
196,-30.925137114645214,-17.75389577919508,-10.599631943531946,-26.34082196194394
197,-29.647459308561544,-17.730752355420535,-12.36673646871084,-23.777556889923698
198,-27.938180991168966,-18.613591396828067,-14.157428001177493,-20.77351239252276
199,-25.92736081000776,-20.489334573669527,-15.824094805821712,-17.488113966554195
200,-23.56882113702189,-23.41711754933051,-17.345317909013637,-13.897748879475644
201,-20.630378810786322,-27.41888887219475,-18.825054451852743,-9.822520402767362
202,-16.888350954687937,-32.461713599616395,-20.365557453877944,-5.115365976907649
203,-12.247342907269177,-38.463416124416305,-22.01241748211685,0.2670434900356997
204,-6.755450940209096,-45.31021568094577,-23.730077464626316,6.2604467082588275
205,-0.6047826758591781,-52.8733552699055,-25.393941722794747,12.654507191580866
206,5.904421628127337,-61.02483219737375,-26.860422890123964,19.128663610490754
207,12.446769011055643,-69.63544915728019,-28.052585954429,25.386718066359165
208,18.76946022352715,-78.56181115192462,-28.976944523252115,31.249591196215707
209,24.737742015692305,-87.65718279785018,-29.665523149551284,36.626299102657676
210,30.308586671644466,-96.7950607739405,-30.126132183818665,41.441926179105664
211,35.45307086166563,-105.83275506534446,-30.35361578202515,45.60940098479549
212,40.07118531985238,-114.55003937053912,-30.36484881407239,49.024942085463806
213,44.00540273383822,-122.66275127686768,-30.20009050708119,51.60843003265944
214,47.15199954227549,-129.88359956418867,-29.905623868483936,53.369658011432364
215,49.52376624663812,-135.96913993554662,-29.528528197941288,54.39722069405543
216,51.208201270196966,-140.75134353884332,-29.113871909282004,54.788539426848615
217,52.29199157956846,-144.16295866644415,-28.692709719120497,54.61299199536803
218,52.81973264762997,-146.2369316058977,-28.260609549570205,53.92808750860444
219,52.808038392357005,-147.0734459406963,-27.765068570921606,52.80420079747291
220,52.30020134913552,-146.8091446954771,-27.128948903281735,51.32409510839043
221,51.39442977013787,-145.6068591293068,-26.29707357271898,49.56207372488388
222,50.20574011203115,-143.641046010519,-25.255939061873526,47.569043960841526
223,48.81982787325058,-141.05466463969955,-24.02336614780085,45.3863420970053
224,47.2784773646972,-137.91165788839268,-22.634426621396806,43.062609515843434
225,45.59374208894347,-134.197933084216,-21.126761410977263,40.64347451908446
226,43.76988243817409,-129.85657672744412,-19.537190088542655,38.14956351101592
227,41.787572494705024,-124.80670294299313,-17.91011432424127,35.55672689228861
228,39.60886542900729,-118.97663744799647,-16.29099908956208,32.81998649576492
229,37.23212011909897,-112.35302680822295,-14.706432077360152,29.935613102598108
230,34.70006834124915,-104.98254792996514,-13.161295088556699,26.952306317858724
231,32.064914730258764,-96.93803454102267,-11.653150790952028,23.918656355641094
232,29.362981387042076,-88.30529617260991,-10.172109960404367,20.85273109530523
233,26.602245191149663,-79.18062380100073,-8.691434745348406,17.76539531023743
234,23.76585801771064,-69.6523584489682,-7.1748997289401295,14.685543058448225
235,20.837099723797262,-59.783104886382255,-5.592335430790859,11.657248325109336
236,17.836486639406107,-49.62052798519347,-3.928823557557961,8.71270214140393
237,14.812468121383164,-39.21902395417369,-2.1868729853085007,5.849881137800377
238,11.788216872492171,-28.638614783023442,-0.3834834412724943,3.0515026757925536
239,8.750855456839862,-17.934704988157982,1.4525841656460727,0.32115197008309526
240,5.706209404253126,-7.167600964760626,3.283649904926497,-2.315818842273777
241,2.71541724789695,3.5793373473971855,5.06774278511718,-4.850415063823713
242,-0.1438246549021555,14.20586118398877,6.763633045967818,-7.309539695980951
243,-2.836592554837562,24.617981311966474,8.335315147049613,-9.724147638969733
244,-5.3773580387747595,34.733630375542404,9.759493452714949,-12.081212772067687
245,-7.771420550080551,44.473467944346744,11.032557055304782,-14.313916864427467
246,-9.952479972639305,53.55476179961509,12.176070557756118,-16.345599628995398
247,-11.866229635557014,62.281172607273675,13.195912917188119,-18.15721793505732
248,-13.489814653839579,70.72150428628544,14.095474191649593,-19.727151059987477
249,-14.82727473602237,78.79776350659287,14.87713672309546,-21.021877280615822
250,-15.878341947810757,86.3479410023435,15.539472008096242,-22.01371719141197
251,-16.634406174530703,93.1753269826138,16.0782653767415,-22.71029529363008
252,-17.106853060979155,99.08858339925186,16.491681277832413,-23.155749217133415
253,-17.351274850453347,103.93898139531902,16.781234637207827,-23.406354156039477
254,-17.449913756960665,107.65370913669747,16.954027963563156,-23.513247775738243
255,-17.464523565664162,110.2491544334481,17.0284623566277,-23.52310615298171
256,0.1421683004132761,0.7004207820475811,-0.42316759277016774,-0.04953926921632584
257,0.0441798165880371,1.6070400371832116,-0.9588940054933281,-0.4264620249490053
258,-0.203025124045424,2.952626780614464,-1.7226035526962176,-1.0244353627179712
259,-0.6481894579500849,4.759974342589802,-2.714233630390295,-1.877315347568227
260,-1.3418229043033771,7.022439780543626,-3.913489904752014,-2.989604518930936
261,-2.315558521477761,9.71448249872875,-5.279468025374062,-4.332948489594312
262,-3.5531764103835877,12.794365825272818,-6.752200768818665,-5.861840719648917
263,-4.991084669198756,16.200735040765622,-8.261796601000087,-7.524366313476994
264,-6.548070209020859,19.857241510644243,-9.746429950660868,-9.265512689229695
265,-8.158292496117227,23.693710082840706,-11.166308477693153,-11.031434884717202
266,-9.777274012376772,27.68141768304892,-12.513877414060413,-12.78381394598241
267,-11.359134207034408,31.751432930395268,-13.767936894617726,-14.516908986603127
268,-12.871519444131412,35.83046495501304,-14.913559343456871,-16.257326385297336
269,-14.324769924610742,39.85366982327887,-15.942000763745526,-18.040467410178763
270,-15.764307306469519,43.76670728364355,-16.84533251728218,-19.875773003252704
271,-17.23577553787711,47.5129686752757,-17.616484629260526,-21.724912353735057
272,-18.753624798783285,51.03411006502213,-18.259069177223083,-23.531247837960496
273,-20.31020852559614,54.28499663290591,-18.790860403269527,-25.2747082566974
274,-21.901062080197292,57.24637832430093,-19.2339412418817,-26.967622689261574
275,-23.531425723650784,59.920931172991644,-19.601141471632232,-28.599754150916038
276,-25.192258442403347,62.32177114749022,-19.89278977562066,-30.11531539721135
277,-26.827895504051078,64.47785595868554,-20.104889880460714,-31.454943651574006
278,-28.35413307062466,66.42156496936998,-20.236572279226476,-32.59900737830324
279,-29.71389249600385,68.16264785414536,-20.29413041355564,-33.55382413692121
280,-30.90825612795895,69.69566266214504,-20.291729726078096,-34.32581211891793
281,-31.95988230347513,71.02129728392308,-20.247492769581612,-34.916330681088105
282,-32.85957835871468,72.14249476506423,-20.182773405291414,-35.33045345878946
283,-33.57725411604137,73.04287496745391,-20.126294251095395,-35.58758164003453
284,-34.118009803196195,73.6919034432073,-20.11117824219882,-35.70883650351007
285,-34.53924309940416,74.07246696979138,-20.164346609501667,-35.694608961945285
286,-34.8884433361053,74.19210129826389,-20.30033864208384,-35.523672253785996
287,-35.14191867121631,74.07830047208839,-20.519185424739668,-35.183922659264894
288,-35.23312049482236,73.77379802947885,-20.80579487745978,-34.696236803445196
289,-35.12090357286777,73.33214674387773,-21.131572864234585,-34.08994121341791
290,-34.80502902239827,72.80946467273014,-21.45778182758326,-33.35624492348124
291,-34.28558733276921,72.253196148863,-21.743802489318565,-32.44622232333632
292,-33.53990551845218,71.69142206321203,-21.95911772883385,-31.32894944530662
293,-32.55170398632993,71.12604210653623,-22.088226089329716,-30.03277589837567
294,-31.353497514689188,70.52697383310608,-22.122931256530048,-28.61491795101218
295,-30.02662506652411,69.84567365807852,-22.054829345983883,-27.102337960722725
296,-28.6433077324896,69.05542946267424,-21.87314902407652,-25.484901177159013
297,-27.220189737040496,68.16304023859341,-21.564516518204794,-23.760430921397383
298,-25.74361855579482,67.18151926899114,-21.11697440313833,-21.95603371946543
299,-24.227665771703677,66.11701246256445,-20.525360825344624,-20.113247275815283
300,-22.719840247999926,64.98123171965268,-19.791966504029915,-18.266318917508187
301,-21.247565488573354,63.791097214011415,-18.922266205013774,-16.43493827191789
302,-19.792310914307023,62.5456148770308,-17.927315565592192,-14.637903935362779
303,-18.331859618872798,61.21831442223923,-16.83505633681838,-12.90087322896379
304,-16.893619238796216,59.76901483725847,-15.688286564355773,-11.249687218603155
305,-15.54239116880936,58.15222402831299,-14.528733216157342,-9.696972384789616
306,-14.319725643395355,56.32221945801926,-13.389061167852967,-8.241960442266425
307,-13.228071244509998,54.24059065340234,-12.294385531780147,-6.887286879894646
308,-12.261630989288005,51.88032121996185,-11.2637110444587,-5.651654795210092
309,-11.428352080401522,49.22512269777734,-10.309521917177236,-4.573124373596016
310,-10.747586576886466,46.26562705956673,-9.437440236075522,-3.682762311836329
311,-10.236436667658516,42.99844519006285,-8.647499546938368,-2.9836663246224258
312,-9.896249473006101,39.43119692344487,-7.937341486383238,-2.4771564887084656
313,-9.707791859361011,35.5748305595944,-7.303555732917922,-2.1781199935176874
314,-9.648817794306318,31.432064891644053,-6.739457294724474,-2.0951082087101964
315,-9.701946092111369,27.01408061101106,-6.2320184904602245,-2.213435187586344
316,-9.84523522059315,22.366332548691773,-5.764544663625967,-2.4948766667820164
317,-10.04797543998019,17.56244309412562,-5.322486491635053,-2.8848164997040624
318,-10.269064540395538,12.678711592260493,-4.899849387335929,-3.3327164682477832
319,-10.475565298336589,7.784452303360646,-4.504157891798604,-3.816235818145453
320,-10.663853400623589,2.9462937753739755,-4.149016307274003,-4.337538516397343
321,-10.853360728148338,-1.7717417710718042,-3.845623603040644,-4.90190411216288
322,-11.072085005262258,-6.310748108206066,-3.6045921655070137,-5.497408114044749
323,-11.343262401980176,-10.613788946604387,-3.4354858620248425,-6.104162882699225
324,-11.677178626349951,-14.636523124265388,-3.3431127793627735,-6.727542366100097
325,-12.073544980126425,-18.369998073455612,-3.328256262075091,-7.382973745709356
326,-12.529246575354158,-21.833556530713697,-3.3882398948744354,-8.043667210849588
327,-13.022681844253585,-25.050552237299232,-3.512940604645173,-8.633941485514322
328,-13.479739342602675,-28.04143114765882,-3.6814983946312005,-9.079340263380182
329,-13.791561782047404,-30.82683222892005,-3.868909656487367,-9.341509979351379
330,-13.880172242956453,-33.424684302870546,-4.057916820349557,-9.41032977142872
331,-13.737612985580157,-35.839210412801144,-4.242175119948093,-9.290489194730204
332,-13.395549673176037,-38.061384365519196,-4.4224601952436755,-8.987434029450396
333,-12.868852514389648,-40.08381656826138,-4.601534709605636,-8.514256143053446
334,-12.157784809046905,-41.90122031891458,-4.777843634698317,-7.921237054384253
335,-11.299545313309334,-43.500444051283424,-4.943867356508613,-7.292051067745895
336,-10.384206535617977,-44.86439638459074,-5.087677037328877,-6.701711298153671
337,-9.503496403914095,-45.98435964606187,-5.196815626409447,-6.1894985450244056
338,-8.702883548843415,-46.869205812681955,-5.2652620646399715,-5.767549775051444
339,-7.988421063605673,-47.549088787679665,-5.2914965822384366,-5.433017812852677
340,-7.352590505556214,-48.07441999475033,-5.267049048753069,-5.167740734248066
341,-6.784649833528478,-48.50512565569173,-5.169342440728533,-4.9218965664709815
342,-6.263637872567575,-48.88396122761551,-4.967570119238483,-4.620652016549089
343,-5.7534464098641,-49.227224671254824,-4.636036020117937,-4.215914425411624
344,-5.217124035585736,-49.54577275488037,-4.1645628330699935,-3.710685013145905
345,-4.65304728936479,-49.85219776931926,-3.562405476652208,-3.1361325835614284
346,-4.104170615319375,-50.14915665398906,-2.854116773875273,-2.527948441483987
347,-3.6046179974691452,-50.421855300459725,-2.068326665211036,-1.9182160078762298
348,-3.144083113514907,-50.649243230026265,-1.2313543375002685,-1.3335498772715306
349,-2.6953382645345756,-50.82701742396436,-0.37128948457121824,-0.8012192157821029
350,-2.2613205139756927,-50.970384591352236,0.4822656093269783,-0.3500561823467115
351,-1.876747290619809,-51.10253169004154,1.3053127925493828,0.018837330097296587
352,-1.5564968168284692,-51.2461206731454,2.082923480565812,0.344940344987236
353,-1.2739610627094828,-51.41294374828846,2.809221825934838,0.6722921194968152
354,-0.9901283153617481,-51.603712209822575,3.4839613468070434,1.0138297119559447
355,-0.6913733230762151,-51.81652545795868,4.107196773440621,1.3489383829474073
356,-0.3972381259630735,-52.04132230053239,4.676934391582187,1.6484406484611593
357,-0.13222325212446945,-52.24802036007143,5.187348735828997,1.8987197254140293
358,0.10087554320856548,-52.383988279152014,5.627033330207676,2.100696105365772
359,0.3289163033729139,-52.38954419961792,5.981085513003009,2.2507104788208396
360,0.589934398871455,-52.225754295653886,6.236339665694649,2.3360261119245496
361,0.9031868109383315,-51.87764129179103,6.3854504535897325,2.355014710245782
362,1.259318067416293,-51.33660705693924,6.429121810304801,2.333140718732761
363,1.6483121182615559,-50.60059556139957,6.375361714968573,2.3222542348868607
364,2.089660880737605,-49.68363018353944,6.234979038956953,2.3738317627511796
365,2.609126111286335,-48.60828696546267,6.019015296550492,2.497972775960757
366,3.2078735071354996,-47.3873034686795,5.741846265788171,2.6739769607950254
367,3.8649598334220787,-46.02191944019388,5.423873533772151,2.9013240564859277
368,4.5586071568907185,-44.51482691989533,5.085711283923497,3.2081452795289183
369,5.28783251215573,-42.87368193022151,4.742036116421155,3.6156024580846315
370,6.063328560260164,-41.11019176893432,4.403884760406812,4.112469812805347
371,6.888758296381317,-39.23808461239298,4.080431317236267,4.6737657292408645
372,7.754608906283491,-37.26431395632205,3.7784925548400157,5.29118273804026
373,8.653186614673524,-35.193968417324385,3.5040589600202625,5.975556929804727
374,9.59348192583358,-33.08932070082025,3.2534611829728197,6.716421314229125
375,10.620682737334626,-30.888038212561828,3.0487694329378217,7.513982561533514
376,11.713755098397158,-28.607594803117376,2.904082438233638,8.34702947241331
377,12.821356908799602,-26.308044878301907,2.825993476204323,9.18984013199562
378,13.899269384460043,-24.0715242423977,2.813333508806807,10.012423946699952
379,14.921331763614472,-21.995255887177294,2.8582330763562775,10.776131424220269
380,15.8598441013992,-20.174188132757138,2.9475598352942227,11.437436427173058
381,16.665881135365122,-18.676668498273333,3.0645184789481044,11.963949124579532
382,17.286684019266904,-17.535648407992543,3.1902477138569743,12.35460715105594
383,17.70673051954388,-16.75035047057219,3.3046088326722374,12.630908458501352
384,0.10658397781183793,0.27183862341288784,-0.1703173592119376,-0.13602177123311632
385,-0.18087114577218577,0.7472569341017203,-0.5138811285221783,-0.6134109092793552
386,-0.6861273871140785,1.501139622872286,-1.0430549138405614,-1.354932155331491
387,-1.438182948489482,2.553265012586608,-1.7701278643957816,-2.380920872980204
388,-2.458733165120305,3.8866360964908764,-2.6894998003234374,-3.6681101842828845
389,-3.7468185184907004,5.458307329785946,-3.7757694744095964,-5.158371253963818
390,-5.259031141164508,7.202259040001527,-4.9864755539346515,-6.78252618625914
391,-6.919645345907309,9.025183920409793,-6.2695411497915545,-8.473154560949864
392,-8.655665117654236,10.819092355304607,-7.570827694104832,-10.169896801954279
393,-10.412004559539964,12.491423796042877,-8.841304171624623,-11.824137503985638
394,-12.150850257780005,13.987580490743696,-10.051442418739516,-13.402130489597077
395,-13.84788996337526,15.250760178589948,-11.179125300623397,-14.894433435837783
396,-15.503900022972388,16.23573945679407,-12.213670062116806,-16.31446545941696
397,-17.156176263463514,16.91980256752265,-13.149864552919645,-17.667422749875698
398,-18.83003607817822,17.309070691052774,-13.985089337502899,-18.9338391104915
399,-20.492106050272884,17.436666315754017,-14.718028991983335,-20.090072486648324
400,-22.07662769157702,17.352559141491078,-15.350425206512577,-21.122371982639724
401,-23.532558599391464,17.111957538425763,-15.888187976725344,-22.025974654013027
402,-24.837200900729645,16.775473245671282,-16.33733831141813,-22.793787769188707
403,-25.980381741500246,16.42054433695024,-16.703600991436666,-23.413105543058947
404,-26.950082540344955,16.141217960965957,-16.992203353835478,-23.883615558431043
405,-27.7264321224754,16.024101590016205,-17.2028058911509,-24.227881479663132
406,-28.298396765674816,16.115311433312456,-17.33443804788513,-24.4869678315907
407,-28.690750163951574,16.41792038517244,-17.39599568732914,-24.70025140261407
408,-28.957149084362104,16.920055012403182,-17.40623644364563,-24.88861814337264
409,-29.136445913205826,17.59833487922326,-17.388461644106002,-25.056864603530425
410,-29.2205507930117,18.399109079953416,-17.367628976137343,-25.20445180152971
411,-29.179592601264133,19.24607219128377,-17.368784885372104,-25.34150560183611
412,-29.000298302541687,20.075316551231108,-17.413718671211544,-25.480212869510854
413,-28.690728285228047,20.857114149387094,-17.51573583834951,-25.599797676875614
414,-28.255479171026487,21.589760841767337,-17.67575120920572,-25.64187897482335
415,-27.679740562668954,22.292794054013882,-17.880813897063486,-25.557313617006884
416,-26.965613233227923,22.99970342810209,-18.105254820691304,-25.34719818251695
417,-26.152090235278994,23.74484222808002,-18.313675327891996,-25.04235748635919
418,-25.288350957379237,24.556536165463466,-18.46321415453156,-24.65886252413994
419,-24.41111190058533,25.450418865018623,-18.507352998239213,-24.188125776576907
420,-23.529342091481084,26.41434247438013,-18.40621229290404,-23.62691180965395
421,-22.637705801278216,27.396554383364624,-18.139185743929847,-23.007771809895967
422,-21.750115004203845,28.315256012861873,-17.71174236289531,-22.381089240435074
423,-20.90669767466666,29.084068166104856,-17.14827093253462,-21.77102377280199
424,-20.14082666594142,29.628249045805127,-16.475532481388935,-21.164807157344843
425,-19.450552896288237,29.878853323272285,-15.720412804213328,-20.540434664697838
426,-18.82117557663604,29.771236523825756,-14.920911148852582,-19.89148371252218
427,-18.271868683311308,29.26617223497222,-14.126003595677288,-19.22607532617147
428,-17.86590910208087,28.361203482559613,-13.382594168356164,-18.551446824886025
429,-17.65386661876675,27.079800768895957,-12.720872502934593,-17.867671510774848
430,-17.6269032620536,25.462404544171644,-12.148338445154064,-17.17608584480162
431,-17.7408933136174,23.566348375886527,-11.653323922611445,-16.482980575549156
432,-17.9589318816828,21.46858963686529,-11.210745641163365,-15.793119149880779
433,-18.259866010256417,19.260616211050987,-10.787740265459053,-15.090595734543717
434,-18.60705105361373,17.035615225064497,-10.348564892255188,-14.335676586367223
435,-18.931777108942377,14.877569910491545,-9.864135363945687,-13.503600230212896
436,-19.15728045509057,12.846128182708204,-9.32336110963309,-12.602240965097282
437,-19.234749780980902,10.965544291761878,-8.735847216438781,-11.649032091068088
438,-19.159886369056803,9.23668608330265,-8.126566681005457,-10.648860146147989
439,-18.94319161302631,7.655631184060021,-7.532083680061711,-9.597586694158926
440,-18.582576904609194,6.220632255056801,-6.998222356695267,-8.51657045071231
441,-18.08108480739336,4.9307396152202525,-6.573177263936958,-7.472133602204867
442,-17.476031030890805,3.7870378656361425,-6.298075097011458,-6.559342553287261
443,-16.83257222536552,2.802490259111886,-6.193340263786143,-5.860685267106424
444,-16.192266129110724,1.9990365636597394,-6.248130027475908,-5.40619209806985
445,-15.540378755574956,1.388707539124799,-6.427338126226473,-5.174832340581948
446,-14.83436003463724,0.967344963431517,-6.687689878372827,-5.121656570412918
447,-14.051500479794615,0.720461616710754,-6.987857277629265,-5.201560324356949
448,-13.197878943539376,0.6290501640321697,-7.289666423142796,-5.3703261112564675
449,-12.28623346841929,0.6742795854719541,-7.555427031419451,-5.569817841794103
450,-11.324139633273603,0.8364129467577341,-7.749575439379198,-5.732268508672467
451,-10.31393697141676,1.0915495646392102,-7.8491579119302886,-5.812291065013924
452,-9.269513754828802,1.4096489412434652,-7.853268223531354,-5.809469656860532
453,-8.226178932443771,1.7639627403800182,-7.776381545596647,-5.749780571565644
454,-7.22076366933647,2.1515668198812468,-7.634177763697879,-5.661261872391443
455,-6.2709593314242476,2.5815715667933667,-7.43525469719558,-5.566700725563224
456,-5.372839549944956,3.0367287501482245,-7.1830295705191105,-5.488940012441967
457,-4.522688314163059,3.4648600817072217,-6.881545518840313,-5.4583571072784425
458,-3.7270343030148987,3.798346560555749,-6.535492879247177,-5.490802492514903
459,-2.9915429143530825,3.970575655580323,-6.147156585409975,-5.5604807122356155
460,-2.3132445136080806,3.9247300491834136,-5.717158148294175,-5.610673588895559
461,-1.67404029771524,3.6173726255678504,-5.2514071268035885,-5.599948467309612
462,-1.0625453783229917,3.0195328196017135,-4.765361927470672,-5.535770439419095
463,-0.5010481922414431,2.117074274817448,-4.2772316149844,-5.452123812978616
464,-0.02966937035092612,0.9083944888755289,-3.799293787106698,-5.366340411570685
465,0.32380938532053494,-0.5959440067253486,-3.337323845660378,-5.263371181183005
466,0.5566735072776936,-2.369431810530341,-2.898200380134097,-5.122058083480878
467,0.6797483568316178,-4.374344504109305,-2.4965402449045384,-4.946378377656339
468,0.6923527320750884,-6.57745185169195,-2.1480705583316833,-4.7514323406258505
469,0.5711750006581247,-8.946728196387737,-1.8578884720831506,-4.530553962359171
470,0.2996663362300685,-11.433815774403373,-1.6208890859619074,-4.25748155007182
471,-0.09788430190920458,-13.986226398789942,-1.4317052910049037,-3.9227245632301444
472,-0.5737122658694869,-16.5652294729818,-1.2910711111755804,-3.5536585209380744
473,-1.100673465888188,-19.132795535340936,-1.205334803128555,-3.196687945978015
474,-1.6879949085479,-21.642268212210066,-1.1806591981786183,-2.8882359212737723
475,-2.352449215540287,-24.043244142701404,-1.2182973107996338,-2.6411149155068836
476,-3.0855739068523214,-26.282471261508356,-1.3137593287120772,-2.4676863792842116
477,-3.860361250557645,-28.305798442412254,-1.4545341526348896,-2.4057825604068586
478,-4.664559416100096,-30.071155767002523,-1.6204350188328616,-2.486964060351979
479,-5.504756763109623,-31.564075295464384,-1.7892100588323574,-2.682864158003467
480,-6.362189606447105,-32.79573615675816,-1.9411970758175658,-2.908221192823788
481,-7.169019514921489,-33.78998348808564,-2.0636348363059374,-3.077645614202522
482,-7.840442914446461,-34.57731156824374,-2.1505517355155788,-3.1405456454210157
483,-8.309898679534713,-35.19414767100699,-2.195524031811229,-3.067364922291975
484,-8.536381534168727,-35.66998761597918,-2.1847919239151,-2.821673530045697
485,-8.490597124124443,-36.00573909056263,-2.098527216648936,-2.3573957746275527
486,-8.136799812429059,-36.18055964950055,-1.9211887298803219,-1.64711440738326
487,-7.435763293678729,-36.18170905903271,-1.6483045566898655,-0.6977148001379474
488,-6.384201559891777,-36.008711429290976,-1.2825839791865163,0.45355782388515115
489,-5.040168020521699,-35.65691195550399,-0.8264327838466955,1.7575820220561382
490,-3.4801177179315754,-35.119614327294016,-0.2792514369381376,3.176027503748351
491,-1.7516611275784453,-34.40631104963649,0.3567603374958561,4.6736266112664
492,0.11926438376333848,-33.547131525579104,1.0678971791561582,6.204552206831835
493,2.097250218509285,-32.58167508423264,1.8283964638294037,7.7210208785869865
494,4.126031980498043,-31.544525171803116,2.605707164085198,9.19875978374676
495,6.142541352709045,-30.45087656050183,3.368029987145585,10.640114581666708
496,8.092708716996865,-29.281696215946187,4.094426867694775,12.040583939645376
497,9.935496304961804,-27.99889050527507,4.77485114175774,13.375566073560591
498,11.62959523261294,-26.587560483496716,5.4003514236410926,14.609987143108185
499,13.127517821655625,-25.05733071860586,5.96112777924242,15.710311045524083
500,14.389012522976163,-23.415517403913896,6.452692544602138,16.65600481523586
501,15.39232226392966,-21.661748526154927,6.878329319368644,17.441355094516762
502,16.18883232743053,-19.9565710663194,7.267424000993881,18.097386492992435
503,16.7012880235854,-18.038371733822714,7.575836546364466,18.51804702648413
504,16.890543231176316,-15.806761104757754,7.781521815349392,18.659506434424767
505,16.76827891690529,-13.275746451339396,7.880035272153332,18.53866059324879
506,16.405879056414744,-10.535907363090674,7.876094657674489,18.210022058003045
507,15.90709282606375,-7.722781342804117,7.780650120863217,17.734139250769648
508,15.355689038737452,-4.992827975929184,7.613534745387544,17.170194291133512
509,14.800432080977473,-2.4994429306774255,7.4033109116376385,16.588092261220023
510,14.280462117053915,-0.3737297384204627,7.182631076690684,16.059591878104047
511,13.841784529494255,1.287909488969618,6.98195240167169,15.63706532946098
512,-0.28308248287473187,0.6909954025074505,-0.3292371804004084,-0.22682927798551034
513,-0.8299349382977413,1.5301373263652414,-0.7565901461480311,-0.677020999131682
514,-1.611938267627171,2.743012710060696,-1.3959837995827513,-1.33777044398248
515,-2.663559845015815,4.333856317196972,-2.2719983088219773,-2.225761571580895
516,-4.02123410071628,6.2759488174603915,-3.3933584811675472,-3.33367046287617
517,-5.6783645111881995,8.51307213041611,-4.752075211426559,-4.633879125523927
518,-7.580944138981762,10.96393278706027,-6.324853639282674,-6.087017471441944
519,-9.661886302353912,13.536248993408494,-8.079387940147656,-7.647003426282822
520,-11.869022346455209,16.144403180613487,-9.987122826310598,-9.260437204302223
521,-14.164216364746911,18.728244025993906,-12.025262842601792,-10.866466054621027
522,-16.506260890971053,21.27525088064894,-14.175875963314885,-12.422385413325795
523,-18.828987019130263,23.740672843962784,-16.383707569037412,-13.922855745977257
524,-21.080149657526373,26.06850161095518,-18.571081748303293,-15.38546061047192
525,-23.235530850830383,28.203570687469373,-20.64284368632833,-16.80338711249259
526,-25.275875346251254,30.107438921264603,-22.49726642181199,-18.137891062264224
527,-27.158790964442275,31.76463011035151,-24.040699756927232,-19.36478603097045
528,-28.842307606563523,33.16582861165921,-25.199281633023503,-20.503884485212435
529,-30.33404195988991,34.28474427028091,-25.922964566252304,-21.591515276421525
530,-31.680979458609347,35.08922904238104,-26.18817889377801,-22.64408234893437
531,-32.90924452634738,35.570204894622634,-26.00042292732834,-23.651631839166996
532,-34.00408400691454,35.74078211873984,-25.38968866892266,-24.585101453012523
533,-34.935793873441725,35.614901736249195,-24.405250826651212,-25.40782809875621
534,-35.695445231978596,35.19904730011359,-23.111815348273968,-26.092822176818203
535,-36.30398376616175,34.49687808691602,-21.58219205631395,-26.62600104956803
536,-36.77599406294446,33.514065024228564,-19.887497622164513,-26.99838970175224
537,-37.10194046046451,32.26004625197678,-18.08596536376849,-27.200520902071506
538,-37.26882098014592,30.75247605300557,-16.225361062290762,-27.23607110420375
539,-37.288086816453834,29.016959983819408,-14.358175257991467,-27.14398274004031
540,-37.19959123121972,27.078427628321183,-12.54243298456222,-26.976729877831943
541,-37.02965987687584,24.957663814241734,-10.830322348985549,-26.76423839989328
542,-36.76202229179555,22.67477370680176,-9.260769855996424,-26.51107619097647
543,-36.36890037592457,20.248668206759742,-7.860974844109473,-26.215796862312583
544,-35.85638485324845,17.69428058774658,-6.652924677860183,-25.889230676557005
545,-35.25485966615058,15.034725718086918,-5.654137275577243,-25.54246919388583
546,-34.575088812913165,12.320493175129505,-4.873716577362526,-25.172281339776543
547,-33.79958544487315,9.622850112583977,-4.312999327308274,-24.764421463818138
548,-32.90047763916547,7.005508302398526,-3.970775991310636,-24.309632981055188
549,-31.849544204558274,4.520615130216974,-3.848410399221287,-23.83400880135104
550,-30.6213787138844,2.225278854592746,-3.9491402736474086,-23.38979758063047
551,-29.189419693498856,0.1772422148903358,-4.270023973674077,-23.00649224999124
552,-27.517603716822315,-1.5810568877190472,-4.796819145921582,-22.672810144134516
553,-25.571706699442796,-3.0304453545148817,-5.505798636051507,-22.366167079832806
554,-23.344118780389525,-4.176511732507235,-6.368442878674358,-22.081664968902803
555,-20.85833023596447,-5.045679730148962,-7.352746155084159,-21.813037202595986
556,-18.165757930385578,-5.674478661084095,-8.419274104153924,-21.51170126384456
557,-15.324225141596832,-6.09312536296516,-9.520825500779209,-21.09521174759119
558,-12.362484596539614,-6.321940659802697,-10.611552229976063,-20.50873058767579
559,-9.298188126280953,-6.38306275940561,-11.658444161251822,-19.758938620272577
560,-6.177049828813513,-6.299252382372594,-12.641685635147107,-18.882714679005947
561,-3.077188236968675,-6.078258699764085,-13.546753495562756,-17.9026013829181
562,-0.08921256556972257,-5.709681364936695,-14.361345269021442,-16.822008043239997
563,2.71068281436833,-5.185110322729517,-15.080046987332835,-15.655346546292671
564,5.275687448727337,-4.522842917904777,-15.707306841816067,-14.446187031482909
565,7.572474168996383,-3.7671101351124294,-16.249620442282158,-13.251052688602567
566,9.547011930681462,-2.9677541070972207,-16.707141883791724,-12.095777136151476
567,11.137852226295,-2.168082482778977,-17.071675385208255,-10.955914309738759
568,12.325877249508414,-1.402618544528274,-17.32512375216194,-9.797814906062289
569,13.142747717379702,-0.7037720463854877,-17.44054740057681,-8.612402366843533
570,13.648257056963299,-0.1120780976895241,-17.389853860900665,-7.398902255916155
571,13.912059123044113,0.3227150685844321,-17.15093544896384,-6.136397473018871
572,14.00101825133406,0.5562451257859251,-16.711085600141196,-4.790825318857752
573,13.971952790570198,0.5642179160533853,-16.07351041064477,-3.3575103394759815
574,13.862671981590124,0.33282499522012815,-15.264615290325542,-1.8797654356425708
575,13.66446249321939,-0.15375902282607834,-14.33087073515615,-0.42295513727061385
576,13.321075074789338,-0.9071568656682544,-13.327262643990665,0.9560115640053398
577,12.789053252098975,-1.9266884304420748,-12.305735246485463,2.21679370966757
578,12.076218955842176,-3.2161158274863286,-11.306484603340044,3.3275575977840273
579,11.207028852778555,-4.80354408639635,-10.3559551729406,4.261005202525458
580,10.171342611199712,-6.725782402382505,-9.467839003907544,4.998494631394386
581,8.940575780721119,-9.00148346264888,-8.644433740981615,5.543027425230242
582,7.5269495202783165,-11.624739930194426,-7.8836845721868976,5.924978245155652
583,6.004137132435186,-14.57678697225598,-7.186305291532463,6.1822430429634805
584,4.477929756173134,-17.828880325464286,-6.5543331566974645,6.333500029538018
585,3.035602643125868,-21.331407731730643,-5.9893672457328355,6.3741002240465034
586,1.7392726412734938,-25.0089228316068,-5.494248107864126,6.305782929854742
587,0.6541347424817712,-28.76070957682726,-5.071525268104695,6.154966599461516
588,-0.15492523590543453,-32.46781393689275,-4.721347173314565,5.950594881868281
589,-0.6415045477144738,-36.01923409819622,-4.444279720205804,5.707697832447025
590,-0.7858184848652144,-39.346716254831954,-4.2434694206086245,5.437278729830737
591,-0.596137413460438,-42.42655069192641,-4.1216099139869184,5.1584334866907415
592,-0.10453510066975069,-45.253375416964694,-4.078761508515544,4.898908623034942
593,0.6517953994121538,-47.82799297255976,-4.114014602676027,4.688708353347049
594,1.6468659799526073,-50.156090689287225,-4.228926943743187,4.544666119352788
595,2.8504735360131876,-52.235712460089964,-4.431266323924301,4.446745824770753
596,4.211845957049608,-54.035577998683614,-4.730628463656316,4.349715095493207
597,5.662240055029863,-55.49480149136089,-5.127290355063276,4.226794342427428
598,7.128486400923304,-56.54733395070654,-5.608970935534905,4.0892613381903296
599,8.554962436911161,-57.14109103385801,-6.153998684084262,3.95968735074541
600,9.90668253098048,-57.25204922710961,-6.736436528845061,3.8311099165523386
601,11.150009855403818,-56.89256900288954,-7.332241292169587,3.67883372101132
602,12.242215898967741,-56.10991195293959,-7.921519398544515,3.5052943504730725
603,13.145338066416548,-54.97505982251193,-8.486714223329297,3.3472368853897616
604,13.85032188596761,-53.5615811428126,-9.01066325653378,3.238718377473549
605,14.378904484691407,-51.938784999508115,-9.47656990218503,3.1807756928460473
606,14.761675976080378,-50.174639528549626,-9.867394120053113,3.1591497351606566
607,15.012761267176492,-48.31937096825559,-10.163364415474057,3.170328608152817
608,15.131585930668546,-46.39322971865522,-10.340158051516907,3.21944935518387
609,15.127316311221938,-44.40653437933591,-10.371468803055137,3.3048909420843837
610,15.017674230388296,-42.38305175782369,-10.235322176433929,3.4064732844582477
611,14.79816658689164,-40.355902710896444,-9.918322184479853,3.492278217597415
612,14.426674413341198,-38.34913642989636,-9.415394795459102,3.5444558662413748
613,13.862580662315485,-36.3754433286474,-8.728107689214593,3.5686740502533207
614,13.11423121194173,-34.45004509218034,-7.867989551729809,3.5631855760095954
615,12.221754347278262,-32.598830803479906,-6.861404401053575,3.5014391961428792
616,11.20233309327397,-30.857457948385893,-5.746781276858463,3.3602016508195045
617,10.042431143554715,-29.266265153059447,-4.566511398803063,3.1535488659404005
618,8.74396499062173,-27.858104398750495,-3.3604969798043367,2.923713725983576
619,7.346147854803951,-26.648923497939673,-2.162846695508602,2.69155284547219
620,5.9005505131726865,-25.640582324277187,-1.0017937667433512,2.446296248546489
621,4.439846407019601,-24.829331673543205,0.0971804896420089,2.1810650573877255
622,2.973186018644125,-24.200197255915914,1.112268530363524,1.9138859683908434
623,1.5126438584723716,-23.70757894307491,2.0332180586685555,1.6759685264360553
624,0.09207622661640916,-23.27252310875464,2.865515480094165,1.4820647788023937
625,-1.2436924693865836,-22.80512700087011,3.6245936598559734,1.3254392076665822
626,-2.4691854812626763,-22.225721484561927,4.3259565007824525,1.194999358728623
627,-3.58576639951513,-21.466192068867414,4.978105831391452,1.0861105344858963
628,-4.5929114943886935,-20.472264991908688,5.581445597297408,1.0024342384136136
629,-5.471811720051419,-19.215139309377708,6.131101357135568,0.9523507878972647
630,-6.207311326319761,-17.76645528497395,6.61659338119223,0.9300051228613385
631,-6.789167870711681,-16.00101959648032,7.019554968952498,0.8952013424377816
632,-7.237313358650594,-13.916717997139942,7.332261141160528,0.8319198253657736
633,-7.564264973767304,-11.591373651945572,7.557074546206945,0.7451873069653677
634,-7.769031147581123,-9.146883384239077,7.6994800421497995,0.6415445958777857
635,-7.859114182997534,-6.7256026823526405,7.766241660999858,0.5229246539746605
636,-7.86416523475715,-4.473057429622518,7.7689475522664875,0.3921138795730143
637,-7.825376528445081,-2.5159349849187733,7.72637528202104,0.2580150401178698
638,-7.771401517771909,-0.9415794464540453,7.663336747992693,0.13369541734471518
639,-7.711675209593365,0.20932724690875487,7.6049907073496925,0.030125060134295147
640,0.06289605975109885,-0.158881299726906,-0.1104378465329588,-0.12759929675945803
641,-0.2057311629113912,-0.1465212716718156,-0.40546805125212193,-0.4379670763749688
642,-0.666234977573812,-0.00866607775246564,-0.8971869181651791,-0.9507931681328269
643,-1.3768194458151504,0.31214071456571735,-1.6154296904993695,-1.7153249038753413
644,-2.39293591065709,0.8734558307605287,-2.5694211295223908,-2.745275526449732
645,-3.7376303051422295,1.723138324268231,-3.7435854098504935,-4.018441432071349
646,-5.3930780875254944,2.8880079827238068,-5.0981551571533075,-5.512983237536515
647,-7.313602321051992,4.359707307402247,-6.573574021068329,-7.206666533135307
648,-9.442752991074261,6.086262799597488,-8.097731741497611,-9.042651543594324
649,-11.719111476106388,7.97967776221521,-9.59936506888883,-10.932161551759249
650,-14.074851311940598,9.932056903877873,-11.02680212978014,-12.797441382747689
651,-16.443998851552895,11.835880114965335,-12.33866250831296,-14.594772314959174
652,-18.781740057098524,13.603792464609775,-13.514441690733364,-16.30845600183935
653,-21.07577373720592,15.185488257834258,-14.546221819946386,-17.91762845410778
654,-23.312262638587573,16.566919863038244,-15.432574621757517,-19.382434695971455
655,-25.43650524548586,17.746607667855823,-16.183451898347677,-20.665033374158668
656,-27.379017710222094,18.728017341484172,-16.821371173414025,-21.762288200917038
657,-29.115631035306418,19.53244265339203,-17.37184671933431,-22.70442292980981
658,-30.678619348618145,20.204610025348245,-17.853821841255424,-23.526841719811703
659,-32.09618514527877,20.805662899708828,-18.27567746782842,-24.246143069952947
660,-33.34941910963878,21.39652388638709,-18.634136561950363,-24.868795310693603
661,-34.40362167161527,22.025106623539582,-18.919016018062752,-25.42294507645513
662,-35.2549047914907,22.72425898178205,-19.120772483401595,-25.948198288513648
663,-35.935107234323894,23.51186306364305,-19.233167428117095,-26.446293935084313
664,-36.47666445654953,24.396425792914908,-19.25237494455135,-26.873188405524342
665,-36.88189043458267,25.390206854349046,-19.178018470842414,-27.19362172050176
666,-37.13074327003428,26.50332475417973,-19.016596244806344,-27.409978921259498
667,-37.205407977957556,27.721279885398282,-18.783123640825654,-27.52602741048208
668,-37.09417396209953,29.011088273890532,-18.49730969550061,-27.517512697501253
669,-36.78199315167799,30.349445482635126,-18.17525250476921,-27.348638517082563
670,-36.245926846555584,31.728829939871947,-17.82492862169026,-27.00717176298238
671,-35.461097462546945,33.14680636442516,-17.447824198862108,-26.514766057995416
672,-34.43742752697665,34.5988733669668,-17.041561548206445,-25.908561015173312
673,-33.23538574022969,36.07698254384012,-16.60179381744441,-25.21111757194799
674,-31.920854167108565,37.56763555297052,-16.127080245908807,-24.417211408646043
675,-30.532739887395323,39.048942964021535,-15.625153723265166,-23.521226216164933
676,-29.093237169935918,40.49986148620614,-15.110165707210738,-22.543358810045767
677,-27.6322290731771,41.907691240975836,-14.592723600646115,-21.517640222914896
678,-26.187801802485314,43.26017643285381,-14.074439348185262,-20.45773356766524
679,-24.781170893839523,44.5393032637821,-13.548922232804774,-19.35108812265598
680,-23.408343453826422,45.725161955911204,-13.006460424398691,-18.19341988961947
681,-22.049681335572355,46.794381718000196,-12.438903025695472,-17.009530580975216
682,-20.689301561021523,47.710219073233,-11.840802199511982,-15.838069767157338
683,-19.33188178728894,48.424138546568436,-11.21003827447068,-14.705297677354634
684,-18.00437552176108,48.89875608140902,-10.546990751151652,-13.62319230112598
685,-16.741932181925698,49.11859430390583,-9.852127037449945,-12.605122829835537
686,-15.55550632683348,49.06133028593728,-9.13570889953478,-11.673021651166435
687,-14.438053998250943,48.682267749326606,-8.427644603682259,-10.864362560118082
688,-13.410060476386871,47.9352277155412,-7.768132493312236,-10.218863034010974
689,-12.512962051952858,46.78591658470069,-7.191750300164645,-9.742523837095089
690,-11.762136513699982,45.21516531794679,-6.71935433382785,-9.39798554331586
691,-11.138319961909287,43.21943961069115,-6.35984545314329,-9.138364100595211
692,-10.612119457216814,40.803369040021266,-6.112802214486164,-8.936924374554684
693,-10.152372650023281,37.975036474705746,-5.971134723570715,-8.775817753217256
694,-9.715335995792763,34.75063340723476,-5.927029082331552,-8.634546323939112
695,-9.236092895944518,31.167082407889314,-5.97103912071449,-8.494820822552228
696,-8.636867531468187,27.287891388394584,-6.0881540107483305,-8.352658997114071
697,-7.850378500605285,23.193700005817796,-6.262471924540295,-8.234108612931102
698,-6.842274690910443,18.970934903442913,-6.483196411339973,-8.174215913130507
699,-5.614218677735899,14.709662859848686,-6.742362913542926,-8.17942018009585
700,-4.17523678635142,10.502460219731768,-7.029431136592063,-8.225202998513845
701,-2.5165888133114698,6.430731274406757,-7.332284629010723,-8.278550353215648
702,-0.6353821605510845,2.5463072343757625,-7.643769724801582,-8.319058145026046
703,1.4178816376456986,-1.1261916590004963,-7.958548932370779,-8.335955048588346
704,3.53432698714293,-4.571020772649755,-8.259715820993359,-8.308011596755945
705,5.609623956344164,-7.779763625711834,-8.519435888513163,-8.208027607586903
706,7.589420424194263,-10.75936942661003,-8.711301362172987,-8.032798825404651
707,9.44041874205152,-13.530677931745869,-8.816265321819417,-7.8064106165809575
708,11.119645771122213,-16.123946000212317,-8.824239860048062,-7.554915979618959
709,12.573636180283557,-18.57180892129102,-8.7339716807469,-7.281493658609484
710,13.752889928770385,-20.90042880988658,-8.550999460081604,-6.959858231638537
711,14.635514913074749,-23.123712743334423,-8.283663939844738,-6.564169286088456
712,15.237762911694242,-25.24287059777893,-7.942891631390188,-6.09522805451477
713,15.60147648995543,-27.248540730325335,-7.544138480426449,-5.567717726744932
714,15.770450080404423,-29.12105503652674,-7.1027520572705445,-4.982640159614037
715,15.782199522099344,-30.833485046933927,-6.627076098879765,-4.328114388867857
716,15.673616012707555,-32.362325813003785,-6.116453831130355,-3.609417237906971
717,15.476182474077014,-33.70153508645654,-5.566474016702804,-2.854523681395792
718,15.1968335984971,-34.86641562711168,-4.97431288728412,-2.099177772296732
719,14.815633182661688,-35.8818833712235,-4.339496410764096,-1.370970362701024
720,14.32091684751142,-36.76667736388361,-3.6649032384165587,-0.6755763680056531
721,13.732014781030658,-37.527502517416,-2.9585635937807524,-0.004787375548483096
722,13.075884540319144,-38.16999329205041,-2.2359745139347686,0.6411188417366862
723,12.35374119162743,-38.71335985203785,-1.5221405947297248,1.2314765493638085
724,11.545125197329432,-39.194101759748875,-0.8480459428364734,1.7131905781789791
725,10.637787109446661,-39.651749132558656,-0.24237999168778207,2.04044255731162
726,9.636344014955139,-40.10425700042061,0.2759859670805669,2.1885415398448314
727,8.55413251334135,-40.55477869948371,0.6994284686851212,2.14454954716765
728,7.40312634536149,-41.0219587208471,1.0266656014521174,1.899955232534172
729,6.180150395775781,-41.53855537031181,1.2608406098186944,1.4693829268506342
730,4.862086719992888,-42.12736025046585,1.412755503043262,0.9007624566716415
731,3.4311616750611047,-42.78835614662292,1.498007118114144,0.2663409392192208
732,1.9060307142967212,-43.5046224029324,1.5262003744145962,-0.35699940930062846
733,0.331949136774521,-44.2576074804267,1.492557378099063,-0.916528807182154
734,-1.2436757121259514,-45.02687238071944,1.3838999065287612,-1.3832348232075613
735,-2.7806473000605587,-45.78085209250119,1.193434328911394,-1.7272728589807804
736,-4.235023490739318,-46.47863470700387,0.9240360157164877,-1.9140072962462538
737,-5.538530450333001,-47.079547648629664,0.5838476526504641,-1.9316081786236738
738,-6.61554910458802,-47.549524611179436,0.18575329532799933,-1.80842235432963
739,-7.42048527008351,-47.854981294550676,-0.2510256540640425,-1.581852127737324
740,-7.952902320032493,-47.95389763092055,-0.7003052828294477,-1.2584391215083022
741,-8.241894861143654,-47.80023828887131,-1.1343319790843365,-0.8188826391748643
742,-8.313552183071769,-47.364728703795166,-1.5339699893748437,-0.26070168130255034
743,-8.181151494851177,-46.65867421345593,-1.8917464635128827,0.3774030289962479
744,-7.867129955790206,-45.72179692320826,-2.207261199546807,1.0392339954843728
745,-7.42035655611772,-44.57757246260866,-2.4822437596132803,1.6927922543624736
746,-6.8864860294211585,-43.226806583734714,-2.7167085536237496,2.34358115693252
747,-6.2668967302038014,-41.67924717492426,-2.9075873833960033,3.0055447186568833
748,-5.532332494683961,-39.96454691601808,-3.0492140645753643,3.6703004186455446
749,-4.674636338509432,-38.11798293726721,-3.133803352070892,4.315283676915376
750,-3.73243878594448,-36.16260852515073,-3.152407609358354,4.9354718433208795
751,-2.751841989674459,-34.11527654241381,-3.0990960609748304,5.548269244812477
752,-1.736434941275022,-32.01176669035225,-2.9763679362286735,6.1663480335665914
753,-0.670749328086434,-29.9111065490108,-2.7951151514437784,6.780646319404075
754,0.41865014255774236,-27.883917954280843,-2.5726442857848104,7.361704802553063
755,1.45692368115524,-26.004048451938736,-2.3291367126877076,7.882603648064676
756,2.3826047535747095,-24.339418959403602,-2.0796453345925916,8.340280144617068
757,3.198943094553162,-22.94048642400795,-1.8290711204517789,8.739285322117016
758,3.9845745715376024,-21.81532752979662,-1.5677438648822117,9.092099256342966
759,4.694743277867024,-21.01602212738884,-1.2991211829260965,9.350124691533749
760,5.279629177838902,-20.53862613106319,-1.0293555950410407,9.50813165020799
761,5.712300051268105,-20.337419058152875,-0.7680687171054699,9.584555240491204
762,6.000430548753892,-20.354135882421414,-0.5267554671133333,9.5894671682241
763,6.170492399108962,-20.53169298373013,-0.3155578142522555,9.518595121826525
764,6.2373094584254485,-20.809225853639834,-0.14273027535685812,9.37562426399535
765,6.20590173216285,-21.12372472446255,-0.014001836516017878,9.188505006931399
766,6.100661463199209,-21.4205819347783,0.06954747162228804,8.998289626485336
767,5.97078353203174,-21.664461017373352,0.1118445507646188,8.832537686720153
768,-0.18765937433905377,-0.42960867638694733,-0.6244461971126832,-0.6170366519916204
769,-0.6736786468640255,-0.9033016302259412,-1.3023314023057426,-1.2801407268313676
770,-1.3960753572610705,-1.54819207801078,-2.2392119294833432,-2.2177042110158807
771,-2.370389739348629,-2.357466943472292,-3.430110496134516,-3.428246558700907
772,-3.588120274726812,-3.3055234126409756,-4.851135736631069,-4.8643641132313
773,-4.9981480941490055,-4.3419195386529585,-6.462531342252137,-6.447211486312493
774,-6.511482970993463,-5.397863287111482,-8.211727824228618,-8.086073094409713
775,-8.029671815223608,-6.397367467957999,-10.040242601526696,-9.690975700852768
776,-9.473617121757508,-7.263910359951228,-11.892637501567549,-11.17517196637914
777,-10.791440550332561,-7.92523775855748,-13.7264247640746,-12.462560702603586
778,-11.950545164796196,-8.335168840491386,-15.533961369447473,-13.523333586947698
779,-12.932075315753147,-8.452115453659978,-17.284603219837425,-14.340388249276293
780,-13.735231557395338,-8.242936317311587,-18.946145909783894,-14.931645743867406
781,-14.376009021476946,-7.682051365105367,-20.482258079829727,-15.330672133212975
782,-14.875421786823697,-6.772263744497253,-21.856388951100822,-15.563570508825881
783,-15.242692873866758,-5.553744828027418,-23.039381075316413,-15.656619477687181
784,-15.484621239450755,-4.0936863365530645,-24.015243467289434,-15.658965161524378
785,-15.622670206991135,-2.4739092618960914,-24.78081100100778,-15.624256950961884
786,-15.693793226031673,-0.7776013290695006,-25.34096222821405,-15.570592937369714
787,-15.73071629579924,0.9279713270406862,-25.70426365853472,-15.477951462806926
788,-15.733110725412848,2.604605985769998,-25.87822296219075,-15.328043852712149
789,-15.679405336672707,4.235612046177781,-25.869166527931146,-15.128363327817903
790,-15.568903954063048,5.806059293724264,-25.686171587720697,-14.891542543110958
791,-15.434839050978033,7.298138950383915,-25.343798738661807,-14.612019888529103
792,-15.309065708131968,8.694661571296411,-24.862795621537117,-14.271579393784398
793,-15.182881912669604,9.969073900206745,-24.269913201467602,-13.866926298732595
794,-15.025060385722215,11.069281006634084,-23.598938208581952,-13.431743112816411
795,-14.832756050300567,11.930024605958193,-22.886325321628817,-13.017607210354088
796,-14.646907582465817,12.508351230021436,-22.159498643452125,-12.649392666980662
797,-14.509861055206668,12.793145242276879,-21.431130742651444,-12.312838547682656
798,-14.425527551433522,12.785747489501418,-20.705937384595604,-11.988857853530984
799,-14.378745318890841,12.49182412653381,-19.98716246969483,-11.689523601162854
800,-14.379527299479673,11.936304672880075,-19.277679755773455,-11.448166089557816
801,-14.471834310115883,11.171248165447471,-18.57979954627127,-11.279760388098058
802,-14.694530781597946,10.27134463121654,-17.893970712809,-11.177935573175683
803,-15.053988380920087,9.327947990180382,-17.21818873941287,-11.146467535106769
804,-15.538855357756244,8.430313720613604,-16.549042010337434,-11.202846978349369
805,-16.147673820888578,7.643836582571733,-15.88565908594311,-11.357228835496896
806,-16.886983256144642,7.011467468088786,-15.230903592872442,-11.59730919948957
807,-17.736290605600995,6.567760094070682,-14.586117051929577,-11.889017344380699
808,-18.641154496244397,6.339057644229135,-13.949431346039676,-12.202484702509546
809,-19.53699571625925,6.333782065348782,-13.320133314737793,-12.52818728030467
810,-20.37954327786771,6.537866166190269,-12.703360607742349,-12.864010841774112
811,-21.156072532326707,6.921467506415307,-12.107529233519278,-13.199534428946365
812,-21.849953879936812,7.447238884212544,-11.537121242421163,-13.510419366941823
813,-22.41729550437666,8.068140539606523,-10.994137052911766,-13.76481505289748
814,-22.805581234532124,8.725334376670311,-10.487264739225493,-13.942645779583229
815,-22.99335688650303,9.352614893414001,-10.036683416609083,-14.055919797589876
816,-23.006005324265097,9.88306572881138,-9.666908537893393,-14.13076105510627
817,-22.879442256840957,10.253790732711117,-9.397828498299235,-14.175183646514583
818,-22.629097969727912,10.41026091226673,-9.239740711020739,-14.175538975128841
819,-22.25102505369701,10.308570289361253,-9.192790711826143,-14.113925293735317
820,-21.7411814813282,9.910965632158815,-9.251754736462797,-13.995401418018544
821,-21.111774137053633,9.189557857836512,-9.407125910839843,-13.843312108923223
822,-20.389007171709252,8.144686552916292,-9.641221404338653,-13.671005353925125
823,-19.599213011804583,6.813732800474399,-9.927571918627107,-13.475176018538974
824,-18.758418970353514,5.254035633922382,-10.236992950425835,-13.251450479765682
825,-17.876445041778275,3.5230393362732126,-10.542321157708773,-13.011108643027958
826,-16.962983945659833,1.6729903740853618,-10.817359158051953,-12.765216322569945
827,-16.03092739989676,-0.25258139825106163,-11.032167215641062,-12.495547221641639
828,-15.075312854806485,-2.228662370513961,-11.153927317725275,-12.1534098188092
829,-14.046617117014211,-4.256602820038908,-11.15941047276915,-11.694161380853474
830,-12.88614418158408,-6.357178054338858,-11.041837593980981,-11.11826258227132
831,-11.576259819420283,-8.553919331087585,-10.805255199664925,-10.457432408280926
832,-10.143788430443486,-10.861180568538291,-10.45850165147656,-9.720879269860957
833,-8.628485811166849,-13.278212340676555,-10.014143005838697,-8.886783361478342
834,-7.0590556970942675,-15.785874020937742,-9.492556520441719,-7.957517199996968
835,-5.471250547236805,-18.35045428021963,-8.92515556214765,-6.996948099501418
836,-3.9317469993689182,-20.930857511427412,-8.348122989306646,-6.092255714407831
837,-2.5368630239651875,-23.47289314612318,-7.788872533592812,-5.294601415547006
838,-1.376442625809964,-25.90219072379646,-7.264026162283648,-4.616821835447308
839,-0.492701264225767,-28.143670584954826,-6.789355427592521,-4.077459954176001
840,0.11796027669151424,-30.15166615422252,-6.38353188569451,-3.714340824878609
841,0.47139677113283623,-31.906108168414693,-6.063036900770784,-3.5538994426784063
842,0.5638699535683627,-33.390155626569964,-5.838118330137504,-3.579622844819474
843,0.3912873613118599,-34.584369641566504,-5.713650051330438,-3.7311309902283476
844,-0.0014201199063232917,-35.465044151286456,-5.68938529449097,-3.9503596392279654
845,-0.5356881735062548,-36.010197663494885,-5.759905926480566,-4.222341531430153
846,-1.165142960630173,-36.2146046903695,-5.910889088559737,-4.552135789007032
847,-1.8851574381400567,-36.092972981294714,-6.113619953454418,-4.920096428054074
848,-2.678502575347556,-35.66909188991248,-6.328478822841871,-5.28085087343811
849,-3.49452855333173,-34.960099892475604,-6.514506581378056,-5.609399767226564
850,-4.281311713878817,-33.9837024385701,-6.639613331239436,-5.930078155868117
851,-5.019809932708524,-32.783615789788655,-6.686659277065523,-6.281668670394891
852,-5.722273129735696,-31.424321591060085,-6.6518581143452575,-6.665398931001986
853,-6.395741440010609,-29.962309274363562,-6.543065162775625,-7.044834939454141
854,-7.020683633366316,-28.437531265657558,-6.380085633975391,-7.387386595820474
855,-7.562495625012444,-26.885293412686252,-6.1869279781689945,-7.675115092686813
856,-7.998104383614134,-25.33340697249452,-5.977944766169595,-7.884542429051335
857,-8.321741895878018,-23.78222716120155,-5.751010897772851,-7.979805313451841
858,-8.514840101898388,-22.20352891156818,-5.488305214090633,-7.922723614419356
859,-8.527200510907608,-20.55896041925289,-5.164357027575846,-7.690900479364399
860,-8.305582886062341,-18.810800771674998,-4.75950545632453,-7.290620295113414
861,-7.848265856933617,-16.928978872731406,-4.268260897055213,-6.757321002326577
862,-7.210596989691416,-14.897763260753722,-3.6975902967929497,-6.12650958377141
863,-6.445439193783017,-12.709145131897996,-3.056789595942272,-5.409176667385158
864,-5.572553514782159,-10.36086375330177,-2.349654940482939,-4.614320116450403
865,-4.6007084462549654,-7.8693328612446765,-1.5777787965393,-3.768245484831738
866,-3.549953859582096,-5.275628591895862,-0.7479807758902821,-2.9068502067402187
867,-2.4562493070466505,-2.63756644124365,0.12617639857882787,-2.05629699858203
868,-1.3653607737785851,-0.010393039853262342,1.028935424719365,-1.225394593438383
869,-0.3139415375258353,2.562889319524809,1.944012242700801,-0.4212286010135563
870,0.6954599150832466,5.038494822542081,2.852724114113635,0.33916795202121913
871,1.6812452307193124,7.364749121512592,3.736107746257442,1.024528534923515
872,2.642646906362648,9.497495611497254,4.577330443661132,1.5982757290388534
873,3.539009805890394,11.418327201994822,5.360650056135675,2.041276317761311
874,4.313511904148663,13.121525179903315,6.069808399705464,2.3628204002891318
875,4.937769986955621,14.586986081397354,6.687522305424788,2.57925237538054
876,5.405219967750102,15.773242097333531,7.19894453003918,2.6821750710283947
877,5.701412091105697,16.62469661399022,7.598356322648527,2.6473181884147943
878,5.806072681672271,17.086845822982323,7.8911505135612545,2.4752594315662417
879,5.710570201416516,17.11949494145198,8.08688845298431,2.2090689342773087
880,5.426370056420085,16.70160259323505,8.191021975836447,1.888033211609477
881,4.9705462660555595,15.832255626616597,8.202629670672328,1.5004152793972276
882,4.354975204251112,14.533542550054797,8.12056936562161,1.01023670715402
883,3.589728668845091,12.85793044128542,7.953586709895203,0.39806702971164587
884,2.696586126015818,10.890637253214758,7.722489740931889,-0.32988534306519957
885,1.726378283313835,8.73620852251333,7.454244275221896,-1.1574640972938248
886,0.7684360704711659,6.538677699346453,7.159059157074144,-2.0983122610290326
887,-0.22140103025599556,4.268028858801525,6.874338222634477,-3.14015795382124
888,-1.268437711625505,1.9652931464641732,6.6284863540546235,-4.227184219649886
889,-2.347482764264174,-0.2968913142259278,6.437561545179572,-5.2819810336173765
890,-3.387911231481766,-2.448718820810245,6.306595477027474,-6.242816210760006
891,-4.320437914059064,-4.430400773681079,6.232986931604075,-7.076080221257564
892,-5.116877857533806,-6.18183091964719,6.20872953342893,-7.7591118004535975
893,-5.781725020124543,-7.64881011494673,6.222095332466172,-8.262804785734337
894,-6.310267825480872,-8.797593959046546,6.259977928582859,-8.566141232049485
895,-6.686546014915282,-9.619114349931873,6.309558786333436,-8.692290332149355
896,-0.05508342353945042,-0.21446174970582568,-0.16749708427829313,-0.26600161190794286
897,-0.3517986372539828,-0.4698236451671479,-0.4179565700443315,-0.6454279402246736
898,-0.8165470448950644,-0.8344761674195456,-0.8040653371681219,-1.2226370092296635
899,-1.4835113939104323,-1.3021857423140082,-1.3439239315400369,-1.9962387597515363
900,-2.350296268636308,-1.8462233123284422,-2.0419490283527884,-2.9334677307748187
901,-3.3728654591230636,-2.422694239317071,-2.889334313487579,-3.983441526350102
902,-4.489461960671183,-2.982928359384264,-3.8654377190722014,-5.093322621002594
903,-5.647444574027054,-3.4791084130738725,-4.941227531185416,-6.21521304189236
904,-6.811387126178449,-3.8640552595693234,-6.079735328125663,-7.303457142768394
905,-7.9532004062296355,-4.099136233390527,-7.236247640919978,-8.319060389543077
906,-9.051170459465103,-4.168317661323915,-8.37313906394647,-9.249959330870714
907,-10.1069327775442,-4.05629385558371,-9.455014546804275,-10.096201488630019
908,-11.147530262756844,-3.75984818021475,-10.458255744172856,-10.871191377574945
909,-12.196557071059301,-3.2892714270929693,-11.369732445965463,-11.586770043683028
910,-13.259963395045204,-2.6595134426159364,-12.185857878430339,-12.254135249275611
911,-14.33935334212125,-1.878919644763176,-12.912695816649286,-12.89638745487039
912,-15.446564583966742,-0.9576164354280323,-13.56701034523026,-13.551649337165792
913,-16.597595589115592,0.07045474858585798,-14.171598520536724,-14.246179051735664
914,-17.79206569756958,1.152232350748716,-14.74133555234508,-14.977250802288959
915,-19.007314388226252,2.23781146254017,-15.276910361149543,-15.73297540672604
916,-20.209059388577504,3.2818206473461498,-15.77578320944545,-16.51134480471918
917,-21.372961766733464,4.235627811317924,-16.241244863215442,-17.32819321181899
918,-22.49911727282101,5.053917102700137,-16.68005865533038,-18.203252335032456
919,-23.611084313223063,5.710374393563903,-17.09936776750688,-19.134771631069874
920,-24.73336088953405,6.200322039070416,-17.507615433999636,-20.095402120337056
921,-25.857054536826503,6.5289203730558185,-17.919504395949083,-21.055263208528324
922,-26.9511824661669,6.706591389193848,-18.361983795284853,-22.007509258963328
923,-28.00026557880103,6.751804782305348,-18.865841759627866,-22.9621802028017
924,-29.00918264174846,6.690540787224624,-19.44651108076073,-23.918299435352466
925,-29.970127002148985,6.549765334170044,-20.09587690859131,-24.839190963276153
926,-30.829823578783703,6.349990541211425,-20.78797288959883,-25.669792060643683
927,-31.505933720334635,6.099199076405292,-21.487884046636953,-26.376807431592084
928,-31.930335281349077,5.789463861055628,-22.15440763539989,-26.94010607335524
929,-32.07440661069288,5.4144594164167685,-22.73812122341011,-27.32003466347478
930,-31.929162040880374,4.9950487934882855,-23.184409958861693,-27.45627103529394
931,-31.460982046118097,4.574628050676548,-23.446153281974905,-27.30263516627576
932,-30.621387139402085,4.1921317731824566,-23.497802591682248,-26.85336663046071
933,-29.403984608075046,3.8783138069274496,-23.332268340514815,-26.126523489016666
934,-27.868097105343832,3.6734901938202724,-22.947334217114324,-25.135491196590003
935,-26.091455906390095,3.628314205636956,-22.34587736610626,-23.88740544795401
936,-24.105547339796075,3.7765381832906786,-21.54536751312663,-22.40781914477641
937,-21.912895882464245,4.1070930657598455,-20.58056842963104,-20.74458360840908
938,-19.557101967814187,4.573808164416806,-19.495192653772637,-18.94841193789806
939,-17.129262602963,5.121050752510008,-18.329765226240823,-17.053710339428175
940,-14.704498720629994,5.699469672510202,-17.118259361454623,-15.070473273922945
941,-12.30385224747296,6.279481815782425,-15.893272972191417,-13.013825452244296
942,-9.927114661602662,6.852341564412675,-14.68919076171362,-10.937498039226172
943,-7.600285277120095,7.420582488730272,-13.538848473760996,-8.9175093778512
944,-5.375965046145556,7.996963528862691,-12.464604003846782,-7.001595309322814
945,-3.300347155170763,8.611084077253029,-11.473774916521375,-5.200849899257724
946,-1.398893445286336,9.299770723335214,-10.565598430637058,-3.533524915137753
947,0.31281801038136003,10.082714348154669,-9.73741567291019,-2.038746079239621
948,1.8007720454738916,10.950738678282711,-8.983682568405483,-0.7491259862710516
949,3.009397409576051,11.87276083525429,-8.294137731171256,0.33205500835334517
950,3.910383940072983,12.806354966544829,-7.657956549127837,1.2288150859222544
951,4.525789960044821,13.696170196884388,-7.071554597474162,1.9719784731399472
952,4.895712226923495,14.471779862439732,-6.5401706994465245,2.581086010433289
953,5.034739912926911,15.062582874739839,-6.073516078854793,3.0531379507621845
954,4.9289174893655705,15.422739716562152,-5.682705358413602,3.3706808838984843
955,4.572736916096427,15.534730062394072,-5.380039817542677,3.5226745250864124
956,3.980681552680479,15.39174737769549,-5.179702742609591,3.5021812327754835
957,3.1721825214094563,14.999348728224478,-5.094447311926013,3.284733434359232
958,2.1558237732411087,14.37533174016449,-5.12882828212033,2.8272041183745
959,0.928362157486095,13.535999803490578,-5.277178202893051,2.1010117862774846
960,-0.5059449379563292,12.502643949643419,-5.527174683546835,1.1117560674715066
961,-2.1188818584443148,11.313248959589307,-5.863444850292965,-0.11824932603770716
962,-3.849235894937423,10.006476576638697,-6.2691870053231575,-1.5696240392091076
963,-5.618488367503536,8.601995722627038,-6.725639908055537,-3.2266093469381802
964,-7.365049984669195,7.114273731995837,-7.211265559850782,-5.060392461796892
965,-9.051748967688924,5.571526971402805,-7.704278004878422,-7.013226281425136
966,-10.640114993686945,4.015670477446776,-8.184254255461914,-8.994313629877242
967,-12.074314403591332,2.4884964568038557,-8.63422532951584,-10.90435454576497
968,-13.309578964272507,1.0263440381142668,-9.047073564413422,-12.680053155671654
969,-14.342799002068647,-0.3243387812594885,-9.421393681725721,-14.291094603662387
970,-15.198599906748283,-1.5006807591888012,-9.7472596216326,-15.697824721180861
971,-15.895596296559878,-2.431583417281634,-10.004973409688908,-16.83902591701501
972,-16.428006974809705,-3.047362551317115,-10.176598693837521,-17.668950819342786
973,-16.775287488098378,-3.2921603192608955,-10.254277248427034,-18.194290238057288
974,-16.927217959522288,-3.1366604967680503,-10.239239957956213,-18.44747810855677
975,-16.90049330132605,-2.5757257042850705,-10.13678441317018,-18.443098719806134
976,-16.715526000378407,-1.613685442367278,-9.952068880079702,-18.182436305327915
977,-16.358012058861156,-0.26647531996171747,-9.686093902347691,-17.68111453423491
978,-15.794145208943835,1.4229629007736828,-9.337301307132531,-16.979430497999537
979,-15.021004729316308,3.3922861817384034,-8.908455371242875,-16.123162843844888
980,-14.084747244779066,5.58707370210346,-8.407886134143176,-15.145561200471267
981,-13.046872820707385,7.961822686897117,-7.844274180420897,-14.072639546186895
982,-11.95144300611679,10.454833524376372,-7.223999423477498,-12.94349407897712
983,-10.834068263620308,12.982654114086692,-6.552432450830843,-11.823817116321372
984,-9.744323910802047,15.46099506343753,-5.834356662027316,-10.780888938135735
985,-8.74686461809045,17.827097771393163,-5.070552242953246,-9.830555304944095
986,-7.8823851715568765,20.04343188396094,-4.255891848712974,-8.926327002683177
987,-7.138138486913113,22.08744858328988,-3.3856618940985896,-8.019569902733226
988,-6.475322617520586,23.94308102971868,-2.460463964712417,-7.105222937421319
989,-5.86673572451181,25.592427133252915,-1.4850012913059039,-6.197935055585938
990,-5.307239473645368,27.010696871254577,-0.4678582891292937,-5.290007756631305
991,-4.796154428495781,28.176496484994658,0.5776652931117223,-4.356579037084064
992,-4.317628489452679,29.087223738850078,1.633268173810223,-3.4021446035687353
993,-3.852602063518784,29.74996426880413,2.6754048663975354,-2.4730235975859194
994,-3.4158924451642356,30.160597367855807,3.6747607574072494,-1.630951062449385
995,-3.0604010853239765,30.308503603050944,4.600093476073979,-0.9293412914233747
996,-2.824962270272974,30.193242370418673,5.42715767771431,-0.3989676714534683
997,-2.6988698179933746,29.824473003832622,6.14255635312347,-0.04545257603047783
998,-2.6442563265723757,29.218409570073447,6.7385527363783915,0.14222248570508877
999,-2.6354134133677127,28.401724116063754,7.207603549388613,0.17606261265382153
1000,-2.6637284242864188,27.413616353170493,7.5439025442911785,0.07783723400665611
1001,-2.7152700602008433,26.30093873230705,7.745288462100332,-0.10652815689516287
1002,-2.7623501021418755,25.105367937686722,7.811593218980107,-0.3299894561689042
1003,-2.7720709502934913,23.84989534475675,7.740236321430806,-0.5702997908062852
1004,-2.7309499295885495,22.532937856172417,7.523211785711283,-0.8231543241098127
1005,-2.654050216448301,21.13951719196546,7.156637507589749,-1.0702246982224692
1006,-2.5595128416767574,19.660482770839824,6.653563554703352,-1.2688216697109829
1007,-2.447817078736873,18.10414179831563,6.043520525886484,-1.3716836971226156
1008,-2.2942872862103245,16.48713757835513,5.363525093394141,-1.3437821187154009
1009,-2.0633749756371587,14.808229105901859,4.65196814562192,-1.17130182103479
1010,-1.735358149337261,13.058439496370529,3.947525494406638,-0.8539784239552575
1011,-1.3162957153768606,11.26183298563808,3.290875763944231,-0.38482775031712024
1012,-0.8183854316658802,9.474235594039058,2.72417098722823,0.2574783012680639
1013,-0.23201069085710407,7.749425871638483,2.28510146813328,1.0853788798348336
1014,0.4045086252667017,6.151215756286515,1.9708028696468451,2.017247456429941
1015,1.1717253077069998,4.681049108147301,1.8507215566878963,3.1126282207678626
1016,2.091538559145027,3.358684859255757,1.9485215209623545,4.378454263626884
1017,3.1509297653028847,2.204399743551328,2.2508434491770934,5.782707905527354
1018,4.3074116993387515,1.22734713542808,2.714662383522343,7.248705008360598
1019,5.495098459248915,0.422601127811457,3.278615532551193,8.675390882794733
1020,6.634422563055322,-0.22107535699725778,3.8759113164998147,9.976963675072842
1021,7.649921787225954,-0.7120458940603821,4.445782333021313,11.099409135584922
1022,8.49358516149295,-1.0593024185160138,4.939862315523064,12.011001511228534
1023,9.14751553453615,-1.2845526710604933,5.323123418441899,12.687070625110271
1024,0.3140929546599068,0.4634982558354006,-0.11032509511429978,-0.1094854188147716
1025,0.3377557682798912,0.8318427031701553,-0.35093546685913724,-0.16423970052575293
1026,0.30002097228825036,1.298612955212783,-0.7297159720974306,-0.2676277021491868
1027,0.14181451058172745,1.8631719852499073,-1.2515574564737673,-0.4426752464393426
1028,-0.17320163736545152,2.5299225717559897,-1.9099315871745273,-0.7105270585557315
1029,-0.6489918365591715,3.3037101636567163,-2.69181704246849,-1.1053412805546226
1030,-1.285932357533909,4.1837663248776344,-3.5811649036610045,-1.6731379333143863
1031,-2.105237751489822,5.15966003119096,-4.561589206569955,-2.4540174205589453
1032,-3.134451270010296,6.216153767985244,-5.618662740649053,-3.4639598079257015
1033,-4.367601754050759,7.3452472533938,-6.744614110887467,-4.698558386949447
1034,-5.755688292967303,8.549869574918247,-7.947784339693513,-6.156763985856398
1035,-7.286057892621949,9.778154082885333,-9.237582337900317,-7.8333271296659035
1036,-8.982890824022112,10.943433650702586,-10.616266294255531,-9.686459761653024
1037,-10.850568170995206,11.95196964113606,-12.07166683422865,-11.637993805799393
1038,-12.84640861581195,12.7132822739425,-13.581804393949223,-13.619678594658374
1039,-14.90926058299405,13.134270095439947,-15.123500092260315,-15.6016513371704
1040,-16.987414612049857,13.133869946186582,-16.677456400187296,-17.573979759297192
1041,-19.030725619938256,12.674508570731088,-18.22608284817611,-19.520624662532676
1042,-20.95933080543536,11.760608162740258,-19.75015139431985,-21.416327570617185
1043,-22.662922344343816,10.403293963147027,-21.235264602119095,-23.236939400720512
1044,-24.034190265756394,8.607803051437099,-22.67816282461439,-24.96857660513732
1045,-25.01073086175898,6.3876335847713355,-24.07910096504351,-26.612874091783624
1046,-25.578416127953346,3.7760418021059343,-25.433187167277328,-28.16881059164216
1047,-25.732003754079404,0.8268413100387131,-26.728140099979598,-29.613380445162644
1048,-25.452406903974754,-2.393468636750391,-27.945139941415217,-30.9129120759685
1049,-24.724888779695153,-5.815131291377715,-29.05866696143025,-32.03545831665228
1050,-23.580682649202423,-9.368858644639124,-30.033208015147885,-32.946862477785544
1051,-22.112440567190887,-12.9791928310146,-30.828321254935346,-33.59907816581905
1052,-20.449933592453032,-16.548550860679494,-31.412910788098902,-33.938704377136204
1053,-18.720149557701973,-19.947019671632177,-31.77606261369251,-33.94003803885376
1054,-17.019552552100663,-23.03515037294853,-31.92608398750487,-33.621441584130224
1055,-15.42216586152765,-25.70551713608573,-31.879975985870065,-33.03431484212665
1056,-13.995709090735847,-27.888749922788822,-31.655655242970838,-32.23971964965947
1057,-12.810471709237003,-29.53405467506365,-31.271071261602266,-31.294157212651825
1058,-11.925471211401945,-30.608906433666743,-30.743122892388694,-30.24788820952518
1059,-11.353212580598443,-31.109261668579066,-30.09236534493608,-29.15270211427872
1060,-11.056657955294742,-31.052475475116797,-29.35043421276971,-28.07655405123107
1061,-10.979434596193865,-30.468025870763736,-28.548198809518333,-27.084206062171173
1062,-11.072657143746417,-29.408020941044395,-27.700897229056896,-26.184584565068374
1063,-11.29500398411891,-27.957154803941417,-26.807934256241705,-25.3111101562455
1064,-11.597235589962096,-26.223207101369816,-25.854996113890053,-24.375936330754946
1065,-11.938836818435243,-24.314281084560488,-24.816359934193613,-23.33564449119698
1066,-12.315445489187038,-22.33100232792775,-23.660887168500874,-22.18766097110665
1067,-12.746070050104542,-20.37696584408112,-22.360532729089595,-20.93171922134664
1068,-13.232110535463395,-18.554907596997825,-20.893720083100185,-19.558533682873318
1069,-13.725165483035198,-16.953351753553825,-19.24249639679972,-18.072189613365605
1070,-14.154365938276259,-15.640459188209558,-17.39924197168821,-16.51212299789509
1071,-14.493635879539582,-14.650232662168632,-15.372947707667349,-14.946081291569925
1072,-14.771777633252125,-13.956756963287217,-13.18144283182908,-13.445807479832999
1073,-15.023577020645767,-13.480151780883729,-10.849638681391982,-12.066780166834457
1074,-15.26212759067391,-13.13016253047558,-8.414180528763653,-10.8506713950155
1075,-15.488571071185621,-12.826069567106313,-5.925722013528282,-9.836508792170397
1076,-15.709079529595982,-12.488493720749744,-3.44791144411968,-9.055341550094315
1077,-15.9243514254203,-12.04587029621367,-1.0446905483953408,-8.507528013895772
1078,-16.098696234612152,-11.452707396072364,1.2260730624746792,-8.156403421351836
1079,-16.160809309304973,-10.68946057057701,3.304816322333269,-7.969291469023855
1080,-16.035673398241325,-9.754007270052176,5.133909525812459,-7.946733497058147
1081,-15.67279498527007,-8.669528932969321,6.667950237023626,-8.087894623042876
1082,-15.049166250453611,-7.493841411110065,7.879135782027336,-8.341657248221267
1083,-14.145387012006415,-6.3088999306708144,8.760759697574716,-8.620429780888816
1084,-12.937063999508581,-5.1934324544055475,9.327804926805873,-8.859721516701171
1085,-11.422452186399042,-4.215039100171915,9.613717892301224,-9.034500583021952
1086,-9.65566607647565,-3.4471709780217217,9.6630469801897,-9.132327700499639
1087,-7.743842667765719,-2.956710394452579,9.52507586178422,-9.129447739488693
1088,-5.792637281407248,-2.77272053244242,9.247917077266504,-8.990245994950794
1089,-3.8671691560646293,-2.8838230907922213,8.86945505454327,-8.686615222621851
1090,-2.0069087979152163,-3.2539475600286583,8.414805131029945,-8.215149833685619
1091,-0.24537337187016608,-3.833408465671783,7.903077806657605,-7.603376310951719
1092,1.3866980582236736,-4.567251769806802,7.3535025535191565,-6.883962276631487
1093,2.862006453363827,-5.40830091003781,6.790622428739855,-6.066311849721133
1094,4.159766815497686,-6.321909046603724,6.244249368060688,-5.1427415404713805
1095,5.272102368144437,-7.275074997063074,5.743428891410352,-4.111724773185419
1096,6.20439556567222,-8.24462458083916,5.314348004963294,-2.9957940423736034
1097,6.966910798027556,-9.238728723993153,4.9782368405630715,-1.8211418729614994
1098,7.562030148586764,-10.28238444682182,4.744869378083939,-0.5921039547819574
1099,7.9904923366721015,-11.387178742347736,4.61178333533314,0.6980375842708264
1100,8.276747763678161,-12.54359609887101,4.570280287393814,2.0487972426809438
1101,8.456191265653935,-13.727288107947695,4.608504252645535,3.4389756901364343
1102,8.54573492430521,-14.895475299432858,4.710089673422657,4.831123391108899
1103,8.546787271815342,-15.976507033284209,4.857500848655361,6.19733780398329
1104,8.46237258571055,-16.878595100139805,5.039922192485243,7.531544573394983
1105,8.30870274675174,-17.52545075619318,5.248895008044996,8.826190666426488
1106,8.094983842639573,-17.87801069396105,5.4680908168800135,10.044992809827189
1107,7.799866416125821,-17.916552312700993,5.674807432789969,11.136088648937477
1108,7.379146852899074,-17.618256254439434,5.84821943370551,12.066667955951027
1109,6.791088723409183,-16.949948963646968,5.973761868013756,12.829733007660323
1110,6.02903386714857,-15.872758728311213,6.041483693184868,13.416692843645349
1111,5.117032372238427,-14.3583055803231,6.043186021966244,13.80690800639993
1112,4.074115688214581,-12.408667809115816,5.9713021631819645,13.984818218970755
1113,2.9013113810867015,-10.054813383313064,5.81930472502328,13.956999540178792
1114,1.6060437153988532,-7.328270705720262,5.584230037816902,13.758080139021319
1115,0.23504874039662788,-4.258183325287083,5.267686412989527,13.414640488294795
1116,-1.1428174676079381,-0.8995902601529517,4.87005669648834,12.908396339723271
1117,-2.4917244809298364,2.6638613994351834,4.386549963352269,12.20719436847644
1118,-3.8224310457271318,6.350050556556225,3.8141395579704414,11.313787244970673
1119,-5.146072170085491,10.109141162821995,3.158124775594718,10.266395322307698
1120,-6.442778318414338,13.916921739521234,2.425919984787455,9.104714374579494
1121,-7.683437294249607,17.750420729747027,1.6156717139454206,7.849969696266571
1122,-8.867581087583195,21.592152888962374,0.7204407802836408,6.51737282260367
1123,-10.03003047564288,25.445498194924802,-0.25504203724096586,5.145404655509842
1124,-11.195497822168587,29.33065530142509,-1.2896937611293182,3.8045884212842798
1125,-12.342708483873219,33.264943088946005,-2.35579657666902,2.5621063619613738
1126,-13.425838189026674,37.25352251273727,-3.4277901676165,1.451366354172246
1127,-14.41184171340358,41.28931677497058,-4.4827415168865645,0.48535901660957
1128,-15.284163118385758,45.349255296114734,-5.495723212449961,-0.31725525490817175
1129,-16.009670223751236,49.40418082806883,-6.435624906145189,-0.9281237545327751
1130,-16.530580292925432,53.43795627736087,-7.26513312200726,-1.3294643234370465
1131,-16.79839504571728,57.44195377104047,-7.946321864293101,-1.535600436316522
1132,-16.808112558568485,61.40346266043997,-8.44836481297833,-1.5855765617735151
1133,-16.602487837182537,65.31571862564022,-8.748695925466798,-1.5045947508571358
1134,-16.229877184420108,69.17804849540015,-8.831662696132922,-1.2949038196700071
1135,-15.71305698039099,72.96834300155085,-8.694533710287484,-0.9730632755473321
1136,-15.06841111246375,76.61588779329144,-8.348773548759805,-0.5855186682512987
1137,-14.337167159123673,80.01150335280302,-7.813957681459668,-0.19649190582730078
1138,-13.5846506062628,83.04823071861088,-7.116329252101407,0.1344917171610255
1139,-12.86499592375349,85.63219746319078,-6.289289202324897,0.377188967531515
1140,-12.196687809076353,87.66871786589644,-5.371315042096945,0.5253367112456628
1141,-11.572535021135678,89.06572297965715,-4.4009940750563485,0.5801640896660274
1142,-10.989576808907056,89.9972201646875,-3.4290421242935087,0.5435476417782378
1143,-10.457450385028178,89.98695336673937,-2.454518219020576,0.4190564655177258
1144,-9.979341309041544,88.85337050752467,-1.4922987086243575,0.23554626664759168
1145,-9.544285706543485,86.65257054567817,-0.5678860576048569,0.018636651082236548
1146,-9.14279723699017,83.6086549264882,0.28821146655105223,-0.21716200382651354
1147,-8.77921940319679,80.0363267192912,1.0472365661561345,-0.4558771756290575
1148,-8.468616910373099,76.28330066257294,1.6876933406498764,-0.6718068815866989
1149,-8.220959104271127,72.6917042260884,2.200321833458598,-0.8386675229360496
1150,-8.03169180098097,69.55129629517502,2.5868925937353477,-0.9472696030973061
1151,-7.890200695883701,67.06158896414111,2.853409053441439,-1.0119882373122135
1152,-0.12627216409172803,-0.0674988316091196,-0.36376739206519243,-0.8274621622929839
1153,-0.690613336406254,-0.1572041576792526,-0.8528816271275758,-1.685596295848492
1154,-1.5821792039933693,-0.2859695074409995,-1.5765291223003204,-2.8941908968059407
1155,-2.8490340379898456,-0.46701498926092977,-2.553369915948102,-4.4357486264790875
1156,-4.49505295340939,-0.7091856779921891,-3.779845871561766,-6.255203224266357
1157,-6.472530608822071,-1.001556379670861,-5.229953477073254,-8.301865438908814
1158,-8.701507570313712,-1.3153933497021133,-6.857938632883822,-10.532419093605167
1159,-11.094342937601752,-1.6240678930509884,-8.60222714733709,-12.882134467376611
1160,-13.558838201085715,-1.9066680146551696,-10.393652160512433,-15.260133392797702
1161,-15.986742753540629,-2.133028622838407,-12.168433090442425,-17.584120452447262
1162,-18.27655125337271,-2.270760534594505,-13.887829783152144,-19.8403508989268
1163,-20.371165296596168,-2.307984368251361,-15.504402490607475,-21.99990174068537
1164,-22.268307422697045,-2.2444232846750682,-16.972931043244984,-24.006802553125432
1165,-23.97220961113976,-2.0712672916513535,-18.25390731344035,-25.77421080895452
1166,-25.44937597703054,-1.7774759119750643,-19.32312011787705,-27.225270743516187
1167,-26.653684984668978,-1.3642703607528128,-20.17875805939012,-28.320308674282536
1168,-27.580450975264974,-0.8425479303977488,-20.83846534044971,-29.04729042829473
1169,-28.26936068779972,-0.21803854846711784,-21.328202375451024,-29.396214481689718
1170,-28.75726276628176,0.5147257446232645,-21.67449388555746,-29.35438928749353
1171,-29.047575105342318,1.3692788111658558,-21.90388309615487,-28.943739176596218
1172,-29.129890168715175,2.3594057181778485,-22.045121885692005,-28.244879312108836
1173,-29.01474574819275,3.484607620449934,-22.12620740839992,-27.36078106480687
1174,-28.737065765393666,4.7231047873692225,-22.164346836023302,-26.360096700807325
1175,-28.33191318114012,6.051723970478741,-22.159102531698156,-25.268845775907177
1176,-27.817531239961575,7.478619072372101,-22.0949810436154,-24.11699658664529
1177,-27.200569642234672,9.03175411113644,-21.947617758772914,-22.961123535622388
1178,-26.501276676789367,10.713246970369962,-21.690897503187784,-21.848766920459674
1179,-25.75901808510434,12.496976513236772,-21.304328582093763,-20.779232324153934
1180,-25.003230273535138,14.364932047918847,-20.77707630152041,-19.71382265309299
1181,-24.239598804791036,16.313635607209036,-20.11042745739567,-18.61679085841483
1182,-23.466276039162814,18.32102888128595,-19.320227296213034,-17.47496410085882
1183,-22.704965250929728,20.330707677091475,-18.432412888891392,-16.29592588605217
1184,-22.00292771811729,22.272299257126857,-17.473562207177615,-15.102880546765064
1185,-21.392155634167153,24.07761389277678,-16.47026486598684,-13.92791845339209
1186,-20.873647142825185,25.683805652555662,-15.453217521410808,-12.804219385488617
1187,-20.436147379217484,27.041460436573942,-14.455444045362658,-11.771069329863515
1188,-20.072125300750095,28.123795152826645,-13.50554795121394,-10.88182731028476
1189,-19.78036592688126,28.929396334887063,-12.62086200077995,-10.179284883477852
1190,-19.560742159636817,29.484479653891352,-11.811135984351004,-9.678004058951846
1191,-19.402085360483415,29.839806372430626,-11.089344229119495,-9.385915679517677
1192,-19.265849894235377,30.049299265637266,-10.475071956770558,-9.320110017480642
1193,-19.100560360100925,30.149137251035302,-9.990999508746075,-9.505138095968041
1194,-18.88173246611909,30.162202406391927,-9.658338223537893,-9.950036526303245
1195,-18.63095817338703,30.115698790783007,-9.49176948032537,-10.628659086708845
1196,-18.38515179470298,30.034766770565945,-9.49472255971843,-11.496168974850445
1197,-18.153497144403914,29.91674257983791,-9.662023067093168,-12.508527030716552
1198,-17.919892189088706,29.725401462231506,-9.986428966797536,-13.631860727786375
1199,-17.675936655724637,29.415773777363942,-10.458043437195638,-14.841081454015368
1200,-17.443889526478507,28.966026527986163,-11.058329981731546,-16.094587431365316
1201,-17.252899335266996,28.377606090282747,-11.756560987300134,-17.309805112292697
1202,-17.101223006206695,27.65212096280379,-12.511720317048994,-18.391439143033303
1203,-16.96338333486684,26.786212740867732,-13.27651446781068,-19.28849486370687
1204,-16.815995778546434,25.780288752895462,-14.004027884548053,-19.990239935074317
1205,-16.652846730722263,24.64396446579297,-14.653881792590798,-20.47618834021062
1206,-16.469931705457395,23.4005417343246,-15.196054183068574,-20.70779890233135
1207,-16.232262013897607,22.08792262410487,-15.61205541195218,-20.66584199634663
1208,-15.890486404416672,20.747173269796406,-15.89363912780153,-20.367693891218483
1209,-15.43856090500404,19.41421138686204,-16.044241898504442,-19.84673745197772
1210,-14.926254188465089,18.126531379760298,-16.07828979170153,-19.131272099781295
1211,-14.402300706533948,16.925625838138505,-16.015794487656542,-18.248176708544243
1212,-13.865767231201007,15.843587779553221,-15.877153187358486,-17.24542849536901
1213,-13.289444114554966,14.887362113010346,-15.679622940420753,-16.187016839474236
1214,-12.67904021085924,14.039732303268643,-15.432401393589876,-15.121833536585843
1215,-12.085569773141428,13.269454069223272,-15.12941994548838,-14.059766668253149
1216,-11.549612902040758,12.53713323001809,-14.750551512455777,-12.968144391227245
1217,-11.05269190873538,11.798185247438905,-14.274908719727406,-11.812180314163026
1218,-10.543776601908302,11.012818048461398,-13.692459934731215,-10.599538865399678
1219,-9.99910349776608,10.162257002740297,-13.005420861392945,-9.368856121333147
1220,-9.427240710307272,9.249184820212276,-12.224308311738806,-8.140854969366407
1221,-8.829678217533347,8.292029364019614,-11.365995658861696,-6.908430260975908
1222,-8.186016828133765,7.3261703323987595,-10.45166252538721,-5.682335842735906
1223,-7.4776316848122955,6.392860122749946,-9.505527454788888,-4.511715242124066
1224,-6.721062638279054,5.516873131471989,-8.556312104642247,-3.4517495130106903
1225,-5.964453397350652,4.702194937780553,-7.633411479586222,-2.527850534466653
1226,-5.2414778200808225,3.9455341057666247,-6.758013069727738,-1.7303753840980713
1227,-4.55107520062244,3.2325924423221006,-5.9426377600905145,-1.0277279779258677
1228,-3.8867201247848335,2.5271869758657375,-5.1982254863820385,-0.38606567701406885
1229,-3.270381808784959,1.7779366537592707,-4.534877161901112,0.20590645660904836
1230,-2.7485804429159035,0.9350571176840676,-3.9585668122578066,0.7389518145469735
1231,-2.3505377388768744,-0.04118318694282169,-3.4716686870480737,1.200188400753875
1232,-2.0658341761269776,-1.1842496708695132,-3.0764398150397114,1.575192977394697
1233,-1.8695807033696838,-2.521744977743407,-2.779180962935692,1.8373318256254312
1234,-1.7603282750566542,-4.076974786496039,-2.589514668710184,1.9444223329083692
1235,-1.763084626185445,-5.870927611336247,-2.5106444346142793,1.8733500740520037
1236,-1.9033448226779588,-7.910878988965373,-2.5311298784788843,1.6462033046015567
1237,-2.1903676054868426,-10.175401272305116,-2.6266112836327973,1.3051504861406853
1238,-2.6017440434417978,-12.620350896973944,-2.7670277994893677,0.8835424264279798
1239,-3.0935069810922373,-15.20270903572278,-2.9236563911379942,0.41102201948811007
1240,-3.6337043103974804,-17.882183212321184,-3.0712010536707446,-0.06898081593206494
1241,-4.198480752428817,-20.601440975959687,-3.1836753153282586,-0.5036257693605143
1242,-4.753501791118839,-23.287263471547213,-3.233267876404363,-0.8450466719689588
1243,-5.254435840888711,-25.87379745662707,-3.1972010264799935,-1.0646673033307315
1244,-5.656257852980824,-28.31066843952409,-3.060795698564833,-1.1662640716142072
1245,-5.91409058308904,-30.55374352057712,-2.815604918435233,-1.174480065728417
1246,-5.975199051461248,-32.57070566884875,-2.4623881576302318,-1.1014303300161858
1247,-5.782756027600063,-34.352327202472566,-2.011734596677011,-0.9275695797317414
1248,-5.290983044068757,-35.91391032503291,-1.4801812342047949,-0.6333367627254711
1249,-4.480489223054948,-37.29080757832032,-0.8885304118430082,-0.23890368997846392
1250,-3.3569497514687137,-38.530399375835586,-0.25732166827427105,0.2194606355562198
1251,-1.9339456484730817,-39.68563211425844,0.40126880062074394,0.7433737530158997
1252,-0.22591060130665086,-40.804037329386645,1.0851232008830998,1.3779092102638963
1253,1.738936841514922,-41.924555758104624,1.7951610534763933,2.163449032039993
1254,3.9096467539468382,-43.08779247372698,2.531137922680837,3.1036675829445857
1255,6.225701159601185,-44.32341510665922,3.2939641050935244,4.1806234277565295
1256,8.629620377515607,-45.618297789247144,4.084096169854504,5.370724541876682
1257,11.073217897664039,-46.915530375040085,4.900035323322679,6.643463074559352
1258,13.50499018825778,-48.14732054237724,5.742687038009861,7.957035336894734
1259,15.859425120589146,-49.26381953041349,6.609960187538524,9.247677184639834
1260,18.09019244562332,-50.23000126575987,7.486573176140769,10.42918076496297
1261,20.179766410205666,-51.00947283170995,8.346829818260527,11.429836072087458
1262,22.10199260128601,-51.574609538576794,9.163444867051751,12.220733916452055
1263,23.82272453229186,-51.91911070671544,9.91271336223665,12.79567907974686
1264,25.341055968525176,-52.05148828557021,10.575880847017782,13.149445850002405
1265,26.684739121796202,-51.99946822590368,11.139247475684156,13.281344796587153
1266,27.866862661201136,-51.81961903639303,11.594658767763768,13.21898464658463
1267,28.875238255070506,-51.58658890737931,11.93584318384425,13.016145223013375
1268,29.689711600978033,-51.368825415650306,12.152567494350997,12.70237272257555
1269,30.28896497852819,-51.22075348773015,12.229839756856963,12.26583339441576
1270,30.73853150271972,-51.19891021967897,12.185793884185468,11.709437483584633
1271,30.805818848446485,-51.36060621513041,11.942921835027581,10.968212429397623
1272,30.36781153228452,-51.70936927186862,11.485456197356207,10.0495262415091
1273,29.3988982017582,-52.22160005606747,10.841222010501978,8.99058247649923
1274,27.981480904848237,-52.85800422847233,10.063883787535621,7.837380773454087
1275,26.279933718164948,-53.558742044520564,9.216242682182642,6.649270439425751
1276,24.480316629204,-54.24696982430564,8.362467962007173,5.5060300373069975
1277,22.747419625462502,-54.847866452524826,7.569421021247419,4.497274713037198
1278,21.216631483391392,-55.31469830860186,6.898381645777197,3.694059224331488
1279,20.005079466448453,-55.63373636170787,6.389911605676033,3.12271925747657
1280,-0.1431858689082745,-0.3975767684440109,-0.5092410256303743,-0.5436845106471369
1281,-0.4570813385785428,-0.7917793512495084,-0.9667772919754426,-1.0143123737022284
1282,-0.929428078488242,-1.3363684447972053,-1.5406345985028878,-1.6410908149285675
1283,-1.5738023666552206,-2.033681229457475,-2.1934216544903196,-2.3995215426887215
1284,-2.3771958355626053,-2.874343777651283,-2.875105554811263,-3.2477889765680823
1285,-3.306330167234118,-3.836516369622245,-3.529155413934226,-4.155276343485933
1286,-4.328401300174433,-4.885642968535359,-4.103651040328914,-5.107572108163234
1287,-5.42949039619224,-5.975294272826657,-4.557052418384485,-6.086649214685167
1288,-6.60412221266866,-7.055718612694305,-4.855732127743106,-7.060571478983679
1289,-7.82253188502652,-8.091539658055183,-4.987307394662473,-8.001988101884889
1290,-9.041769744692859,-9.078254965985506,-4.985815510552258,-8.923984861674082
1291,-10.243127345113484,-9.994080232192976,-4.883264048788792,-9.82476977839012
1292,-11.439054376492399,-10.813828983409374,-4.7165042326668525,-10.687001836845704
1293,-12.64731018450341,-11.516218933947112,-4.518543086658002,-11.477957365545842
1294,-13.853465108999,-12.083026390786639,-4.3216200378808995,-12.17666589924925
1295,-15.022770817807382,-12.495056919156509,-4.170822870583267,-12.79938863962866
1296,-16.14131474807115,-12.740811390389938,-4.119889793919546,-13.385039905130322
1297,-17.221989012190697,-12.82183302835083,-4.214887574448069,-13.958018186364225
1298,-18.27783149010031,-12.74766297047655,-4.486757110691059,-14.516535356949271
1299,-19.29887297383137,-12.529299809920346,-4.949351214143568,-15.058250906160307
1300,-20.26411988753075,-12.175883437665236,-5.598664304835137,-15.608184765011895
1301,-21.16562339247505,-11.694073804977824,-6.414714222965244,-16.203347083293163
1302,-22.017661815035712,-11.082405531275517,-7.36319502808238,-16.851790359319384
1303,-22.832425439402325,-10.330513136714824,-8.396028318204355,-17.52473678221067
1304,-23.58520521013212,-9.429307245593709,-9.46237450596821,-18.194614960360223
1305,-24.23598212984925,-8.381312257580674,-10.529296650779834,-18.864257759326197
1306,-24.78649202869808,-7.197782183543199,-11.583539463699015,-19.551787024986137
1307,-25.289775360812346,-5.888939871550614,-12.61384940386197,-20.258461938046224
1308,-25.787733929521515,-4.469464545596929,-13.607220277279168,-20.95744870335243
1309,-26.262254744024272,-2.969656289420576,-14.56029844017175,-21.620240451165632
1310,-26.669963495216926,-1.4390814319881111,-15.486574014880086,-22.24139148144122
1311,-27.00760350742033,0.05420105200577535,-16.40701409754903,-22.827301815857343
1312,-27.317809253284302,1.431286592590935,-17.33285130216467,-23.370619337428156
1313,-27.63154388706866,2.6198622404078455,-18.26256534420775,-23.84113220492037
1314,-27.94049154553351,3.5704953094421725,-19.189790071733068,-24.21948640747307
1315,-28.22249977458662,4.257115644220016,-20.103753867297097,-24.525997998687345
1316,-28.473028456404457,4.677067954557396,-20.985991519166387,-24.79592370576115
1317,-28.71324746806834,4.851729864304653,-21.81231301894973,-25.040792882576493
1318,-28.951407653160775,4.817451339045972,-22.555869781260235,-25.240581617566093
1319,-29.144429304586712,4.608391912580628,-23.18999441952756,-25.367362932802674
1320,-29.219885036342344,4.238378045470688,-23.692893970628216,-25.400209162832656
1321,-29.12908464783623,3.7067575038773812,-24.04955528232948,-25.323096775304045
1322,-28.85590787315398,3.016006032040783,-24.245813580266375,-25.11065903384311
1323,-28.379273890885894,2.1782228812356554,-24.266307915984694,-24.72152277506115
1324,-27.662312687893415,1.2126304603164832,-24.10294851795438,-24.12029947992938
1325,-26.680117090460705,0.14277560046774496,-23.760869324604585,-23.299054738245704
1326,-25.45187808921751,-1.000436323127953,-23.251381826335933,-22.28191625572712
1327,-24.035733614724215,-2.1791735057102644,-22.579568924747207,-21.101253300860026
1328,-22.48877709881429,-3.3458591670561826,-21.746934650401375,-19.776409213095803
1329,-20.849818927004836,-4.437588367114787,-20.764940068689146,-18.328801555446745
1330,-19.14718798180474,-5.38939989082934,-19.657932054899025,-16.80109702353843
1331,-17.411961544130573,-6.156577873848789,-18.459623892541618,-15.254569729875403
1332,-15.685074756685314,-6.724789934456987,-17.206243455149377,-13.738470190619049
1333,-14.014363998355371,-7.105378409543714,-15.925251321732501,-12.272299379945169
1334,-12.433068502247474,-7.327284413309722,-14.63267962613528,-10.860918383529189
1335,-10.936317257124658,-7.436090370068365,-13.340383777982458,-9.511575807315742
1336,-9.506814475551398,-7.494521034607075,-12.061040488159257,-8.241892764609984
1337,-8.148030643158945,-7.5648027124885795,-10.806901032105266,-7.072334278651982
1338,-6.883435916062399,-7.6909849771363135,-9.586138145095935,-6.00946882460995
1339,-5.7393607211001845,-7.907753567333039,-8.40178433353592,-5.037053210345358
1340,-4.721718849621593,-8.247585925507323,-7.256703235124634,-4.141755496536086
1341,-3.82377374504337,-8.735555971774163,-6.155939735763903,-3.3447467565503275
1342,-3.055206625520097,-9.381581988119809,-5.101753339850934,-2.6840346697311057
1343,-2.4392922925733385,-10.17489922996148,-4.092129399759065,-2.175007978294193
1344,-1.9820341552238614,-11.090435229616217,-3.126323109901521,-1.7948211902744202
1345,-1.6552842323687502,-12.102859512074234,-2.2054724390305185,-1.5172372526973001
1346,-1.410596189859566,-13.199771173876186,-1.327973761288489,-1.3538297150883352
1347,-1.215899045370402,-14.382960769292069,-0.49069025179039655,-1.328601772079157
1348,-1.077217771208305,-15.652640229024026,0.30808883869774584,-1.4325680753125996
1349,-1.0119048635318362,-16.99536934713118,1.067442607347096,-1.6217776150061058
1350,-1.0219319702004581,-18.392608559166305,1.7803003916606064,-1.8522879782853918
1351,-1.1041372405426977,-19.834729159186406,2.4358013473596616,-2.1123886733666564
1352,-1.272200139097188,-21.310920705816386,3.0278209450101534,-2.4105523353252463
1353,-1.5404350660641113,-22.78544548181527,3.5587651103238835,-2.7424105846495728
1354,-1.8763016470498333,-24.204880878056997,4.038756004763019,-3.083963391356962
1355,-2.1954997226969812,-25.528503259599173,4.4812315175951,-3.410483449767745
1356,-2.4010051451051986,-26.73360906415872,4.897514561876254,-3.7105228985850465
1357,-2.4196869991470953,-27.802603616403225,5.2951252795674035,-3.9768582051021935
1358,-2.204882437566908,-28.72349241785758,5.678118304262874,-4.180410332017052
1359,-1.712285136214506,-29.492664224183457,6.045583523123306,-4.268810204161373
1360,-0.9037483953490286,-30.10613951067812,6.38963833577556,-4.2090315943680885
1361,0.22117105899193623,-30.560101192921525,6.697596753244451,-4.013378150512264
1362,1.609774136208216,-30.864624250147628,6.957141978337131,-3.717025850013673
1363,3.167116026428882,-31.04113862427966,7.1614634363836895,-3.337902596597075
1364,4.795121166021175,-31.102882957492834,7.312937796068806,-2.871356007166067
1365,6.43291580347751,-31.04250697150132,7.421052549348192,-2.3244127452457612
1366,8.052554775427268,-30.84437862327137,7.4965922781285155,-1.7236097280445137
1367,9.627515953599673,-30.500918032914083,7.547733135092533,-1.0970322452459023
1368,11.119055477809475,-30.007233998497426,7.579889427664841,-0.4563958796840683
1369,12.48590598288684,-29.359429078320563,7.597027434000637,0.20926835446006684
1370,13.702048650224285,-28.567122583218666,7.599753981130287,0.9079425275578731
1371,14.764215806621491,-27.646129785890334,7.581978119380866,1.6265403283804376
1372,15.681855575955321,-26.59607361206189,7.531699443319556,2.338927818003977
1373,16.460304775639553,-25.40701728975687,7.43558226926113,3.022899660053566
1374,17.09618738151649,-24.08454996730916,7.283842330201768,3.6753697942055132
1375,17.587837601225264,-22.656122453882368,7.07378371813965,4.301630296261967
1376,17.938537614210645,-21.163501545275764,6.808479451136658,4.889516825783745
1377,18.146703267300076,-19.660074593420816,6.492497370592695,5.406057975188569
1378,18.19876577956693,-18.210432203228606,6.130291775637401,5.825191098977456
1379,18.066742087127764,-16.871849526150626,5.727481836620301,6.145918511509327
1380,17.72474371842262,-15.674476750476405,5.291342779987508,6.378649296331523
1381,17.175865023809365,-14.644437220431302,4.82582879129241,6.524957783096363
1382,16.43490532630026,-13.837077829129404,4.326898724012739,6.569773246893149
1383,15.495996370155972,-13.320798164337592,3.7859976347486874,6.496203589434396
1384,14.333659225706096,-13.133782563496236,3.1966622098785575,6.309998292856402
1385,12.926996505921746,-13.27005692825336,2.5546630859260855,6.044974947289742
1386,11.285007646291742,-13.697396282119024,1.8519927784271841,5.734383018010563
1387,9.439979473908078,-14.375582560577417,1.0802423122383553,5.383670757991506
1388,7.422887354161408,-15.267488185712871,0.2424882369726417,4.984444564985839
1389,5.252688358463506,-16.345291687255365,-0.6427902458158365,4.534785317468396
1390,2.956974341102281,-17.580085699851736,-1.5457235863798935,4.042685996498094
1391,0.6036520896423833,-18.91935788373675,-2.4313818876389126,3.5140540185600404
1392,-1.7108979303917005,-20.29563582747451,-3.2679176816183384,2.9405088077675403
1393,-3.9020957458101586,-21.66132690427897,-4.03152143290844,2.3213816508105656
1394,-5.920812762595961,-22.988888924125852,-4.704811959611598,1.6853417146077883
1395,-7.737340765202317,-24.245772955782236,-5.275654645962424,1.0802507305097873
1396,-9.306510175820604,-25.38766647013282,-5.74025159448946,0.5472334915101691
1397,-10.573856148975219,-26.378179615481873,-6.104938334506487,0.10267346378117731
1398,-11.583943320848736,-27.320967136569458,-6.408059590870695,-0.298548374510784
1399,-12.264783696400121,-28.00704722854094,-6.632620328925422,-0.5786141636475062
1400,-12.58741256584046,-28.302990883141028,-6.772458602791915,-0.6947574035346205
1401,-12.548976063066672,-28.16816088293089,-6.832234097352818,-0.6468522874184629
1402,-12.19144267827597,-27.643486808161192,-6.823051533217596,-0.4711526227601531
1403,-11.607243720592741,-26.818613562333812,-6.755720377422168,-0.21478593049919603
1404,-10.91252246284817,-25.80479650610575,-6.640944361535154,0.09028418278957878
1405,-10.204199736874218,-24.71902120411215,-6.495821874373613,0.4248733206146529
1406,-9.542759124937907,-23.676128116518395,-6.3432311319058,0.758823802204217
1407,-8.971815429343529,-22.78036795499273,-6.204727112339516,1.0499513816819013
1408,-0.209962557993344,-0.0739380651211593,-0.3909407597324156,-0.4680303657261502
1409,-0.5333969951459114,-0.1623054252767123,-0.844714249373139,-0.8868168783257409
1410,-0.9962590647456051,-0.28501507708741974,-1.4810017438323593,-1.4483690650933227
1411,-1.6098384656031912,-0.4389320163817597,-2.296190086339392,-2.124378508095871
1412,-2.36806999138177,-0.6204165683588937,-3.270220560577017,-2.8731619415889957
1413,-3.2539443817907623,-0.8262155044575331,-4.368351930688748,-3.658913791365541
1414,-4.258757163329632,-1.0465826568584418,-5.5457880209452055,-4.462336184170185
1415,-5.382888581300256,-1.2678398843914298,-6.753566569907783,-5.274271640680704
1416,-6.6151912716114865,-1.4866273292716512,-7.94587280449901,-6.0792430761820295
1417,-7.924887708177473,-1.7096471958650858,-9.092078276498226,-6.866414740408086
1418,-9.284125444986296,-1.9416162564293435,-10.192941652100313,-7.667522566987852
1419,-10.683889879381406,-2.181429216394148,-11.242192405698281,-8.49988083103404
1420,-12.11437949198109,-2.4162312064918656,-12.231778999676761,-9.362274722766653
1421,-13.549691949091331,-2.6113139973801722,-13.148875818000288,-10.244986483856923
1422,-14.955560280405146,-2.7251626254275796,-13.985221691775761,-11.153976556159941
1423,-16.308461719092097,-2.746470570354176,-14.74419157082922,-12.116072319070398
1424,-17.60830753536274,-2.692754989043596,-15.438446865812146,-13.152092901196399
1425,-18.882145650644766,-2.574588587116206,-16.085411709345106,-14.261347280052552
1426,-20.16830509187949,-2.391330200733699,-16.703542139487705,-15.44094113180033
1427,-21.480708649049696,-2.158568615041048,-17.311189582274515,-16.69443647130794
1428,-22.807006079314306,-1.9225548318739285,-17.926930974767075,-18.030054307800388
1429,-24.136057017166532,-1.7427568339561668,-18.565333557966152,-19.45133591429062
1430,-25.470977733086478,-1.667728308409702,-19.23110395332677,-20.93193638273188
1431,-26.81092067024519,-1.7219489851876528,-19.918269194155382,-22.409934050281525
1432,-28.130650037807666,-1.904908181666277,-20.612202131099288,-23.821926976772367
1433,-29.399092045376843,-2.200001884402054,-21.293464385491184,-25.148664845502953
1434,-30.6045008491017,-2.5813205478362966,-21.942919230095715,-26.404816499710797
1435,-31.752766488058313,-3.018367225475467,-22.543240158925656,-27.585602002650123
1436,-32.84065359569869,-3.472846162198001,-23.078568901650353,-28.655760609074797
1437,-33.832774364181134,-3.893727304056785,-23.535953976926013,-29.58785384948362
1438,-34.681459643173746,-4.237647550826369,-23.906925381675226,-30.386310986076303
1439,-35.361126286099925,-4.493113362826576,-24.183947841036147,-31.060772359745407
1440,-35.87029566939435,-4.663497847776761,-24.3545706575007,-31.595907912845608
1441,-36.200486390887676,-4.741265191289044,-24.401124075695485,-31.955307036377732
1442,-36.308900326951026,-4.715925867030086,-24.302350812572715,-32.101705801589844
1443,-36.1364682113216,-4.582478485351532,-24.037218315362807,-32.00642076599099
1444,-35.66100046993646,-4.327250569239883,-23.5923663411502,-31.647863775973818
1445,-34.92018200875064,-3.918474827091371,-22.96254539196475,-31.001672815183454
1446,-33.965352508025376,-3.3207212166095763,-22.142224025027854,-30.033652089334044
1447,-32.81306207882263,-2.5164842423965395,-21.132989698255905,-28.73362357877818
1448,-31.462298833506697,-1.4992030837477563,-19.966882566365463,-27.155640103034504
1449,-29.935565470466862,-0.26462862175198937,-18.694851547145667,-25.393631716518055
1450,-28.279403420064373,1.1614580091159932,-17.353177360158533,-23.509399994016785
1451,-26.558142659425215,2.733805222700859,-15.950980108601511,-21.54090766340616
1452,-24.875685053991496,4.440851322268345,-14.46271835353135,-19.602023085454327
1453,-23.378216077593336,6.310630903105297,-12.834543298407441,-17.902289491205504
1454,-22.245454753042765,8.375016642652435,-11.003056957009605,-16.677901674252738
1455,-21.613710926611784,10.637616017739454,-8.942687474151326,-16.074281194658376
1456,-21.453238050313523,13.06766391445248,-6.744225996257616,-16.03160321752039
1457,-21.576546258649262,15.601987997175884,-4.6008246131144155,-16.32913229866746
1458,-21.776557953315837,18.149944847440388,-2.6840783597317817,-16.749397265831778
1459,-21.975523986481036,20.618425314696108,-1.0563969313611572,-17.198627733030882
1460,-22.252152355574086,22.92124379565088,0.29362727427169233,-17.687919124540006
1461,-22.7586169115084,24.98186862686129,1.3713689804289493,-18.243451549395523
1462,-23.64103233659082,26.748446348507805,2.1556350981404,-18.880919524149927
1463,-24.999987877859503,28.17693434941255,2.59603247427056,-19.64465457320146
1464,-26.89053134265502,29.198903550653466,2.5975110235675007,-20.57377091942783
1465,-29.308871293961023,29.72747613302096,2.0668343399186972,-21.59575928909971
1466,-32.155992737855726,29.68309188812718,0.9863099164257284,-22.53005361013203
1467,-35.22155902097716,28.99181694817935,-0.5822484556860582,-23.20799900304428
1468,-38.195770986643794,27.542981729832107,-2.5528756208515277,-23.53726276945089
1469,-40.69817367259331,25.13430605266552,-4.887596273951414,-23.419509713523617
1470,-42.35582610874824,21.508487411923987,-7.595557918102037,-22.68837196830977
1471,-42.92972531870639,16.459813198341323,-10.647377993289364,-21.19464761858888
1472,-42.358606261471046,9.88139166042824,-13.926284663277892,-18.913040035997007
1473,-40.71865071438513,1.753839428385786,-17.234637996432973,-15.98609784317612
1474,-38.16477521570987,-7.877953350969072,-20.368291727152574,-12.639708489878714
1475,-34.85888139673731,-18.896342541110588,-23.24881692078614,-9.017178457590097
1476,-30.886994981521276,-31.091472197990946,-25.945425441898756,-5.111205275887064
1477,-26.216257926474132,-44.171346917930116,-28.56215669113803,-0.8128825531267463
1478,-20.774625565531057,-57.78878819014537,-31.13998559145629,3.9683546538344663
1479,-14.537077291168048,-71.57560900135749,-33.64690357040755,9.227316921609052
1480,-7.5564355898165925,-85.14607775669103,-35.99669940856959,14.870789808359918
