,TP9,AF7,AF8,TP10
0,-0.674005083594847,-0.02369457654952764,-0.566266621164119,-0.5093985172659067
1,-1.398491464852989,-0.11237186797732543,-1.2406997439288499,-1.1257245818460537
2,-2.415519319337161,-0.26271461422608644,-2.210185672059318,-2.0117771927227213
3,-3.6890053989519793,-0.4935707708657704,-3.474575295325061,-3.16813258840197
4,-5.138075028984963,-0.823401632246652,-5.0001567938254805,-4.566761451130482
5,-6.6849336683759955,-1.2693882552971476,-6.721939563498436,-6.160502821699925
6,-8.271297303353142,-1.8462574694044913,-8.554407627079257,-7.896641566893126
7,-9.844239458842253,-2.5622356655000833,-10.40662229501814,-9.718168960381597
8,-11.34620740888648,-3.415067507987803,-12.19820255353118,-11.560928287806046
9,-12.736340741525241,-4.389076594244064,-13.875231604599264,-13.366660099715881
10,-14.034198127982764,-5.45538348676404,-15.429090798544761,-15.110602422817054
11,-15.256626375729446,-6.572593185025549,-16.831824265790043,-16.75022706349758
12,-16.409442556997888,-7.698444010740288,-18.061617022316184,-18.240421819918375
13,-17.46485407694805,-8.793344726306454,-19.10720749067934,-19.53042070321521
14,-18.389424751465118,-9.81714175947574,-19.968454301628423,-20.573282275853185
15,-19.17775245804274,-10.736503112748897,-20.653565749195586,-21.341510769754994
16,-19.84339313481228,-11.542218862649394,-21.175325290498424,-21.838540295110132
17,-20.393571683504526,-12.250798472793308,-21.547519686734812,-22.098212651972204
18,-20.828013665818673,-12.89056232458262,-21.78500548492197,-22.17713313025829
19,-21.165230624794862,-13.491476041975757,-21.90568088597869,-22.144909427224686
20,-21.454787968212408,-14.075314692334278,-21.932381520582965,-22.07030728448098
21,-21.755909850728344,-14.648036097828864,-21.89440886615303,-22.009689841637297
22,-22.093298164172133,-15.201359407795378,-21.82316727115089,-21.998774830936455
23,-22.44309549347128,-15.717474572510968,-21.744109827305763,-22.046090272365113
24,-22.770220948867774,-16.176374239022202,-21.67292632042827,-22.136967300344587
25,-23.059158902941878,-16.565186092754875,-21.615244643360057,-22.24829477180174
26,-23.317777694798988,-16.88324952598131,-21.56896297812431,-22.35700789565624
27,-23.553813011927662,-17.141132736842845,-21.526304533963426,-22.439226515621858
28,-23.756781153153348,-17.358726661177492,-21.469650725973942,-22.473045848092646
29,-23.9145325265822,-17.567995140080612,-21.368339284586586,-22.445635433165116
30,-24.03975732758263,-17.815991942651202,-21.185110261691033,-22.35564482417819
31,-24.178633867688845,-18.160948376255927,-20.882687730414176,-22.20882083403174
32,-24.37035698983389,-18.664437012320583,-20.42440467591568,-22.012616004798517
33,-24.612169632514213,-19.38164928963331,-19.775067261858446,-21.767790958402436
34,-24.87653369491987,-20.351592073593505,-18.90518683685349,-21.462086846727633
35,-25.13298732545251,-21.595098294390937,-17.794114986597293,-21.07461797429677
36,-25.361184880250057,-23.117229366404686,-16.427673086588676,-20.582689613109682
37,-25.54458094460353,-24.90936693225416,-14.79564876933497,-19.966342579531926
38,-25.651961596699373,-26.952531860641088,-12.894790616265508,-19.20637303138171
39,-25.645950059722374,-29.217840507556463,-10.73039328227967,-18.280574513645107
40,-25.518881570517316,-31.666588623167577,-8.31258545301212,-17.173164495187542
41,-25.31428610781357,-34.25426234500521,-5.6582129825546605,-15.88919072722574
42,-25.094906100117328,-36.93664361661686,-2.798925861498679,-14.455883524963355
43,-24.8972733130475,-39.67610601681502,0.21509908563840885,-12.913277255004887
44,-24.72196696615968,-42.443718164816985,3.319883067607877,-11.307820346713275
45,-24.5645580311073,-45.21141220164727,6.445010425349574,-9.693352208569134
46,-24.442200925201043,-47.94284817809818,9.520359218770263,-8.1304116805469
47,-24.372726682904236,-50.5947928792725,12.483316551049924,-6.677724998669188
48,-24.339717811403666,-53.119596856436665,15.284776845133104,-5.377543417029453
49,-24.28567481510988,-55.46226440164838,17.891355638937036,-4.242389149477315
50,-24.15634119509629,-57.561343752336896,20.280630800285753,-3.2613441339954665
51,-23.94039719640532,-59.35748569645453,22.43535189635614,-2.4178257045931404
52,-23.646971599859665,-60.80111461898733,24.340655286755705,-1.6955893427265993
53,-23.27183439373381,-61.85700552989492,25.980334974208656,-1.077842676290773
54,-22.794609264662462,-62.50901175813107,27.333254417918784,-0.5485479890070489
55,-22.20676676497213,-62.75654436174631,28.37665752966658,-0.09572988311954467
56,-21.529191628692843,-62.60719177246431,29.093417518713544,0.2841886541503346
57,-20.794262297159435,-62.07767200604184,29.47295422430719,0.5849269027052932
58,-20.017214812464168,-61.194639524121065,29.512475857072697,0.8007193988170125
59,-19.184203195585365,-59.98713660886246,29.227502281929123,0.9396397577271574
60,-18.284626781955858,-58.47780714606455,28.65681942077634,1.021657567999075
61,-17.339053576386174,-56.684002844801995,27.852772101597107,1.0699238550193368
62,-16.382645732274977,-54.6207695975603,26.869665286031257,1.1073610622955588
63,-15.427389177306173,-52.29447844904016,25.757115048775972,1.1545509899964788
64,-14.44242061286471,-49.703867994821486,24.556409212974447,1.228557438296921
65,-13.392815589030794,-46.85818837848332,23.297162802659603,1.3465339891814252
66,-12.281178840609586,-43.791033162228324,21.99281053673525,1.5186967569972791
67,-11.13767882377834,-40.5543388585337,20.64212017562664,1.7313405897840877
68,-9.977739264298993,-37.20513157062527,19.239512663905806,1.955968084631014
69,-8.7840931359496,-33.79941718452914,17.782417295493698,2.17661852116031
70,-7.547092797175929,-30.388742198387412,16.272851832122292,2.3986613382132425
71,-6.298449821300978,-27.013353748670625,14.718110667298127,2.6328460901404673
72,-5.101639577647806,-23.702593820559667,13.129506283223689,2.8745382946437057
73,-4.01610890039108,-20.481772289658863,11.520461173304643,3.1037346645933885
74,-3.0690469562802685,-17.370464527795384,9.905450235186937,3.298053678667689
75,-2.267140184371559,-14.380022019423294,8.2985060718971,3.4367214328794886
76,-1.6258758674474956,-11.514236379309544,6.712013551071942,3.491045011800091
77,-1.1782242003887076,-8.76799942857636,5.154716616420219,3.4233452586187134
78,-0.940327115694027,-6.132456050069667,3.635821926461379,3.2027489590099316
79,-0.8850409212145424,-3.6086477682060765,2.173099178836977,2.8117585851936915
80,-0.9666204090174059,-1.2199038646965636,0.7915702915480513,2.2476574532316436
81,-1.1585251225207134,0.994659859564611,-0.48086182767706565,1.5303680296795124
82,-1.4585513858025243,3.0024631159568886,-1.6187472585888232,0.697804072372478
83,-1.855893773408193,4.786095386379813,-2.608440142557287,-0.20557762187849668
84,-2.3155752189447627,6.33670912386689,-3.4548497933484885,-1.1238942675060288
85,-2.790504353036369,7.650784078041177,-4.178377806146892,-1.993838252695191
86,-3.249364522647556,8.733545451554921,-4.8029281978688125,-2.7748797711158466
87,-3.701614666532848,9.60408783966661,-5.3469222453678675,-3.459924609105967
88,-4.164156939129515,10.292203679195413,-5.8248153479086895,-4.053790374963258
89,-4.622230047730006,10.831280713546487,-6.253371451196201,-4.5561891714759435
90,-5.04068287675978,11.258128258661735,-6.652762783700175,-4.967339570983516
91,-5.399542045194288,11.609392738578522,-7.0405997513868055,-5.301859640750309
92,-5.714444292934002,11.910038235695682,-7.424164085508609,-5.587437238000947
93,-6.013575589899514,12.16488998679999,-7.802026150996309,-5.852488772116489
94,-6.299636585781915,12.359758674034682,-8.173803657266967,-6.112227363513399
95,-6.537358617451292,12.475728868644973,-8.544895547200294,-6.363350144650965
96,-6.687844159100007,12.506194072091146,-8.926009150489408,-6.593221907347855
97,-6.739584683248395,12.460777832306702,-9.329575354509963,-6.789703341934009
98,-6.696316469187888,12.36086015069439,-9.764316944199885,-6.947405531393429
99,-6.557680388767201,12.235426449545141,-10.232666245403484,-7.065962675842106
100,-6.310545609527048,12.11493304152716,-10.729240464645658,-7.138750197513523
101,-5.949111428533558,12.023309652834364,-11.240390413284064,-7.152278023185306
102,-5.501630155423354,11.975597094659026,-11.749280238172194,-7.101711676981385
103,-5.01183268498333,11.977377467195915,-12.244268423103357,-6.99807461276774
104,-4.49545345235294,12.018904825373626,-12.72046895855268,-6.8592132574258935
105,-3.9377645913055304,12.075973035380107,-13.171839264558608,-6.702353541294603
106,-3.342820362632623,12.123840337779594,-13.58602442692574,-6.543752703300652
107,-2.7582793530885623,12.149871577219022,-13.946430083276812,-6.398524555828655
108,-2.242792559099605,12.157787728285141,-14.235833291790062,-6.277778680725887
109,-1.8210104318292846,12.167194280158483,-14.440787296895815,-6.1857030911157596
110,-1.465754791604734,12.209348669415888,-14.552410679142799,-6.119197971434965
111,-1.1442435063089276,12.314514722897894,-14.562025121158692,-6.073430737474276
112,-0.8749805176711863,12.497954846428671,-14.463363363410524,-6.051511267815133
113,-0.7039056283790527,12.760220382340478,-14.260050621677143,-6.064911821061993
114,-0.645556381644051,13.094437574234336,-13.966786095963819,-6.123737538982152
115,-0.671749063395579,13.489144068328555,-13.603256820107879,-6.229876762562941
116,-0.7360319433062783,13.92890392990872,-13.19068021364061,-6.377434245091294
117,-0.7905705555445561,14.398642209119005,-12.752071048331777,-6.556054207983916
118,-0.8910222573481289,14.857367129882894,-12.345245577167374,-6.7659402169817975
119,-0.7832502922980114,15.36412654978046,-11.940923397825687,-6.994719774619673
120,-0.32010848458933255,15.941069846942213,-11.529988120352693,-7.224081302695514
121,0.5351436725739246,16.58780864212474,-11.114566857661096,-7.433459238307256
122,1.729721547172983,17.291920523401174,-10.701694474231326,-7.607891306794061
123,3.162801246912385,18.02860472647306,-10.3002561829341,-7.739425656042501
124,4.7221134126046955,18.758604202748042,-9.920472641930235,-7.824090228425163
125,6.2914274224011155,19.43280857125462,-9.575047740161885,-7.8628541731901915
126,7.736624379708571,20.002982396863267,-9.277658340214236,-7.864749371244518
127,8.917134590913436,20.43363210286079,-9.039063964989907,-7.8465399212002005
128,0.14336310449849293,-0.46695189016799754,-0.28350937823550393,-0.7209366300265911
129,0.19658279404810694,-0.9846113490709075,-0.6148889064784637,-1.5089227109785543
130,0.14530126240918384,-1.7082982390674664,-1.0987317307903393,-2.63804111276123
131,-0.05276099971390058,-2.646017561180363,-1.7502679600358202,-4.11060493210158
132,-0.4299655245533547,-3.7954718322680874,-2.5645392149809685,-5.889846371509251
133,-1.0345528799648223,-5.140166316137099,-3.5159317691074103,-7.904304721476867
134,-1.9251326104298818,-6.64969712821704,-4.567966059153164,-10.060797662446367
135,-3.1320819229206713,-8.285174168423023,-5.679775223761667,-12.258387469569804
136,-4.630418786536838,-10.006588966430858,-6.8119765148461005,-14.40286163177575
137,-6.352731813463143,-11.782158167681557,-7.932943311253445,-16.428229645386264
138,-8.226066479721949,-13.604183177459298,-9.026541389461391,-18.32615587305958
139,-10.187742076795587,-15.441630222612849,-10.059755010194328,-20.062501826967594
140,-12.18082629638055,-17.258220171556694,-10.996101189837876,-21.612101989163868
141,-14.154501493026695,-19.015329666515438,-11.799840221134719,-22.9727061440347
142,-16.080865312859284,-20.678133510783738,-12.439969193118266,-24.160915154897786
143,-17.967525582764242,-22.223725977844172,-12.89295094547504,-25.195453062978164
144,-19.832642504594144,-23.643082147431272,-13.145458597017072,-26.093536220347033
145,-21.669532203186762,-24.93644483114423,-13.19438441077889,-26.872099822206923
146,-23.44518884438638,-26.10529263879564,-13.045594269207534,-27.540259693233487
147,-25.13659077327967,-27.148371056605633,-12.709932134225728,-28.100333096368974
148,-26.754464910412096,-28.064957940968018,-12.198673622313283,-28.561224133598117
149,-28.314179211112315,-28.858168623429197,-11.529635451350272,-28.94216737913742
150,-29.788846494393844,-29.534579095164855,-10.72943419417825,-29.2597907490967
151,-31.101237781933015,-30.099171127294532,-9.826760014338976,-29.50954338652822
152,-32.17986521988424,-30.551967025808974,-8.856220838437897,-29.66999529375353
153,-33.010217391115916,-30.89331816450507,-7.865531924814591,-29.726898115910167
154,-33.6211568756777,-31.132219055016428,-6.910753387786789,-29.67882199452547
155,-34.039142387361515,-31.282251908937,-6.0464036300576725,-29.526279886670302
156,-34.26271116605171,-31.348220775897015,-5.316950641152212,-29.269023707575936
157,-34.29026488575806,-31.322267941811816,-4.753088498493984,-28.911059551371654
158,-34.15198755052569,-31.187210574287665,-4.3728548239372165,-28.464484019606218
159,-33.89790321043565,-30.9234736940836,-4.181055058791283,-27.949703951952284
160,-33.565434840765,-30.52070824113074,-4.1672877429858755,-27.39238927546696
161,-33.169126108915634,-29.98480688164648,-4.307682753748542,-26.817711884339488
162,-32.72982870581152,-29.336270623240793,-4.570434804784368,-26.244903719281282
163,-32.28742452130043,-28.60235610821708,-4.922225581752111,-25.690054085159808
164,-31.878056206699316,-27.80810073252431,-5.335304704886097,-25.168610399737528
165,-31.50676842623349,-26.969866707940422,-5.796087303428786,-24.68635176980031
166,-31.13817151055835,-26.094286572451814,-6.306761524780813,-24.23708733310722
167,-30.735508871766367,-25.18482951445633,-6.877094859794773,-23.813527260704156
168,-30.300840878892352,-24.247970144580847,-7.516317966354532,-23.41676401003822
169,-29.86241709601122,-23.288735760734067,-8.225815833347891,-23.05360505088934
170,-29.430575975347747,-22.299942292116054,-8.99399444416905,-22.723083996386883
171,-28.98269300699628,-21.260267981197796,-9.79860497167329,-22.414886480739497
172,-28.4916696292936,-20.14634220566744,-10.614555225285152,-22.11842570482126
173,-27.955111838403454,-18.94871936633075,-11.417463172696154,-21.82459053916584
174,-27.402198385840684,-17.676361145563448,-12.179465212374685,-21.525964875732818
175,-26.85911482080576,-16.349085202681152,-12.870665893730685,-21.22016118679732
176,-26.321356518225336,-14.989656266857073,-13.468368743464715,-20.909503661904903
177,-25.765878821717134,-13.617718531948041,-13.962729545552683,-20.59765103053404
178,-25.173965786028422,-12.248621414580468,-14.356357120190298,-20.28761300532219
179,-24.553783385761147,-10.899183965045252,-14.658984939962325,-19.981923651484475
180,-23.923346911662765,-9.590218728303514,-14.881928475213813,-19.68270477953915
181,-23.28158319518838,-8.34365995618439,-15.036063824126662,-19.385381931232256
182,-22.618600728994693,-7.180395173473123,-15.12852708477682,-19.073948428884748
183,-21.94277965051721,-6.119884847973849,-15.1579335278569,-18.730694863922906
184,-21.289647730666154,-5.17997578004661,-15.113157413398651,-18.347511265484993
185,-20.69130646544017,-4.375196365557787,-14.977739988117115,-17.92664141786513
186,-20.147940766194488,-3.715499027021301,-14.738464232983945,-17.476397692817756
187,-19.630190543900326,-3.2065607141501977,-14.39159626075822,-17.008287825532268
188,-19.110642689092558,-2.849088998203697,-13.94644771383776,-16.537773150962437
189,-18.59737970780679,-2.6365911268487947,-13.424725507387596,-16.089157868996974
190,-18.11449585832008,-2.55447591138943,-12.854519802529062,-15.695578117137394
191,-17.663492302145862,-2.5812755758342054,-12.266061094980104,-15.384258643430858
192,-17.222702398260356,-2.691335620921689,-11.691480167905324,-15.16020648283051
193,-16.784275617085417,-2.858941853822874,-11.163538121858453,-15.001702690982897
194,-16.378735856287687,-3.06239983736874,-10.71023345083105,-14.870876122437503
195,-16.04314402717739,-3.2867946452607697,-10.349685210043335,-14.73181257602332
196,-15.771807910836891,-3.524237656870235,-10.085447275818755,-14.554578979195087
197,-15.51293368694246,-3.7688897587258876,-9.903887009034394,-14.307478649361371
198,-15.217832725892874,-4.010937629578435,-9.776598795172397,-13.962658017615492
199,-14.869039953693779,-4.236929320608013,-9.666819868609567,-13.51229971926142
200,-14.461177360138528,-4.433530062684307,-9.53934823237853,-12.970323916029255
201,-13.977827146436796,-4.587110313147141,-9.36599233255724,-12.360279607953176
202,-13.385075467230772,-4.681916339906911,-9.125223272114214,-11.709287533743334
203,-12.661793290667145,-4.706394624940633,-8.804693049340024,-11.046925620743407
204,-11.830246348514386,-4.661889964682634,-8.403368516249117,-10.400816897458679
205,-10.9431924674383,-4.563027392202011,-7.933077836933984,-9.789963128678721
206,-10.043484356881658,-4.432256150056027,-7.42156525123463,-9.219608022519935
207,-9.148205040810703,-4.296069762786398,-6.910120799831701,-8.68142627874363
208,-8.277217585886085,-4.181449565502814,-6.44310377924111,-8.163826814637693
209,-7.468565178851802,-4.112513880150505,-6.053874851316571,-7.670153514852822
210,-6.767321798257888,-4.109682871946548,-5.755891914958929,-7.224511567331421
211,-6.199437941850731,-4.186104788589331,-5.54377065537501,-6.857389135257104
212,-5.753194615938893,-4.342075643477322,-5.399448879820905,-6.586488494643025
213,-5.40898846728813,-4.5623942374972275,-5.298576916216051,-6.410615832976681
214,-5.165308244884395,-4.8241414981562105,-5.219411930477284,-6.3216713734234
215,-5.025022118077522,-5.11097408656758,-5.146875575932059,-6.3141822164501145
216,-4.966970630993976,-5.410770184531301,-5.0682958647957,-6.371788805695109
217,-4.932960910121878,-5.701969083032646,-4.9736678068325535,-6.453203478694408
218,-4.856111027952916,-5.955648905532354,-4.861640568595579,-6.503069249413872
219,-4.701088043139798,-6.148380331029534,-4.744411104894288,-6.471723186898009
220,-4.475113083431276,-6.266842703139431,-4.646102603045639,-6.328805857304192
221,-4.196033285300424,-6.304578099269722,-4.592181076522058,-6.068828573141448
222,-3.8634449745482495,-6.261410283462302,-4.598876215991988,-5.706119396075597
223,-3.471615855956494,-6.145291034168776,-4.668652263211145,-5.264982862442113
224,-3.0367388661646317,-5.971699825066658,-4.791185288154333,-4.772270900957902
225,-2.602872585091182,-5.761713371104024,-4.948453542840098,-4.258590392967085
226,-2.2083213151351924,-5.539429595541364,-5.120401825796857,-3.763951701085633
227,-1.853901709145598,-5.3270761890514375,-5.286645362017223,-3.3257657600776973
228,-1.518160180634243,-5.142825464500296,-5.425052506079843,-2.958655553146134
229,-1.1934204557368746,-5.002186815411855,-5.517578118148315,-2.6584638581606783
230,-0.8891190587840194,-4.916929776358171,-5.5568699334250224,-2.4194225841533097
231,-0.609143949547493,-4.892181963941128,-5.545018133717048,-2.234469128438463
232,-0.3517479157622243,-4.920003902570793,-5.494600980601444,-2.084066948930808
233,-0.12089550588213469,-4.979256914719382,-5.429972845979364,-1.9407859946008488
234,0.07248793140933257,-5.0502530384301245,-5.37852202663436,-1.7894269277576698
235,0.22728166453495904,-5.122845981757692,-5.356834134668459,-1.6306038475380955
236,0.38045916059551743,-5.188556270801723,-5.365168664568246,-1.4689471540836467
237,0.6077724614790974,-5.230818908623474,-5.3910350541280465,-1.3133932458897595
238,0.9953096062807429,-5.231905137453066,-5.4168670522443545,-1.1784666002725557
239,1.6093448947192361,-5.19174514589319,-5.426164058833259,-1.071425633908797
240,2.4934783553725954,-5.126497568341623,-5.40088300519403,-0.9811800280124321
241,3.6865668559853475,-5.05058983767904,-5.318674102411344,-0.8787670555423402
242,5.2140732276748665,-4.969320774994211,-5.159539547306675,-0.718688964139384
243,7.07266853422104,-4.881051601410901,-4.915353681102378,-0.4457825174936603
244,9.23541000696411,-4.775577153670054,-4.595180642884135,-0.020449418711996258
245,11.65705950337443,-4.631039910016702,-4.227368013193662,0.5517918358841388
246,14.276733082597419,-4.502742663127932,-3.8010838941144263,1.2781154072718015
247,17.020163857555712,-4.232566227325738,-3.451338912501737,1.9836569205125916
248,19.774385488197083,-3.738597655064466,-3.2617366041859115,2.545551931330541
249,22.417280573974985,-3.0015883966362837,-3.270045855816567,2.878755800823134
250,24.834679175277643,-2.0541383133095645,-3.474709729575434,2.935918955479281
251,26.927902268421136,-0.9657997123989623,-3.8450351933195464,2.714858902349541
252,28.625619718751402,0.17542226141524803,-4.332116450737981,2.2590070413419476
253,29.894616674907752,1.2757074128982704,-4.87625179069618,1.649900439071991
254,30.741937841102818,2.24367603916783,-5.4128366861826525,0.9929056257917683
255,31.212507231607013,3.0061983780476385,-5.880750334241789,0.3947270561884975
256,-1.3667386723537447,0.067795382973042,-1.070089795473674,-1.2386598277516987
257,-2.7664391807826907,0.21081175815882733,-2.311940517361464,-2.925115112079328
258,-4.7341877719163294,0.44706931677265904,-4.091980777159354,-5.4052399556694875
259,-7.252174842830299,0.7930034083057552,-6.43567908846183,-8.704093593156383
260,-10.257833277587693,1.257845503298618,-9.326573279208908,-12.77650957380549
261,-13.655254773918074,1.8432704374600695,-12.69905853942414,-17.506119048317156
262,-17.313907227266657,2.540800572322383,-16.44226793746943,-22.708205450414912
263,-21.067571200533976,3.3298380920554758,-20.41740817190904,-28.144355590281727
264,-24.742985171707257,4.18249263935009,-24.48692784273045,-33.56046875403328
265,-28.22370527141733,5.065954818460439,-28.549355925418542,-38.747747443396484
266,-31.517050034086697,5.941401341942249,-32.57948287137503,-43.613464431021285
267,-34.58303391847659,6.758676181530895,-36.50780136586646,-48.05023614909994
268,-37.35859396122751,7.4734840100471045,-40.262199917214865,-51.97893293151492
269,-39.77705962185731,8.05138397847362,-43.77289019953905,-55.344040000464716
270,-41.80510248296063,8.46624596280749,-46.977849960454186,-58.115317879312535
271,-43.44537782563367,8.701876248781332,-49.82396463428697,-60.28946635380422
272,-44.70082901852003,8.752013014009007,-52.26456573451266,-61.88585707881063
273,-45.557345511403625,8.618054091021408,-54.26313577539377,-62.938746936750235
274,-46.001098399123435,8.308584731048757,-55.796059791718065,-63.48991654599873
275,-46.04039552440537,7.837904364434889,-56.84612938235008,-63.58199141706199
276,-45.72114782112962,7.22202937383941,-57.40429774832879,-63.24962666383504
277,-45.09993689277322,6.475296116874972,-57.48231637679686,-62.51730350622282
278,-44.20348253306079,5.608147833466343,-57.117887205117434,-61.40744459127466
279,-43.047809785822,4.626383956348994,-56.36931915824074,-59.9469275029701
280,-41.67907647895048,3.5322977009200227,-55.30508277884549,-58.172296232622806
281,-40.16245117728679,2.326850106532108,-53.99143008346248,-56.13317787083534
282,-38.538892930981596,1.0153529460917423,-52.48372063274353,-53.88718869503859
283,-36.81088677787125,-0.38533341192167503,-50.823121764439776,-51.48628806632083
284,-34.96516593196429,-1.8486435885335317,-49.03525003870377,-48.96090800801376
285,-32.99912557829888,-3.3499656033359235,-47.13231976782003,-46.324786258580005
286,-30.917316910747605,-4.871897397072232,-45.1186532927826,-43.59615507470409
287,-28.709992070029163,-6.3996507214213345,-42.99583546397988,-40.80757654980725
288,-26.354014110932702,-7.918805322323164,-40.76775758359448,-37.996976863556625
289,-23.83279929775048,-9.41455475831094,-38.44542757412292,-35.192240744339045
290,-21.15503141606102,-10.873286911036175,-36.04825959619206,-32.40859687209677
291,-18.352338674249474,-12.288483400894798,-33.6005133278078,-29.657548132550478
292,-15.454345939096847,-13.661163305036064,-31.131574511133447,-26.957107441540153
293,-12.46906090710611,-14.992787968839615,-28.6786980694215,-24.333601213840858
294,-9.392566303524509,-16.281330959028825,-26.28001304974866,-21.811666968217754
295,-6.256479255774449,-17.524115212179186,-23.964725284447635,-19.40737758918934
296,-3.148574543265892,-18.71737829807429,-21.748819013295716,-17.131258071412972
297,-0.17191245165174857,-19.851896537314065,-19.63430129565891,-14.989390381492186
298,2.584434137631147,-20.911388511675856,-17.61452072906544,-12.977325245288728
299,5.0511108456789175,-21.875445911410758,-15.683707907244992,-11.081060145200075
300,7.1765931360098385,-22.721960814348744,-13.844457061368468,-9.292014256463908
301,8.908790697972824,-23.427075788382922,-12.105126544971387,-7.621529507170567
302,10.195473197339739,-23.969299631788417,-10.468724978992514,-6.0911508369823
303,11.009460574233149,-24.33590116921596,-8.92929956981304,-4.704075456483687
304,11.368853629163771,-24.525542199329855,-7.478089216931161,-3.4426126306331097
305,11.33221431964837,-24.546865882209588,-6.110723186140517,-2.2901629435519473
306,10.972338643307044,-24.41667160653498,-4.8320385982697305,-1.2441913651883316
307,10.353012761785797,-24.161258871016503,-3.6566351954758978,-0.31141071889252364
308,9.529510949042065,-23.817521880113375,-2.602819986505451,0.5057114251269466
309,8.56164611411451,-23.424537991531782,-1.6826875134115524,1.2124070202622137
310,7.505634925537408,-23.0093337955326,-0.8948607676842936,1.82069643023771
311,6.396977919363479,-22.580652872008006,-0.22761971142470244,2.344388734986951
312,5.250148235258544,-22.132451337678386,0.33004961974086755,2.7853314804808154
313,4.085277780506141,-21.652145369298935,0.7851769543338788,3.1354370889772847
314,2.9469247348341914,-21.12620736944284,1.14641293260294,3.3933324483541143
315,1.8787229485066808,-20.541145479845813,1.4291267934006557,3.57192979700166
316,0.8919768543837203,-19.887995216154664,1.6567819694050006,3.69006787376748
317,-0.03644039734232857,-19.16866964192664,1.857338727152044,3.758631047381157
318,-0.9265831855504806,-18.395519184517024,2.054252186031286,3.7833270775965753
319,-1.770696783676774,-17.58125314828957,2.2574511659519354,3.776643306075554
320,-2.5542460687416333,-16.726464493016547,2.4640194362533974,3.755736954247097
321,-3.2750099116579845,-15.81584070029315,2.6655511656987336,3.7358777589084804
322,-3.9470985796775118,-14.820890720743911,2.8558473440395455,3.731478395672653
323,-4.579177914815359,-13.701576362567694,3.0395165765150223,3.7585561688248856
324,-5.148826527651583,-12.407420063230449,3.231088165740027,3.8353604644900274
325,-5.6221354611076,-10.880991422605867,3.4428754774390113,3.9758876309099622
326,-5.99398272856845,-9.069798703952427,3.676929357641813,4.181090376946402
327,-6.294806791261925,-6.94501203351801,3.926607650168164,4.438703619597932
328,-6.551319770558296,-4.50640579302676,4.18365639998737,4.729277678815726
329,-6.755625224286702,-1.7742609854671128,4.44532884536209,5.039263325527886
330,-6.8802642616543865,1.2144354398587613,4.712867369599773,5.366639973255485
331,-6.9154993385202586,4.409589710121026,4.983638171402434,5.704772317876818
332,-6.8838350684057925,7.753452055127735,5.249986866059914,6.029899473565118
333,-6.813481140869841,11.186284052280477,5.503823712795716,6.309632125558243
334,-6.711772525071588,14.651679174273468,5.740170813803331,6.519551283275638
335,-6.5660354574314175,18.09584096605939,5.959287871120983,6.648796891270746
336,-6.375921832807735,21.462370725036205,6.164994234022298,6.691516033651958
337,-6.177950784326715,24.689214324384857,6.360362840487811,6.642219080262251
338,-6.021595120992971,27.71117102213142,6.5476546364537445,6.498565094873808
339,-5.931567341622568,30.4646575663285,6.730063191007228,6.262280777834145
340,-5.895803538109938,32.89737459194768,6.907065641788881,5.9420583884842575
341,-5.8973951749032505,34.98038172619696,7.071762721161082,5.5604673051922004
342,-5.942086065251297,36.705136062682854,7.219357251051429,5.156389645940944
343,-6.036817514609553,38.069358715335206,7.354001043891015,4.781193968518747
344,-6.166629033102543,39.07474300763606,7.486494681309969,4.488672187262603
345,-6.2990993991160735,39.73435421634615,7.628964066337327,4.322814966620431
346,-6.414590319622602,40.06957770482413,7.789446001671355,4.306863938818465
347,-6.5267653350427945,40.09993364248578,7.970534666463089,4.436184152307311
348,-6.663990538342939,39.83619707614448,8.173813035680233,4.683480436900503
349,-6.841031506026397,39.27811050407246,8.398414375809043,5.010139958947828
350,-7.0455523468148815,38.419619889438245,8.63358548382928,5.375446945852266
351,-7.259639256200436,37.25764858184701,8.859207831653714,5.7445685457318385
352,-7.485710162903616,35.79797583552022,9.054373659087767,6.089694250807462
353,-7.735133037474335,34.05777320427799,9.207445556166338,6.388166598680234
354,-7.9950832805149155,32.06556841433616,9.318791304941515,6.629996660470318
355,-8.218444907736107,29.85875764951788,9.392991150679133,6.82629992605411
356,-8.363914817815168,27.48015285776705,9.43137478269684,7.002229647907411
357,-8.430182327787334,24.97398729967923,9.433757926679354,7.181491739318929
358,-8.439875749123237,22.38206042438299,9.406033903088364,7.373294517869603
359,-8.40370464593081,19.746361278555405,9.361790778871143,7.566135092651103
360,-8.314420309026909,17.112872468747348,9.316315559911189,7.739903639790017
361,-8.172506273849976,14.521985855643441,9.284094336168268,7.8849566337249355
362,-8.002074563293077,11.994968249460381,9.280877122564343,8.000879712493212
363,-7.846755706395462,9.536629351663342,9.323792631594364,8.083929149157044
364,-7.738107927821992,7.148637664479222,9.429439056607162,8.132082912779847
365,-7.6683278816910105,4.8352504506429455,9.612454797529344,8.159855583798716
366,-7.607745479207739,2.6068682248755533,9.883077276643002,8.20298191104191
367,-7.5391925922453416,0.48602050202796754,10.240545258568892,8.30370575308317
368,-7.472533773851234,-1.495527000269064,10.666005355365012,8.486041651961797
369,-7.415262941691653,-3.3041494181780413,11.123765201534551,8.752564077922788
370,-7.3457536027231916,-4.907798250950953,11.572625441260058,9.101380370101436
371,-7.22824472859876,-6.279889109229328,11.981146286487826,9.533822707149616
372,-7.0383919690633086,-7.4065199646006885,12.3396685279751,10.047165848500667
373,-6.7707661637066545,-8.292984443739302,12.660879025830507,10.630343650586685
374,-6.488150494176904,-8.935053392359498,12.93712502704387,11.239761100570034
375,-6.062064843883778,-9.439986379328309,13.232306348170125,11.91169750745949
376,-5.439554831476423,-9.891721013477794,13.58179557067212,12.653754073331536
377,-4.633962062511845,-10.348685510432421,13.996486479317687,13.45064587681019
378,-3.699550115962952,-10.839955113454442,14.467446575954478,14.263295973158375
379,-2.702742966673595,-11.364770576809995,14.97073204148497,15.042033403890107
380,-1.7038568906346845,-11.900215087927009,15.472874055567564,15.749807361065049
381,-0.7605959114741494,-12.41291015405532,15.935804634547221,16.364566760130675
382,0.05760871627090532,-12.867108309575677,16.322706792679412,16.865174606498453
383,0.684026478085623,-13.231103515358765,16.606972673294734,17.231129265513143
384,-0.7029187128204097,-0.20737471263269802,-0.1512594535349972,-0.7075952258372291
385,-1.4227405352342184,-0.46344714257937697,-0.4668419974158751,-1.5305450809888326
386,-2.457383887152351,-0.8438607021245517,-0.9966052354269004,-2.707088248869857
387,-3.7962703831834936,-1.3625378646294315,-1.787568704823711,-4.239227621413528
388,-5.421566450829104,-2.0326505841013973,-2.8759592168826025,-6.096432502064199
389,-7.313530432183274,-2.8603532075642772,-4.276920347126954,-8.227323325200803
390,-9.434101178550632,-3.8301646850232918,-5.976978870854003,-10.563124015689928
391,-11.712484066181156,-4.906479859816301,-7.935952987241318,-13.017044532771529
392,-14.061427854732383,-6.04898703140165,-10.099123798928424,-15.494967076658629
393,-16.423142530949,-7.22336431863153,-12.41015146855003,-17.919466250023273
394,-18.79718020770758,-8.407714987528374,-14.824012802415401,-20.26285052952606
395,-21.127274087687134,-9.568784716191852,-17.28547717123579,-22.468145723530558
396,-23.31959137492821,-10.678559582336062,-19.741054692129005,-24.466723768822582
397,-25.285126893695825,-11.725460615358106,-22.143052283301515,-26.185032519766764
398,-26.979065540454474,-12.713885442446863,-24.448457783293993,-27.571784842659646
399,-28.38660256631391,-13.654154790401677,-26.60798926424953,-28.607301026282055
400,-29.487211523548908,-14.554995848978901,-28.55965066951051,-29.28355633427206
401,-30.24285658786975,-15.41777803124377,-30.23685474067511,-29.58746782681629
402,-30.629441723052373,-16.231947618028286,-31.583117090790672,-29.506831044447882
403,-30.668453437565248,-16.973905604846067,-32.56144566133498,-29.0466846386342
404,-30.4212210006362,-17.607463492140717,-33.15475507664419,-28.238375359499944
405,-29.948164858809474,-18.087803535016292,-33.36671616933809,-27.138884865992495
406,-29.28259913377482,-18.375650842989867,-33.22541655171867,-25.819755517651277
407,-28.451210926638396,-18.454222910306076,-32.78036136166923,-24.35891438726569
408,-27.49948850737689,-18.327598301627955,-32.09218245335919,-22.84501057010252
409,-26.498631635304573,-18.006534546075137,-31.219801806615543,-21.375876110271243
410,-25.512011381771416,-17.506559810706545,-30.21249851262444,-20.04051510195399
411,-24.562555479932037,-16.854350180990572,-29.110285413994532,-18.895664266689966
412,-23.652144006507754,-16.08195641789393,-27.94248090880571,-17.95893400618627
413,-22.78525811964489,-15.212082454392876,-26.722813138512105,-17.221646957950195
414,-21.969370480831806,-14.25291731662465,-25.45021252844866,-16.658070975988178
415,-21.19377940736934,-13.203635809039643,-24.119460088905374,-16.222196279965143
416,-20.424875204973247,-12.0623053338969,-22.734991413984037,-15.860159338856889
417,-19.63595706786841,-10.836128578035323,-21.320075099477545,-15.543001319798666
418,-18.83521769166539,-9.553098350402008,-19.91519915580235,-15.276268058537195
419,-18.07110327677897,-8.260317490344772,-18.562957831060263,-15.08081094819058
420,-17.39906066436504,-7.008254423226815,-17.295111920020517,-14.977325213560215
421,-16.845245731201782,-5.839376009307584,-16.13037939969543,-14.98131233031205
422,-16.401438529448335,-4.785746632147969,-15.07754118014638,-15.096528406664044
423,-16.0542626186468,-3.8688863765618557,-14.138582894814716,-15.307544814613973
424,-15.814209037151901,-3.0999371250238945,-13.308884161563721,-15.5814537501867
425,-15.685912694886527,-2.4802633505344556,-12.57594269618441,-15.873949567273113
426,-15.628498420432301,-2.0049562945130894,-11.920899176238583,-16.13155388411727
427,-15.568257968569531,-1.670666743151938,-11.325185396964581,-16.300107564209796
428,-15.449184939847454,-1.4786300278598181,-10.775447438975421,-16.342134044047715
429,-15.262881453844384,-1.4318413352727468,-10.264971250028578,-16.242340305572572
430,-15.023041720429397,-1.533963102847028,-9.797020690516788,-15.996750613265991
431,-14.727789947494582,-1.7845840378662046,-9.381183329901246,-15.602716706407099
432,-14.348347235440203,-2.171455294087597,-9.020220991793606,-15.057671300977937
433,-13.856116020902926,-2.668725013765729,-8.702591853393898,-14.364559653946607
434,-13.249687380575914,-3.23550896862813,-8.405311529941464,-13.535461849886925
435,-12.544062691324935,-3.8137090360141954,-8.098773528229572,-12.590841593064429
436,-11.744636229564476,-4.338193948061005,-7.751037932349726,-11.55635040735312
437,-10.835756416183795,-4.756644943261271,-7.336612043589212,-10.455395010459034
438,-9.814297505316853,-5.038407223847795,-6.844299139443209,-9.305142549930068
439,-8.721627267193423,-5.170190670233234,-6.278656899166272,-8.122130675551395
440,-7.622633680785736,-5.148834019120306,-5.658264815041916,-6.930865348367655
441,-6.558462402784109,-4.9774202294742835,-5.012607641667819,-5.762135160417987
442,-5.526078526783442,-4.66855256650971,-4.3774531133643535,-4.642721109828331
443,-4.517219768344552,-4.247102781657684,-3.7888856210468584,-3.5942098561630287
444,-3.5477330165771845,-3.742699881008362,-3.2765092585305844,-2.6397807068657566
445,-2.6359941714336115,-3.180057590103268,-2.8587241429848116,-1.8066846347422816
446,-1.7737616906248084,-2.580930333356209,-2.541481007176199,-1.1216029184208867
447,-0.9273853184654316,-1.972341569599046,-2.3176504984087773,-0.60211424247708
448,-0.07733314281138409,-1.3925169028287416,-2.172655616048795,-0.25349931486865274
449,0.7567800809059425,-0.8900952879039565,-2.098256917560153,-0.07873279065563042
450,1.5322343165603622,-0.5158738222536269,-2.0978019589962353,-0.08911175344264907
451,2.2199699611406847,-0.31455570050838955,-2.1792192696977595,-0.2920849638970552
452,2.824694803505083,-0.3204854606725611,-2.3477493261621634,-0.6718690739013478
453,3.3587198457351803,-0.5572675445609667,-2.6058155574747413,-1.1915485146720808
454,3.8074207209660162,-1.035651207622107,-2.957228236232285,-1.8075817110990584
455,4.131247860990896,-1.7477418363673909,-3.4005828053113705,-2.475292324330633
456,4.3078218569598,-2.6664775519240878,-3.916880549366033,-3.1447077376180443
457,4.356827130705967,-3.7543440064133744,-4.471190838796584,-3.7608753647223194
458,4.312612674201994,-4.973506731486316,-5.0258335274589445,-4.268126668195999
459,4.184982406755803,-6.288825424364453,-5.550981494029406,-4.625161599387738
460,3.950624376278239,-7.668228832179162,-6.025333366449102,-4.825667394342869
461,3.592696013979853,-9.085412173463489,-6.432400849177396,-4.893667938609842
462,3.131113519118344,-10.521220536974075,-6.7612658078972,-4.865387029423441
463,2.60861257566874,-11.96124259597269,-7.009659036447961,-4.78122319132368
464,2.0665484946338593,-13.387792526102924,-7.183512158289277,-4.682511103409659
465,1.5261652222867652,-14.772372247026105,-7.29177514318422,-4.604462269775296
466,1.0013153793662377,-16.079267240625086,-7.337389741187255,-4.560887821685504
467,0.5237875384305999,-17.27775513133781,-7.312589030820065,-4.531444961285423
468,0.1369559793817594,-18.349875493377848,-7.206465775261354,-4.474282960072925
469,-0.13632035019589056,-19.289839150565864,-7.014157202587035,-4.352283411154968
470,-0.3123832966864401,-20.100202522185523,-6.738032477568614,-4.144798265957785
471,-0.4231380060470704,-20.788395620650334,-6.38493316178775,-3.8518046450531656
472,-0.48951228165939575,-21.370517229634626,-5.967292344202308,-3.4949659461202134
473,-0.5211596065578098,-21.87490574269028,-5.509110399898356,-3.1123444603811317
474,-0.5383862393717682,-22.33431163122632,-5.041009160079347,-2.754299528339219
475,-0.5896872612052354,-22.7729785224642,-4.587786941589121,-2.4768247602361235
476,-0.7209370885392516,-23.197354412077104,-4.168643784575937,-2.3209959655253685
477,-0.9365761864099917,-23.595841767820563,-3.806653134930006,-2.290075287691543
478,-1.2119257227825488,-23.94893409298751,-3.5194003154090154,-2.3565863023654905
479,-1.5381948132237961,-24.244145244867834,-3.2869118679182954,-2.495615915486416
480,-1.9436922596079604,-24.479452118460134,-3.057161217913147,-2.6997485237911762
481,-2.4702403967294653,-24.653573984412333,-2.7941387671291085,-2.974055529339738
482,-3.146025884294703,-24.761589530121636,-2.485446817711052,-3.3410747458900203
483,-3.992522070964032,-24.801532908841217,-2.1104943698820122,-3.8417285313772664
484,-5.050363123787875,-24.77748780657549,-1.6326445459467074,-4.53229155402766
485,-6.374530892030611,-24.6936602235814,-1.0235052010495493,-5.467535970817263
486,-7.970246969307196,-24.562132977369135,-0.30080582541992784,-6.633221231460094
487,-9.726922638681211,-24.420133982472606,0.4535216252697421,-7.901060344695448
488,-11.44533883621934,-24.322623564280182,1.1268422471634045,-9.062609600401938
489,-12.90438431479379,-24.328810475736383,1.6486095053243806,-9.898144343054202
490,-13.976000459284384,-24.45579094590571,2.0325327719802257,-10.30983216639761
491,-14.774327106672217,-24.605539061343062,2.3524461214536108,-10.430397286092116
492,-15.575824906638038,-24.598794279546674,2.698899615242976,-10.553799063923018
493,-16.623712069780673,-24.28409941012187,3.14808577824633,-10.977992750476211
494,-18.062288000919835,-23.580342868924063,3.7394753473680664,-11.893567557696628
495,-19.909725715721446,-22.482267357608432,4.4586484022053146,-13.34321107641743
496,-22.04175170127174,-21.09954347635542,5.22677452638629,-15.205632950027795
497,-24.203151408157495,-19.618091419318684,5.915852441915203,-17.1890355328346
498,-26.06814438403366,-18.18068172625605,6.391011363422059,-18.902147349533376
499,-27.34339517395822,-16.86204792006215,6.541076884572868,-19.99041867133742
500,-27.824147513401464,-15.714448342634544,6.281595762568711,-20.21970707733539
501,-27.420624910749478,-14.774820153062358,5.560107604745985,-19.4944045233798
502,-26.366483819258054,-14.067968670310607,4.58789058795523,-18.054150044431918
503,-24.42854900509517,-13.597019842724794,3.05150282871785,-15.71340464930504
504,-21.712191257210744,-13.299480922584689,0.9109870347703994,-12.63807421695153
505,-18.553444994811418,-13.070650432494014,-1.713285014934258,-9.198688238303191
506,-15.343925161967928,-12.816022451669813,-4.651381669622648,-5.791233076327707
507,-12.3791845828726,-12.498701894150168,-7.738987287201613,-2.6975340312157687
508,-9.748786330665329,-12.176336368945044,-10.810480375307241,-0.002277275801968376
509,-7.392714189505422,-11.962918048118443,-13.688745980248363,2.340165185471933
510,-5.304337903965812,-11.919828040664262,-16.20817049848691,4.3614402838010315
511,-3.5584642938165194,-12.027097412924443,-18.238960035545553,6.039562043841019
512,-0.034688978722579755,-0.651135582661981,-0.897871596124325,0.07294906270499774
513,0.3787169833367095,-1.318401086789624,-2.286941459061308,0.6264863802376783
514,1.1349176270902797,-2.1636795630096657,-4.389339330268314,1.5075106037012524
515,2.2830397239684097,-3.1500687865027506,-7.2387501110945465,2.7142020117314467
516,3.8085228536874682,-4.223568501016291,-10.796170571147277,4.198597724271346
517,5.635781288190706,-5.3199471303459624,-14.951071416258584,5.868404898800193
518,7.660697448601283,-6.374988623958003,-19.535983696564035,7.599573547742121
519,9.779814803230995,-7.329643079998066,-24.351576562504036,9.260506289129646
520,11.891614551207105,-8.14515786248595,-29.196875458215345,10.729808416813027
521,13.882988714313447,-8.827176538171962,-33.90913977627795,11.908857372298916
522,15.652007350540096,-9.441653104042654,-38.416904542158626,12.74191840529837
523,17.147943816910566,-10.049636614722733,-42.63646958724537,13.22025712107475
524,18.36442835219025,-10.691166803429423,-46.51804948163509,13.358046920018428
525,19.305592192999523,-11.372806890502206,-50.03723569243937,13.174909535743115
526,19.96041996104406,-12.08545928903011,-53.17130967916339,12.689587188120168
527,20.30790325243717,-12.825988329133306,-55.89313639046689,11.917097367604203
528,20.336160039151615,-13.596618161730591,-58.176985346426896,10.872503864251811
529,20.02926318885507,-14.396905247928036,-59.99954354020177,9.572392323394284
530,19.358499966944347,-15.221839222296683,-61.348309725743896,8.040802623996024
531,18.300320250614913,-16.05849370931809,-62.22738855623302,6.315583415408577
532,16.85013569078754,-16.889679993286453,-62.6531755877693,4.4430603495465615
533,15.037866531214368,-17.703233939354558,-62.64974309600216,2.4714522812857274
534,12.930675102926642,-18.49067499751967,-62.247620482060526,0.44971200134966294
535,10.59721049346395,-19.241875755110076,-61.4839427724934,-1.5750186913210729
536,8.077210873313634,-19.94843145310057,-60.39750540126141,-3.5668275190972754
537,5.393665742206836,-20.605720809234718,-59.023908697495656,-5.505260698869112
538,2.584653269004405,-21.207420000313444,-57.3955016116238,-7.379743237917328
539,-0.28321606574448177,-21.749987885333475,-55.54030891970873,-9.184781666546137
540,-3.1501255303539164,-22.24487413333659,-53.48171179422774,-10.913873955997214
541,-5.991967479300003,-22.713440176618285,-51.239829945417156,-12.560125436266855
542,-8.797292840497004,-23.171192285857266,-48.83392886973183,-14.123471712407511
543,-11.538500474790506,-23.623531523602697,-46.28744082934543,-15.608663507633867
544,-14.165397772686692,-24.070893399702936,-43.63053999319697,-17.018473162453855
545,-16.63689308650261,-24.514719824058734,-40.89698601529675,-18.351469668330537
546,-18.944338677796154,-24.95387852352726,-38.1174238778773,-19.603465366162208
547,-21.089977157350717,-25.37138694641966,-35.313659734355106,-20.76966076560773
548,-23.065839841131957,-25.73465139878691,-32.499001244523335,-21.84637845184355
549,-24.850597629850636,-26.0120279730797,-29.683058986078834,-22.829135061970938
550,-26.427107383699106,-26.186474860298848,-26.87449135294141,-23.70728235657321
551,-27.797837814890944,-26.256588773223896,-24.07952392741474,-24.46240858946558
552,-28.97492049018984,-26.22933242933582,-21.298962037484895,-25.07326430874306
553,-29.9573733440149,-26.116864335785113,-18.53259963687312,-25.52350339572693
554,-30.719145373635907,-25.934394969175468,-15.789961173649436,-25.80553816146064
555,-31.239174502446218,-25.69327553998513,-13.092387963750904,-25.921965357222696
556,-31.543447098971008,-25.399005500354715,-10.466997997167772,-25.891804089144635
557,-31.691156907757353,-25.053782471476314,-7.942326249835643,-25.75613411569282
558,-31.724973802976493,-24.660370435775324,-5.5459238308869505,-25.56927618139677
559,-31.660792986140876,-24.23001719496856,-3.30195214452791,-25.38387058077352
560,-31.50997106509304,-23.784407400820893,-1.2279607068576976,-25.250338924392228
561,-31.28459772858391,-23.346296504737698,0.6651295930077961,-25.217708662252576
562,-30.981919007912165,-22.9342319464959,2.368012505044251,-25.3258349287712
563,-30.564975579056057,-22.56792745554656,3.8724417990182998,-25.60041544926869
564,-29.972695338119337,-22.268397532475444,5.1764464069261855,-26.046050777414198
565,-29.152861177955092,-22.04256314733845,6.289462070972978,-26.63811775383998
566,-28.084027003019568,-21.867781243940364,7.233475209578077,-27.32656715142312
567,-26.77198447989651,-21.69906031507908,8.039806867182874,-28.052769207410403
568,-25.21938732400839,-21.491156456922337,8.74315318368536,-28.76522271417535
569,-23.41898587301588,-21.212211341401765,9.37728043650344,-29.421424622166025
570,-21.37783159367652,-20.84256005144151,9.976687962381146,-29.98225221013205
571,-19.14585080359545,-20.365380785139386,10.575474484628211,-30.412825919386325
572,-16.832337049891134,-19.76523300627535,11.19975468701785,-30.691599982407645
573,-14.570628802842052,-19.033702227107558,11.858687144137885,-30.81517686083174
574,-12.47658311191941,-18.17427832360523,12.538605057328397,-30.79483780564139
575,-10.642733347548667,-17.20832847977209,13.20876801741008,-30.652095837087867
576,-9.138547366469584,-16.17274304692984,13.834964123251392,-30.410040760187897
577,-8.020565584457264,-15.107654489511951,14.388315243952215,-30.087093809576125
578,-7.344208272167293,-14.04502539598493,14.84880860407756,-29.703697914067
579,-7.145389239659279,-13.002480965264446,15.205895114705521,-29.281830060641152
580,-7.404650791218411,-11.983133571356607,15.455535774563778,-28.829102821473537
581,-8.048923655356187,-10.982413215320392,15.598704443284882,-28.337556444929223
582,-8.986886185769164,-9.997762217529782,15.643172257229228,-27.799641232551
583,-10.12868139830824,-9.03048216572461,15.60429472146238,-27.21382389503336
584,-11.391636996029467,-8.078561994123907,15.505105254988502,-26.57710964774897
585,-12.70662383556769,-7.129910752859113,15.37374890642276,-25.874515190898922
586,-14.028962155487898,-6.164413499520632,15.235925765590391,-25.086143883574785
587,-15.340822442554279,-5.161492223468687,15.10708461916355,-24.209933505306815
588,-16.62858696557318,-4.104870147165872,14.992396943373409,-23.263538095101868
589,-17.844216316480658,-2.9846918089431576,14.892498572411466,-22.265798544361466
590,-18.899176781496156,-1.79311327803602,14.804997762112125,-21.221761638030625
591,-19.714718790188222,-0.5223226479622725,14.724447583209766,-20.12244111140355
592,-20.25864192494849,0.8273497675906756,14.642152003630626,-18.955694067271118
593,-20.533898355291445,2.2450586823078584,14.543086838115046,-17.718667549982687
594,-20.553611761259194,3.7136613244016106,14.408120707420567,-16.4257121354516
595,-20.331916410532894,5.208229826942817,14.221717213766127,-15.101064882757049
596,-19.901597108115762,6.690833485789101,13.976773270546552,-13.771942487957785
597,-19.334828876813884,8.114050094098694,13.676886195418737,-12.473915841391426
598,-18.73020952723369,9.43163259613589,13.334557563500914,-11.246083576998544
599,-18.166474593023555,10.60257422831887,12.964991232302484,-10.120991639347919
600,-17.67978090244367,11.59807674286823,12.582868569531586,-9.123934765776882
601,-17.281681706757286,12.41346239924749,12.201848726563123,-8.272717400840785
602,-16.97693507195379,13.065114314807213,11.833053079109643,-7.577956453355803
603,-16.767019741625493,13.578314632117143,11.482977903212406,-7.044831172744503
604,-16.63119709143754,13.979323243449706,11.150899359699112,-6.667385440039912
605,-16.520288122962093,14.28871945632241,10.82803759682921,-6.43106129894399
606,-16.391237246129656,14.518097038745223,10.500954901005056,-6.326574283073526
607,-16.233159911382778,14.670898187129888,10.15680372674646,-6.350202781459519
608,-16.061834039178013,14.746561450167722,9.787249790599606,-6.498220715387735
609,-15.89431652365869,14.749677653048025,9.390602829062946,-6.7642654799841235
610,-15.732713387829486,14.68634990789157,8.971709459232391,-7.132012546497969
611,-15.571986348210245,14.546866465058924,8.540067189265496,-7.566291592933795
612,-15.412869529616598,14.308362136119865,8.107816291185356,-8.02144671525548
613,-15.26918535744971,13.955039166111714,7.689746077420124,-8.465950657422123
614,-15.155321403383269,13.483583139164596,7.303076730716154,-8.88496034164614
615,-15.066026588974546,12.89894901117248,6.963838311357152,-9.265336730535182
616,-14.980550751402719,12.209044337209843,6.68055919690148,-9.592059200615408
617,-14.891393113491997,11.413556180979041,6.4478136384394515,-9.852645427885864
618,-14.822943253322391,10.498833993363636,6.247530397365727,-10.04336241970321
619,-14.805279897120656,9.446016443119202,6.058135284614547,-10.166067405656342
620,-14.837911866911174,8.242600935713945,5.861852195681278,-10.215070444801736
621,-14.887482383956762,6.885365790832494,5.647184688831324,-10.173469061197524
622,-14.919562411087654,5.378671356722319,5.408458874740792,-10.022800753651145
623,-14.92534281529586,3.7373427632166365,5.144983880662048,-9.75183125827658
624,-14.90886777244441,1.997206242917346,4.8631020843393165,-9.36162091102778
625,-14.860744987069479,0.22462530524940272,4.575823395131885,-8.86637182001067
626,-14.74677412040344,-1.4916020904964182,4.296060190577725,-8.282461031839533
627,-14.528509208887574,-3.056644524976875,4.032927896868035,-7.618820512646391
628,-14.188844114414827,-4.3830780870134065,3.7947478131058823,-6.8788227985391375
629,-13.720722170399052,-5.406440346601022,3.5912704931852146,-6.056094454721849
630,-13.161606183587923,-6.151160741276834,3.400897684932769,-5.182025516206898
631,-12.399808012386941,-6.548019361889145,3.2780519488389843,-4.107946796992277
632,-11.418562769332496,-6.595407861587653,3.24834229179877,-2.787667094391456
633,-10.267678619445919,-6.340683011525749,3.3191411187960633,-1.2531292078746334
634,-9.018317831197706,-5.860268744455242,3.48595053339856,0.4185363173215376
635,-7.73537501611621,-5.243998196776115,3.733444979555439,2.12806706542352
636,-6.4819729848740435,-4.585810286777669,4.034710258524013,3.7687799500318255
637,-5.337497884445917,-3.967955807294577,4.355913027012371,5.238521022998964
638,-4.387416050299408,-3.4468763428222484,4.664254351994336,6.452701564805753
639,-3.6887202688079794,-3.049198916846337,4.932000542889379,7.356592912434259
640,-0.060846782482540274,-0.20738039049811235,-0.4296332359037327,-0.3462225388625178
641,-0.4628974309016211,-0.48061029334821204,-0.9862607229731488,-0.8887548734685595
642,-1.1593483782614848,-0.8754374113614969,-1.7844830550795732,-1.7066651428388315
643,-2.172105677759075,-1.394299845805754,-2.817817754044314,-2.8076423267236086
644,-3.5184482823992806,-2.031988292371263,-4.052297176216469,-4.177515967674421
645,-5.202657851366077,-2.7765456470019174,-5.429422327501967,-5.786430305711232
646,-7.1850638332632535,-3.6121416441387435,-6.874745689402796,-7.587470969570691
647,-9.379619759697022,-4.525896059743055,-8.309419450447743,-9.509739864154914
648,-11.679816266433058,-5.508908794657723,-9.663285296979714,-11.470705781998253
649,-13.992377457461876,-6.552790309635071,-10.891648967722134,-13.404930353215727
650,-16.25295766305807,-7.655820181375455,-11.995869050766109,-15.287533867599535
651,-18.385502435579802,-8.805191517472437,-12.975053783937636,-17.089751800376394
652,-20.325312904441017,-9.986234742484852,-13.840391746618273,-18.796958858910134
653,-22.047378867005975,-11.183530549367497,-14.608424353845834,-20.404420945328408
654,-23.56858345787171,-12.380596630235447,-15.290583388911703,-21.904450626501745
655,-24.9108302807903,-13.55649591033704,-15.890317011893325,-23.274445654905684
656,-26.07573659221658,-14.689457992830336,-16.408600829662923,-24.486242186841434
657,-27.0590933325176,-15.7684206416739,-16.84525033235957,-25.52527699509642
658,-27.880070153190996,-16.795588369857178,-17.19950413933684,-26.390379021107087
659,-28.59357679916315,-17.776669088767232,-17.476034876593545,-27.084052322516857
660,-29.24899734942829,-18.714001239612443,-17.685165798066986,-27.60553611763893
661,-29.836566722595972,-19.608836442439543,-17.83466645122002,-27.944415983843285
662,-30.296342002635626,-20.46067125870745,-17.928456274849694,-28.08175561677616
663,-30.57432477983603,-21.262843521579814,-17.971710982722055,-28.00061708399994
664,-30.64952681036186,-21.998311420414062,-17.97154723624071,-27.700167455840965
665,-30.512964993881905,-22.638928051205074,-17.935567840968645,-27.19693681716177
666,-30.14607909333038,-23.156149746535615,-17.86978824277113,-26.51030237626081
667,-29.522974180260956,-23.52934510500795,-17.774783899604042,-25.654047920263412
668,-28.641244631014413,-23.74254064844042,-17.64480281190149,-24.634773875490392
669,-27.54227070066183,-23.781883528769704,-17.470083860293705,-23.457444460382604
670,-26.28692368457273,-23.640658124915525,-17.238227855311106,-22.140256666722202
671,-24.920854690486987,-23.32766943838069,-16.937957414218964,-20.716122851514797
672,-23.46165577049711,-22.86952460647919,-16.56549091571305,-19.21922190201989
673,-21.926872762544626,-22.302294831557777,-16.128096096657256,-17.676476764531767
674,-20.365090743774267,-21.658323061320452,-15.64108726415819,-16.10984004258881
675,-18.83632743918418,-20.961008544690724,-15.120093515468383,-14.544599015455557
676,-17.369425206156112,-20.22746990547945,-14.576561270536367,-13.009593283074526
677,-15.957746305573881,-19.468033530223483,-14.022309899102973,-11.52967582166275
678,-14.609772735473456,-18.684455695915418,-13.477355405514901,-10.129169338505976
679,-13.377246279290302,-17.875247789051553,-12.966651029358085,-8.837869582364844
680,-12.320570526765252,-17.044569832469353,-12.508902283563437,-7.686907917169546
681,-11.472879249273518,-16.204248366355444,-12.113297148897459,-6.702027936716917
682,-10.835617901457669,-15.370994119356052,-11.782454366963114,-5.895631682372082
683,-10.403404992454147,-14.56395272995092,-11.515350403268771,-5.264099093172788
684,-10.183379265759935,-13.803698474236159,-11.313237707633158,-4.797043088639725
685,-10.184015749485672,-13.109343822635111,-11.183611980808223,-4.48869298617986
686,-10.388221110826331,-12.491814285193268,-11.137682191824783,-4.337715997044466
687,-10.738212435842579,-11.95198482036791,-11.189680683600866,-4.335128608148314
688,-11.172062916826523,-11.481569855014085,-11.35688193981335,-4.468940952440728
689,-11.671071574873999,-11.068968341901552,-11.655426015565935,-4.7441928257141015
690,-12.24891546949578,-10.71038843381209,-12.098026752410515,-5.18187495509859
691,-12.90595511371335,-10.413106824549448,-12.693030015421954,-5.8000455645083715
692,-13.616871690179078,-10.193535996492512,-13.442031739243937,-6.598856484122746
693,-14.35923406521396,-10.074462784992631,-14.335854052191461,-7.557412652897828
694,-15.130462512704847,-10.075709896968574,-15.352004182682586,-8.640952946452758
695,-15.938453756770787,-10.200866467329776,-16.458046996695938,-9.807778408785788
696,-16.768848015476415,-10.432389018714991,-17.615019799195093,-11.00819967619418
697,-17.56654254838139,-10.736964190427393,-18.781381542411463,-12.18403300657542
698,-18.261633806941816,-11.073373944257979,-19.920385696018517,-13.274777928430709
699,-18.79721707276363,-11.401661208687964,-21.001917703002515,-14.226376265683887
700,-19.14087801075374,-11.691688030898066,-21.997498744636392,-14.999136216648248
701,-19.26902095150186,-11.924635101204991,-22.8764915448671,-15.570921835433706
702,-19.14523727061271,-12.091432115898623,-23.609780143629123,-15.931696365304065
703,-18.737012620824935,-12.197315264063334,-24.17876222630798,-16.07463529654706
704,-18.049650041181135,-12.262169371554855,-24.57588236064113,-15.997645066026704
705,-17.13060507560244,-12.303898351953025,-24.794048238291666,-15.710542581380798
706,-16.02288364076626,-12.322627602713233,-24.821088562115843,-15.22865041907285
707,-14.734704002745596,-12.299378660408031,-24.645650889765356,-14.566626590044331
708,-13.26986944568798,-12.20165965530006,-24.26650954479568,-13.748770640429042
709,-11.657666548946224,-11.98879131142683,-23.697479099870794,-12.816476071760853
710,-9.953545536828331,-11.61895197639118,-22.964943341833788,-11.822237251788014
711,-8.215447903391423,-11.06140278458244,-22.102337812867354,-10.816757173600932
712,-6.472736960871807,-10.309192237553749,-21.14488949416994,-9.838860658036564
713,-4.726787924404199,-9.386333880760931,-20.127137573514236,-8.914666906164207
714,-2.994027476491699,-8.34229591254691,-19.08439004224092,-8.064596918976823
715,-1.3357863340873992,-7.2379910041564015,-18.051531279734082,-7.3108885207052206
716,0.16822351115283918,-6.133644095437729,-17.061217699530324,-6.681483564591297
717,1.4645597817549765,-5.079594967874279,-16.145187821535252,-6.201129914103881
718,2.540832938750169,-4.111890381951071,-15.330003434738963,-5.8752094778266475
719,3.392007950625349,-3.252050289881767,-14.6295827319897,-5.6882072370374095
720,3.993314236841719,-2.5054107154111924,-14.042858020614446,-5.618343101789096
721,4.322863938411617,-1.8601261596885452,-13.557286915213863,-5.650043632967865
722,4.386820726437005,-1.2965376126039216,-13.155498921154795,-5.76679297173256
723,4.221798224272828,-0.8020630804623025,-12.81881616034377,-5.942369227813247
724,3.8609287047987224,-0.37162837944782107,-12.525789093335918,-6.150383839309647
725,3.3023618518587736,-0.0008568649876428275,-12.249679488106722,-6.373252000244621
726,2.5319537506580225,0.3102767592245822,-11.96005491298707,-6.599649254532815
727,1.5492853250189433,0.5566913204201243,-11.630521059774571,-6.820605906153532
728,0.3725663600876807,0.7391778122842652,-11.246006028175884,-7.025242082891853
729,-0.9751613879155843,0.8721347570381215,-10.802022572150785,-7.199768397856648
730,-2.482212385793162,0.9822320101381907,-10.29980665240444,-7.331161733780832
731,-4.131937901861324,1.099434548447288,-9.742622289943219,-7.407800162816582
732,-5.868718547755514,1.2458189146986076,-9.133095089304584,-7.418922936744913
733,-7.58955140707058,1.4323414073337204,-8.47343299798858,-7.350901092401683
734,-9.192363456596386,1.6603928470150673,-7.768154640409911,-7.184677565358638
735,-10.621269995654371,1.9211039337360372,-7.024873874635444,-6.912333259828549
736,-11.850498031894016,2.192773457606737,-6.25244665681721,-6.548766219104006
737,-12.843876422436324,2.453003444979827,-5.457242677427244,-6.118284004238878
738,-13.54475879030908,2.702202924459338,-4.64216171554008,-5.6428326918438465
739,-13.915915772818733,2.970098670333447,-3.812534861977701,-5.144398379996234
740,-13.976636321104673,3.305683633516838,-2.9800731771956137,-4.6506513428279375
741,-13.784514661032123,3.763829141895145,-2.157999601896295,-4.188114503144816
742,-13.381824300711445,4.392317092381174,-1.3547144611307687,-3.7684883458995895
743,-12.774200193207315,5.222102197019612,-0.5723431973851423,-3.3875216049435934
744,-11.96454491969883,6.26200236991786,0.1945591139054773,-3.033006018462454
745,-10.979839825033814,7.497550835235839,0.9611567155262475,-2.6901522635215303
746,-9.864471384223814,8.89454460372072,1.7474180739142775,-2.3431677522190593
747,-8.653706192595155,10.40650165499699,2.5691410847216956,-1.9752103172443087
748,-7.355973170537564,11.982500074509108,3.435125270569368,-1.5690348881939296
749,-5.97251688270871,13.575458990758479,4.345642790989353,-1.1069352184767514
750,-4.5327335016273205,15.150025991838557,5.288613262254187,-0.5785577415458317
751,-3.104004973939326,16.68480082058634,6.241136726077558,0.003539954709350951
752,-1.7475462300379805,18.169721081281057,7.176160082249944,0.6105648317629051
753,-0.4821693070491021,19.600535449665085,8.068358748976905,1.2261863711735064
754,0.6979113965720691,20.96839626277385,8.896619161358549,1.859219797956519
755,1.7979873752119289,22.247781831064135,9.646863656416903,2.5310295884603375
756,2.815782311280241,23.400796498120904,10.317396623865541,3.2613845392744985
757,3.765733841037863,24.394933966639286,10.92010791828919,4.063820681969969
758,4.6516062702198955,25.228838204897553,11.473509579247937,4.927803423627913
759,5.592470506292072,25.86893916908769,11.99622827554637,5.885148284914675
760,6.625576019624209,26.308556991175383,12.49304596315655,6.923956411223765
761,7.734223086036618,26.564489828021333,12.959435112573138,8.002476614887492
762,8.883485313668444,26.66768596294571,13.384549148528555,9.063249272494538
763,10.031336323969178,26.655397440679497,13.754844884119265,10.047489393346227
764,11.119967219444884,26.567047079765246,14.05833427325656,10.9064739222551
765,12.077067004373237,26.440420037800322,14.287119873183437,11.605421987317852
766,12.836500245805802,26.307094886792402,14.439931947127365,12.122633916778714
767,13.370913961562152,26.18858829818468,14.525526767118185,12.454971772445425
768,0.06786988176863706,-0.1821935315039951,-0.42119408575188916,-0.4835449921344291
769,-0.18265154860957072,-0.3400134827314608,-0.9329672912533238,-1.2791398571870367
770,-0.6400871412095707,-0.5762572142955961,-1.68358417266237,-2.4675266742856494
771,-1.3529470396785266,-0.898748065254647,-2.6926575583923538,-4.044802643030293
772,-2.3664104718694574,-1.3000848093981123,-3.9591277408423964,-5.968213978848922
773,-3.6931054360214546,-1.7585228322153803,-5.457992047991546,-8.160829282775783
774,-5.298635231839271,-2.250161299333342,-7.141437774296464,-10.516751042777127
775,-7.114941673686951,-2.7643053472958874,-8.946151733935846,-12.91398355430972
776,-9.072075711437638,-3.3135594346514274,-10.805631561059164,-15.240015323125656
777,-11.110286439044817,-3.9392444221594607,-12.665215936062365,-17.419192279473837
778,-13.170882951828446,-4.708014202999555,-14.500325514137131,-19.43577165882016
779,-15.179151903633338,-5.674101403069552,-16.268193032150077,-21.269604016917565
780,-17.061053836042113,-6.879433192761589,-17.925406506358165,-22.901534278400213
781,-18.771444107327657,-8.355685994008885,-19.430399007412987,-24.30927374994432
782,-20.289618387641944,-10.116963370913412,-20.749225659822198,-25.472233044715672
783,-21.589509727126547,-12.149331641572344,-21.86063966572887,-26.368538670830045
784,-22.630078371947498,-14.415281393633071,-22.75435691241363,-26.96829295025345
785,-23.385586538831294,-16.859178912161397,-23.42740473183384,-27.240679245470336
786,-23.85966435363534,-19.409141215147557,-23.883293918377642,-27.174023741583913
787,-24.06592307175475,-21.981925762242252,-24.127822519862733,-26.781978142373198
788,-24.00768028697993,-24.49244705802965,-24.165102356596275,-26.09365504391972
789,-23.668317345215716,-26.866909215704496,-24.004174862984975,-25.146312077574116
790,-23.039485903806835,-29.05062105271258,-23.666082241092006,-23.986491006951635
791,-22.14597096241425,-31.00644856495476,-23.18244696721087,-22.667633165433408
792,-21.031759223428622,-32.70815144629085,-22.58902388330196,-21.237341659482688
793,-19.73468531158673,-34.1395784415875,-21.91893734474688,-19.729233942446708
794,-18.27809335513924,-35.297113641198656,-21.20117602433995,-18.164860609248088
795,-16.699596656898688,-36.19288750129982,-20.46232583266944,-16.564368544701757
796,-15.073874909753107,-36.855634967057654,-19.726553897166603,-14.959109751404588
797,-13.49656901908852,-37.32085137994525,-19.01375771920461,-13.397833581195542
798,-12.044760107265384,-37.622096310410406,-18.339830634179737,-11.938222647550212
799,-10.75172805884682,-37.7926535810646,-17.720292591429452,-10.626806656981087
800,-9.619765769277299,-37.868093171876794,-17.166409434646237,-9.495022370179557
801,-8.648713510625168,-37.87908842667106,-16.676737355138336,-8.56921127391562
802,-7.851703284282971,-37.84556511994683,-16.241299297801618,-7.872066142766144
803,-7.237305095203518,-37.78408762878412,-15.85175333186426,-7.415648025691586
804,-6.792472132413785,-37.717282479250734,-15.506661565231592,-7.193668774355498
805,-6.495325181653245,-37.676087741545054,-15.21473294478376,-7.182421683560756
806,-6.341079648936746,-37.69077721927813,-14.989794964088397,-7.3509979395158265
807,-6.35258936870051,-37.77613479441122,-14.837179971016333,-7.668515433887406
808,-6.546356958109941,-37.92443986363729,-14.750662172046972,-8.105943280486237
809,-6.9030692413804084,-38.10749304492432,-14.720826473346978,-8.638651124826612
810,-7.376741245676896,-38.28255796873434,-14.740691400089496,-9.242384403582118
811,-7.918715067555153,-38.398289997140985,-14.805765994231578,-9.888312084893556
812,-8.496814476092228,-38.40170613011413,-14.912119428629365,-10.549031299273864
813,-9.082763990660796,-38.24623373082945,-15.05529056333312,-11.201392385515778
814,-9.634601425031835,-37.8993921184797,-15.231124181874522,-11.821739086836926
815,-10.10263680318633,-37.345797476132496,-15.437326991704278,-12.38360331778429
816,-10.458005539490545,-36.58032106995117,-15.669045914596127,-12.866439617441669
817,-10.718033740062674,-35.60095498934501,-15.91535344638891,-13.264975762075636
818,-10.930057641570597,-34.410915159076154,-16.168012542147938,-13.583369738866354
819,-11.133817999546013,-33.02624299760211,-16.424870465714584,-13.827079558473462
820,-11.339113068523888,-31.478217780479532,-16.680621145899106,-14.00097460725379
821,-11.545533146728006,-29.805352229897487,-16.924386768820774,-14.108085386909357
822,-11.766406844064887,-28.044398006845384,-17.14545076711444,-14.148187566021592
823,-12.012708217765926,-26.228886268965294,-17.335617816531954,-14.11542763623095
824,-12.267776331809596,-24.39026936490955,-17.488280708780078,-13.996715709235032
825,-12.487850275009958,-22.5546163261526,-17.59819320499098,-13.77640005197463
826,-12.639719034238704,-20.740367708652773,-17.659164070999623,-13.440962064529026
827,-12.726880264457792,-18.96014851407141,-17.66135850753009,-12.987363960294925
828,-12.773376612665023,-17.221737939062027,-17.59346324815813,-12.43755337506326
829,-12.79362874500028,-15.528208170260838,-17.447074564328997,-11.828209895413648
830,-12.776264705238564,-13.876403028859793,-17.2202473896556,-11.185111470188653
831,-12.711260205228248,-12.257853674629489,-16.918911460458894,-10.517737277211959
832,-12.619008854162841,-10.663427203222708,-16.55411154068201,-9.82950953054211
833,-12.532988743029357,-9.086664744177433,-16.140315849663274,-9.12702458034002
834,-12.458989234443525,-7.528656237518782,-15.697690063364341,-8.415100668121347
835,-12.361630255339808,-6.001760645820775,-15.248312339440242,-7.691465084678373
836,-12.201656940311636,-4.524201627270982,-14.807654068516324,-6.954240951653739
837,-11.979509479061244,-3.109273331630668,-14.383567740568411,-6.208115757930322
838,-11.741042186581412,-1.7615855857790095,-13.978418368018053,-5.46813887092046
839,-11.536222054466746,-0.4826077142072388,-13.584208822332078,-4.758813200527675
840,-11.386798486298364,0.7250030117801043,-13.180170132623477,-4.10342431874896
841,-11.300499930102525,1.8565598335717703,-12.743192312535838,-3.5149964246625505
842,-11.293733139285218,2.9053704607028235,-12.260175198461035,-3.0019657887309354
843,-11.393585424238172,3.8654075771864753,-11.73364058255925,-2.579396619601691
844,-11.61020657962167,4.7363337929367475,-11.181796394219734,-2.263280432065864
845,-11.921648562287656,5.523977214220438,-10.63385926131384,-2.0520019573589945
846,-12.289876661855294,6.23586202731651,-10.123655742754549,-1.9321019547350393
847,-12.673585171067446,6.876958283383207,-9.682817836837188,-1.9078280836595691
848,-13.021240832785926,7.447065982489561,-9.33335228002249,-1.9997002742449834
849,-13.253897931681792,7.943708818745695,-9.083384535925862,-2.220820418962891
850,-13.279251263785028,8.366577551764637,-8.927415075810215,-2.569526324225269
851,-13.029599034490111,8.721025132559433,-8.84673837986039,-3.0293344769721617
852,-12.478501706577656,9.018754525844075,-8.811179229730435,-3.571326426125461
853,-11.625818790730856,9.269252784326614,-8.784138099572665,-4.156438872544373
854,-10.474127468605815,9.47516123462764,-8.727204334234141,-4.73649598990362
855,-9.022936611710659,9.639607136221782,-8.60506897957679,-5.252287992179117
856,-7.276761307919203,9.772563150728319,-8.396084472458387,-5.631485547711292
857,-5.273390942957305,9.891603427556179,-8.101218290421999,-5.806996466087739
858,-3.10276910498907,10.019532711338966,-7.735969609179494,-5.73957028618602
859,-0.8679058381490126,10.179976723987854,-7.314251744787674,-5.413893989522812
860,1.3652621122962647,10.393557834245042,-6.843662893458151,-4.822245987177385
861,3.566473958409209,10.675997769754293,-6.330812102954688,-3.965326318490452
862,5.704196268322482,11.03419106662802,-5.783139516878239,-2.8656689847370265
863,7.722168307313829,11.45953219981702,-5.202013015285004,-1.5668486664638945
864,9.552457451547955,11.931471395554926,-4.580090189701426,-0.11801933843530527
865,11.151429249996887,12.431996691264398,-3.907967378772975,1.4350105322540245
866,12.523685417660577,12.947404500879284,-3.182699721603209,3.0494203779634885
867,13.704884707550672,13.457908642618035,-2.413665950396803,4.688023139956584
868,14.722443087445596,13.939294382060641,-1.6208686309631193,6.316302676966277
869,15.582949867186505,14.37640856018514,-0.8289686346220113,7.892559593663008
870,16.29235272629537,14.772074521506704,-0.06230150814292085,9.373148208051871
871,16.875060854799138,15.138834530783614,0.6571819585687046,10.725133546741533
872,17.35622125857545,15.480126770700464,1.309966749166988,11.923233886818458
873,17.723114632456312,15.784870004665578,1.8825023750606422,12.936341785540723
874,17.92622217454834,16.03507690804935,2.3722075821287616,13.725500280934568
875,17.922688285897102,16.210753725101224,2.7857551496510062,14.263574823036038
876,17.695465637247562,16.291935267362522,3.1327852880337823,14.549891939354145
877,17.226403953557135,16.264835425510157,3.4243736630392085,14.600337422203648
878,16.488418712223915,16.128474341624568,3.673854954862769,14.433837379163547
879,15.47024519068884,15.890762897785178,3.8930961134726427,14.066575517080599
880,14.193796055328466,15.559717326371834,4.086861571632961,13.514055835553997
881,12.71154160492984,15.13927204691272,4.2512075459358405,12.796667085908174
882,11.069946562625407,14.62439808056884,4.376523917439729,11.937194914449517
883,9.281548324813972,14.0023250596298,4.451460846698868,10.953802800061828
884,7.348360656840097,13.264289288645843,4.47036732304178,9.859016211963361
885,5.299835735860937,12.407676588927,4.4407667083589315,8.665837680653661
886,3.2504181046296168,11.454276202956217,4.377324047153322,7.418531057117607
887,1.1659319238719188,10.354425885841422,4.292741656930083,6.094859864266228
888,-0.9515563441797867,9.113368947073308,4.199997803717635,4.71309373818409
889,-3.064381080556249,7.7814459025785645,4.11104996694945,3.3159265988187236
890,-5.092484412131158,6.436946513241621,4.03508690136425,1.9640497353952593
891,-6.9363273028269115,5.166148087322575,3.977485759628237,0.7255921421270731
892,-8.516612932128588,4.0465174643740225,3.940358290988318,-0.34057867380163226
893,-9.79267382979805,3.13475920850715,3.923087788874508,-1.201509879330615
894,-10.756514755050421,2.458522925256629,3.9222718683653084,-1.8508600912389754
895,-11.416455000118065,2.0125976168059365,3.932207538238036,-2.2953342326106085
896,0.11953000504636394,-0.5027323249375246,-0.472182011365863,-0.20150841808782494
897,0.07348050151854703,-0.9257306643749261,-1.060695673702271,-0.5052717496870509
898,-0.025325816925907157,-1.4819294271676005,-1.8906671154338002,-0.9370286267345413
899,-0.18661617153897492,-2.1522182138193195,-2.9595955878481774,-1.4872091904590519
900,-0.4308391930550717,-2.905040606124971,-4.24631118311967,-2.138051896833427
901,-0.769911258947268,-3.7016764188253504,-5.710201890767972,-2.865151996789969
902,-1.1950395391463435,-4.50193481395502,-7.294740010487075,-3.6377335546247584
903,-1.6852080927983382,-5.271354858303918,-8.936437987221181,-4.423941237746756
904,-2.2322413446715164,-5.988901160757157,-10.57576206674008,-5.200012002690599
905,-2.839989733771628,-6.653859661215931,-12.168410331875686,-5.95771580474028
906,-3.495742257425537,-7.293743789908913,-13.704834686714532,-6.710985448119863
907,-4.163912871585274,-7.906312877643338,-15.166174968475564,-7.472111960547364
908,-4.818813904936498,-8.483588150245287,-16.54057056520779,-8.260437064655562
909,-5.472902451922604,-9.025559276945808,-17.82164972189926,-9.096857336366243
910,-6.148451341631105,-9.539663757278435,-19.007165148624374,-9.992165639314
911,-6.83677431683675,-10.035525497823604,-20.09832265346495,-10.937077498188327
912,-7.50979689899153,-10.526969507112156,-21.102522591101884,-11.909576761615012
913,-8.164934872778973,-11.035423548473108,-22.038993035976638,-12.899249740241443
914,-8.845633724535942,-11.590845288719104,-22.93272814780146,-13.914528393412638
915,-9.610327625369695,-12.232303937408645,-23.798900922333658,-14.96549285477274
916,-10.485557949252449,-12.99919062940389,-24.63753941383536,-16.050841989473607
917,-11.455181733454515,-13.914851842537116,-25.43819886398288,-17.158111429530308
918,-12.492805477846156,-14.983365632155808,-26.185273658603435,-18.26813987155458
919,-13.58868420919776,-16.19699219800224,-26.8605242926513,-19.360081115163354
920,-14.745143366758317,-17.539945030649445,-27.44574112910904,-20.41277260788438
921,-15.9537241746226,-18.98928844026602,-27.92727536385687,-21.402191445560483
922,-17.17950069034794,-20.518477552214847,-28.30101637485448,-22.30316851604033
923,-18.395207292002254,-22.097939181591386,-28.572782741284062,-23.096156443560677
924,-19.61419173282669,-23.688919701967617,-28.752898452802988,-23.77405976512859
925,-20.86461802858459,-25.245138356067574,-28.85218822083489,-24.342879483510814
926,-22.150518930309357,-26.72559038968437,-28.880322286581624,-24.816845586896267
927,-23.441264908577523,-28.10349453585048,-28.846217881933043,-25.21404763880987
928,-24.705324741387216,-29.36519782332155,-28.759157330724523,-25.548481225535614
929,-25.93186241347638,-30.498565504559128,-28.626468799468718,-25.824758307099586
930,-27.105832749142472,-31.478422984056568,-28.44932630895695,-26.042061966568976
931,-28.188081621456803,-32.27220861350695,-28.22465407754823,-26.193445067827927
932,-29.120115776470175,-32.862116842553746,-27.954088755571995,-26.263947185277875
933,-29.853836084551048,-33.24781844246734,-27.648697429092618,-26.232838487069863
934,-30.37454184917399,-33.43391258087208,-27.326026552037067,-26.072325244949027
935,-30.691969003445276,-33.42341829513832,-27.005195826292447,-25.750966465632757
936,-30.812417963964954,-33.21463458319736,-26.702170703595716,-25.24679278428821
937,-30.72170573426594,-32.80258505294034,-26.42559098296822,-24.553244170260896
938,-30.403757736873523,-32.18643538075296,-26.174153109088085,-23.674870325806527
939,-29.86926305965986,-31.371403537034453,-25.938745315204272,-22.62627413491565
940,-29.158765592674683,-30.364775063792536,-25.707838306619912,-21.434081519383575
941,-28.30458685482909,-29.18252067601987,-25.470225171443666,-20.132118874274074
942,-27.308638996732103,-27.854860987450444,-25.21554036598366,-18.751194218775588
943,-26.166688035718124,-26.41777253691713,-24.936671268887153,-17.316336760080414
944,-24.89621711298818,-24.91141388757794,-24.632545532044396,-15.85663808221619
945,-23.551734714910445,-23.390295689903386,-24.308092839430557,-14.416476875555398
946,-22.194345954209222,-21.925539840376384,-23.97306454790305,-13.046340154567371
947,-20.855786602394335,-20.59465299238113,-23.64046698968671,-11.781248285429797
948,-19.548745996980106,-19.463775058996283,-23.32271890065666,-10.638389904981354
949,-18.287715339807818,-18.566057953319717,-23.025696928463343,-9.63008167447086
950,-17.095236823608243,-17.89654316919422,-22.744724873339308,-8.769187861506913
951,-15.98621027335742,-17.426865234313944,-22.46500783423461,-8.066331518275225
952,-14.958689765671663,-17.111096858003634,-22.16560891718116,-7.526578288480282
953,-14.004360041662453,-16.884951367299372,-21.82744504054577,-7.148291030704039
954,-13.119499742360915,-16.677669658515224,-21.44241103791193,-6.924276738724376
955,-12.297363833241164,-16.430100661914196,-21.012919484608705,-6.844473714750203
956,-11.508227666404764,-16.106307240570523,-20.541505947160875,-6.894120308898549
957,-10.700044439977274,-15.698788274926798,-20.024746170442988,-7.044216654000084
958,-9.820174143437956,-15.222785002032092,-19.457462946895497,-7.24748623183622
959,-8.839806766640672,-14.700409109846042,-18.843007599443574,-7.456974829323202
960,-7.751356161709716,-14.155754438267465,-18.200344716750806,-7.649726451840756
961,-6.54266535661922,-13.615903811214686,-17.55656028225823,-7.822815424577508
962,-5.1896034735818155,-13.099509622748986,-16.933426475589204,-7.975320369606493
963,-3.673641824013938,-12.604921047863858,-16.343928787231935,-8.103528390989956
964,-2.0072758413753493,-12.115386028545979,-15.794404877281377,-8.206235599264359
965,-0.23407701181516938,-11.612343720026828,-15.286911940415267,-8.28405981896059
966,1.5936858997585719,-11.08307526533429,-14.822358875491918,-8.336014717622934
967,3.431871188267175,-10.524919490430584,-14.401160419983734,-8.358947111551293
968,5.25316258988083,-9.944205536925239,-14.02170450757847,-8.341941301870719
969,7.031286888545535,-9.350551406227366,-13.679363507191963,-8.266542685944344
970,8.715685883426215,-8.752926975984169,-13.365309491827263,-8.116885353024763
971,10.231664304447749,-8.154646935474187,-13.064766047422385,-7.887914766112733
972,11.503588954419381,-7.550569455393662,-12.762001709944743,-7.588352452484465
973,12.480682484841953,-6.933230567034181,-12.450694602005134,-7.237498782727813
974,13.13951883664245,-6.296253951621873,-12.13609589776616,-6.863857294702818
975,13.46941736987153,-5.6316647253162015,-11.828814711673898,-6.507365925200756
976,13.467631431040745,-4.928578378896212,-11.535055505189542,-6.208665047574933
977,13.15133664940439,-4.16831516363077,-11.247581129375371,-5.983402145962064
978,12.575133095799394,-3.3296856634232697,-10.94969144092863,-5.812415846299214
979,11.824668209815941,-2.4087885968388405,-10.628455911528365,-5.657964640993334
980,10.983465538118459,-1.4280851992796149,-10.278274464059661,-5.48104826724164
981,10.097887268372995,-0.42777603844627865,-9.896532630424025,-5.25363201932759
982,9.18284211171667,0.5486526160351838,-9.481918817080826,-4.960568656508531
983,8.2633280594738,1.4634702413378937,-9.034549692390613,-4.588384157291976
984,7.372972808055796,2.288358272943943,-8.560631076874067,-4.12895615477032
985,6.5180944483910555,3.0062005245725536,-8.07786056265829,-3.5976044910227145
986,5.673820623975561,3.6111157963325833,-7.6101502497245255,-3.02836232789212
987,4.822808825705185,4.1078314658686885,-7.176532896261883,-2.4460617968940164
988,3.9855733110749396,4.512063645476651,-6.785192417173841,-1.8509566837641733
989,3.2003214718280937,4.850787304701942,-6.433319174939074,-1.2258305378697312
990,2.4891143046184587,5.158802511449938,-6.108431634120535,-0.5503918821594156
991,1.8467437395164816,5.469344380614466,-5.790244350391807,0.1868419532140232
992,1.2647460520829383,5.802404004467379,-5.4527414809996895,0.9863745150315895
993,0.7548804617581423,6.161393312037709,-5.0690640439395525,1.8415123200140389
994,0.3375864868481565,6.534718612089442,-4.622661037209649,2.739443739341965
995,0.01752351031580366,6.900886719999103,-4.113416250807212,3.6575582742521258
996,-0.2311343099586404,7.24434664283197,-3.553615027787955,4.563064945510378
997,-0.4368833574656461,7.561196459779479,-2.963074155705028,5.420856506919542
998,-0.592905485152794,7.846924502065544,-2.3665272366198353,6.20316999819436
999,-0.6644821278773967,8.087838553433281,-1.7887971087716772,6.897282705025632
1000,-0.6319122740522533,8.26291111397526,-1.2470749732161674,7.500754682582295
1001,-0.5162845444987411,8.349881430359957,-0.7470234298947015,8.012938922048857
1002,-0.34470643296490455,8.330388527678759,-0.28550650339563804,8.444055524473834
1003,-0.12032949820412095,8.19616940798964,0.14099342997365055,8.81862245207203
1004,0.15875507412593687,7.951185364516338,0.5272002085417148,9.155997438176932
1005,0.46871490529313115,7.605992379621109,0.857993799799163,9.454614124689202
1006,0.7549970595117503,7.177790889257846,1.115473573862128,9.694727787502279
1007,0.9706423181999884,6.69706572024384,1.2848990236330795,9.854226269533205
1008,1.108382116482796,6.208069349980425,1.3574122753339406,9.92586260789334
1009,1.1974346674174752,5.760138964374791,1.3325774831237638,9.924347969326968
1010,1.2725293421137946,5.399114488429151,1.2203324662090929,9.882491488819255
1011,1.351334049809123,5.164898521614592,1.0426675113793067,9.841009266170355
1012,1.4514787936195235,5.09010950626505,0.8350329231793227,9.840513009551236
1013,1.6135934636947329,5.195947611322876,0.6407332462545903,9.91996997696309
1014,1.844337455369595,5.429869200314515,0.46254507353334434,10.06764855261884
1015,2.2685974932246005,5.875385053261182,0.37687720802657065,10.379113517679444
1016,2.9103672859009118,6.550696315807547,0.422466851641143,10.883186739662158
1017,3.7438375185775854,7.428143781092779,0.6034844952035862,11.559906946372566
1018,4.728830067723916,8.44604878333928,0.8966789751317338,12.363445955487968
1019,5.811670675846396,9.523159467380504,1.263582877419289,13.232946780325195
1020,6.907737839698641,10.574450799186772,1.6601296415723423,14.09348580345985
1021,7.9162143138965,11.523845150511507,2.0438004614332295,14.869192241036997
1022,8.759102984089889,12.316062775582214,2.3804374243252626,15.504418854949572
1023,9.401000580325652,12.920247626929012,2.6473183809661833,15.974222337921875
1024,0.466730084531924,-0.3157808633576799,-0.4834497776532698,0.02552734132782733
1025,0.7161356238556078,-0.5980845132806676,-1.0369696596865676,0.061431555263270675
1026,0.9985372326776804,-0.9277603779708099,-1.8263321466142342,0.10984906410500789
1027,1.2612616166347657,-1.265070975320913,-2.8583312031276655,0.1682884406476754
1028,1.4391217464250774,-1.5659044568081688,-4.122240006300398,0.22663909353858283
1029,1.4932579920773006,-1.7905388751228892,-5.589150881151057,0.2710791782452911
1030,1.415527248672034,-1.9087213287740261,-7.217816830363385,0.29208100865836567
1031,1.201466903614146,-1.9025701418420264,-8.965441325099974,0.282104531356283
1032,0.840764676685972,-1.771204074699779,-10.797653683307622,0.22677872602136828
1033,0.33705679637280195,-1.5350738372397577,-12.698128595582606,0.10313051336874318
1034,-0.2589507893332944,-1.235259130867555,-14.683964599215955,-0.11489355638542836
1035,-0.9058820475888908,-0.8969002228837715,-16.754160884198757,-0.4511654516951072
1036,-1.5906988010620104,-0.5235490375537751,-18.902712950235085,-0.9241318981317717
1037,-2.3223352264540797,-0.09690654135053314,-21.112747111362538,-1.5459370502496754
1038,-3.094070440849104,0.40752368570719577,-23.358495290002423,-2.3219722036969936
1039,-3.8722452230547373,1.0037460935622797,-25.610783296509794,-3.2440692918845913
1040,-4.626384775184773,1.6901581792607787,-27.838625035715307,-4.28664320750442
1041,-5.353991927253393,2.4519103035741674,-30.007967615921935,-5.409417413030906
1042,-6.075537414599183,3.2629092112549145,-32.08685450379767,-6.566768053823045
1043,-6.804520993287385,4.08296524775762,-34.053495643318065,-7.719005232631294
1044,-7.5328356318064795,4.859358516957335,-35.89481109222486,-8.830334342385436
1045,-8.244467096873914,5.545341826505875,-37.60117117530183,-9.861971748313884
1046,-8.936120552635527,6.1209714504289865,-39.16442013612751,-10.770176250421814
1047,-9.624898852039133,6.597084945887265,-40.574324872652305,-11.512328417576777
1048,-10.306349104009465,7.009117537152373,-41.813702534174894,-12.051696693395167
1049,-10.92156091305445,7.4108546825889405,-42.85937225684139,-12.351923244569107
1050,-11.384754873601288,7.8644021676722975,-43.68784785895458,-12.377494444750422
1051,-11.626254092810797,8.424252956617197,-44.27876147738581,-12.102502457308033
1052,-11.611322908831609,9.123086416159177,-44.61437038903524,-11.516447168418077
1053,-11.315979689520638,9.970072635795571,-44.68169365432686,-10.627085040028852
1054,-10.706650097735036,10.957055693261356,-44.47925601933669,-9.456458756272346
1055,-9.755169790377495,12.060149001064163,-44.016655609862454,-8.028889142137878
1056,-8.467930369712118,13.242215443372887,-43.31183175967565,-6.370878386897055
1057,-6.904719678637051,14.456550904043945,-42.39649587149964,-4.524048272559663
1058,-5.150441833278211,15.650044007354076,-41.31509973331637,-2.549351709850568
1059,-3.26842477065494,16.77192370836094,-40.113165550459165,-0.511650580094409
1060,-1.2923925428103904,17.783122592932376,-38.82612788689048,1.544897929798357
1061,0.7434888010221066,18.658868260894746,-37.47695212024696,3.5971855536840756
1062,2.779668801528839,19.382733512154463,-36.07613147222219,5.621725736067537
1063,4.7460317690620615,19.938388667934504,-34.61650453102775,7.584335288035518
1064,6.599697599790658,20.31243552542032,-33.07833335160067,9.44589835965976
1065,8.333051391427157,20.50236746313617,-31.442960257464787,11.173313874345613
1066,9.930914963258672,20.514453672529015,-29.700416478756964,12.742258114008726
1067,11.345106831446921,20.362035042031437,-27.85152409203163,14.132543649900287
1068,12.52326728201082,20.06887503153062,-25.908024619684266,15.327302125761769
1069,13.444697329384132,19.661466380389776,-23.891688281103633,16.313073768623312
1070,14.1299060637613,19.15423841539917,-21.832763059753205,17.081581166029434
1071,14.604893319314764,18.544235024330327,-19.770497223224282,17.635039515059677
1072,14.866443921621068,17.817206848139104,-17.754419822688348,17.97895250301795
1073,14.89498756562063,16.95473249693427,-15.840093294554276,18.113922623554732
1074,14.686291497598393,15.938017607436603,-14.075575600214975,18.043960662466795
1075,14.266043446777596,14.75524600279039,-12.491190341872597,17.780986569567023
1076,13.658586795202625,13.409835432483828,-11.10205150265087,17.339263264206323
1077,12.858415765574494,11.917940970653468,-9.912120694554645,16.72134708223778
1078,11.848681886935019,10.297624999205555,-8.916988907262901,15.911088099672801
1079,10.636316576065953,8.564511649442542,-8.107949440312138,14.891463735532305
1080,9.268970021961008,6.734755065621739,-7.473630056371021,13.661083324158396
1081,7.803347012164599,4.827902540634534,-6.998060582210977,12.23776375441381
1082,6.270438722023681,2.866943252352777,-6.65952892970031,10.65566924111992
1083,4.689394803321398,0.8772620879972065,-6.431932733361078,8.960373678847784
1084,3.101550456896826,-1.1122839342722268,-6.285505367625544,7.210312303087423
1085,1.5770801848388205,-3.0744513484220204,-6.191643955097431,5.479659074904621
1086,0.18045521516703844,-4.989045773986845,-6.13135385111465,3.8495597639205044
1087,-1.0581341970668738,-6.835496803966395,-6.097085768194029,2.3905308014430204
1088,-2.1320743829492277,-8.587117482622796,-6.0853737444832126,1.1497430794797032
1089,-3.022022323962682,-10.212365100026977,-6.088974271960525,0.15298341063828463
1090,-3.6837280790142377,-11.68002624107866,-6.098426371502328,-0.5839191225736154
1091,-4.076385312474818,-12.969693921941436,-6.110041183167071,-1.0539890305782018
1092,-4.1925323620443,-14.078335511214316,-6.127037436327805,-1.2633120718186206
1093,-4.06712625993338,-15.015658909694707,-6.152067827211787,-1.231694487579625
1094,-3.7433423837103508,-15.786488868032636,-6.1820876068385875,-0.9901800254757545
1095,-3.2404492650384853,-16.37644048610973,-6.210874798145894,-0.5715667473200732
1096,-2.5709722873570713,-16.76362241757462,-6.235410187840231,-0.008186570610354688
1097,-1.7736448192681573,-16.942767518430298,-6.256956912178263,0.6584627245202448
1098,-0.9241049422534109,-16.933231006637385,-6.275234034170374,1.3774221931676078
1099,-0.09487447269893046,-16.773595182631738,-6.283030986314803,2.0973952505808144
1100,0.688010472962555,-16.515546111185376,-6.2678361083883205,2.777410626743901
1101,1.442585041702574,-16.218570373787998,-6.2190240401860155,3.3951244113817425
1102,2.197210196156831,-15.942515298379995,-6.129944964431758,3.9423018487153487
1103,2.957054360068643,-15.737193861207047,-5.994304150215748,4.416131395229128
1104,3.7088338842235644,-15.636468530341332,-5.807091314138109,4.81512111391659
1105,4.4435933251126825,-15.659043259183147,-5.569173671739733,5.140112204284451
1106,5.164224547241055,-15.811415740720136,-5.287578934164447,5.399247385448264
1107,5.861936604173302,-16.089427816709584,-4.970941424143408,5.605895523457841
1108,6.490187484198554,-16.475258376559363,-4.626423647387128,5.770309577669915
1109,6.9847894556126136,-16.94428352479473,-4.263216326416364,5.89251071456686
1110,7.301165765628948,-17.484041246769767,-3.896443447698557,5.962890682220861
1111,7.424794340425105,-18.10123786615652,-3.545473351331282,5.9731457957395255
1112,7.342855332281241,-18.812977986561926,-3.230836255478226,5.916984425263843
1113,7.027451634953078,-19.629711503002685,-2.969551393097534,5.780465373838871
1114,6.463672935223831,-20.54238615497514,-2.7709778618065943,5.545647044019959
1115,5.67297714959235,-21.52541649974425,-2.635918230423804,5.203580294763904
1116,4.702823482271232,-22.545153068300024,-2.5537819186526947,4.755992263620246
1117,3.5887101330183144,-23.561727140131584,-2.504216342511265,4.206039548237121
1118,2.3354556904163983,-24.53035792525267,-2.4657308101121838,3.5544496425470906
1119,0.9450322621217337,-25.41135326741823,-2.4186834472469956,2.808225167034538
1120,-0.5436192290417977,-26.178994979669067,-2.3433605180039923,1.9941177472305633
1121,-2.046858034930319,-26.820238382361836,-2.221428419455064,1.160121365822541
1122,-3.476627071883976,-27.331486813952072,-2.037657090264238,0.3598590890495112
1123,-4.777139465213932,-27.714021865093304,-1.7806066354445247,-0.3688425282119166
1124,-5.918913118310726,-27.964875075645747,-1.443669697226565,-1.007175435962411
1125,-6.865979667223387,-28.071934933925977,-1.024104329206479,-1.541491645637889
1126,-7.563057799256408,-28.014241396694175,-0.5230525047566003,-1.9582133441432332
1127,-7.974102588832993,-27.76226971473488,0.051980751155953214,-2.249702058288633
1128,-8.115459652389786,-27.28068988187692,0.6879269039678318,-2.4203591483272597
1129,-8.0400046939835,-26.534708965227033,1.3741163493026594,-2.48388527120907
1130,-7.7940904699266955,-25.49762497900144,2.1084172439308557,-2.4526220825728147
1131,-7.390675269714841,-24.15806219804083,2.8905786735130783,-2.336363173911404
1132,-6.8293779088349815,-22.524162576125686,3.71145803286192,-2.14913823332555
1133,-6.122593089737637,-20.624472748471106,4.555634253037853,-1.9059317883615872
1134,-5.297643009488381,-18.50656266296005,5.415024149588974,-1.6148401084368278
1135,-4.379377549764928,-16.231150342125932,6.294036232160933,-1.2781617894051351
1136,-3.3735028546681707,-13.862472126221986,7.2014373102427,-0.9003599827884623
1137,-2.2837804338516325,-11.462999687028114,8.14031982767245,-0.49507725184812834
1138,-1.1485209871109852,-9.09607441481357,9.10507523067436,-0.08548541516783162
1139,-0.05282324433246886,-6.8243743254379625,10.083194791960143,0.29716306176774476
1140,0.9135811372746862,-4.70184180869664,11.055642635429964,0.6077167012138708
1141,1.703603076759664,-2.7712689137183983,11.999052163898968,0.7966080472109707
1142,2.3396397035792895,-1.0701588803261441,12.906902939425528,0.8739180890870936
1143,2.779693604919716,0.3851285343953281,13.741007203392094,0.7762501827812794
1144,3.0049564786000227,1.589138840343364,14.470690673317794,0.48522159323611785
1145,3.0429561671233776,2.5482106660856942,15.078399539260511,0.022331217623937485
1146,2.957896069091542,3.2764998960267726,15.556764772609572,-0.5619688927476366
1147,2.8128382371117704,3.7955336632456094,15.906151895549133,-1.2024603315784776
1148,2.6468970068325053,4.137085245333269,16.13632361868054,-1.8313256200169556
1149,2.480484409459425,4.339880024408604,16.26853855254419,-2.388696601050547
1150,2.336040798665053,4.442837135047484,16.330189303314288,-2.8324349235838473
1151,2.2365077590587426,4.480854437984612,16.343181660147277,-3.1437535588801566
1152,0.27142172783282964,-0.09864373145531005,-0.5354935635949174,-0.055750363429730096
1153,0.3794632688277262,-0.2928618503443449,-1.2416072105518263,-0.1624915890898399
1154,0.4947703707502014,-0.5955573419768987,-2.2788362732157106,-0.3333098949056614
1155,0.5810201409502229,-1.0284904786532991,-3.660905044734634,-0.5788669910041825
1156,0.6003766715413413,-1.611581650416326,-5.376915059583251,-0.9014109086106104
1157,0.5353884882174815,-2.3535068268061656,-7.396441694075457,-1.2914098905778424
1158,0.3854274652171322,-3.246552703333055,-9.673363681971084,-1.7291806779363363
1159,0.14267081375002527,-4.26996931846054,-12.151267825481971,-2.1932200942217728
1160,-0.2084864265428143,-5.4002488484195865,-14.775424081418032,-2.6660977353169915
1161,-0.6653641720904686,-6.61530056037388,-17.506922589153874,-3.1335681628157293
1162,-1.1829947132180711,-7.894475935045949,-20.339771418511088,-3.5830953320385444
1163,-1.721979269365769,-9.208284192599319,-23.23940919164477,-3.9929729472725572
1164,-2.2668927237172753,-10.521605769471396,-26.165111022555802,-4.338906740811393
1165,-2.81364126706566,-11.797050069419267,-29.071552490472737,-4.598173999802609
1166,-3.345280949646064,-12.999928188790385,-31.90962945687157,-4.747142556705276
1167,-3.833976732480303,-14.10015224863614,-34.62864322909295,-4.757896268703427
1168,-4.266642157390127,-15.075023217176962,-37.181208320423195,-4.606539572665337
1169,-4.649876130690009,-15.914051757315553,-39.528332478509874,-4.28666855402865
1170,-4.9857718379381355,-16.617842820405762,-41.642886162402895,-3.813749074013738
1171,-5.256087763408097,-17.192858560273958,-43.51251210060581,-3.221118364551332
1172,-5.433320347390078,-17.647712839321734,-45.139632494674586,-2.555130635035961
1173,-5.506080593342323,-17.992682695002646,-46.53556845985208,-1.8718157635539276
1174,-5.483792047104112,-18.24530570989518,-47.71289484071319,-1.2303854207078593
1175,-5.378755378691127,-18.429304681901826,-48.68072587757778,-0.6844143706168057
1176,-5.187328318569973,-18.56394608270076,-49.44316317409749,-0.273935337280766
1177,-4.898469404380914,-18.660584508566455,-49.999553311659334,-0.020984427045753082
1178,-4.523625751553079,-18.731224420428422,-50.348150269939744,0.06715203900461622
1179,-4.102424893352895,-18.796215433068227,-50.49129005528242,-0.006223671200840136
1180,-3.682784897093205,-18.880174758902612,-50.43473582145189,-0.2294287671985556
1181,-3.2870855001681765,-19.00396039156745,-50.184345428586866,-0.5839038686898512
1182,-2.8944914320938233,-19.180540175699296,-49.7482747649108,-1.0443724507454097
1183,-2.469087133855648,-19.412749750429636,-49.142380361010545,-1.5845613197021085
1184,-2.0000389487513988,-19.691854594685175,-48.39157848666355,-2.1877816814979836
1185,-1.5233559197701096,-19.996783680350564,-47.525185169864805,-2.8477628515602977
1186,-1.1013109313281726,-20.297375988157096,-46.570436553579825,-3.557802656177626
1187,-0.7775254669448891,-20.561980233815643,-45.55066899350301,-4.3049868108772635
1188,-0.56505926905446,-20.760971817264842,-44.48657840974845,-5.069693293183877
1189,-0.4715228126242015,-20.868386509447873,-43.393176318680304,-5.830485632908418
1190,-0.5277005140281673,-20.865024204684474,-42.27524810303686,-6.574423909124998
1191,-0.7713033815889309,-20.73675864182137,-41.127309849019845,-7.294705491616921
1192,-1.2015598095608728,-20.473142850417812,-39.93485951575073,-7.979221533885958
1193,-1.7691495578343444,-20.07106666016306,-38.679537069285864,-8.60764915575584
1194,-2.403250492155906,-19.536046520917914,-37.34824979273969,-9.157127698765443
1195,-3.0453291883808484,-18.880439734680703,-35.93332142328324,-9.607647833071775
1196,-3.6561859328106237,-18.1241338151017,-34.427277786212635,-9.942317173339372
1197,-4.197809827937032,-17.29483589352828,-32.823303105308284,-10.141293918598366
1198,-4.6272779922011695,-16.423327661208397,-31.117522500685585,-10.178691235249238
1199,-4.921946621615938,-15.539403029121136,-29.312425320201122,-10.029873664274561
1200,-5.0988561279135025,-14.66980018516694,-27.421136693112956,-9.684057300323989
1201,-5.186478695345412,-13.83206253037657,-25.465881468613162,-9.155894374694972
1202,-5.193167320659373,-13.02934944728043,-23.472308914900243,-8.48036379208281
1203,-5.113881988269673,-12.25070632586561,-21.463092512426453,-7.6957187755266325
1204,-4.967692326314877,-11.477200164985714,-19.452535100560965,-6.842440156928932
1205,-4.812728690398098,-10.694945893714287,-17.44503629972959,-5.972427115894354
1206,-4.7058296268009725,-9.900634457227484,-15.440035196864889,-5.141342059628379
1207,-4.664463224775804,-9.09630897543479,-13.441392853795467,-4.3852927669652235
1208,-4.6728095810362875,-8.29002320123022,-11.460148325690453,-3.712407058691345
1209,-4.72572836702763,-7.497518750809488,-9.509312118265381,-3.116065621258071
1210,-4.84635558766795,-6.738094432691762,-7.600799090551821,-2.5844808892981117
1211,-5.056646653747404,-6.030729229820944,-5.743707968826631,-2.1027328058574253
1212,-5.352092934183836,-5.387553168399771,-3.9460846729979013,-1.6568932531466714
1213,-5.695968084215575,-4.80906778924534,-2.2241527254321123,-1.2406467660176803
1214,-6.053158947964437,-4.288565593051452,-0.6041363127105696,-0.8631868011098656
1215,-6.4235968557742575,-3.819662658775281,0.8861988976383846,-0.5555319725002013
1216,-6.8291732730624135,-3.404810676646883,2.2265161220511853,-0.3645934502210808
1217,-7.2815505389515085,-3.062339566311972,3.409697237392812,-0.33325752534470815
1218,-7.763969098630213,-2.821867857933161,4.437929074683363,-0.48156972381561636
1219,-8.262202084237348,-2.710276668365381,5.313397566017347,-0.8042209273921852
1220,-8.80052108611262,-2.7410402438017973,6.034438398447013,-1.2867397614023752
1221,-9.42022528690784,-2.9108470282464913,6.598555388710578,-1.9119751739242368
1222,-10.135324077358716,-3.199003976862941,7.006999566932824,-2.646573834997043
1223,-10.924180943854623,-3.5726614395472907,7.266774880787261,-3.4410721356986067
1224,-11.75761231267498,-3.995824672712135,7.391884267500222,-4.247878953037554
1225,-12.619124241834049,-4.434095751395224,7.402892988405749,-5.031589882831222
1226,-13.500180469810536,-4.8604057859417855,7.323541690245569,-5.767147297951742
1227,-14.375055342389029,-5.256183027190615,7.179619636841003,-6.435702960014271
1228,-15.189569447613158,-5.608143624085508,7.001275723688709,-7.023195954356686
1229,-15.886804470320731,-5.9129958378536625,6.82129012750693,-7.5239472324184105
1230,-16.43804484680515,-6.1733200733193625,6.671027898447564,-7.946546115896557
1231,-16.846173614114452,-6.379873542575673,6.579405118450768,-8.309765033509775
1232,-17.10894081726718,-6.504401301331934,6.571426589065037,-8.626772760745437
1233,-17.194971400101593,-6.5054756958013975,6.665601171188392,-8.890504416351408
1234,-17.070289814767545,-6.335034738436658,6.87143218892681,-9.075309618824228
1235,-16.73186318166933,-5.947937788464071,7.190279866039349,-9.154730508943086
1236,-16.207863017603753,-5.317404576365612,7.6194450865081285,-9.11459709025203
1237,-15.522660196069335,-4.440809042697145,8.153811929595248,-8.951845387766594
1238,-14.683676912710592,-3.3322991567113105,8.785297750879066,-8.667341573231262
1239,-13.702869612295622,-2.0209568850458313,9.501308855250276,-8.265098708297568
1240,-12.611622113401692,-0.5549451521879534,10.284722411922939,-7.760299622188876
1241,-11.46893692102694,0.9983227499036149,11.115246710988355,-7.181849443954232
1242,-10.340793755427217,2.557980970377073,11.970904523529937,-6.566410925473458
1243,-9.263293295215766,4.045275723689388,12.828845893609852,-5.949480186614383
1244,-8.24388398588218,5.39698625572453,13.663957115106497,-5.357634351922092
1245,-7.2924980604223455,6.569564131573629,14.450726403874777,-4.809445685795539
1246,-6.437070019635564,7.545979858926624,15.168030963913948,-4.318021069084134
1247,-5.702530316696548,8.33084191507998,15.80384124604301,-3.8890301107449585
1248,-5.087286133864706,8.93072225724884,16.358599055758887,-3.51798166517705
1249,-4.566378780504758,9.348691971588995,16.840979084799176,-3.189827593119796
1250,-4.121958494441143,9.590142626823866,17.257988566429233,-2.889907751961955
1251,-3.7660991379924806,9.663431740350221,17.613325133310667,-2.61836190937647
1252,-3.517013813874619,9.578836642558331,17.916187393448414,-2.385022304979106
1253,-3.365039117270058,9.350630474299544,18.184933722636735,-2.1920505992496606
1254,-3.268394467579948,8.99844749788163,18.439942494731074,-2.0310107719034485
1255,-3.184704041045196,8.542043104536935,18.695352544551394,-1.8974843363646272
1256,-3.1046414553855444,7.99858692881684,18.953659002921032,-1.804886847973352
1257,-3.044942962918445,7.3896981041944985,19.20376072246079,-1.785173858590287
1258,-3.0209305456954985,6.744335436638949,19.42384324500376,-1.8761404845231608
1259,-3.0406378565461916,6.091601689161924,19.586968718559643,-2.1068350038327477
1260,-3.1303638167257013,5.451676052785883,19.668655905434917,-2.493719495125485
1261,-3.344140825054185,4.829256878256505,19.654470004143477,-3.0464734247879104
1262,-3.7394946268195106,4.21478443480785,19.53962603603076,-3.772481183235322
1263,-4.348622844207004,3.593492595303435,19.32232889042921,-4.670432375018514
1264,-5.162130723220429,2.9556270010634518,19.002503473615906,-5.724114833253237
1265,-6.147646205473636,2.3044665619160654,18.5856439411798,-6.90514568468647
1266,-7.273732065024788,1.653330070137809,18.086555881570348,-8.181595573589023
1267,-8.503715719392078,1.0157314725348874,17.530943216318924,-9.521392304620015
1268,-9.774258989897081,0.4017103736535646,16.948579945100636,-10.88145591892118
1269,-10.994556690654882,-0.18263614452622084,16.359169395478915,-12.206075150760268
1270,-12.109512009995518,-0.7412103584281957,15.785900190524432,-13.469036852114122
1271,-13.061965435602504,-1.2576600335854078,15.192917724115228,-14.594067631732688
1272,-13.826249247818382,-1.7171324687029754,14.572361794367202,-15.528321123601463
1273,-14.382231479038696,-2.1101799933679217,13.9374156628775,-16.235102962222058
1274,-14.720756959165731,-2.4345557344737863,13.31343738728498,-16.697470641540654
1275,-14.86387631138359,-2.6924531254676616,12.729763766429437,-16.92642837723944
1276,-14.86297258449129,-2.884678306127098,12.21236505988691,-16.963082601010345
1277,-14.777378811646502,-3.0097529089525805,11.779241703976753,-16.868398218421092
1278,-14.651424964725875,-3.0696338857264185,11.438953794151407,-16.705168634706762
1279,-14.509350904298485,-3.0741066847155105,11.192371783705251,-16.52484242249967
1280,-0.10160637054405958,-0.33461223086897196,-0.6165208705273044,-0.23307307448508913
1281,-0.42068712722251905,-0.760248440521835,-1.1894121979839838,-0.488799835915212
1282,-0.8998654258320753,-1.3897946770673077,-1.9544508080066854,-0.872733447452122
1283,-1.5786613310252897,-2.2481113786180194,-2.903188662395361,-1.4237642490388425
1284,-2.467864705145098,-3.346366202623574,-4.014137385212149,-2.1620069822676324
1285,-3.5376511546087257,-4.669901379001684,-5.252483109328152,-3.0800036238394193
1286,-4.738583292722936,-6.1775449795336845,-6.571791885363998,-4.151513707902414
1287,-6.037464629778068,-7.812544775611582,-7.92298959966344,-5.346765536738893
1288,-7.419129760975695,-9.513339156103212,-9.267997288597225,-6.645414459697961
1289,-8.859177994474056,-11.2202681095361,-10.594477524231417,-8.03637687785847
1290,-10.324557425045464,-12.888673540044223,-11.932566952596478,-9.511748042697022
1291,-11.797933471888866,-14.459382884890726,-13.287286488363241,-11.039838964094855
1292,-13.286861104646409,-15.881368189396673,-14.652920516176819,-12.58778521961648
1293,-14.790236676045135,-17.12622263813683,-16.01438495764277,-14.128382837330602
1294,-16.264835563594403,-18.19388696879934,-17.351259013104894,-15.634752218235828
1295,-17.643015545550554,-19.10439492759694,-18.642871835891256,-17.07386958956839
1296,-18.87889218314657,-19.889528060350532,-19.875610746907007,-18.411446281228947
1297,-19.96650773390692,-20.5893874598342,-21.042721665559206,-19.620505592260994
1298,-20.913183025533474,-21.24449779795255,-22.135549450798,-20.68361264092744
1299,-21.710737345391003,-21.881787676307955,-23.138272837539954,-21.5867437746065
1300,-22.332417140724104,-22.507420147579673,-24.029212239403897,-22.320572289873372
1301,-22.768429437341986,-23.1143396310935,-24.784834208105572,-22.896750723646264
1302,-23.04780605013538,-23.692392200599866,-25.38595287443246,-23.34636641559046
1303,-23.212904001045384,-24.226983717039882,-25.822574878396278,-23.70282205284113
1304,-23.290936379183563,-24.695471335414986,-26.092590763413735,-23.99483123713448
1305,-23.28509992950778,-25.07621749635954,-26.197807111576957,-24.240585764803644
1306,-23.210467833439413,-25.360171026472305,-26.143026632260387,-24.443715345212638
1307,-23.120722612223275,-25.549564308695718,-25.93678029547927,-24.601343399934862
1308,-23.074912166348273,-25.650540553301038,-25.590526074283925,-24.709368337853324
1309,-23.10062803194387,-25.671729183058677,-25.11723298609308,-24.753443607903908
1310,-23.1882196605233,-25.627851798808695,-24.533142719936595,-24.70650397609919
1311,-23.326162922110687,-25.542657704735397,-23.861662599410952,-24.545960333357645
1312,-23.52563806931627,-25.44902766565153,-23.12801318191698,-24.273714914027494
1313,-23.789726235387064,-25.379499164564447,-22.345643928106238,-23.908130378035192
1314,-24.08501979513746,-25.354139184328183,-21.512093545084422,-23.454374430424167
1315,-24.3504563028969,-25.382026137514245,-20.618264298849006,-22.900937812952183
1316,-24.525315429650316,-25.46967604491748,-19.66067522219659,-22.241583865394812
1317,-24.56631413744968,-25.619683238204555,-18.64789332460131,-21.48948914117789
1318,-24.437601789340913,-25.824668721838023,-17.59673011162593,-20.674478962217854
1319,-24.090803422401912,-26.07044400212785,-16.524187878447954,-19.83101867272393
1320,-23.47433084458381,-26.344646378867118,-15.445497358646495,-18.98478244632552
1321,-22.56207124531507,-26.63995958015906,-14.376611982992603,-18.144035704734673
1322,-21.3626233472045,-26.950350314260724,-13.334074997110202,-17.30407060120683
1323,-19.90378377103411,-27.268641794918068,-12.333006484359213,-16.460133218956987
1324,-18.206432329513685,-27.589362773899623,-11.38646395835025,-15.610864271962956
1325,-16.28938152993146,-27.90707460897707,-10.506597901821245,-14.752155885575368
1326,-14.189353189598773,-28.20669204325205,-9.706870971712963,-13.880192986073284
1327,-11.951446748911112,-28.459346894736633,-8.999006550824996,-13.001655999640526
1328,-9.617308865458671,-28.62935248502449,-8.385059827073833,-12.132546185148588
1329,-7.228788396739871,-28.685073385453446,-7.859315746781375,-11.286924204174055
1330,-4.849480038140949,-28.608736806755754,-7.419740243951878,-10.477373348340654
1331,-2.5719699089815258,-28.400991277440763,-7.0712638104478565,-9.72860983554275
1332,-0.4825789049895547,-28.077441752565896,-6.818448070018256,-9.07822661515177
1333,1.3589013463438282,-27.6633867547202,-6.658634411705468,-8.561189279548397
1334,2.910310046341337,-27.190168792762343,-6.580060576655541,-8.199983298141891
1335,4.137513276295859,-26.69083129781492,-6.565172084036517,-8.001974110706945
1336,5.02202269572623,-26.19353459790856,-6.598607963896908,-7.956142160287984
1337,5.582350488225371,-25.714531361689794,-6.670820825614123,-8.037281348680967
1338,5.873202324048927,-25.252952131332,-6.774018611090076,-8.21686702853341
1339,5.959900239153589,-24.790202871440997,-6.899997113470108,-8.46797001517316
1340,5.889110703563702,-24.29636468824745,-7.042328720974663,-8.763066929511533
1341,5.684026261131712,-23.736650859307606,-7.198213972850012,-9.071307684408588
1342,5.359718226858055,-23.075660293885072,-7.366116408399813,-9.362465490239236
1343,4.917684070854005,-22.283367429434257,-7.541153492268884,-9.61597312408549
1344,4.328104424481847,-21.34334267433676,-7.713518941624298,-9.825424472001792
1345,3.544289044675785,-20.258883972581387,-7.87026029820015,-9.993685005560744
1346,2.545721831368666,-19.051753641282605,-7.995140098964614,-10.123236577295268
1347,1.3548402881558366,-17.754651515268467,-8.066794950680134,-10.214274554062564
1348,0.011003687459423594,-16.403721031516557,-8.059888784349049,-10.266801373277675
1349,-1.4523391551125755,-15.037117762018362,-7.948189705578302,-10.276114412347582
1350,-2.9894129456136636,-13.691765500471922,-7.710684650649126,-10.225154184576478
1351,-4.512835234972052,-12.394392331203143,-7.338265629817533,-10.084998308684428
1352,-5.91202698449704,-11.156026111873445,-6.835798458994711,-9.826391792436459
1353,-7.102696623193527,-9.971814796229774,-6.218853855106484,-9.433351235975081
1354,-8.054030076061458,-8.82691225646205,-5.507067266559066,-8.910320378268729
1355,-8.770755920889778,-7.70561996074593,-4.7217385742652,-8.278758752949646
1356,-9.253231073783008,-6.598767717880992,-3.8859264965554225,-7.56683437910522
1357,-9.492729148210906,-5.506818498450239,-3.020422123194593,-6.797134534980924
1358,-9.500990341584837,-4.438632137515607,-2.1404567684899045,-5.986668889637599
1359,-9.33399335144818,-3.4108043777917074,-1.2584802975250338,-5.157267085990042
1360,-9.06870878870058,-2.4456625403192556,-0.3882127411255595,-4.333026310005602
1361,-8.74443703169139,-1.5652742429686823,0.45640474071504106,-3.5302588177983734
1362,-8.360394600751516,-0.7866246959994827,1.2628829021309478,-2.758036637307444
1363,-7.925475860293667,-0.11765744794376608,2.0188242887711088,-2.0273026658743154
1364,-7.476451639453926,0.4463302218966661,2.712120199883431,-1.354409889191592
1365,-7.054384088845866,0.9192156058446338,3.332381888508165,-0.7534655943418525
1366,-6.683289672237473,1.3156294277592537,3.8692623926389826,-0.231725633565583
1367,-6.380504637867049,1.644708863961918,4.312549042662168,0.2071559655911604
1368,-6.171699550786517,1.905501117854309,4.656341913312728,0.5555884376396939
1369,-6.084881342519797,2.0861576971269384,4.900114239137144,0.7972605130036359
1370,-6.127931855664097,2.17057204045649,5.046306357887255,0.9165136796604838
1371,-6.275016110221051,2.1486777501471206,5.098522375014283,0.9098213868329712
1372,-6.488864583253718,2.023542957571869,5.060206584973142,0.7837509027672406
1373,-6.753291572908101,1.810784290081338,4.933260990867794,0.5443904986475123
1374,-7.08200144256978,1.5345498810753166,4.718952785930467,0.1914778066177647
1375,-7.491514955334785,1.2227859508606242,4.421156942850177,-0.27057580455630487
1376,-7.970529865668661,0.8995827815918587,4.048310139617191,-0.8108349847714083
1377,-8.493708819929928,0.580850745280343,3.6118399070092697,-1.3791352786597733
1378,-9.057038974017036,0.2759069349447161,3.12657507957634,-1.9369219596473
1379,-9.67672876675287,-0.011129730873145088,2.6167469957439726,-2.4637291299113313
1380,-10.34207913346606,-0.2797470098529381,2.116770198095795,-2.946307666116015
1381,-10.994056571269574,-0.5308601256563147,1.6607669704554702,-3.3736901763859324
1382,-11.559875534451484,-0.7617583196065272,1.2716798846570396,-3.7384774977268154
1383,-11.988717366278244,-0.9588035320046531,0.9630315724152879,-4.0401512037700344
1384,-12.26257713047853,-1.0964003575254422,0.7480743504219728,-4.283795019031625
1385,-12.37462702224965,-1.1408243097355704,0.6419341660741693,-4.470235544964592
1386,-12.30246747785037,-1.056989309154025,0.6574038414735834,-4.583905889869902
1387,-12.018130909663535,-0.8194917524032466,0.7996225547537628,-4.597074351763887
1388,-11.523470302374962,-0.42448241630397043,1.0629108828819898,-4.485784833000977
1389,-10.86694815243883,0.10648112881690971,1.4315923237226407,-4.23670531611176
1390,-10.108307093341217,0.7354832159520739,1.8834616766448757,-3.848427621684637
1391,-9.275063371546603,1.4214268138346853,2.392789946847341,-3.333516116103064
1392,-8.365607734677592,2.129824184301931,2.9320674757055047,-2.719713826219918
1393,-7.387927159563949,2.841376646643933,3.475484654533819,-2.0492862160814194
1394,-6.3795278211018225,3.5557614874548737,4.001087901356067,-1.3696617600043428
1395,-5.37667083683771,4.280783022962531,4.4897197651644944,-0.7161908619094974
1396,-4.391131778228227,5.017300581367757,4.922270804828022,-0.11080295919531614
1397,-3.428329452579121,5.7544402177711245,5.2825408569444186,0.4319819276486483
1398,-2.500651753538397,6.476776322144203,5.549832048964536,0.9203468322753555
1399,-1.6797056038818685,7.13621422694133,5.764529275798352,1.366748954244263
1400,-1.008629761638255,7.695405731208367,5.96041588304367,1.7789146756686938
1401,-0.4966839671599364,8.128656228437961,6.156761846241133,2.159172671701938
1402,-0.1386017950722082,8.42076840135213,6.358195585536712,2.5049324682054745
1403,0.06466479357551752,8.5692490093549,6.560566883044221,2.8085848291882423
1404,0.11313661704235298,8.589188956730798,6.7556822460300685,3.0599396275678665
1405,0.036280233602511286,8.512667271399001,6.93452542188678,3.252078392450976
1406,-0.102624535456637,8.382487969142504,7.089395709994304,3.3845200750994895
1407,-0.2356857700023682,8.243367470204136,7.214783502938576,3.463151714095349
1408,-0.38906786609244076,-0.5129397237023166,-0.38828972713607246,-0.46798105080381397
1409,-1.0185805122864995,-1.2694404518900217,-0.8206194379141789,-1.1281508067482329
1410,-1.9622144329475557,-2.3863587171235134,-1.4572629443148735,-2.1223973165630414
1411,-3.2506235355191397,-3.8702631176173066,-2.3110524093456792,-3.47160640103566
1412,-4.865947577584114,-5.690128944455714,-3.3760388731225723,-5.157192517973334
1413,-6.749059962554591,-7.775920721165852,-4.6303177626249115,-7.123866192144712
1414,-8.832751100317127,-10.027056684107265,-6.039590007956751,-9.292569178633304
1415,-11.059968879911477,-12.327916899854019,-7.559980395221192,-11.575750881749178
1416,-13.377682109042311,-14.565489886853229,-9.142978249989161,-13.890449396894338
1417,-15.71949135672717,-16.64987082783291,-10.746300663216195,-16.1729637279477
1418,-18.032560410199622,-18.53961847531713,-12.351370997575707,-18.397294882614453
1419,-20.28760808264813,-20.187513043291474,-13.920643481018192,-20.523176046306432
1420,-22.488080923366546,-21.552719742304504,-15.418244469561524,-22.526337263763605
1421,-24.626829882879232,-22.611103865423548,-16.818797414099453,-24.394899356341863
1422,-26.665751173064354,-23.366486422533143,-18.110430746116688,-26.11052800353265
1423,-28.562501151364266,-23.8392273086835,-19.289668348985753,-27.646713514821197
1424,-30.296656293247366,-24.04357325753205,-20.35391613898521,-28.980068187361972
1425,-31.865759432007316,-23.985854081307853,-21.294842465696497,-30.093230273450565
1426,-33.259712290715036,-23.67886737606445,-22.102539609413373,-30.97260994925253
1427,-34.44507559632045,-23.143206030486265,-22.773151350058175,-31.61115103568402
1428,-35.386639986448614,-22.402779162464206,-23.30548741561066,-32.01525705483762
1429,-36.068958186370395,-21.48792701172295,-23.69552026635401,-32.20358063949675
1430,-36.4895939378094,-20.436905205958464,-23.935747144677485,-32.197237284458524
1431,-36.64378683514407,-19.288148672237373,-24.01568623510091,-32.012473833764695
1432,-36.53342335168288,-18.071596865701522,-23.925216524147203,-31.660987039669838
1433,-36.18647710770522,-16.80892762517977,-23.661054245142598,-31.15449216533319
1434,-35.65592355065176,-15.517926201294598,-23.231598445304048,-30.512807569578495
1435,-34.992485147547455,-14.215738128169015,-22.657316983935566,-29.772587828987067
1436,-34.202535714102844,-12.921698120707216,-21.96687297257554,-28.97990377193515
1437,-33.250346269409995,-11.654628961732284,-21.19223360937111,-28.170991225253097
1438,-32.099577413593686,-10.42511070814064,-20.365234760009724,-27.36966832097212
1439,-30.73287956101402,-9.240511203283882,-19.514483348727225,-26.60039634582479
1440,-29.143287124063864,-8.121590625846068,-18.663855075901388,-25.88948982030854
1441,-27.315103480228565,-7.107127653740826,-17.833073030953162,-25.255230492404138
1442,-25.228304890801656,-6.2419830338183235,-17.03478604432648,-24.702011969126975
1443,-22.88238512530509,-5.560963200278919,-16.26780504527775,-24.217218437893635
1444,-20.308505930478297,-5.08207906845383,-15.52195123951528,-23.77347991891353
1445,-17.56570187758368,-4.807915479985898,-14.793196225016507,-23.341075943255664
1446,-14.723997461238412,-4.726455599871619,-14.086466638739411,-22.903122095603862
1447,-11.846671053418579,-4.812989024009075,-13.409770014072437,-22.457969430012493
1448,-8.97689829932528,-5.035154571743777,-12.773208638260451,-22.009915333081462
1449,-6.147100726477027,-5.3570620743777395,-12.187570534467179,-21.562259270443356
1450,-3.4116171990836652,-5.743771136623409,-11.657215029456456,-21.11612272393376
1451,-0.8555177549474501,-6.166807003194227,-11.176145044496257,-20.672337046521264
1452,1.4322026882560164,-6.6048871697912475,-10.730995066042025,-20.225825586023575
1453,3.3893343280798858,-7.03832365059974,-10.306510026063943,-19.761344443256846
1454,4.97918369762589,-7.44445016147747,-9.891273831075113,-19.266571577327156
1455,6.1662025531966576,-7.800792564298159,-9.479123390416202,-18.740414648096454
1456,6.9142621506940145,-8.086689637758438,-9.066212145789205,-18.18723495306991
1457,7.213169948308638,-8.280096336955074,-8.646632333316903,-17.610859090277042
1458,7.1058375978078745,-8.361596274432683,-8.21171605404519,-17.010742844814747
1459,6.674066190202168,-8.325170443567444,-7.755106165131893,-16.388122198656337
1460,5.993676798317381,-8.180320537248697,-7.27810495069833,-15.759401275321746
1461,5.11063348382507,-7.943535588221014,-6.787428620745242,-15.154442440156187
1462,4.055863740604165,-7.632984399057941,-6.285986830448806,-14.599698762338836
1463,2.8772579484335497,-7.269977406942403,-5.773458307303477,-14.103707905496918
1464,1.6291070917062478,-6.881582701146811,-5.256199299986901,-13.654382670553055
1465,0.33389435045115134,-6.501630777166971,-4.750291203918812,-13.23525459207771
1466,-1.0206875425224973,-6.168333799604874,-4.279707762377687,-12.844116564950824
1467,-2.4438309566179157,-5.917500617462383,-3.8714139922081054,-12.486626657270007
1468,-3.9111640819988724,-5.773996958567081,-3.5460418299513194,-12.158188041221214
1469,-5.387697353498756,-5.750479674709245,-3.311215743720619,-11.845824640673618
1470,-6.861665514884776,-5.852596373463652,-3.160517514981993,-11.542357069955177
1471,-8.339635512127836,-6.079709558753198,-3.0751001280300887,-11.250283314231366
1472,-9.812706204698708,-6.421563014026455,-3.0296615667891764,-10.979071563187611
1473,-11.242799306383564,-6.859684818083592,-3.003343108794497,-10.739713279738853
1474,-12.590320706715682,-7.375826049562989,-2.9875844562077676,-10.537647577451963
1475,-13.843778734681871,-7.955226271824411,-2.9868786163621857,-10.369850538239103
1476,-15.02135656798372,-8.583082183994815,-3.011936757868783,-10.22443829462631
