,TP9,AF7,AF8,TP10
0,-0.15872901265901526,-0.31461398669086305,-0.31982160985011,-0.05759868702189476
1,-0.32672758205820757,-0.7471460125454913,-0.673360347662644,-0.14156423558356154
2,-0.569194595313053,-1.3787873700755937,-1.17351532505888,-0.2565713095467548
3,-0.8608941009950867,-2.2202135671428636,-1.8169770999424992,-0.3790021476449043
4,-1.1591999976185425,-3.2636142439778606,-2.5865313891745134,-0.48175141355310674
5,-1.4364306360292336,-4.482986533659907,-3.448917489775883,-0.5454209582141788
6,-1.6875327059123106,-5.837046329528967,-4.359680168885613,-0.5624749431335101
7,-1.910154602262139,-7.275204482261977,-5.2752588920848025,-0.5376281798882132
8,-2.084831657816338,-8.746182499813093,-6.164507144436435,-0.4866984997762657
9,-2.1882828690060574,-10.208679755508534,-7.016924631477893,-0.43403128209882036
10,-2.22953472068733,-11.646466677376427,-7.8509442415483095,-0.409060966034292
11,-2.2461081279867097,-13.040662171484936,-8.675239617495253,-0.43990176234649886
12,-2.2615488814504174,-14.374399138345524,-9.49606496516296,-0.5466887412747587
13,-2.261925292458433,-15.622717979375437,-10.313545893696748,-0.7364552885175767
14,-2.2291760127700497,-16.755748736724545,-11.12518855435751,-1.0011814443551301
15,-2.175855961319731,-17.750511051977984,-11.929826037370205,-1.3258724426209567
16,-2.128486193077336,-18.59485159551339,-12.719887071806266,-1.6975397426893812
17,-2.0851352569153114,-19.285209182660104,-13.476285179234416,-2.094917728271067
18,-2.007520259191429,-19.82475275805534,-14.175464688372717,-2.4854114243320238
19,-1.86732830883763,-20.22266102789624,-14.795724251955649,-2.847472200981776
20,-1.6698420712796265,-20.49361061453142,-15.319932396955638,-3.1748564648615587
21,-1.4311827454547685,-20.654009081278446,-15.738295988957017,-3.460134551862564
22,-1.150909290295024,-20.718354027244835,-16.052877426881743,-3.6918634587549573
23,-0.8028933894169235,-20.698136719692886,-16.2746582339405,-3.8590464712328902
24,-0.3628922847207299,-20.600837838089056,-16.410883112665818,-3.952805499715115
25,0.16039624120613502,-20.431032598453015,-16.463115786689627,-3.9698927904682706
26,0.723960325876523,-20.19245114041771,-16.436092238649955,-3.917948160486245
27,1.287743023562765,-19.88791186802538,-16.341432183212117,-3.8145266884123936
28,1.8447653709417149,-19.51911699455702,-16.19329546553945,-3.679841398413545
29,2.39844374381578,-19.09220939593533,-16.004223332249055,-3.5303470834949437
30,2.931164108546019,-18.62609860925501,-15.78718441647356,-3.3778880546492194
31,3.403610364731267,-18.150381927856266,-15.555879711212325,-3.2331162447277735
32,3.793293919334643,-17.693755361255175,-15.318672660713258,-3.102071876241182
33,4.117749642950718,-17.273602544213766,-15.080151817276787,-2.975811325591456
34,4.412759065705396,-16.891839438216703,-14.852393742956501,-2.8356950356869395
35,4.704009170699325,-16.537323003459573,-14.658377108491223,-2.673899185307135
36,4.98792415166873,-16.192327158889867,-14.525332972299946,-2.4950687085919507
37,5.251709155817778,-15.840654094067215,-14.473081208620453,-2.3018738548156823
38,5.503205666684698,-15.475079041767135,-14.50328457635478,-2.0896051324712324
39,5.76405958890759,-15.100582153515402,-14.598278023754252,-1.8504686542257256
40,6.043890279699972,-14.729026864409407,-14.726278609901206,-1.5801683126359989
41,6.327765068296988,-14.370131182279959,-14.847453579225986,-1.2794198753877308
42,6.6009802564984055,-14.027064231100551,-14.91532912839666,-0.9491189684695962
43,6.874223186626361,-13.696126367643997,-14.875763238238493,-0.5859775711199924
44,7.174224743264988,-13.369805063749842,-14.67766712952689,-0.18512309464779825
45,7.504442875302905,-13.039519668744287,-14.291176920391369,0.24985836872139644
46,7.822354911791067,-12.69374497176931,-13.717774908126987,0.7012665454026005
47,8.073004014476309,-12.315764150664085,-12.987726333178491,1.1422505510755738
48,8.22935344911601,-11.887666935430632,-12.148841035623608,1.5472157374040552
49,8.299215349383473,-11.399821933915932,-11.255516442386323,1.90124113245888
50,8.294243753462176,-10.856916875507059,-10.358843485098774,2.201653656633799
51,8.203668985528127,-10.274430679011422,-9.493804014524068,2.4534160555940976
52,8.011814781871536,-9.669706206262479,-8.670888990660046,2.6636567970296774
53,7.7310130258106,-9.05883005049624,-7.880045912913495,2.8411591446202418
54,7.41488486734966,-8.457361612785677,-7.103335799180264,2.999962560440086
55,7.113691835936432,-7.87610522959819,-6.327069830281063,3.155806882799806
56,6.8274214425455195,-7.317863543365305,-5.544711655416257,3.3179166132972493
57,6.52486967873648,-6.78208407718546,-4.754422209757906,3.4866613800359727
58,6.186809417827309,-6.27060665256157,-3.9600105247999924,3.6553507302602806
59,5.824738198192513,-5.786692893453462,-3.173706157114169,3.8137829666060394
60,5.453866698333717,-5.328618262557856,-2.415825501928587,3.9519522618818037
61,5.064276710854974,-4.885655427590106,-1.7073476819499942,4.06170098567274
62,4.635416111416726,-4.442389020497664,-1.0588872299093113,4.140493460268327
63,4.17102150161416,-3.9878578545474643,-0.4694228108952776,4.195624856802663
64,3.7105372289780676,-3.521458482209008,0.06534388081398411,4.239452385019194
65,3.285606836856829,-3.052447806832301,0.5471780111468973,4.278576308077729
66,2.8798882673539987,-2.5980879396580936,0.974026800125594,4.304349498219988
67,2.4477830354609194,-2.1817332041914073,1.3412442556196817,4.29155502444174
68,1.9640760992711284,-1.8317651639982624,1.644058647026255,4.214012663302214
69,1.4493015330389931,-1.5817935031974777,1.8806071933446025,4.062057832216248
70,0.9382374851617977,-1.4628554785645198,2.0528661358525953,3.840915024367525
71,0.43704110690393844,-1.489449505510484,2.164576310575056,3.5587185510893176
72,-0.07491730988445766,-1.6561713505837174,2.2218212789215586,3.224630707488096
73,-0.5982249389613666,-1.9448577834753182,2.2344968835050825,2.8555111487432194
74,-1.0942860442654359,-2.329082989774731,2.214642188382183,2.4759745926755974
75,-1.5235236167334525,-2.7766528925944436,2.17571416650287,2.1126429854845936
76,-1.8753468570854037,-3.253000266285358,2.134134815629803,1.78959763719138
77,-2.1650344506478394,-3.7247219819468174,2.1091549998924504,1.5238031112813557
78,-2.4007774243079743,-4.1644576262870885,2.119362864972834,1.3262221380242603
79,-2.5627032675963513,-4.551480053480489,2.1786682693305415,1.2069471844719735
80,-2.623189978692138,-4.8680850034411876,2.2957564135138906,1.170000716468344
81,-2.5736499767324594,-5.100631404385507,2.475645668170692,1.206021578093786
82,-2.4337830695938663,-5.245378300162457,2.7171393828342283,1.2948552387563463
83,-2.2245198614316277,-5.311747038283598,3.0079193065828997,1.413682048043368
84,-1.9488163754274521,-5.316432559971492,3.3253456999583344,1.5431924776682249
85,-1.610724557593401,-5.2752004232210785,3.6418058277158454,1.662501844714926
86,-1.2352835543473735,-5.200205379239428,3.9302468349032664,1.7398256411437003
87,-0.863022434768384,-5.101299359058426,4.168294561526816,1.738905167661779
88,-0.5181652425403689,-4.988454143952582,4.344808239960376,1.6351317851738825
89,-0.20089753259456505,-4.86952957990948,4.464711230180191,1.4241875403893116
90,0.08686011766319528,-4.745446984362753,4.541523029668727,1.1246161899758318
91,0.3244477622631696,-4.612389374285971,4.586591351390687,0.7730114382287405
92,0.4838879499326881,-4.468743254822337,4.606629497693934,0.41382560229180637
93,0.5559118635492891,-4.316782663644712,4.605500570664036,0.09220973324766431
94,0.5554665182694493,-4.159689365397784,4.583289957344778,-0.153115167984168
95,0.5020902708838728,-3.9982310648227526,4.535054375651726,-0.29721599765704354
96,0.3959469385551672,-3.8326085840516817,4.450115383524433,-0.3394445230663368
97,0.22273781264357273,-3.669657409604288,4.3107638745563035,-0.3091408912634958
98,-0.021162910090519724,-3.520428446641282,4.095928414575148,-0.2528170382363889
99,-0.314234247033726,-3.3875715378455413,3.7892232977717284,-0.2187980356984221
100,-0.6080352102851143,-3.262772334308239,3.385317407719016,-0.2493791659783208
101,-0.8630880171379157,-3.1383975419622496,2.8927495022385203,-0.3752310102657545
102,-1.0895514074135684,-3.0141180610282747,2.3310799456579456,-0.6101101792417946
103,-1.3311191527034845,-2.889528196894889,1.723969939487114,-0.9473598884028496
104,-1.6189032901753693,-2.7569828047553266,1.094816959339255,-1.362479356191003
105,-1.9453771254442764,-2.6063260576538965,0.46539418813187106,-1.8196505880006175
106,-2.2808459209973986,-2.4346310117870598,-0.14741647336158303,-2.280295222349738
107,-2.604806819408473,-2.249068083040732,-0.7296709705309251,-2.714259038925365
108,-2.916337586740536,-2.0608669297233675,-1.2610220775381997,-3.1031815241307816
109,-3.2226906103112714,-1.8770378412481263,-1.7151115536141812,-3.4347928339010756
110,-3.5157235968745204,-1.698017736166169,-2.0692424507245133,-3.699910894904587
111,-3.7743848228438726,-1.5227199291610523,-2.311183293176645,-3.896781522549621
112,-3.9945823210468685,-1.353559430676108,-2.4425019613198025,-4.038267522850013
113,-4.200900182018716,-1.1946958900188707,-2.475698673357862,-4.146371724030274
114,-4.427612332420102,-1.0459139181944561,-2.424510035321004,-4.234957736533607
115,-4.689269556971962,-0.9011386936809088,-2.301005845691838,-4.301967915972326
116,-4.9770524469425315,-0.7535971204842316,-2.123412355365552,-4.339371167345005
117,-5.28229294883814,-0.5970532152890659,-1.9192379441793255,-4.343907991504528
118,-5.641150407329814,-0.4326314548192637,-1.7393850857811488,-4.348379896004645
119,-5.967831785010154,-0.23610609807726915,-1.5769733679178004,-4.295226061597374
120,-6.180307429617125,-0.0038954238719769163,-1.4274363325769057,-4.1552987170771205
121,-6.240978128466905,0.24967335212548636,-1.283928882255612,-3.9223133576357196
122,-6.164767468658691,0.5050037850892138,-1.1381781309178316,-3.606844108912923
123,-5.989438034245963,0.7476953060090713,-0.9830250695940537,-3.2304073413690997
124,-5.744963903448536,0.9702447706962675,-0.815394272110275,-2.8199196469995367
125,-5.453928713864064,1.1665420972135547,-0.6404222642766355,-2.4061858372823974
126,-5.150703562499829,1.3276961887595498,-0.4721798192040603,-2.026233033497296
127,-4.884728662929093,1.4445292075648748,-0.3281967798933211,-1.7178127177967997
128,0.05910707365725704,-0.3705500654004342,-0.3852599139400965,0.29625618618781746
129,0.28074752155203897,-0.8783920975655599,-0.6536448809409557,0.4964795357521132
130,0.5527116834076824,-1.6533622159382768,-0.9716223506971727,0.6808010473296393
131,0.8362987385662548,-2.7275497941790596,-1.3290093657089321,0.7972170580783186
132,1.078798204757646,-4.112074209457108,-1.7116216261717703,0.7909043426956869
133,1.1938178302745561,-5.793366076393075,-2.097909584632781,0.6100792195073101
134,1.0689869870554753,-7.735286144149793,-2.4632474111652045,0.21292190120052473
135,0.6043926389330164,-9.88745455732038,-2.783277673938493,-0.42633002125271735
136,-0.25582079844012884,-12.200675799507842,-3.034804900083918,-1.3137111894072562
137,-1.5291674534669728,-14.643987158570685,-3.199458305521127,-2.4355177247525166
138,-3.2209241726614337,-17.22043932279847,-3.2694938777139075,-3.7611942313789273
139,-5.325839728285187,-19.922619053883146,-3.2059808926818176,-5.273652940943668
140,-7.815637428151049,-22.745877248879637,-2.9573688423517233,-6.965637257683753
141,-10.638048726538345,-25.689969657862672,-2.4767621598823286,-8.833710709938003
142,-13.741622612432126,-28.761103110535952,-1.7310921844187255,-10.872641772057897
143,-17.106756573731182,-31.965248425055908,-0.7006145978657279,-13.071860061746015
144,-20.72000706932684,-35.294230060746045,0.6107087885542906,-15.404230102457793
145,-24.520027358382293,-38.719028195246516,2.156313362918366,-17.81213156445853
146,-28.383423164390845,-42.19352184156546,3.8565920362618415,-20.206337730976564
147,-32.16410434894603,-45.65666395382357,5.633825017120359,-22.481745770166718
148,-35.73675458712026,-49.03061981399733,7.430559183676468,-24.536753448142182
149,-38.99615447137774,-52.226026749281765,9.203623176912151,-26.285187632503806
150,-41.83673383798739,-55.158755742790575,10.924328280926474,-27.66425271981866
151,-44.15026968507677,-57.76440731786503,12.588801670620018,-28.640600139469296
152,-45.86469645821004,-60.00041061145627,14.212632751509968,-29.21137766870894
153,-46.97871999003354,-61.8398170385782,15.80612859874028,-29.400457424043612
154,-47.539938360344195,-63.26439542468831,17.343235070403445,-29.25116963819121
155,-47.59552788015368,-64.26498198155934,18.747071874843613,-28.81465406984747
156,-47.16967626257051,-64.84314861201132,19.912309223167398,-28.138114619238415
157,-46.28984575792228,-65.00906141909499,20.74236549321493,-27.260966577725306
158,-45.013665437146166,-64.78225726871331,21.17033742389237,-26.215985750295335
159,-43.42071734353295,-64.19291830266297,21.169693152235602,-25.029565072998434
160,-41.580016794075725,-63.280674005314864,20.762162559673996,-23.72509803647625
161,-39.53606294701539,-62.087025166029235,20.00562383044374,-22.32534786345887
162,-37.330722856211295,-60.64206800656566,18.968432584214156,-20.8456070675993
163,-35.01524043606041,-58.96013461530595,17.71226497466726,-19.296367082333337
164,-32.64164322514691,-57.0501868057567,16.28302209652513,-17.69427205949499
165,-30.235762349976184,-54.92991397237684,14.721348657303356,-16.05893852729577
166,-27.783612292880235,-52.62492449706923,13.077759575263814,-14.405705998084468
167,-25.260408673404253,-50.15628801016824,11.405238402677192,-12.747701806158334
168,-22.665298380353885,-47.5362279578708,9.740693456192265,-11.101444785124139
169,-20.03022145461874,-44.77601473136187,8.100868353556233,-9.486424933218949
170,-17.389287188251394,-41.89647522138486,6.500829967886681,-7.9198685142705925
171,-14.757333861459806,-38.93301956136058,4.975583052854893,-6.413206434749106
172,-12.151553150439794,-35.93437941753417,3.5817702613202766,-4.973474145791411
173,-9.613943924897338,-32.953894687100224,2.3646956701357094,-3.607353084927796
174,-7.205174819971506,-30.039034555458123,1.3201825252828607,-2.3184863425451607
175,-4.961938205394209,-27.223490043313625,0.39533389340803626,-1.0992523185341927
176,-2.868576194122516,-24.52229112334879,-0.48615018627591294,0.07190751384362443
177,-0.8791911377982224,-21.937083713737422,-1.404520654904663,1.2242725115182806
178,1.0439236653951658,-19.4672633976811,-2.4237011256500893,2.3820750958906074
179,2.90766690422215,-17.11592977898815,-3.562744926449093,3.550817783610301
180,4.70049699456786,-14.886819605301762,-4.792671867145281,4.7182946532288215
181,6.4214285261647905,-12.775974507724172,-6.070155050141394,5.873416917209761
182,8.090167546531468,-10.767134160612015,-7.358438736303058,7.013935749560433
183,9.720078275453844,-8.835248948124615,-8.624199144972835,8.135558730340405
184,11.294523058877136,-6.956167084012548,-9.830978090445445,9.226925069856755
185,12.788244149378237,-5.113357377190703,-10.93862837671409,10.275753889331176
186,14.194814412104835,-3.297440263116902,-11.914898928115713,11.27296660307907
187,15.527989071205521,-1.504868060363238,-12.746458084797114,12.21021140968231
188,16.794217014066735,0.2622832414251599,-13.441703585030385,13.077231383455318
189,17.973014960540773,1.9982989533335194,-14.023795235857184,13.860262827705014
190,19.035826133728204,3.6955946188817372,-14.514455034938663,14.54549285615873
191,19.974880108659455,5.34341673982992,-14.923117806813929,15.124747129800445
192,20.815168318497093,6.927376993378477,-15.251024550776558,15.593922322748048
193,21.583833271670045,8.43041503737933,-15.498506760950667,15.950893282678866
194,22.277554660137525,9.8343739694762,-15.660974226624786,16.195670925473962
195,22.874823599061152,11.12276462610684,-15.716658272557954,16.329547459583033
196,23.365703929472026,12.28068551432655,-15.626285462502036,16.354100470541567
197,23.767332036615937,13.294209779506,-15.355800074103193,16.271552656481624
198,24.096786638097225,14.15316405575777,-14.901991530142531,16.08400964290232
199,24.33933504451404,14.853976664573313,-14.301906737567773,15.78695832037775
200,24.460138221573494,15.400742999398974,-13.625128957618871,15.367782224668742
201,24.440777446376135,15.804435232907103,-12.947820150564848,14.816315234535303
202,24.295656314387514,16.08106413869006,-12.32185234407964,14.133059073802357
203,24.04618422023666,16.249683926923314,-11.770459529022707,13.329211040994895
204,23.698563693578247,16.330227760254957,-11.307168662459905,12.429162542195606
205,23.254086401997526,16.34238792517205,-10.944273942672657,11.476532773003871
206,22.73656212924444,16.305539527251725,-10.687303749761508,10.530487278138908
207,22.1994977759727,16.242189405182234,-10.529558426874713,9.653735701093106
208,21.69592544750059,16.181009200122034,-10.44898173474011,8.902491669534086
209,21.24899330642852,16.151383239797735,-10.40759186765827,8.316038069648979
210,20.848972651254673,16.174220149878447,-10.359777324321149,7.905632638349466
211,20.4858683613437,16.257710331460054,-10.266649071267981,7.653036825567377
212,20.168239175775664,16.398740048041713,-10.108160489800166,7.522390838812433
213,19.897002803289826,16.583860525533957,-9.886682734997263,7.473234659247588
214,19.640625632733418,16.78776370691407,-9.611214496087662,7.462163186544518
215,19.33756446510182,16.973232349517225,-9.275674369116185,7.440873111171381
216,18.934676652388628,17.095642185962845,-8.856310611022172,7.364066929115731
217,18.414936779608713,17.109891231522976,-8.324666992918173,7.2003065685675995
218,17.784600978163247,16.976913148549144,-7.659892178130618,6.935179348206411
219,17.049355848874548,16.67074641528541,-6.8588284864934295,6.567981425316781
220,16.201729980881506,16.183937115894476,-5.938422827668775,6.109375894014686
221,15.24116812928951,15.528261171558436,-4.92071318337159,5.581713349061828
222,14.196048414212711,14.732497919309358,-3.8269289892321234,5.015904390687508
223,13.119548452174794,13.83737884024909,-2.6885873564279197,4.446018709138803
224,12.064913110967924,12.886910342336018,-1.5461998632839884,3.9065907421040174
225,11.06340390031768,11.92088835657378,-0.44043775785594974,3.4273212295422946
226,10.13329946833124,10.975083698555542,0.5924858420428576,3.031278708725454
227,9.301176590639807,10.084629938568849,1.5241134831751901,2.7411184762293823
228,8.60929739813313,9.279748277898499,2.3436630211716794,2.5737597371950756
229,8.084063597000478,8.576989011714053,3.070777455720292,2.525504677898603
230,7.7044689215152715,7.978933351201085,3.751515974414305,2.569176892102897
231,7.423982210803198,7.483560014168636,4.43200088272709,2.6672568099166245
232,7.207833389182034,7.09161076496211,5.125722705797128,2.788404841824977
233,7.046064500842214,6.805819518743617,5.804556547355535,2.9122431548632854
234,6.926604112941986,6.628548415911119,6.4093520573304765,3.025540360981223
235,6.809109531047769,6.560951561005999,6.862814950444534,3.119304258889547
236,6.642008076187936,6.600471319226206,7.090604589270416,3.1877038867053433
237,6.3975720279813695,6.738727753921407,7.046060125043442,3.2296054339550464
238,6.092982035064083,6.962489288868001,6.71888898965046,3.2493328429609987
239,5.75915568409191,7.256367749137064,6.131664023960775,3.254311353555457
240,5.3991306568779915,7.605043270287165,5.33211197217996,3.25215924005249
241,4.996681609204248,7.995099452316973,4.372729213506666,3.2509304104264114
242,4.553362177248411,8.417593950109495,3.2947972788064765,3.2640370106338494
243,4.110803369495462,8.870102379393916,2.133972813331772,3.312730863700744
244,3.7200780044026964,9.35664185899871,0.9311777105127166,3.419451979975986
245,3.395642428673543,9.883464681327368,-0.2711772437386041,3.598731400863209
246,3.104939826783874,10.431066594130456,-1.4463764923169609,3.859250575065566
247,2.857239070215022,11.031391347506853,-2.572396619804616,4.173003051089982
248,2.6740125584080054,11.684494678407416,-3.6219134428822857,4.50835681757899
249,2.552743388844524,12.364980629894593,-4.556460034657295,4.83153803992717
250,2.46228685223028,13.034612068817323,-5.3358279315855315,5.110649146280789
251,2.3724037645684772,13.655318589942947,-5.933567661158613,5.321965691362573
252,2.283032050881923,14.196614375229625,-6.342201948532357,5.454747997756053
253,2.216176919328655,14.639034464724425,-6.571227564385626,5.512217742798168
254,2.1816384282013317,14.97485708937595,-6.6493458888212205,5.507530252475137
255,2.163721282243187,15.206036728913142,-6.624971803482716,5.45960064168791
256,-0.19104427222824502,-0.32950860540333077,-0.15675725259952572,-0.13955370393421412
257,-0.27214373541178694,-0.8109833059070229,-0.37586585880427914,-0.1812314837901884
258,-0.37731988281078566,-1.542668310255648,-0.7122830899179495,-0.21724399628995206
259,-0.48863608532253705,-2.545864842119821,-1.1785695884163574,-0.23973389166380663
260,-0.5905426092527472,-3.817807345717422,-1.7690188040130528,-0.25006909257388066
261,-0.6891546907804063,-5.325583839131831,-2.4531382479666344,-0.26684303349414656
262,-0.8022836975084353,-7.007055605611458,-3.170637480212012,-0.3159354186670299
263,-0.9322354082762339,-8.781225807123304,-3.843113520469372,-0.4109208531089784
264,-1.0559549096840681,-10.566230514823292,-4.397431300738892,-0.550167021983836
265,-1.1431895079976413,-12.301392061546185,-4.78118909996503,-0.729564192143978
266,-1.1886386613132787,-13.964468941858476,-4.965980795818434,-0.9528220524121439
267,-1.1892006956108536,-15.52731371882249,-4.936122599761592,-1.2155471866971557
268,-1.1255295173863782,-16.969136483941462,-4.713184354927905,-1.5021767272520208
269,-0.96440681276204,-18.277770920867496,-4.3566546029789865,-1.7905654690002732
270,-0.6921461092664464,-19.4512079431791,-3.938267729090925,-2.0655792051349215
271,-0.33616697862347855,-20.4976888147571,-3.513299176322856,-2.3308647426640445
272,0.05524187448110192,-21.428561281424496,-3.115545774826516,-2.6062986827684353
273,0.4493652783078224,-22.25031240394353,-2.765049346496914,-2.9065559052045633
274,0.8471723665067287,-22.963392442796398,-2.4686608684856757,-3.221988542892222
275,1.2529953504805635,-23.56505478343382,-2.2204689062611975,-3.529308366377305
276,1.6450988850439188,-24.05039084590501,-2.005103187942702,-3.8085153864878856
277,2.0003310859200303,-24.413688741892027,-1.808358357236509,-4.0332479601007485
278,2.3236312755457793,-24.651436554244338,-1.6356010828108103,-4.1611160489379095
279,2.6474026613015917,-24.761559947624054,-1.5191894566628747,-4.148560456995782
280,2.9958227386699416,-24.739469914888275,-1.5032343342204986,-3.9737407398889992
281,3.354713780873688,-24.575734031297163,-1.6222134161653659,-3.641734063214674
282,3.6892349449229616,-24.258652310534103,-1.8943731213695831,-3.1700541641654607
283,3.978404587035589,-23.781836192980265,-2.3208986798694404,-2.5799144384829753
284,4.228289894880186,-23.15465956681053,-2.872375497958965,-1.901763815331807
285,4.441115388114862,-22.40577590622946,-3.46977324340386,-1.1810069168977309
286,4.589092889701743,-21.573646056521806,-4.012300253621767,-0.4704105912831175
287,4.636564204269331,-20.694542076355635,-4.442932202415363,0.18495932274584034
288,4.577661420986864,-19.795407951677326,-4.764708431134198,0.7587304166448089
289,4.45233270704143,-18.89450805099886,-5.006935319799284,1.2457091667883675
290,4.309077156341708,-18.00632088835196,-5.196782334698457,1.6501802314005776
291,4.159512674925209,-17.141954259966482,-5.357507152421397,1.9707189012667148
292,3.988296685952286,-16.306794728064155,-5.518367211904592,2.2057263306636674
293,3.797694036192365,-15.501101947997396,-5.7196259964984595,2.374102029386261
294,3.6216596403522443,-14.722795530247398,-5.993633382813491,2.5118026433231857
295,3.4863375356393664,-13.971504562115157,-6.3267784011478385,2.6479656155478946
296,3.3790712024644183,-13.254978474852335,-6.655134819119012,2.79483477657442
297,3.2661999043919123,-12.58832992739554,-6.899801300889045,2.9504606325618354
298,3.135129687232861,-11.98427383518966,-7.0086834887862555,3.104829663854455
299,3.0078036331441522,-11.445439433813627,-6.980389435144941,3.246471471061117
300,2.9139564851914894,-10.964143452871834,-6.854812840036776,3.36618075972184
301,2.8622742862131836,-10.52838656318131,-6.688175409161602,3.4601031915307408
302,2.828521908306281,-10.125805977178855,-6.5343048374804775,3.5309142971000806
303,2.7860212676358507,-9.746015547377338,-6.424659635583419,3.583009944722771
304,2.7348199136973537,-9.384941662887474,-6.350936788532784,3.6187357289039204
305,2.6867960333852,-9.04290494255548,-6.279107401070824,3.6436586871113237
306,2.6416322919854482,-8.717355418276979,-6.186502824966202,3.6635436165213244
307,2.5772665494710543,-8.400545216321555,-6.0628343217917475,3.67034948341896
308,2.4809374838323914,-8.084527511319793,-5.877312742287391,3.642629799361708
309,2.3741976677932413,-7.76621933053319,-5.5837902620484545,3.555455852488657
310,2.2927992233256798,-7.446489741216067,-5.167985856980252,3.3849840211372313
311,2.260976573055753,-7.126692904126405,-4.677149426740521,3.111695055698033
312,2.279660537146393,-6.808875143050524,-4.213919337555165,2.730675537844272
313,2.3452220696114305,-6.4999561288959935,-3.8926936709216897,2.2641116084647055
314,2.4638406096530696,-6.217457946495806,-3.776080758999471,1.760432281548203
315,2.6356670620488925,-5.991163562637063,-3.8472063628706916,1.2773119754306557
316,2.833888732230403,-5.854279549562816,-4.022902975964914,0.8600633778665017
317,2.9962676518846703,-5.831439809889479,-4.188423260139262,0.5317649309882152
318,3.0554561920390775,-5.9317586685891115,-4.244247525692384,0.2968134901813749
319,2.98589578246374,-6.146795160080712,-4.133749838678971,0.15054422412393487
320,2.814873220708477,-6.453602701474385,-3.8402326858866758,0.08633339375805701
321,2.5764680601900234,-6.820774922961465,-3.381030699240832,0.0915806446772224
322,2.2710920872738134,-7.216215062787229,-2.8091099934507886,0.13865208610706795
323,1.8863519990209412,-7.614377631666902,-2.205900283044283,0.18801900647817094
324,1.438516807508264,-7.995660522392244,-1.6556549860477152,0.20741703093116498
325,0.9821253175615642,-8.341075935296166,-1.2194848761443329,0.18007825822094276
326,0.5658489131314182,-8.632062722922228,-0.925601236278417,0.0952060759304321
327,0.19753286728772368,-8.856339997598978,-0.7668246907330355,-0.05233587561728424
328,-0.1369391730502446,-9.012198164544115,-0.7144736670643036,-0.25437572017099763
329,-0.4508155892167831,-9.103948548315845,-0.7428058296461726,-0.49080514101954
330,-0.7584563924808468,-9.13268980555442,-0.8334384652375029,-0.738278466018419
331,-1.0880561051431195,-9.093119780941574,-0.9696638959885991,-0.9768649797894541
332,-1.4727719310477208,-8.979132618760607,-1.138329942038202,-1.1914524047471495
333,-1.924622066909214,-8.78890307809894,-1.3340562580350768,-1.3700838715172639
334,-2.4222587625387493,-8.523618332288676,-1.5630673816522875,-1.5024764265980253
335,-2.9263224994884327,-8.185607513244252,-1.8340006274480376,-1.5829861522401845
336,-3.4130394569838045,-7.781440997377846,-2.13484010608778,-1.615385638682858
337,-3.8823346242560737,-7.326113948298804,-2.4311199468342917,-1.6140260940733642
338,-4.331852140839162,-6.842295649350824,-2.6771042713196946,-1.597973886490711
339,-4.730454044043008,-6.357160434949061,-2.8102151781916787,-1.5778743658133865
340,-5.030179239958127,-5.8995888085482155,-2.767089299460475,-1.5473219634677262
341,-5.2100856317708235,-5.496422127435397,-2.53457827142135,-1.4889447743383508
342,-5.294363589253651,-5.168657632302879,-2.173903297421696,-1.385917824132744
343,-5.329488027074735,-4.926874792189867,-1.7799404729940866,-1.2281037909292665
344,-5.345563288954322,-4.7672043049029975,-1.4192953259587033,-1.0124611254877391
345,-5.342434451342397,-4.671353761454663,-1.1121410706248043,-0.7422354748331506
346,-5.302534048813174,-4.611074650828464,-0.8585932118709952,-0.4261137296955504
347,-5.204406584036042,-4.5559338356384185,-0.6660777862094054,-0.07407360035406384
348,-5.042867581459185,-4.479968207743213,-0.5444617491333027,0.30583470714074823
349,-4.827277712529983,-4.364336051535283,-0.4806339844347429,0.7075029164156545
350,-4.55509175351605,-4.196548352197321,-0.4297758922234923,1.1254154750336711
351,-4.206734070220489,-3.9694688717703452,-0.32794543294908374,1.5545234473011216
352,-3.765213091168716,-3.6811174393499706,-0.11429715949321792,1.9885734436296754
353,-3.2378659488293704,-3.334100671565205,0.24832438020721825,2.414207068973849
354,-2.65379188190097,-2.9361035393546953,0.7645861937510741,2.8143705841615705
355,-2.0426700203306187,-2.49889152935973,1.4030805030509095,3.1791998459299204
356,-1.4193610054770955,-2.0343730300314107,2.092992779730396,3.5072903864546023
357,-0.7894638607563473,-1.5521586867260317,2.740406223030986,3.7980931356858236
358,-0.1690257564260875,-1.0608919039570013,3.2672559069182663,4.049340491858863
359,0.4221142762872346,-0.5706230771307325,3.63507660138009,4.26292409732692
360,0.9853464741983836,-0.09205829563574813,3.8364652542715914,4.448653635251975
361,1.5485566646456097,0.3674816567880905,3.877914047254359,4.6210947710050485
362,2.1426060853392634,0.8077915036083241,3.7750153549586387,4.792576704179265
363,2.7740046075250095,1.2351802280772117,3.553246726675429,4.970770890076891
364,3.432044794034341,1.6583355481784472,3.24885747560015,5.160224602258796
365,4.120928686697137,2.0838780746604253,2.9080616607300587,5.364842860184219
366,4.871442892757269,2.514018062447971,2.5750289236202244,5.592929550512024
367,5.701448117712237,2.9471711978953405,2.2818667620402553,5.852369235932661
368,6.582059819131918,3.3775730066834497,2.047147970363776,6.1388712335063715
369,7.462713365167724,3.795560065930528,1.8742661358704895,6.437683101063106
370,8.30667796430779,4.1910328010976,1.7576435489387023,6.736251027004656
371,9.098846519183738,4.5572577299598045,1.6914359630827975,7.026296766252457
372,9.821387695076227,4.892142219995051,1.6697203972672638,7.292221582545211
373,10.430341396771329,5.195783293846829,1.6846658477467993,7.506492727432009
374,10.87222190901848,5.44900660232534,1.7519353795367807,7.646406237712491
375,11.14656862841507,5.687109035816334,1.804948029056566,7.7001225407418366
376,11.281954052742456,5.930224087134231,1.798927335759878,7.671882269610555
377,11.304424239816608,6.186668436635588,1.707965551268553,7.57522998810168
378,11.229918410401346,6.455104075001553,1.5266076681316614,7.429022363771449
379,11.083029138921237,6.725752267449724,1.2704215898721565,7.256057517516303
380,10.91022214957728,6.984230843800307,0.9701742785836357,7.081567174683951
381,10.764407406942304,7.217827058516737,0.6607743167575536,6.929471728126129
382,10.670861888737289,7.418190760533806,0.3704751615352732,6.81648800682439
383,10.61842183086506,7.579479834995235,0.11907096998288762,6.746289880272007
384,-0.23868079303361678,-0.2837913416991641,-0.10848472436957335,0.040380105319891266
385,-0.41649046522839517,-0.7197602336042289,-0.3277443319212685,0.04479230681592977
386,-0.6755621526013464,-1.3708156698449308,-0.6836364540615768,0.03751385004598745
387,-0.9903582599835777,-2.2434825585917917,-1.1894562857372823,0.03085002917516249
388,-1.3310518426739253,-3.3234106808256536,-1.8461687674189757,0.039330202055533475
389,-1.6801052994112813,-4.575755480684111,-2.641719722422777,0.07371728257363355
390,-2.0250511811783114,-5.949178519332752,-3.546816067862572,0.13849069854282428
391,-2.3396694735091565,-7.381616432256575,-4.519875345021231,0.23103713902249226
392,-2.5845544909093174,-8.808950124393636,-5.520254645729695,0.3425352094179434
393,-2.73310865798192,-10.18081083293503,-6.51608027141163,0.45919520275369086
394,-2.8024461130292906,-11.481030030341296,-7.491725773505826,0.5640951132778455
395,-2.8090960115019676,-12.696383055113596,-8.442346541017558,0.6362977415373609
396,-2.756442720229557,-13.828307152698924,-9.367146163851247,0.6493860984790465
397,-2.645937951064167,-14.888138829134173,-10.246413438216663,0.5733180627980502
398,-2.4934659395062475,-15.886744452988575,-11.055107732797854,0.3835518690598178
399,-2.3256341527924485,-16.82855373708493,-11.798003605512005,0.07247790873538403
400,-2.1529704043390048,-17.714761911634554,-12.494741046761584,-0.34676099219114537
401,-1.958708141007798,-18.54861569000938,-13.138091126503248,-0.8457846977537893
402,-1.7231188001975453,-19.337110532577384,-13.702249247974576,-1.3919151089659976
403,-1.4495981672301566,-20.085467136632854,-14.18171800382594,-1.9584065577968273
404,-1.1689747156687957,-20.78882175520469,-14.599388393453198,-2.5200613424012044
405,-0.9082394354916812,-21.43291986652117,-14.984451193052516,-3.0441593587866187
406,-0.666835627848321,-22.001203940878494,-15.345408209058924,-3.494394000231716
407,-0.42696683735084473,-22.480274525851257,-15.661519902520599,-3.842845371366615
408,-0.18108305384459167,-22.863449195211267,-15.894674882753947,-4.0814678291389965
409,0.048292380301236434,-23.153557628034307,-16.000315396812226,-4.226153468870971
410,0.23282866663278942,-23.362231935573114,-15.939633872212038,-4.308158673256173
411,0.37761099602537646,-23.504654371581843,-15.697184520059778,-4.358559434086896
412,0.5240236821600724,-23.596249607518278,-15.290230524525752,-4.400360617323775
413,0.707020222336379,-23.651477294258072,-14.768115773036994,-4.448746364040272
414,0.9231161034403484,-23.6805542034999,-14.209014247610462,-4.514013027753467
415,1.1465441791048985,-23.689305446626665,-13.694821072483116,-4.604961508190882
416,1.3565919516144174,-23.683097496096906,-13.258572497437576,-4.725631732855434
417,1.5516066461033002,-23.66528810154405,-12.871024979505135,-4.8668327401728115
418,1.7315354878052402,-23.630628685850315,-12.49332397340808,-5.010067302467452
419,1.874282533007072,-23.56459065167104,-12.105596765900072,-5.142799654068992
420,1.9424581851338787,-23.452630290522436,-11.676921539293215,-5.26394587394082
421,1.9099403598856501,-23.290962966614615,-11.16175046695915,-5.381367494016234
422,1.7830240742485126,-23.08338433054825,-10.535438246379911,-5.502537660363839
423,1.582044925399537,-22.82815576889802,-9.815290761787853,-5.62042800467503
424,1.314628734098261,-22.51670609268961,-9.059348873439834,-5.71262377826334
425,0.9820368852456054,-22.140642264412428,-8.341993612766295,-5.7498721172831955
426,0.6084605340197967,-21.692928055747583,-7.716755356921388,-5.7037038049369695
427,0.25443648977525724,-21.166233403530676,-7.188416965965557,-5.553677088490776
428,-0.020529014638890078,-20.554759054083576,-6.71961158326364,-5.2917769795057845
429,-0.19076198943064743,-19.85607342394495,-6.2693959113015065,-4.918542785660192
430,-0.24995988357878235,-19.0695651081607,-5.8183720028434855,-4.4381085331257975
431,-0.1795075971023514,-18.198646329892405,-5.366722706846514,-3.854306887984298
432,0.057287490090838056,-17.255960460532027,-4.9215129628969665,-3.1619954074990693
433,0.483229527408874,-16.262822396685475,-4.489040787077122,-2.3563303621629657
434,1.076622741657993,-15.246401921413991,-4.072096248604447,-1.4541247693249948
435,1.7702858157524892,-14.23734618330616,-3.653701651279582,-0.4975030068623053
436,2.4908215984920608,-13.262657138766444,-3.190048067253918,0.45616631599304724
437,3.1929412308178344,-12.33841765264451,-2.64511361906821,1.348909733602044
438,3.851085736211054,-11.468866607823317,-2.0247065726849147,2.1355077197010734
439,4.435529225417455,-10.65236815154874,-1.3696468113000402,2.788930674467718
440,4.901275556058776,-9.888878240027934,-0.7336311862315252,3.2935839774947477
441,5.218656717855639,-9.178004631065843,-0.16626115873254557,3.6376413199506112
442,5.402761840400386,-8.510847233723107,0.2907239305512084,3.8198586619254984
443,5.493863360838005,-7.870688754992982,0.5967482396525206,3.8545903573559355
444,5.524391839974613,-7.242231342257402,0.723549935540684,3.7664846456560794
445,5.512832416611094,-6.619010015991207,0.6904454467137907,3.58862413983245
446,5.481175973798151,-6.004437793817201,0.5773736643859886,3.362611054536398
447,5.453662921227693,-5.408010234346953,0.47793856274618657,3.130075281082865
448,5.439252025388936,-4.83937475931108,0.44475746803806654,2.919410443037669
449,5.414829963921569,-4.302860219997406,0.4769292327191703,2.7319183967863414
450,5.317390060266128,-3.79695120020604,0.5303149902260732,2.5411311675232304
451,5.077686966719569,-3.3179760129764566,0.5343642258519444,2.3175108218120926
452,4.662579155484256,-2.865000315769256,0.4161799617781694,2.0439405737259984
453,4.074862427602334,-2.4418777833630587,0.13356535275509138,1.712592399287914
454,3.3231076646890156,-2.0540241637999075,-0.30186875304306493,1.3198046374359411
455,2.407488920247749,-1.7070086561742204,-0.8381119322102341,0.855899861690328
456,1.3320283526613674,-1.409053539121368,-1.4039055797004465,0.30757131492589235
457,0.12754297968711065,-1.1722156250826388,-1.9112229036126487,-0.32557105965874217
458,-1.1360924413660087,-1.0103835525083866,-2.2635713850114256,-1.0279482653452692
459,-2.3790260050359375,-0.935873771248037,-2.3769862655058414,-1.7665184687989781
460,-3.537291736211828,-0.9570260584587464,-2.203950817034049,-2.4763262928703575
461,-4.563850971586948,-1.0760705628467058,-1.754913046138754,-3.0802971495697187
462,-5.44433217698072,-1.2894529003963746,-1.1024308494786237,-3.551423504456303
463,-6.217371614862458,-1.5896633870445955,-0.34996236923247914,-3.9421274746370916
464,-6.971501922257632,-1.97684757410648,0.42269871169495876,-4.349094916905239
465,-7.81410617461886,-2.4579790770633663,1.1594212860571982,-4.861266271789902
466,-8.819304997282156,-3.0099767460755844,1.771192515322072,-5.5225252180201405
467,-9.979743233148149,-3.5731015104856776,2.1419910797560786,-6.307114240563533
468,-11.215535439625794,-4.099675919589751,2.191962846707452,-7.136172326663724
469,-12.433705806913435,-4.5846735221818316,1.9112365934950655,-7.925829350504174
470,-13.561637909908395,-5.058428120999042,1.3547249626588183,-8.610403579370212
471,-14.54369160631598,-5.60174246739846,0.6241317269071431,-9.146340619798487
472,-15.324882716400085,-6.365656059308506,-0.16453005984309912,-9.513169361918315
473,-15.84034880327478,-7.537793544819838,-0.9340268841067904,-9.700920757681207
474,-16.04155165500334,-9.32983248748226,-1.6781880499105042,-9.700357692481674
475,-15.945738524719088,-11.995212524447737,-2.419290547787699,-9.524668072111885
476,-15.668494888979419,-15.772677846855316,-3.1207952851414276,-9.251099244819915
477,-15.37378727876629,-20.80726243098652,-3.710234933260249,-9.019263716231922
478,-15.17440577914391,-27.14653298531895,-4.188058037230611,-8.962527707731812
479,-15.114553153946064,-34.81171894475509,-4.647986781168161,-9.141847121121627
480,-15.219692416388718,-43.89626653228811,-5.205324789958418,-9.546809398054165
481,-15.516884940019542,-54.62709872272575,-5.917413634783707,-10.146038634490521
482,-16.029205570349387,-67.3685001209439,-6.7639781290148555,-10.930781137385182
483,-16.78640150601216,-82.59485574032209,-7.665433944340503,-11.926196323000577
484,-17.846613831745344,-100.82036443491884,-8.51747296712929,-13.182535825274027
485,-19.294206498521845,-122.47663776733198,-9.260474698449066,-14.745939435078705
486,-21.204898300723052,-147.81687921622486,-9.922323871339573,-16.631586434632624
487,-23.61151311956797,-176.87770535277997,-10.574543604181194,-18.838095303520625
488,-26.48825251895102,-209.44448239358968,-11.252460905034658,-21.365378955399056
489,-29.766094758320417,-245.02635962110193,-11.93376869645091,-24.208068787641356
490,-33.376746322528696,-282.90069609685025,-12.56771540343465,-27.359703026827244
491,-37.24484059221435,-322.1987925054531,-13.115741977354567,-30.7955737776251
492,-41.223886606640995,-361.9826138307594,-13.606499766690078,-34.402589036083846
493,-45.10976900231013,-401.37052359265385,-14.17216652879674,-37.98746569680251
494,-48.73615913732689,-439.67037354167473,-14.96216206031758,-41.39033878535593
495,-52.05107931740868,-476.3880183940653,-15.975902687778378,-44.541927557554786
496,-55.10244069600639,-511.1570685246669,-17.07369093569021,-47.42203598888888
497,-57.944272083188245,-543.6813316483498,-18.14071069719356,-50.01546623435779
498,-60.58788670927829,-573.710899526585,-19.160224461661322,-52.31259030218842
499,-63.009932764465304,-601.0495182993839,-20.162215582393745,-54.304422270285926
500,-65.17377003614882,-625.5597063661332,-21.154732344238035,-55.984669537334206
501,-67.06011089966368,-647.1567885932888,-22.095093505459488,-57.3809051430435
502,-68.74935796307307,-666.0471445122054,-22.808933426012707,-58.62239567632654
503,-70.11579524229396,-681.9120911840528,-23.191133779668686,-59.66421662145052
504,-71.08468978897375,-694.6020548330881,-23.195408599733202,-60.46646699546703
505,-71.63824712892627,-704.1529752838655,-22.86392823532593,-60.99337288439908
506,-71.804427052708,-710.778102468509,-22.30765013624749,-61.23182152687801
507,-71.63837479337803,-714.8409736374767,-21.641698498705534,-61.20010185772155
508,-71.22383868285144,-716.8151203482499,-20.959036794896313,-60.95513358420247
509,-70.69177363931803,-717.235777534763,-20.33232817726226,-60.60403191146233
510,-70.18909738121609,-716.6485611064448,-19.802949707283755,-60.2677788009473
511,-69.80256678068275,-715.5597530063534,-19.389174866787858,-59.99822246387302
512,-1.142198482314368,-12.69810160103576,-1.4846856455160746,-0.8414781818154565
513,-2.702249261453831,-28.01261532899823,-2.7204099705482006,-1.9803518234723252
514,-4.9939685562085,-50.09466725484589,-4.297515344224901,-3.652958842941896
515,-7.942448725768999,-79.09982699051213,-6.119128716509884,-5.847606614330753
516,-11.411498912540093,-114.58629999366214,-8.061656134474998,-8.494040956586169
517,-15.243110575617914,-155.54308373579897,-10.028043745658495,-11.481649511108785
518,-19.26989964462675,-200.50546672488395,-11.961561186465964,-14.688619037349554
519,-23.323061065501655,-247.76472277264065,-13.833083879431339,-17.998090407396624
520,-27.248678149574594,-295.676498794599,-15.627706944914303,-21.304364647552692
521,-30.945273859314614,-343.0702958803376,-17.33909967670349,-24.528658361593223
522,-34.424642825088725,-389.7605920336612,-19.01194314510777,-27.650845954558562
523,-37.66442451147659,-435.12655010253224,-20.59098204807222,-30.609021907107536
524,-40.631037763538274,-478.6264182826221,-22.039137954054336,-33.34759897185952
525,-43.29909072986177,-519.8124856328777,-23.44144551994868,-35.837808806278346
526,-45.68946154316539,-558.3241568721996,-24.963727494745946,-38.08241907110436
527,-47.839733868479435,-593.8808938340137,-26.714030753556862,-40.10763846490109
528,-49.74399952594665,-626.2751248763246,-28.729062539732134,-41.94767799710418
529,-51.36982732201234,-655.3652107218932,-31.06810143033585,-43.63939084795591
530,-52.74095016238057,-681.0685429999062,-33.80505140816323,-45.23586982816126
531,-53.97211938002339,-703.3548402411477,-36.93343905688356,-46.80321623750908
532,-55.22893430437,-722.2396952911055,-40.35093954004007,-48.39582058865309
533,-56.63634727310474,-737.7784180824319,-43.900121674962605,-50.03174683405431
534,-58.21132606801468,-750.0602084692985,-47.37609898431929,-51.67381964602427
535,-59.87891578568323,-759.2026853789869,-50.54213805460467,-53.229376955187206
536,-61.51739165519152,-765.3467908778376,-53.186441574866514,-54.585820903643004
537,-62.98801931766998,-768.6520808675834,-55.183273967401476,-55.64627490535024
538,-64.15078639719555,-769.2924080046528,-56.54569661427979,-56.32830943536095
539,-64.88042798440371,-767.4519970432902,-57.4134062699678,-56.58029011727446
540,-65.09096055112437,-763.3219081119952,-57.9789609726875,-56.41784545334011
541,-64.78225260192336,-757.0968794063317,-58.41136890820401,-55.919072219317044
542,-64.06366458320348,-748.9725373808031,-58.78929520266369,-55.19152017476702
543,-63.098341245868745,-739.1429597070114,-59.11445825089063,-54.349853955675584
544,-62.027838765589514,-727.7985739920032,-59.37287886511712,-53.485130083765725
545,-60.93059597369386,-715.124373475849,-59.53895348182953,-52.62736646660802
546,-59.81637746681044,-701.2984296072897,-59.55941685135946,-51.75006197903405
547,-58.64877459752091,-686.4906804870961,-59.36148999789746,-50.79462085142117
548,-57.37133563022024,-670.8619736278988,-58.86992540355991,-49.69024109083278
549,-55.916141998371806,-654.5633412650516,-58.02867175915889,-48.382765782584784
550,-54.22365288957241,-637.7354865255678,-56.82636652879916,-46.856286102307585
551,-52.297919621511326,-620.5084590830843,-55.33775854796013,-45.13919361456875
552,-50.227469851697606,-603.0014994599643,-53.7606720810218,-43.30537377826601
553,-48.155047730116365,-585.3230318490394,-52.36572117643775,-41.47143994324788
554,-46.24740575291134,-567.5707861854353,-51.37429164734383,-39.79092227362044
555,-44.66820121960718,-549.8320311741113,-50.886307641544775,-38.437469438097274
556,-43.55188706451411,-532.1839010442988,-50.89881664965423,-37.55298829379365
557,-42.98199030516457,-514.6937999335047,-51.370211349228285,-37.19394038215111
558,-42.97076738277506,-497.419868979109,-52.26434722781794,-37.34205084373088
559,-43.44275326640891,-480.411502395131,-53.55416247540033,-37.938378904427296
560,-44.2581719742668,-463.7099000180562,-55.19755781679796,-38.89764760911805
561,-45.28502827920542,-447.3486450034979,-57.099685197680856,-40.1332876199679
562,-46.455435693901904,-431.35429653174083,-59.10724754798398,-41.57881491775411
563,-47.75791443332939,-415.7469885237469,-61.04931423731182,-43.184833751376445
564,-49.1829347868831,-400.5410264706425,-62.80601231894215,-44.905215748490264
565,-50.677286741222034,-385.7454755314609,-64.38044788769972,-46.68519882585651
566,-52.1523345838294,-371.3647340499477,-65.8757325880788,-48.44974211295465
567,-53.538874752041096,-357.3990875769758,-67.37223615648641,-50.10618712487604
568,-54.803255490300984,-343.8452393572969,-68.85407737377679,-51.556919665763346
569,-55.89302453431979,-330.6968140458908,-70.21367653493725,-52.69453423982436
570,-56.6965934703031,-317.944832159035,-71.28376516095182,-53.39083264885208
571,-57.05639980239823,-305.57815343829515,-71.90511129234888,-53.50600344176202
572,-56.81142594076295,-293.58388791264366,-71.96768782287543,-52.91883599604593
573,-55.83757323390394,-281.94777398623233,-71.37017161351496,-51.55582186720456
574,-54.05230982521407,-270.65452335897675,-69.98818313710247,-49.39341902727924
575,-51.40707888193292,-259.68438405456493,-67.69173794413932,-46.43714184484662
576,-47.88619196289207,-248.9778897193379,-64.38017689043484,-42.71410714301566
577,-43.516573384071414,-238.47925819680663,-60.03023445849577,-38.28087285829776
578,-38.38013400492245,-228.11514286701464,-54.72766575917204,-33.21665796405951
579,-32.58165832456628,-217.80077731430057,-48.65273793203231,-27.608198470103
580,-26.208249008108616,-207.80353992828725,-42.01733426849174,-21.539087001210284
581,-19.331045974019936,-198.75504983639422,-34.97805504829999,-15.073689053295602
582,-12.024659220187385,-191.07941612791782,-27.591406238939204,-8.25670874887612
583,-4.37200792072761,-184.5192218602987,-19.84190613092715,-1.129524297237494
584,3.5723286568790877,-177.97004019629233,-11.708689293930277,6.275084269739683
585,11.809281108702267,-169.5522359337812,-3.2106426258115843,13.940834705021146
586,20.350935959019807,-156.84678073159415,5.586151499296477,21.845269234738716
587,29.15769433334164,-137.2267044955318,14.575389930077788,29.932116744318794
588,38.11955302051932,-108.22428477147096,23.63459587164541,38.10278641630408
589,47.0884391466485,-67.88215833299662,32.660387291365566,46.22569263606571
590,55.92810246845101,-15.04418005927247,41.570847312663616,54.15774017990401
591,64.53779530565286,50.45097967983405,50.2723949455225,61.76066898189834
592,72.82479399091102,127.70383994100034,58.65063024773225,68.90610312509746
593,80.67099330348674,214.83990180361238,66.59328170668284,75.48104791548627
594,87.94775003203601,309.2657775501491,74.02178376089509,81.39750263790377
595,94.56816827316513,408.0935891219014,80.91052079724419,86.59952139435364
596,100.5171649696079,508.5821809987053,87.24625710713055,91.06531270819592
597,105.81291041362937,608.6155380671225,92.9636737144697,94.80794976207014
598,110.46458468442762,706.8824021819668,97.95518064724997,97.86766948632702
599,114.4717383974233,802.3980833772929,102.12865867763085,100.29605461120583
600,117.84315961453498,894.1814418276624,105.45319477611157,102.14793790014069
601,120.61201419557878,981.3616640690321,107.97994118982007,103.47952778638776
602,122.80759885206413,1063.2342533436874,109.82367000922932,104.33987249994264
603,124.42151283470159,1139.2500906276189,111.11841263377242,104.76291949444662
604,125.42281324281382,1209.0025617150875,111.98528860512056,104.77445964913963
605,125.80479966239649,1272.2138416356802,112.52759536065253,104.4052678717977
606,125.62148182426445,1328.7214351559498,112.83224526394318,103.70046806895941
607,124.9636577814427,1378.4650999988316,112.9704011620623,102.71887283816154
608,123.91637613272772,1421.474258357969,113.00127573210952,101.52624193063757
609,122.5692719454847,1457.8559827175404,112.97148743066951,100.19983863361368
610,121.05663093325164,1487.7836239495618,112.90892319561964,98.83653844530754
611,119.55614000895126,1511.4861331652833,112.82479542408235,97.54506445583543
612,118.22129948355506,1529.238113840088,112.73703162271636,96.42622249783247
613,117.11867392111613,1541.3506272895975,112.69210069132046,95.5552731171395
614,116.23245751560819,1548.1627626107118,112.75397797917847,94.96997274937031
615,115.52060393755077,1550.033971664703,112.96639435551884,94.67045200173958
616,114.95287194937247,1547.3371605093987,113.31990874512577,94.6320263552118
617,114.49528395918794,1540.452520814918,113.74812321464475,94.81194325229575
618,114.08164410644672,1529.7620781466662,114.13410097927584,95.14896111989793
619,113.61562683807234,1515.644928490367,114.34104602648503,95.57231023892069
620,113.02058812837265,1498.4731299432437,114.28124858836672,96.01829041692636
621,112.28062972126645,1478.608213018215,113.95546760125647,96.43799111437966
622,111.42223702274238,1456.3982704184634,113.41002759034146,96.7888676771545
623,110.46773451582229,1432.1755853531333,112.66738893542383,97.02770268368853
624,109.41337591805318,1406.2547563977298,111.71581164718415,97.1154218916083
625,108.2563464284841,1378.931276473953,110.53581867614933,97.02206834461829
626,107.00999744609115,1350.4805236551738,109.12002576461666,96.72274555555794
627,105.67975339169134,1321.1571221207964,107.47974059439018,96.19196530683334
628,104.24492326671458,1291.1946326148957,105.62945911712453,95.40897500523472
629,102.66469777069425,1260.805533145238,103.56912630756548,94.36375658463821
630,101.05903988758756,1231.3978963150823,101.44686708600945,93.22133591895815
631,99.19109222118178,1201.1071544273047,99.03625846671581,91.70745295617952
632,96.97732513649022,1169.4594140173506,96.28962022155895,89.7260068910999
633,94.42676243090581,1136.9369631557831,93.27206222396909,87.31139624684522
634,91.61891423158747,1104.6032206830932,90.11948946185231,84.58496854096221
635,88.70461175128763,1073.786494953793,87.01355251055149,81.71835986964196
636,85.88461792818539,1045.821711322557,84.14080890148163,78.90309581799542
637,83.35726930073699,1021.8490930134121,81.64175456944858,76.32347512054284
638,81.26565391661703,1002.6686368338046,79.59103568705207,74.13285235257128
639,79.67830514480092,988.6491110214752,78.02033153952515,72.43589536979277
640,0.27981502426185695,12.295089252422127,0.4879499390074231,0.5215118594675099
641,0.92589799970675,27.123550943686457,0.9944472456640471,1.2631391809030958
642,1.8997235393159975,48.50476270551154,1.7535204480397613,2.331476476419874
643,3.2403040767928606,76.58935668148713,2.8142358144621085,3.729699533623788
644,4.942042597796578,110.9495600044632,4.2113526492019435,5.432762555369095
645,6.946736719108109,150.60645734419228,5.946576525941546,7.3879335421554595
646,9.171643941166133,194.1416367551783,7.982396607290535,9.527590251674766
647,11.549522594308279,239.8980053747537,10.23533648355111,11.788166244231078
648,14.03405479288273,286.27503397121126,12.57720424300976,14.1180696363765
649,16.580820665747066,332.133721946554,14.868146342548231,16.480618315134627
650,19.152132692421866,377.30710924407066,17.01456304736272,18.87170469606973
651,21.717593241323474,421.2221439362929,18.945193072712563,21.269798825739084
652,24.279953661851202,463.38112698837153,20.637330813736373,23.64963460800272
653,26.844518728773167,503.3608752985456,22.106198122749422,25.972582497027382
654,29.381097220801788,540.7902241296603,23.399668600216454,28.18095009774157
655,31.828264380612467,575.330970532957,24.580692316810744,30.20435262085737
656,34.1250921960006,606.664655084615,25.690087629360757,31.978367977089714
657,36.21138516829136,634.4881815863645,26.72441094140651,33.45567140449964
658,38.00144481278693,658.5242976847368,27.63440873168691,34.604625694184776
659,39.38664424971789,678.5364329143628,28.33688935107617,35.40672312688887
660,40.26579423728365,694.3429536143077,28.741291299122377,35.858603897014305
661,40.58242625949383,705.8322364774456,28.78741957638526,35.97657712514545
662,40.329403720400144,712.9693794570461,28.46979363728282,35.79559680741923
663,39.515564690872445,715.791904124366,27.8340528313771,35.353196703768546
664,38.14483883701389,714.4004541979682,26.97221507347161,34.66918976938535
665,36.23481666455649,708.9503610213981,26.007665567092737,33.75054071502877
666,33.858164029541925,699.6385626268421,25.044262747571743,32.61123554514611
667,31.14646934331018,686.6829405200954,24.11340179649738,31.27451363815857
668,28.247078208336166,670.3155789927374,23.164787140107205,29.766987438944305
669,25.272868617781302,650.7882012194378,22.097397242084305,28.11199992050255
670,22.28132229500449,628.3695487866515,20.804739863695456,26.320300434734264
671,19.30488308773417,603.3481019625905,19.210907918168107,24.393223180036692
672,16.38232002152358,576.0402520645731,17.282631047617464,22.336081346140727
673,13.570299981859845,546.7913535409012,15.029114595281532,20.168408778079495
674,10.929111908259472,515.9683347903265,12.509978318512966,17.922524480676028
675,8.48549332439143,483.9325842872334,9.83686491125217,15.633888854785948
676,6.228344093661667,451.0084558684942,7.141309876980445,13.337965706686981
677,4.136727879366207,417.47460952729074,4.5301898228626385,11.072844903933856
678,2.20685752920271,383.5733749085398,2.061684394742084,8.876580998298799
679,0.4480518850222981,349.5261063098168,-0.2513528853995156,6.779706525266674
680,-1.1452674047650466,315.54381015656975,-2.4226635744825185,4.803061072734659
681,-2.5886364776910993,281.82754834573797,-4.482549431484406,2.9651755473849204
682,-3.882785244126328,248.56390346483388,-6.468562589114419,1.2834352470917025
683,-5.010397496308072,215.92572826589426,-8.40726362422678,-0.23546837654062136
684,-5.956472114958307,184.08397233538028,-10.300489976954966,-1.595792961455849
685,-6.728400256946757,153.21221558958317,-12.123334458331396,-2.8039391893455416
686,-7.343908773552549,123.47669890531137,-13.838573063025699,-3.8617926674099463
687,-7.800832718808462,95.02768394088679,-15.4149032572623,-4.758679502460254
688,-8.066797369978653,67.9953993045455,-16.833625653797988,-5.474053188009612
689,-8.119449463940727,42.48632628734744,-18.085146610840287,-5.996495298967739
690,-7.987167227632889,18.577766825972613,-19.164137325163072,-6.335760951541708
691,-7.730127419519859,-3.6862992754807045,-20.072909137220865,-6.519053157434821
692,-7.392916889886183,-24.289317519237102,-20.829355160927648,-6.580672806461028
693,-6.9868264123601325,-43.23219539040214,-21.464317781052777,-6.5566759931234575
694,-6.524865981822078,-60.53720554216736,-22.00797803754804,-6.4835110806810965
695,-6.051191031503416,-76.25823089039392,-22.482202100390808,-6.393513746615824
696,-5.623998242517799,-90.47798610824103,-22.901108166057217,-6.312944630268958
697,-5.272376910283801,-103.28934526249155,-23.275341236923254,-6.254543772098294
698,-4.973781332247439,-114.77436216896689,-23.618929648513696,-6.206104330298927
699,-4.693220214061324,-124.99899408707668,-23.951186928566525,-6.13982219917736
700,-4.425106640803068,-134.01999689812274,-24.292447836989037,-6.029962948347557
701,-4.1825905577903955,-141.89230330661863,-24.661812186807975,-5.860968507863928
702,-3.9649071496085626,-148.66986582575356,-25.076506684762737,-5.634066253877079
703,-3.7489569938140472,-154.40170408885345,-25.536078148886812,-5.3691049147382355
704,-3.516206076989013,-159.13952466556827,-26.015385400942737,-5.097532261285526
705,-3.2727152305732594,-162.95402433566042,-26.491143892172833,-4.852278942387131
706,-3.0340897497769093,-165.94320630220435,-26.952502786127166,-4.660504779898975
707,-2.789172889624411,-168.22784889246822,-27.378584634899376,-4.542276597824439
708,-2.4934946519641845,-169.93878712811048,-27.724226589959475,-4.502375205865673
709,-2.1003272781029967,-171.20608379080147,-27.93107222494275,-4.515509175286786
710,-1.5873201738817695,-172.15315371048578,-27.949768784397385,-4.533353388465881
711,-0.9669690402881452,-172.89462398218762,-27.75177937070021,-4.507798002572596
712,-0.259711483190314,-173.53301534312695,-27.335971106363736,-4.401471793283195
713,0.5341302503288341,-174.15160799104993,-26.736420105644562,-4.1852612458999205
714,1.4189102631684274,-174.81389909378407,-26.01229911861006,-3.842957764749478
715,2.3751858832754333,-175.57645940346112,-25.214425754788643,-3.3878026626818536
716,3.354119565270706,-176.50142305360612,-24.353768681016046,-2.862306984058966
717,4.309407379619939,-177.65601261594406,-23.41634409718481,-2.318452430992809
718,5.219893814294098,-179.1039424602987,-22.40563310658015,-1.807672218189308
719,6.08144763411346,-180.89325191280537,-21.352138450897037,-1.3766244025201395
720,6.883357349481864,-183.04867419351993,-20.29763060410354,-1.0614119791072238
721,7.582678001517488,-185.57288201412513,-19.276962671553985,-0.8898296921528293
722,8.118997817697338,-188.4509736796827,-18.294757437702465,-0.8842951928452164
723,8.444393740254439,-191.65518335578332,-17.325859493368274,-1.057964143799627
724,8.528474645684076,-195.14705139046248,-16.349271279525013,-1.4134028961314704
725,8.344919872997178,-198.877072362352,-15.361547604608704,-1.9509336942208377
726,7.859050822063454,-202.78985807689202,-14.366383455428771,-2.680571753906707
727,7.053787672708427,-206.83296234817132,-13.371019288723238,-3.610061281381304
728,5.969176357726666,-210.95546523576962,-12.39421412535134,-4.714815968273692
729,4.69728045411118,-215.10331128434117,-11.475663650391231,-5.940265723742116
730,3.330330491712619,-219.22366842054092,-10.661804987709672,-7.22779600382539
731,1.9245893124833537,-223.26674296172519,-9.988582664651751,-8.525698481340122
732,0.5169585588940697,-227.17705247489724,-9.48643254679058,-9.785393504700743
733,-0.8440324903509491,-230.89067825826274,-9.185885663781555,-10.959028810243915
734,-2.08900513980146,-234.3458157601867,-9.097509548958548,-12.006636398748423
735,-3.1637563455168998,-237.4943644385904,-9.178679606758697,-12.908290496716617
736,-4.0730872280742565,-240.311895330473,-9.343732536586073,-13.672143858277508
737,-4.8641048227304875,-242.80202107006824,-9.507698688603464,-14.329774517081875
738,-5.569841995764307,-244.98667497778362,-9.606331811782905,-14.9200255352393
739,-6.187635989026667,-246.89326277900287,-9.60542942299721,-15.47272594029509
740,-6.717489307391563,-248.54913633560494,-9.515101818068512,-16.003089951999034
741,-7.1908523097512065,-249.98017195104472,-9.385135065564938,-16.514112792440752
742,-7.653231391049596,-251.21192186234822,-9.283014761229511,-16.999003456074533
743,-8.132721016183899,-252.2688490334614,-9.276758155683385,-17.445248718852184
744,-8.624665605652938,-253.17072066997665,-9.414883338692658,-17.83992747299604
745,-9.119293653072134,-253.93266859431066,-9.702250416789779,-18.176266257461894
746,-9.626842353142916,-254.56939164987227,-10.100126951162117,-18.456143122228305
747,-10.165674254296624,-255.09716194020734,-10.557914614299365,-18.682574812542974
748,-10.735680639258913,-255.53213824967628,-11.04435056102812,-18.855050603741503
749,-11.306289170730588,-255.8906510835731,-11.550212308865216,-18.970073018549023
750,-11.841486595705225,-256.18545585515335,-12.072763465653829,-19.02017747925127
751,-12.326611732785421,-256.417530370747,-12.601327312937643,-18.991407288382153
752,-12.765033858980866,-256.57869246996296,-13.11644775185528,-18.865019244296622
753,-13.145806056005844,-256.6580250226949,-13.593193624080142,-18.625742531869776
754,-13.431787565024125,-256.64330085430356,-14.0038254531778,-18.264999200653307
755,-13.596497449236045,-256.5240112920426,-14.329880053782286,-17.778776630207982
756,-13.648743993767168,-256.2928962811438,-14.567788658464488,-17.169582412162335
757,-13.615014654676143,-255.9447804357168,-14.717830517990869,-16.447595775907438
758,-13.524808580070797,-255.51063114441033,-14.829406389237276,-15.673253634407834
759,-13.336561994419494,-254.94290386119863,-14.818542147704955,-14.780180214564997
760,-13.042793228619892,-254.23809378226483,-14.649842425150908,-13.759306719522291
761,-12.675622409366825,-253.42373582870883,-14.32913102919861,-12.642234851000376
762,-12.285138430492752,-252.54806449189007,-13.89749097487791,-11.482641560463707
763,-11.90563865132605,-251.67064742356777,-13.413991356964582,-10.338910779170506
764,-11.547650097254682,-250.85156997045172,-12.926215549493142,-9.266441345372103
765,-11.219207319555576,-250.13960879628067,-12.459840288596363,-8.317061184198034
766,-10.941996545034119,-249.56664458516528,-12.031702003204463,-7.536051964248402
767,-10.741771157338178,-249.14777373159896,-11.659298779566695,-6.955594036519257
768,0.12443299639207994,1.5493321036455134,-0.11837009908907087,0.3758456108345673
769,0.5522945168633222,3.330949090847117,-0.2276261831833525,0.9078932877178212
770,1.2066036118223455,5.867533591184776,-0.33547182168011425,1.6696968104063565
771,2.114298633162306,9.168876547618781,-0.3987494806725854,2.660255912428025
772,3.269385007465631,13.179355947455642,-0.3739661045061639,3.8507710543241593
773,4.62830604957627,17.784032921904522,-0.23085051607529447,5.18506503198083
774,6.1288513401289775,22.82060583159939,0.0406511451129837,6.589531695544099
775,7.7160939607576475,28.098230115218826,0.4250308700982634,7.985995030800747
776,9.33998636057903,33.429014642303144,0.8785520429104516,9.302381554535604
777,10.934022544464614,38.67366333079768,1.3373238430430117,10.483348080062793
778,12.425876515651485,43.8005226557419,1.7274621625277484,11.509312550770241
779,13.768065513587125,48.71572337416633,1.9786576487671448,12.365477379431105
780,14.951004283243172,53.327310545534914,2.0373982619510715,13.04883436236251
781,15.976125553674102,57.55480481930531,1.8856134102153987,13.558671487337524
782,16.82342003571994,61.33627593968743,1.5408798982575649,13.89057494465511
783,17.46458588590819,64.63079365789491,1.0465388087577807,14.039416811620248
784,17.90064028432293,67.41579513396135,0.4702702547813862,14.006101433095743
785,18.176523803651445,69.67955701541456,-0.10514003750329802,13.7991495918035
786,18.344041613168837,71.41818512950299,-0.606275163969276,13.43134069803377
787,18.42504165260442,72.64227201920612,-0.9960324604644587,12.912974304432028
788,18.41980353275796,73.3792523659252,-1.2785950583226005,12.258760646043813
789,18.33712726768647,73.66801609446297,-1.4833735993972588,11.509260299296972
790,18.213607013941665,73.55329854556571,-1.6562041923338588,10.730337545163907
791,18.084097567757244,73.08113509345415,-1.8506176936941188,9.98777142346391
792,17.940891964400492,72.29522929259333,-2.1025297073101554,9.325605267824171
793,17.73999720014957,71.23333928494313,-2.4093476493262327,8.762680042319285
794,17.444632967579995,69.92499164569213,-2.738935425754495,8.299306489721513
795,17.04927548154416,68.39014267860452,-3.0505997706189505,7.9175764433769995
796,16.548492638819365,66.63784950111096,-3.3030130948079064,7.57783858246246
797,15.900849048003614,64.66642574939728,-3.466010110081159,7.223906333089067
798,15.039297484733876,62.46907633455641,-3.5433078406850913,6.796619110069875
799,13.923523036650163,60.04373120191279,-3.5706194090975725,6.248120566565653
800,12.565950284737568,57.400521032546074,-3.5942027438400275,5.551517851497581
801,11.003452314126179,54.566908646247875,-3.666262874342177,4.703213444513511
802,9.268854742062516,51.5853423933698,-3.842761930977069,3.71993052608007
803,7.389818776696327,48.50201000800965,-4.167699855332804,2.632120450136822
804,5.4149172858860934,45.35740907635648,-4.654052467515291,1.478382163051267
805,3.4185885215965746,42.185019211966505,-5.273463299262665,0.3001962937966104
806,1.4680116035468131,39.01249374855553,-5.967073277628944,-0.869025778007506
807,-0.40380327906127317,35.85776061874691,-6.667150024625553,-2.012270356285903
808,-2.196876418359661,32.727004385214414,-7.322170322137535,-3.1262795814063145
809,-3.9057869295551884,29.62013883703541,-7.919430942921444,-4.212438456373333
810,-5.495789241057715,26.534872757651517,-8.486801153664148,-5.270322429389202
811,-6.928365151040775,23.467026298772712,-9.069465864487476,-6.301661821363427
812,-8.196782442612067,20.41348538617763,-9.706361407973214,-7.313472038244726
813,-9.331760032561109,17.377772235908743,-10.425748344786234,-8.313979937638054
814,-10.363185604507436,14.372364793855386,-11.24042108032306,-9.310771289996575
815,-11.291050304867962,11.41613307618563,-12.135647428772048,-10.308229179619099
816,-12.095855101033793,8.52907905491849,-13.072133227448052,-11.303506805006283
817,-12.766519511995002,5.729915763784872,-14.008692034339001,-12.28643515947462
818,-13.316477510385667,3.0375973038935093,-14.918640146961296,-13.240684140065149
819,-13.764420322855045,0.4691007247484842,-15.7897449396462,-14.14358336708918
820,-14.110402318688871,-1.964692681255151,-16.616391685284146,-14.966494330805906
821,-14.334707493106837,-4.262069233066752,-17.392107501525746,-15.678580009996852
822,-14.421982308588309,-6.429611425080828,-18.111598866940497,-16.259305379508977
823,-14.381615470184439,-8.475043524717258,-18.7666425229374,-16.70885333365048
824,-14.239715419589377,-10.40301750730631,-19.334072966940305,-17.04140972000817
825,-14.017519436540365,-12.216126475644637,-19.78181811974513,-17.272188957064973
826,-13.714420271804476,-13.915648161721803,-20.090398018545745,-17.415220674313286
827,-13.332920278550013,-15.502056545506248,-20.261576774555827,-17.489701212709278
828,-12.905272459625492,-16.976300956642948,-20.310266316597016,-17.517866730154164
829,-12.473058628802596,-18.340767761686653,-20.25656594170917,-17.514940085393768
830,-12.058936198022252,-19.600189905960313,-20.119936712616834,-17.4837883050621
831,-11.655110038094877,-20.761546315624482,-19.922733917173844,-17.414527225135984
832,-11.24710191719044,-21.83194619420477,-19.702606218361886,-17.28743401744483
833,-10.842584782879788,-22.81694942027623,-19.506571066290263,-17.0791014451228
834,-10.461678641573677,-23.72047516529693,-19.3653452568374,-16.76674157985012
835,-10.107853589396356,-24.544014188133097,-19.27150365720748,-16.32966244753912
836,-9.756885166796021,-25.28596502838624,-19.18707920075699,-15.753653937313322
837,-9.380535323209681,-25.941732584098453,-19.084046735055413,-15.036907429489416
838,-8.967746204446078,-26.50150096432453,-18.970954951848555,-14.190441960864122
839,-8.522495797592414,-26.950264408929417,-18.879561699387615,-13.23130831011172
840,-8.042382967746564,-27.275239150926218,-18.83792043984538,-12.173616300027946
841,-7.50400848133145,-27.472128267503862,-18.85156680548325,-11.0282799862144
842,-6.884760055717558,-27.546090581438744,-18.89443149137038,-9.809589623241564
843,-6.196453631918559,-27.513636756565276,-18.90848826685543,-8.540013640792797
844,-5.493991000266193,-27.403394142470933,-18.817918313313356,-7.255871352834173
845,-4.830541822559074,-27.2510297007512,-18.55744813370838,-5.999144068705697
846,-4.217362815011664,-27.092794841722434,-18.092627098879035,-4.796881432781659
847,-3.6485400415210414,-26.963325239814406,-17.424579925627647,-3.6615436955964786
848,-3.139296694767772,-26.89492556286957,-16.586124378360438,-2.6081102446915057
849,-2.7284096138079827,-26.912733365820227,-15.628515371601718,-1.659974195129712
850,-2.43836671245509,-27.02797319892043,-14.612886412426295,-0.8428024994913407
851,-2.2492424852431983,-27.232538232966238,-13.61136257041693,-0.17704207608753558
852,-2.120984274556301,-27.49822238113435,-12.696557656305467,0.32703201642639146
853,-2.027661356624666,-27.785602005061463,-11.91579847701848,0.6694970000593558
854,-1.974006423284156,-28.05585959634096,-11.268271319866413,0.8606232702286237
855,-1.975779003538541,-28.27996849225912,-10.706128736823526,0.9210854864466879
856,-2.0321114719386646,-28.444533170441037,-10.16200728494375,0.8773695031954837
857,-2.1213684770924686,-28.549933856807012,-9.57462395126342,0.7585506919925802
858,-2.226772262352953,-28.605622075233622,-8.903883483284414,0.5906318500378558
859,-2.359378750453343,-28.62892723710139,-8.136584619331375,0.3878389566613533
860,-2.533090859514977,-28.643350259858266,-7.279487857823406,0.15381592454018395
861,-2.72826366185305,-28.672310123911423,-6.356138377762143,-0.10960784740298704
862,-2.8930139965912414,-28.73277224491816,-5.405911638109248,-0.3987879199962505
863,-2.9888051281684533,-28.831328631935808,-4.476670267711372,-0.7152496678883816
864,-3.0183116870126474,-28.961759022906556,-3.6120597128493888,-1.0667624199988426
865,-2.9989125207620893,-29.106754718558662,-2.837540761463936,-1.4570996331035768
866,-2.94381750974972,-29.244937364751966,-2.1619960735580586,-1.8807019079694058
867,-2.8703830075518018,-29.356312071809093,-1.5951827775141552,-2.3239935286701923
868,-2.811670234815288,-29.420240531008893,-1.1583620313517158,-2.7661990511528143
869,-2.8063078710391403,-29.414336943092398,-0.87402452479659,-3.180272618529404
870,-2.8695849467253107,-29.31908435639815,-0.7492447168685471,-3.5367573951116786
871,-2.983594129464921,-29.123799362152727,-0.7716944249048834,-3.8077167706824073
872,-3.1160750454259203,-28.832273075128413,-0.9094222661006245,-3.9702025757697266
873,-3.248447639704915,-28.46072229298473,-1.106710128921562,-4.00922746302673
874,-3.37944794980572,-28.028571852321807,-1.2939096604788771,-3.918893309886569
875,-3.5038009527269387,-27.55382729283753,-1.4144310419231918,-3.7036298166438706
876,-3.59533575404751,-27.052758424903626,-1.4453709566852884,-3.371671673536128
877,-3.621632719716522,-26.5387519476185,-1.3929456369254791,-2.928110397319309
878,-3.578507671744916,-26.02280323612812,-1.2702439369412417,-2.3857945384679793
879,-3.4978685263681637,-25.51533187983745,-1.083265673277572,-1.7777534845431677
880,-3.4257627905396704,-25.02613154475981,-0.8332466340917091,-1.14962486100204
881,-3.3860810869170925,-24.5631097515423,-0.523971380536869,-0.5408804387986437
882,-3.3627651138369066,-24.129094121563362,-0.1669350763109345,0.02783556417177785
883,-3.323902759541018,-23.720278147804446,0.22374429804664364,0.5527740105436862
884,-3.252850078573345,-23.329550030472674,0.6482829504146809,1.0374795408286244
885,-3.1591501587010717,-22.951588858494148,1.1222130350552932,1.4897066995122346
886,-3.0981532963335727,-22.58983637397962,1.6372361219167095,1.895848991733664
887,-3.006412857143354,-22.234982938408784,2.175789078685502,2.3210051654314765
888,-2.8489143596721815,-21.884751534687556,2.704298017128663,2.7970993330609404
889,-2.613795426833596,-21.540189937271098,3.1835540581242476,3.3278592452939746
890,-2.3072063299339614,-21.20683105087402,3.5728465694051152,3.896735348970553
891,-1.9483130353192015,-20.89606446376678,3.840386857989866,4.4774349600689645
892,-1.5644437828966433,-20.62188494884553,3.98366198907343,5.040645121421233
893,-1.1863794381028163,-20.39510293072399,4.032301173900464,5.555470381968427
894,-0.8437871615750605,-20.221557726221835,4.026886039510691,5.989477037408673
895,-0.5607963303184391,-20.10279102307381,3.998088850434014,6.3159115795929575
896,0.10153989469620198,0.056077299869832536,-0.12792907642838747,0.3473605790224443
897,0.2790567211076925,0.16295607715375324,-0.30802730593707006,0.7070642734165782
898,0.5235617786491106,0.34802074525563564,-0.5808753904676485,1.1544043637114965
899,0.8470063068910711,0.6334624582727186,-0.9659442031218225,1.6510796344471472
900,1.245657092144838,1.0367406427565888,-1.473857932481583,2.1502796147356693
901,1.6998295063752527,1.568241796585768,-2.0995173646111724,2.6084741480827516
902,2.193058229358068,2.2278193798665873,-2.813645877036333,2.9934497121700927
903,2.713007465034649,3.0020304505834194,-3.5711282051371818,3.2834635513571273
904,3.235657807527988,3.864356437322083,-4.3340551399783696,3.4619172397627187
905,3.725279431753838,4.777292347200688,-5.0813481707496955,3.5249633495029173
906,4.148109097495777,5.701393387832626,-5.810328224095443,3.5008707443198506
907,4.485212286983094,6.592612253184624,-6.517504119834274,3.4180826977243197
908,4.737183259874862,7.411264365245015,-7.197430444304371,3.2995136493316815
909,4.901511615985057,8.128534179951552,-7.838259532271903,3.14963530664529
910,4.952202578279855,8.7320099111012,-8.425729697539499,2.9501069071020956
911,4.861475471123508,9.225907499232234,-8.94991702156596,2.6719642849477414
912,4.633502271899044,9.627807903085166,-9.412346092687013,2.2933447735191117
913,4.318265305292626,9.963593418734709,-9.82546871532713,1.8114200890513747
914,3.9811063376015747,10.259429383645106,-10.198308046058596,1.2425807245358946
915,3.662527582992556,10.536308441206963,-10.52454519978817,0.613916466976972
916,3.3808446278491746,10.809433502692343,-10.798424982417774,-0.039919492404806134
917,3.1560502029313446,11.086215423213876,-11.045734265184757,-0.6763437032250554
918,3.0217923052125752,11.362670643120651,-11.321725355945272,-1.253122727691986
919,3.003813160743296,11.624947393818681,-11.686147416250027,-1.7377933694993368
920,3.0955221556609986,11.8542707578067,-12.184544656328098,-2.108069723933281
921,3.2648286350690436,12.029646606738126,-12.834664938264437,-2.349994785916798
922,3.475052808531228,12.132193763921684,-13.623791332950002,-2.4604821231948253
923,3.7085377739426226,12.148784393862373,-14.509191996220519,-2.452939108012672
924,3.9640721932886005,12.067964875249013,-15.419326952396744,-2.353756346036431
925,4.228387258888845,11.874485394247886,-16.27171419979857,-2.1931131272566344
926,4.470704610771644,11.550014987274386,-16.99745286591755,-2.002873308030168
927,4.678179602365874,11.077070969706952,-17.55494975154553,-1.8073104120626584
928,4.880866585348081,10.445496026709632,-17.93356458839473,-1.6086762290162544
929,5.116263415025447,9.65855814611368,-18.152390390033034,-1.39360354285374
930,5.38568802075205,8.734037967303236,-18.25015394235608,-1.1503410930287745
931,5.660547826396055,7.702420960494375,-18.26804665727559,-0.8717161623045151
932,5.924341721188137,6.604061666585515,-18.242390316098938,-0.5490177847524071
933,6.1892895719150784,5.485300672997652,-18.203283646205982,-0.17406946871098775
934,6.47105769550674,4.394797795857243,-18.165484787302265,0.2514481490530417
935,6.7660241403746175,3.37885719857404,-18.128978503161534,0.7161204131458265
936,7.048644550529104,2.4713300142393737,-18.09248998772913,1.2072964836560014
937,7.303565351531772,1.6879746088386285,-18.05010318518289,1.7127462218760285
938,7.5533912992184815,1.0306878746894221,-17.976260769631033,2.218449077429
939,7.83368587547071,0.4888252918040032,-17.82415478143828,2.7081133862032556
940,8.154394719868554,0.04004433473633706,-17.543571906259398,3.1627807267941868
941,8.49567991239001,-0.34129572939647307,-17.101968512054874,3.5640940248202244
942,8.84393688314716,-0.6753044213374406,-16.488244963581078,3.9014510184964215
943,9.210684274565876,-0.9778124706092619,-15.70419577583601,4.175628808788721
944,9.602362837091722,-1.2670158305656583,-14.758206952571346,4.389191842946678
945,9.98486461434594,-1.561738066267175,-13.667497147967254,4.529406344015443
946,10.288396006663163,-1.8767659666342271,-12.470316223308075,4.574420107778465
947,10.452963497888575,-2.222797270130762,-11.235692150158517,4.516798384913866
948,10.452382710615156,-2.6096275359933276,-10.056197873408115,4.366159660962559
949,10.28042293969265,-3.050490844619431,-9.021979330844287,4.137902790532726
950,9.929727005007452,-3.56284140982031,-8.187338744926295,3.847124967392809
951,9.379303708216684,-4.163197003132331,-7.561330783598652,3.5049174836064396
952,8.617933799821875,-4.858385680754637,-7.119878320449161,3.115118515478013
953,7.675938631271231,-5.6417389115926655,-6.812499340064735,2.6751788048600926
954,6.6181631484949035,-6.49741259501295,-6.574583974681735,2.1783072319335472
955,5.5003065416514705,-7.406147850070196,-6.348019832221616,1.6132542151670894
956,4.33980651657991,-8.345243724969157,-6.091725646114201,0.9644874019073466
957,3.1403125348522964,-9.28624472722297,-5.786066474506762,0.22190988396096775
958,1.923459315858108,-10.197912176139079,-5.432853845710923,-0.6021173347372459
959,0.7313108688869937,-11.051429196063273,-5.045398918379908,-1.4750950218512464
960,-0.3993387201336851,-11.823111915953968,-4.639261497599004,-2.361311131349341
961,-1.4579596619362187,-12.496713500882882,-4.22781703167313,-3.2276547791095727
962,-2.446071784266889,-13.06788754203434,-3.819423779493125,-4.041760805322015
963,-3.353880104901069,-13.543781570019963,-3.4170554336041317,-4.773600473921852
964,-4.147557770315791,-13.932893587659729,-3.0204999522479077,-5.402267709137151
965,-4.7914363566461216,-14.235201107745384,-2.6320266634886185,-5.919873365038002
966,-5.281720370124586,-14.441240043866898,-2.253830652051066,-6.335305858327142
967,-5.643296665917685,-14.539331858625884,-1.8766361354643617,-6.680222255231228
968,-5.8995533107360725,-14.525915529709735,-1.4829105568206296,-6.997729877365734
969,-6.051840911303231,-14.408592467184587,-1.0619747556895223,-7.318704078134382
970,-6.10314298985561,-14.200679017953263,-0.6250745436399098,-7.650075580539794
971,-6.080263488165141,-13.91875303683151,-0.2125480576851202,-7.981701056133794
972,-6.0211116563328,-13.586048187851597,0.1195925001720749,-8.300126771002258
973,-5.950043775560919,-13.234163907319962,0.32116629165246247,-8.593261980260918
974,-5.864843488231689,-12.898724625233658,0.3615861657450302,-8.849207042410454
975,-5.763301919091498,-12.61107899170361,0.23968196420961424,-9.061256743574107
976,-5.668753646306444,-12.39342596308208,-0.017777607597161682,-9.230250304883327
977,-5.620676370033491,-12.260250394580314,-0.3720304862865699,-9.356303709890069
978,-5.641587886394415,-12.215211220689156,-0.7834369545910541,-9.437113720987158
979,-5.715142696761931,-12.24376808861322,-1.2115832586628432,-9.4728513528136
980,-5.80607309013831,-12.316410214507911,-1.6153314628039863,-9.46497737032143
981,-5.893645291027293,-12.402110079882169,-1.9610396918660888,-9.417975432976997
982,-5.982422879844012,-12.478891781985602,-2.2331864820135277,-9.339629268340213
983,-6.067662126660618,-12.534917131081253,-2.4352275938130523,-9.229373821490562
984,-6.112457398990914,-12.564970034982403,-2.5801750790634226,-9.070221014666634
985,-6.073543529665099,-12.56917750687951,-2.6872738411735466,-8.837655173076383
986,-5.930477017182458,-12.552560457545132,-2.784188842133651,-8.517615730303657
987,-5.691122500769111,-12.524092907297552,-2.899544682934117,-8.111785699399379
988,-5.366219840474733,-12.494142427757177,-3.051415311844141,-7.627901178881334
989,-4.954311830955105,-12.46979060697824,-3.2449014476445486,-7.071532476285344
990,-4.454019418438506,-12.454614851298928,-3.478178075207471,-6.450339825350947
991,-3.881043285182566,-12.451889728520301,-3.743050778124583,-5.786171380573255
992,-3.2715841392338736,-12.463619497524455,-4.024121115667725,-5.111335805926866
993,-2.652525733007311,-12.486899022088581,-4.3004899679638156,-4.450917331412496
994,-2.020722116385911,-12.512318892307706,-4.540708320755777,-3.8134749181286614
995,-1.3622980488213807,-12.528927269956956,-4.704427714484677,-3.195152408396036
996,-0.6883681625134962,-12.534066132605354,-4.757019916850556,-2.5891843130560943
997,-0.04914736566682497,-12.534783867502586,-4.679914148140446,-1.9895565979990202
998,0.4977133503584857,-12.541551901278382,-4.467942754932917,-1.3877995149736668
999,0.9308297549380602,-12.563935205275564,-4.124337145859027,-0.7655974895530278
1000,1.2781751355946287,-12.607119762420169,-3.667368113395247,-0.09358334709963767
1001,1.5769211016548348,-12.668573696797363,-3.1373754084830106,0.6540411866508676
1002,1.8327269389143603,-12.738905994752402,-2.580640588962356,1.4851126565636157
1003,2.0333599484530165,-12.806830049838794,-2.0192308227009526,2.3890891333007276
1004,2.182478613767279,-12.862494951224999,-1.4486696611692031,3.3464538328431486
1005,2.312524477566323,-12.89578060702824,-0.859884178826678,4.334951906666574
1006,2.458192887104788,-12.893313266118582,-0.25191131380970233,5.328511758145843
1007,2.6228471866010485,-12.840540137851642,0.3696939547637096,6.296299281079288
1008,2.7734408995330586,-12.727296547330727,1.0054335872676134,7.203816244594945
1009,2.868576865014313,-12.551054980110871,1.6590441746429374,8.016407707666783
1010,2.895154456635652,-12.316529796698372,2.3155023102238754,8.703241186428299
1011,2.8528763847603287,-12.033255044453012,2.9334807458246215,9.237145146389143
1012,2.7219200108363455,-11.714424286682972,3.469468321349609,9.591176896306136
1013,2.4786159161144634,-11.377361607796551,3.9107135725735755,9.739719190434167
1014,2.157657551428661,-11.045610384882597,4.33116724106854,9.71076785480197
1015,1.7249725430713718,-10.728491568139969,4.627168284523531,9.421558910341261
1016,1.1745711825197758,-10.434295427757068,4.7371993303308075,8.857645707977454
1017,0.5073053426338252,-10.171260711590556,4.63765695637856,8.051425886237322
1018,-0.2554858622649414,-9.947174541528042,4.343452256365568,7.0681549580854846
1019,-1.0538050130437864,-9.7668412205208,3.8986388313508065,5.997157346964897
1020,-1.808150786866727,-9.63016170430831,3.3601511101555137,4.936150431770232
1021,-2.464874522260415,-9.532762932020528,2.7879449760007597,3.971721219002802
1022,-3.0087190599246694,-9.468732567403066,2.2408745618744597,3.1672182033628364
1023,-3.438826415839731,-9.432255524362848,1.7713717103808047,2.560724990881514
1024,0.06143056220871268,-0.284087869386901,-0.06890925476284965,-0.33270698085206263
1025,-0.007359628018651837,-0.6455504578853146,-0.12577305223191987,-0.7166077937827533
1026,-0.15568763294224908,-1.175928494642693,-0.2702679197432155,-1.2562054462541712
1027,-0.38269138205283193,-1.8738950195101385,-0.5617303722335827,-1.9426949681308499
1028,-0.6876078438930467,-2.7184679289563913,-1.0480327528258244,-2.7531546786242456
1029,-1.0645612292389302,-3.673685646617071,-1.7469079808815684,-3.651243883747776
1030,-1.4829950926810687,-4.697135344410022,-2.641161384873758,-4.589422648403661
1031,-1.8880451219339753,-5.745992633028609,-3.684364076130283,-5.510649339413278
1032,-2.2239367254844296,-6.783016654062716,-4.804016003111431,-6.359138137857301
1033,-2.4592547952585244,-7.783462022164075,-5.917985811751505,-7.1043803089612965
1034,-2.584533894430508,-8.741949428704693,-6.96488405454487,-7.750609239816613
1035,-2.584398372849863,-9.641354807652426,-7.895937541983775,-8.277864697966601
1036,-2.43968150895825,-10.470084139890865,-8.678349226674092,-8.656222610302825
1037,-2.1522874401126013,-11.226348427634255,-9.307027711517655,-8.865835136479657
1038,-1.7552558981916693,-11.920232784843538,-9.801499039941394,-8.904121307097967
1039,-1.2888152813035745,-12.570078857804818,-10.183742451902438,-8.77879052592303
1040,-0.7734620039656626,-13.193471809736527,-10.473695966968227,-8.504430846457517
1041,-0.20705566885464938,-13.80028345910767,-10.692483813867169,-8.104318542293155
1042,0.4082687281766088,-14.394059921339586,-10.857881176619877,-7.60811356737684
1043,1.0379607601384493,-14.978560124092665,-10.988039471112291,-7.046396398630959
1044,1.6310881980545227,-15.557534921728745,-11.107548881949304,-6.445438282977295
1045,2.1565598095058376,-16.127748099839323,-11.239740341354581,-5.824881452245474
1046,2.614381172183574,-16.677581618392153,-11.4008763069533,-5.196971906156494
1047,3.00686141339322,-17.190453514469844,-11.600401048705878,-4.569541500154524
1048,3.3092790589352603,-17.649735803609964,-11.837909043274571,-3.954058040699465
1049,3.48897599343915,-18.044791388865857,-12.104956512339157,-3.3634436509451886
1050,3.5415821749252197,-18.372872689280825,-12.390462049609848,-2.800074071031086
1051,3.4993343440918703,-18.639549786130438,-12.680311426849789,-2.261179518424163
1052,3.3938349693876444,-18.856261706873795,-12.957721453088313,-1.7610785574301915
1053,3.223272763763684,-19.034534497232205,-13.210654296849942,-1.330856460123203
1054,2.968673247872899,-19.184480305405014,-13.4265980750404,-0.9948961520702296
1055,2.621105041719195,-19.312812553839244,-13.573339526176214,-0.7589245544402388
1056,2.1966109724317797,-19.420698394505337,-13.622218747880234,-0.6121004945770335
1057,1.7148299619061476,-19.503845321188216,-13.595517353543803,-0.5334710441172897
1058,1.1667620559556677,-19.551489477272092,-13.55372610369502,-0.5067873715110963
1059,0.5306200746452878,-19.548978746810338,-13.547170500971763,-0.5365130285960882
1060,-0.19205561527525072,-19.48371560176103,-13.592676929827636,-0.6399185483407301
1061,-0.9787969472758683,-19.350497786561903,-13.685962044952356,-0.8236041594377935
1062,-1.8178166296604332,-19.15472152090382,-13.827442082270734,-1.079243816473316
1063,-2.7100450282221553,-18.90857574835775,-14.021257923902308,-1.393900728084963
1064,-3.640291199181918,-18.622726705901123,-14.25026295848339,-1.7510430637268655
1065,-4.557134533433508,-18.3047240660507,-14.474834338405875,-2.1226723058760264
1066,-5.391202448366721,-17.961863104682607,-14.65543520936852,-2.4670719300867683
1067,-6.098672611874033,-17.601275045409178,-14.764079083519722,-2.736949819927394
1068,-6.673592948146045,-17.229040495339685,-14.783647846993956,-2.8903831775906323
1069,-7.120573390135887,-16.84895698318338,-14.71324580345494,-2.8999836196732116
1070,-7.425129850329934,-16.460793585726314,-14.575541468009238,-2.759339830486318
1071,-7.56196923820074,-16.060488744376507,-14.408455633857884,-2.4859680365684453
1072,-7.527586438149455,-15.645443966131847,-14.252266370804438,-2.120445809225532
1073,-7.353540264485285,-15.220350422678777,-14.130862404228992,-1.7185091197166926
1074,-7.092797181735857,-14.796306279173942,-14.0215963401161,-1.336886068074108
1075,-6.783588034947897,-14.386473725080966,-13.867706324622892,-1.0186977815232934
1076,-6.433124031227633,-14.002397770755538,-13.629803674112624,-0.7807451032050542
1077,-6.031395995871297,-13.650645632842373,-13.300967716706339,-0.6125103798066143
1078,-5.5640655525707,-13.329460405453784,-12.891856264149048,-0.4933190872111163
1079,-5.030433333916187,-13.027330494567593,-12.419150106045777,-0.40489169725957935
1080,-4.443878966774458,-12.725941559979566,-11.902492754592663,-0.32181075093810657
1081,-3.8081675784803513,-12.404702119438547,-11.36705739558645,-0.2042638877436042
1082,-3.1158098176109514,-12.043292677139126,-10.829198602001984,-0.012878173636776458
1083,-2.372018584434224,-11.625264403557788,-10.273095963215654,0.27184549339379427
1084,-1.6108737738289236,-11.145133371045759,-9.663576479791915,0.6412832811866094
1085,-0.8853576280729264,-10.60960702463201,-8.983598261639997,1.0688334955549246
1086,-0.24086664827722506,-10.031085822579039,-8.243511574050867,1.529206084691699
1087,0.30485155888703525,-9.424961393437917,-7.4696173908848245,2.001564183143775
1088,0.7563877816146716,-8.81023449422723,-6.699701517322865,2.4606945969641685
1089,1.1199799961536403,-8.206780565527545,-5.974676448898437,2.8754608930915366
1090,1.4001665553706326,-7.6312619011068366,-5.3234409368408295,3.2153025071951187
1091,1.6156812115587955,-7.09662340403217,-4.755391398127017,3.4591130102241197
1092,1.8084554774030515,-6.612609075301051,-4.260847559405163,3.6012245020774554
1093,2.017928542032642,-6.183736603008374,-3.8127172217413556,3.6491818102245706
1094,2.2460983572310056,-5.807280907464572,-3.37470943981502,3.615294827013183
1095,2.463559732309212,-5.474430690709606,-2.920512399933913,3.5147422846141048
1096,2.6462583476895967,-5.175108106673334,-2.445080857268539,3.371614218390418
1097,2.80046260813461,-4.899628387837197,-1.962121835070709,3.2140281565387125
1098,2.93302416442546,-4.6359205698104,-1.494642339405963,3.0559221401904217
1099,3.0149560054989997,-4.370558258591986,-1.0633644502006268,2.8928243032482177
1100,3.0080822444394366,-4.092358462154186,-0.6784169144029149,2.71624291176332
1101,2.902762406020691,-3.792272133141357,-0.3255737930293314,2.520576640635891
1102,2.7188169028145603,-3.463768547112268,0.025340401762179124,2.3002292345173867
1103,2.4831064608499225,-3.1038584553914705,0.37623707663426453,2.046362332694343
1104,2.208177644236272,-2.708920551651228,0.6878646003586626,1.751172189644085
1105,1.8916989035727927,-2.271633340274818,0.9103784334154608,1.4140889405082746
1106,1.5392644073953814,-1.782863488644859,1.01245608986251,1.0354139507179974
1107,1.1769815542994282,-1.2398341543890412,0.9985898583490159,0.6179626635800257
1108,0.8329941512811101,-0.6594862893204783,0.9114244802610348,0.18054220498242574
1109,0.5230172948323961,-0.07106901592108704,0.8097736582474123,-0.2397282018989825
1110,0.2577280736141877,0.513061156582685,0.7233248972186308,-0.5984043070912615
1111,0.061754785924229255,1.0967886492701566,0.6632822339714066,-0.8626297437644722
1112,-0.024541147785826847,1.6671354074745088,0.7084653854590134,-1.0118197493428371
1113,0.033164761675252216,2.19257850536473,0.9729580422156935,-1.0179889583978046
1114,0.23754204137590312,2.654565009148355,1.4598356182166787,-0.853527603670096
1115,0.5440960381344297,3.0588455599290523,2.0452447106139706,-0.5241822345581071
1116,0.902814745990568,3.423900638256966,2.5759362879558316,-0.06733061013330789
1117,1.3014919151737394,3.77292599124839,2.917787576977115,0.47901651655215577
1118,1.7343064877884282,4.1263986524893586,2.953149373263615,1.0799681639648957
1119,2.169577191870535,4.491055946007712,2.6055156903210475,1.6904572593987344
1120,2.553642279240563,4.8603937071960335,1.8988293188330427,2.2549258288599083
1121,2.8246410423263955,5.219819716275956,0.9716851168554282,2.7084995325999937
1122,2.924287778529851,5.541341795715587,0.02191676064038811,2.9730073752613544
1123,2.7978080120595377,5.777089810482864,-0.7516320933240568,2.9682874291987247
1124,2.379515262011487,5.8621707635345786,-1.1923670404877664,2.6226926433721363
1125,1.5896280979612598,5.723311055801212,-1.206947653189874,1.8708507650224313
1126,0.3556693103837354,5.283891556828781,-0.7401048827843979,0.670446659620769
1127,-1.3470621409335373,4.477867394295747,0.20893595427478978,-0.967885491262807
1128,-3.448058126097151,3.299590270570129,1.50082769880478,-2.9629730762875113
1129,-5.814165956335414,1.8339901863688919,2.8386999164289315,-5.191194751749927
1130,-8.33606595732605,0.19987702099467697,3.8952270478846382,-7.54920884567375
1131,-10.931663218840093,-1.5174480429525603,4.500312890857592,-9.962631943835438
1132,-13.499629927349611,-3.2705768742169132,4.680431779555186,-12.346937352436925
1133,-15.935318688769451,-5.049742629887771,4.561548137155471,-14.618981209439617
1134,-18.19419855062919,-6.906745137708066,4.318670615820825,-16.754690803520717
1135,-20.297479416759234,-8.972245414437321,4.141829784967907,-18.78649097138234
1136,-22.280487837212956,-11.474076331397056,4.166331214325618,-20.737730356003713
1137,-24.170368872356843,-14.751334056116864,4.436571839018647,-22.61246868203333
1138,-25.989102548120094,-19.256380006389918,4.940148663123243,-24.428514437773053
1139,-27.759108116234305,-25.546493324743516,5.648533953828356,-26.209998038081643
1140,-29.50838960675879,-34.24527643741619,6.527175097834601,-27.96951520242435
1141,-31.251403143870345,-45.978288484277265,7.53218042465784,-29.710688849914554
1142,-32.94450691190486,-59.43549914096714,8.588630039027679,-31.412296746365463
1143,-34.57106647502302,-78.14000923989042,9.632262001862378,-33.121605125023116
1144,-36.10510255633955,-103.30535414972357,10.60449761371,-34.845015796073675
1145,-37.54854232543031,-134.42515448556128,11.517109842107002,-36.56680953384587
1146,-38.91111656896127,-169.80637632454767,12.436761659396215,-38.24978866150756
1147,-40.15333239585991,-207.03935922502424,13.393778790337691,-39.82407054568453
1148,-41.200387948507974,-243.44936925792857,14.348516319561247,-41.20358507377518
1149,-42.01104412031294,-276.5248308899114,15.209405414075032,-42.32656953119801
1150,-42.586691232907285,-304.24464972924477,15.864073634856897,-43.16434700754504
1151,-42.94522293550197,-325.29613481652495,16.23793161735902,-43.70940369679003
1152,-0.5684814203943456,-12.69810160103576,0.14043799488628417,-0.7941772293109485
1153,-1.4919603010653057,-28.01261532899823,-0.07681065281142563,-1.878758532121493
1154,-2.9170440968385507,-50.09466725484589,-0.6514686268545382,-3.4990084446041725
1155,-4.912920433419145,-79.09982699051213,-1.68727007670782,-5.6903596659309645
1156,-7.536172562503446,-114.58629999366214,-3.190772138528282,-8.439874075611364
1157,-10.776454612177824,-155.54308373579897,-5.082274071275755,-11.686328834985519
1158,-14.542983508796526,-200.50546672488395,-7.269567916697528,-15.331017048583277
1159,-18.684664160381313,-247.76472277264065,-9.68657232866909,-19.24782010561689
1160,-23.028834970341688,-295.676498794599,-12.283167540538175,-23.303138977140176
1161,-27.43382935290494,-343.0702958803376,-15.009054406667381,-27.4009341277868
1162,-31.821853442560506,-389.7605920336612,-17.814419312975915,-31.513055649332454
1163,-36.078625365443905,-435.12655010253224,-20.644615231286984,-35.547178226722295
1164,-40.09309376735822,-478.6264182826221,-23.420652204903384,-39.38561869670268
1165,-43.80066765062445,-519.8124856328777,-26.060585392385534,-42.957254752286914
1166,-47.190612504227516,-558.3241568721996,-28.532001841623167,-46.24735529887377
1167,-50.25667029490858,-593.8808938340137,-30.84129476504762,-49.24129203102143
1168,-52.96761895152236,-626.2751248763246,-32.960922353630366,-51.89167040626896
1169,-55.27922585445214,-655.3652107218932,-34.81792831020586,-54.129360227669665
1170,-57.14815812922971,-681.0685429999062,-36.339799722443985,-55.8992864805798
1171,-58.52045665866696,-703.3548402411477,-37.47506625667748,-57.18644802362564
1172,-59.30092354009083,-722.2396952911055,-38.20517035384776,-58.00299744264836
1173,-59.37731136420345,-737.7784180824319,-38.56352851838201,-58.35630324841675
1174,-58.69140448893744,-750.0602084692985,-38.62690650294433,-58.24376745774846
1175,-57.250311293416296,-759.2026853789869,-38.46256905013055,-57.66489475009279
1176,-55.092694440583394,-765.3467908778376,-38.0967199220659,-56.627045774090405
1177,-52.27614803281297,-768.6520808675834,-37.535470916086034,-55.15082602184663
1178,-48.87602158864053,-769.2924080046528,-36.77871630281069,-53.26788447781248
1179,-44.990098095053646,-767.4519970432902,-35.81323810791152,-51.0153062806362
1180,-40.74422846342771,-763.3219081119952,-34.61629011257894,-48.43443661217141
1181,-36.27401569935364,-757.0968794063317,-33.18258219208313,-45.55807815742838
1182,-31.690314484639686,-748.9725373808031,-31.55110187441001,-42.38482479601178
1183,-27.06490748956989,-739.1429597070114,-29.779045254899174,-38.90145676864664
1184,-22.447882426805858,-727.7985739920032,-27.90277298178963,-35.14613184894002
1185,-17.89460828944397,-715.124373475849,-25.931777087694144,-31.20412822144463
1186,-13.474518585953113,-701.2984296072897,-23.855988906345,-27.15790660699881
1187,-9.261709301660726,-686.4906804870961,-21.66823151884316,-23.067717541119038
1188,-5.32551620059538,-670.8619736278988,-19.38687113775805,-18.973348378317546
1189,-1.7136266152956994,-654.5633412650516,-17.05963849753263,-14.907283778932609
1190,1.5692119387553813,-637.7354865255678,-14.74725226128917,-10.907583397206162
1191,4.547662477361667,-620.5084590830843,-12.495514924970802,-7.0084876393138735
1192,7.237301994036425,-603.0014994599643,-10.31365394123376,-3.2245474279772424
1193,9.633291330275203,-585.3230318490394,-8.18124575044561,0.43785009191808055
1194,11.724384391183747,-567.5707861854353,-6.083895424923963,3.9630250115448775
1195,13.502456765941627,-549.8320311741113,-4.036916891906401,7.321403747718798
1196,14.96206143481969,-532.1839010442988,-2.0801876840657996,10.462953190403868
1197,16.097471387464665,-514.6937999335047,-0.25572584969637396,13.317811327023373
1198,16.91625333059751,-497.419868979109,1.4185213861004982,15.822478967576515
1199,17.463995209788656,-480.411502395131,2.9561428109198524,17.961202045463146
1200,17.81332017907667,-463.7099000180562,4.387821641023975,19.76976670232014
1201,18.027952656402277,-447.3486450034979,5.744987559389991,21.304058301854443
1202,18.152254227977068,-431.35429653174083,7.040537014267029,22.625939443675342
1203,18.2293777055247,-415.7469885237469,8.240451568305986,23.803554609116137
1204,18.311414369846766,-400.5410264706425,9.270767251132927,24.902925690223025
1205,18.43820580056388,-385.7454755314609,10.063504819613485,25.974055909974247
1206,18.603607859470237,-371.3647340499477,10.593804321294146,27.03433386299076
1207,18.737711039000438,-357.39896255646016,10.890598316250205,28.05424955210737
1208,18.739892452490494,-343.8435278857081,11.014390963993495,28.96544072677784
1209,18.546505853736804,-330.68505566868515,11.023110161582212,29.688614532930945
1210,18.16141780061509,-317.9014990915075,10.95074221458982,30.159323670895823
1211,17.62185456682817,-305.47435099601677,10.803561401130157,30.34446511991242
1212,16.952613247870694,-293.4021778804379,10.580093853598214,30.24309875663252
1213,16.168639826546176,-281.7024296351622,10.284316436781216,29.87617760860544
1214,15.29990983816402,-270.395896766802,9.916990142504053,29.282566196179452
1215,14.397223843218974,-259.493588282762,9.472167606482035,28.520212519459317
1216,13.510729865735476,-248.992146504371,8.939195258511411,27.65505538881508
1217,12.669078513354838,-238.83934696399407,8.30542302558964,26.74483263795444
1218,11.896596097549711,-228.86751276525592,7.557370562306548,25.8385762703624
1219,11.225158484274315,-218.73779966548958,6.690964661230296,24.975952272790874
1220,10.684213533848284,-207.9084218839757,5.741136532734869,24.179729912308154
1221,10.290617208383502,-195.5717699357944,4.774429047618688,23.46073745745893
1222,10.043398434473806,-180.57286642498516,3.852071332010728,22.832248222238064
1223,9.948323797958167,-161.42912317026693,3.03061707024033,22.31531556496682
1224,10.04667585901352,-136.48009043327446,2.366241000622578,21.937690048627175
1225,10.409086483231949,-104.10342115374483,1.9055745179366246,21.731485300875427
1226,11.090634591264108,-62.943303263835475,1.6866553992929953,21.72485564939226
1227,12.088140262590453,-12.106890974158599,1.7464499134078593,21.932471305084555
1228,13.355459966014783,48.70594630537454,2.1310047807618484,22.350564694330256
1229,14.863287896734475,119.14899113387727,2.885405563787053,22.965397396007017
1230,16.629689756111592,198.24877802023138,4.022321659959962,23.770645097043886
1231,18.66689643062571,284.49995108690285,5.506536001112261,24.76495640183069
1232,20.922850488870992,376.03093404986726,7.266945996024646,25.933428380479615
1233,23.303322189064787,470.81417095705393,9.218765287567726,27.246459732868363
1234,25.731758114086986,566.8631781711051,11.281671869386358,28.676586891435733
1235,28.171889903635613,662.379219122109,13.38448512904101,30.205388729486483
1236,30.601453427001736,755.8580843848315,15.46647768788227,31.813290670770176
1237,32.987599267579306,846.1368065471501,17.481933878785256,33.47137323659654
1238,35.28215121505179,932.3428680758839,19.39527558484229,35.13955966446683
1239,37.44420432991106,1013.7778801908091,21.179025130295305,36.77125729419802
1240,39.463118605676506,1089.8508199566397,22.821716247049764,38.32633673894037
1241,41.33799079355843,1160.0928242480934,24.331166826606577,39.77827189719267
1242,43.058968541979226,1224.1676424065897,25.729126747544722,41.10819519645107
1243,44.614179414269906,1281.8573543685993,27.02783080723675,42.29652788850884
1244,46.01187320402094,1333.0493211482512,28.215360407002375,43.323989603835656
1245,47.28255985018648,1377.7242056158673,29.26981186925555,44.1743300537597
1246,48.43793759153943,1415.94406374744,30.171570921168374,44.83032858013019
1247,49.44411614905128,1447.8410199210234,30.90795117876969,45.26664710600877
1248,50.23955996689812,1473.6065847656646,31.475847732600208,45.449624222425996
1249,50.7869870872517,1493.4816588037534,31.878492937165806,45.3517729883948
1250,51.0887780306682,1507.7472513386315,32.1183287089606,44.96356990311788
1251,51.14307189379955,1516.7159316974803,32.192123335386974,44.29225631153204
1252,50.92001373283411,1520.7240190029988,32.090589862457584,43.357882315812596
1253,50.37608342768868,1520.1245070630466,31.80661649090401,42.19372051845782
1254,49.48842038040883,1515.2807126729217,31.344094959582247,40.848776231044226
1255,48.27864216996661,1506.5606285507452,30.714783593709775,39.38113077259405
1256,46.797707452272945,1494.3319561976089,29.92837594431684,37.84227561577952
1257,45.094186801343106,1478.957789111834,28.990009880074048,36.263495428952524
1258,43.20553551158181,1460.7929129097129,27.919008825066975,34.654350697675305
1259,41.180526402483565,1440.1806859311407,26.76947339718397,33.01604692579444
1260,39.09470631160088,1417.450461755147,25.619984321470092,31.354916564465565
1261,37.03156910162958,1392.91551363626,24.53805283844965,29.682694834529407
1262,35.04225831842725,1366.8714201182581,23.5518569800526,28.01030784693847
1263,33.12961203020885,1339.5948709101526,22.655885476666203,26.346375428302153
1264,31.274847996655836,1311.34285244634,21.83380490858551,24.701173357498536
1265,29.466113899053163,1282.352173328408,21.064327272327237,23.091083700859834
1266,27.70277376618164,1252.8392909936936,20.324233172530192,21.534033509745612
1267,25.97547278382354,1223.0004024132484,19.60103596319476,20.037530725298943
1268,24.253390719402592,1193.0117633316559,18.89478499545029,18.600946896312735
1269,22.514249225486488,1163.0302024699195,18.213398532772473,17.2275461538077
1270,20.823761134967,1134.307181272297,17.619419005605916,15.953125588506365
1271,19.15541867095177,1105.096950213823,17.026874937130753,14.740384587146966
1272,17.52045904534004,1074.9327217698149,16.39516521889577,13.580575876268746
1273,15.948453202184089,1044.2249925984354,15.715494598987332,12.484700121155637
1274,14.48438539367561,1013.9161088653981,14.998877722742705,11.476691618439542
1275,13.179432253133283,985.1900262722579,14.261334703431169,10.585915354593894
1276,12.074577345361632,959.2360906007043,13.519149253386935,9.837547568047752
1277,11.184148000339514,937.0655657945292,12.797511602032992,9.244573832358242
1278,10.499020348665281,919.3795624156705,12.135191645132652,8.806056526816915
1279,10.008325034124733,906.4869673929697,11.578140001238095,8.510270464548348
1280,0.18855170402629448,12.196247077114378,0.31106028409039327,0.19551251286392413
1281,0.5562547227003142,27.045436123803803,0.5063419350974643,0.44137934298488624
1282,1.1124905039473356,48.51175426778109,0.6629417155576978,0.8184528330962811
1283,1.8554808456575644,76.73278927147322,0.7360874866216762,1.3217165713427819
1284,2.7333443203623764,111.2251957262824,0.699116602462525,1.9156345365096188
1285,3.6649927151420276,150.90992934469472,0.5487716100228983,2.550493728119465
1286,4.5761061949061945,194.22843263832965,0.29745781285988115,3.1751626548736587
1287,5.408389434996288,239.34818714031599,-0.04282369504942152,3.744602164480666
1288,6.102098650269231,284.4738121828066,-0.47000555413729983,4.222143933301778
1289,6.595592875106976,328.26726854070404,-0.9938760458014492,4.579226835475169
1290,6.853323580362744,370.3587924582342,-1.6175146330691088,4.802968391226239
1291,6.883006469737355,409.9836888745731,-2.3242512801651176,4.877669642722439
1292,6.710590219016535,446.50114556067206,-3.096433963562491,4.79835671547872
1293,6.354018796491663,479.42936571439293,-3.937056484243984,4.569162604270932
1294,5.826970692692994,508.4476772514886,-4.848531044296961,4.2008571667230425
1295,5.163117973471842,533.3858793102347,-5.818979914208954,3.7125854682755266
1296,4.425022330846707,554.1987077491253,-6.8248051059177035,3.136477206548194
1297,3.67508051129616,570.9399612659153,-7.83188743459241,2.5187979439602897
1298,2.9496460810470415,583.7514449493534,-8.79538375528793,1.913249228527072
1299,2.2748022690120053,592.8429227129942,-9.66119594630963,1.3747587127072083
1300,1.6982622357355333,598.4587881147,-10.385248477139925,0.9555843282037326
1301,1.2783543289925545,600.8536760684758,-10.95532131514655,0.6968163992152006
1302,1.0451803987574764,600.2740757323652,-11.39160140272478,0.6162268545885934
1303,0.9846541173149069,596.9433688187962,-11.73020147393783,0.7062384308642354
1304,1.0542689421825735,591.0538107498132,-12.001837731307532,0.9415243382797231
1305,1.2168860110613184,582.7604669600028,-12.222604410007158,1.2844122924055772
1306,1.4482588722821133,572.1840772776477,-12.400018038406428,1.691901537582968
1307,1.7168254206426592,559.4318575684141,-12.546526849929709,2.123845799378542
1308,1.9754576562136452,544.6240090149274,-12.694332474492533,2.54832649329001
1309,2.176183434542613,527.9057279616063,-12.884423286176496,2.947692452479691
1310,2.29476487255159,509.44385237734554,-13.13332452873918,3.32459387300768
1311,2.336265579114024,489.425723734579,-13.429218372986615,3.7007370405757958
1312,2.321294508435455,468.0589517589489,-13.748299914786454,4.103243074399665
1313,2.2617711884570575,445.56029057805614,-14.053869121853749,4.547255209357909
1314,2.1427178109702716,422.141877516546,-14.30459035191499,5.025917177026142
1315,1.9413074724766275,398.0088828796343,-14.47989921110981,5.516986202232392
1316,1.6612131985062768,373.36462776761954,-14.589296288889056,5.998628094781108
1317,1.34747660975339,348.4029535101325,-14.658139569390837,6.455362392415817
1318,1.06698269196757,323.2865656824781,-14.70804376331357,6.876547753582043
1319,0.8712877454201526,298.1363139632069,-14.75078280963288,7.253440587780807
1320,0.7834997972241904,273.0427680569374,-14.789146731952314,7.57709675361782
1321,0.8095863764466796,248.08338776154972,-14.814933895253228,7.839230449715071
1322,0.9526564848511887,223.33225240847975,-14.811658113831452,8.034940730258286
1323,1.2098655311077056,198.86222088463433,-14.76088987729854,8.165054815750825
1324,1.5560230223320033,174.74149607754555,-14.649413402734233,8.23286217647654
1325,1.9415105139840498,151.02936597369305,-14.476607390594909,8.238319419477769
1326,2.314203310255061,127.77327687371458,-14.255543219472866,8.17623449285876
1327,2.647657823946623,105.0142391537336,-14.005791675015175,8.041247562575341
1328,2.9411977153966373,82.8013411918845,-13.747129668741659,7.833262147191003
1329,3.200486621469352,61.19638098621511,-13.495809326400394,7.554224180155512
1330,3.428817417674902,40.265057672911425,-13.25504455882588,7.204714882908405
1331,3.63906737443381,20.064409454221586,-13.016901363997334,6.785757149014539
1332,3.8596433515671507,0.632038543455165,-12.77794811827603,6.2978899107123905
1333,4.093895508456074,-18.016829925841986,-12.54847968698818,5.735784002650214
1334,4.284937921327163,-35.8839831722993,-12.348951972095735,5.08509041209529
1335,4.346891875406285,-52.976498874831776,-12.197447807775937,4.322763339020665
1336,4.226300218606957,-69.3002065066244,-12.104276106090216,3.422215529018721
1337,3.9262408846384806,-84.86725473322576,-12.078052150308416,2.3651220448906094
1338,3.473513996243014,-99.70404414056301,-12.121660768500705,1.150869031590387
1339,2.8805870407732437,-113.84449705384522,-12.215602121795596,-0.20592095596012722
1340,2.142353590947256,-127.31542715827763,-12.314653652306761,-1.6849682040864973
1341,1.266665382252678,-140.12986611091094,-12.363018340919124,-3.2600580240942802
1342,0.3015338834625433,-152.28700093427346,-12.319132297303337,-4.8893916159446045
1343,-0.6789450078464809,-163.77697375439237,-12.1751413084668,-6.5122433764956265
1344,-1.6141282822138254,-174.59667561811784,-11.959813682605603,-8.0652798203585
1345,-2.481654134296745,-184.76250801030505,-11.72807875138291,-9.508995895340638
1346,-3.2778970593438257,-194.30318305902532,-11.53725727930158,-10.827312030403842
1347,-3.9947380892525066,-203.24101021879778,-11.426481645464596,-12.006493270483913
1348,-4.626853422068178,-211.58223309982478,-11.406942632706304,-13.031297333169361
1349,-5.191613400394027,-219.32250811152696,-11.449002728700274,-13.896524993297444
1350,-5.733799453684348,-226.45775946045,-11.491336757019681,-14.616106023467315
1351,-6.291890184593651,-232.99004694546682,-11.47815808036038,-15.215126827337723
1352,-6.871756640799071,-238.92818512770515,-11.38595950253569,-15.708147526700873
1353,-7.456435292599869,-244.2885426649616,-11.229155394640088,-16.090576166713827
1354,-8.026429948181688,-249.09000560094674,-11.046660630978135,-16.34619644717949
1355,-8.56927088938953,-253.34447651733913,-10.883180608431395,-16.460662598484344
1356,-9.056451840211658,-257.0594016094911,-10.785586873916593,-16.436116097990524
1357,-9.432447477990577,-260.24920403329935,-10.795904924539885,-16.286860727565855
1358,-9.649778534741417,-262.9375140185727,-10.93315393832711,-16.0246477851717
1359,-9.709869756720394,-265.1477032035897,-11.179610960277426,-15.667168491059998
1360,-9.670426107189332,-266.8967652079407,-11.475509740958483,-15.25113538779263
1361,-9.609578913211923,-268.1999945379033,-11.742803867198907,-14.822826764140968
1362,-9.578945628586034,-269.07739067537534,-11.923697084178825,-14.418848521699163
1363,-9.583423304978037,-269.55750691939136,-11.99515996645183,-14.061230496469278
1364,-9.613510010267033,-269.68179110339497,-11.966074633430303,-13.769058679185704
1365,-9.67897486415136,-269.50343680193134,-11.868451379493735,-13.55931331024174
1366,-9.79573826482008,-269.08062122084027,-11.737959199375679,-13.435905928010694
1367,-9.96149400483821,-268.47068730505737,-11.589227122690051,-13.387681701206748
1368,-10.147427958900897,-267.72198633252674,-11.412517956102368,-13.399525111408979
1369,-10.329180701380256,-266.8661951679769,-11.191809128159878,-13.468154770703933
1370,-10.522615305334664,-265.9221219108052,-10.91454324362107,-13.599927178090725
1371,-10.764465242547216,-264.90795763417685,-10.582617348446986,-13.789523413321133
1372,-11.061725102980661,-263.84454125964567,-10.230536213475048,-14.007187531092013
1373,-11.368497457076167,-262.7478539407151,-9.9143685222162,-14.202088570443678
1374,-11.625280700705757,-261.62574352479817,-9.677420918238335,-14.321163314400803
1375,-11.805011543895336,-260.4789678492906,-9.527582618208399,-14.336406046601807
1376,-11.906363892616287,-259.30169596117855,-9.431946535612775,-14.24337186647128
1377,-11.924401820528098,-258.0831050697763,-9.33747476005971,-14.034318424819377
1378,-11.838370535421772,-256.8088914063509,-9.20209175550642,-13.693997503709657
1379,-11.63173076176996,-255.4668585176088,-8.998853833307033,-13.214865175123874
1380,-11.318949526253398,-254.05485620603224,-8.711199797581008,-12.604510106245662
1381,-10.942648194924097,-252.58137140131672,-8.33510748376884,-11.884508288162856
1382,-10.53424916610264,-251.05968212228748,-7.873292244742457,-11.085241735883594
1383,-10.095335066163285,-249.50737016789273,-7.334140820536225,-10.241670303165028
1384,-9.622252202287006,-247.95041331474073,-6.7382568131570295,-9.390730340273647
1385,-9.12505313517023,-246.4213871976113,-6.10960886464435,-8.568700679691446
1386,-8.627027821633721,-244.95157447023016,-5.453860261390827,-7.808656848010482
1387,-8.135930165117795,-243.56193415717536,-4.757404822285542,-7.1361799030534225
1388,-7.628739372048355,-242.25886108823266,-4.003505656218959,-6.563454439571652
1389,-7.087763701487718,-241.0346050597717,-3.1760416346099465,-6.084831581687895
1390,-6.530636213918634,-239.86777479892888,-2.266558270700142,-5.679387663867293
1391,-5.995928308009512,-238.72866108718458,-1.2946668543055138,-5.318457842578587
1392,-5.497875086005903,-237.59058210742404,-0.31651138495088277,-4.969392569382753
1393,-5.014186617728859,-236.43846222272032,0.5898430484470328,-4.599860566082401
1394,-4.52209163040145,-235.26698981450386,1.3585287160200383,-4.190203562061303
1395,-4.025053680562902,-234.07384973875753,1.9630535878210083,-3.7404167260164973
1396,-3.5523336866178434,-232.85819458937462,2.4055361462982936,-3.2659560935720435
1397,-3.1337561860366,-231.6203988100805,2.6960097260830644,-2.792632649588192
1398,-2.804242353610648,-230.4442118784404,2.8346108275578468,-2.3473666652968133
1399,-2.5007641225052137,-229.1827277944532,2.87567151663245,-1.9701502196002367
1400,-2.1931813650881407,-227.77736251676887,2.863826943121377,-1.6844696566030346
1401,-1.8769032933005607,-226.233231270667,2.8360873845294967,-1.4976623818038948
1402,-1.5512060594393966,-224.59879227409684,2.8193855953647007,-1.4036664342618914
1403,-1.2119326528362078,-222.95010626970432,2.829567205982068,-1.3856699286431875
1404,-0.8610451897567705,-221.3750438267512,2.872909971593236,-1.420396436513669
1405,-0.5213812288197125,-219.9575347390808,2.9466053285326432,-1.4856417180696617
1406,-0.22789187225655663,-218.76736258040575,3.041013671995152,-1.5649893439605984
1407,0.0008769739392509458,-217.85536893755176,3.1424286453782604,-1.6449894340577753
1408,0.1737957152854789,0.3792666209574233,-0.3051494440506346,-0.2010301478575104
1409,0.33489543409583766,0.8130558658669892,-0.9609082060463864,-0.35530755324500096
1410,0.5421217132131948,1.4355504554968033,-1.946033272981581,-0.5594813296336361
1411,0.7747711755459117,2.2529084443285585,-3.232602928998383,-0.8313478377064741
1412,0.9835112572186341,3.255809944390183,-4.73622015732501,-1.2017398302259636
1413,1.1167607249193263,4.4196838204772355,-6.3290281680350144,-1.703561174320345
1414,1.1538079150618752,5.708041589008467,-7.871791095588657,-2.3541981960499863
1415,1.1021326701074858,7.079070546169463,-9.256138122206199,-3.1454356590461687
1416,0.96749406512438,8.493891493377253,-10.430422729060735,-4.049820517986535
1417,0.7462311005683369,9.925533859788876,-11.403260429414546,-5.036009819243508
1418,0.44531888457673197,11.370322831187156,-12.245032961115804,-6.078644556750968
1419,0.10193891389843915,12.8031505443876,-13.03786582062856,-7.136387174918777
1420,-0.2461871468962128,14.194979081822241,-13.86522463651602,-8.160927673133473
1421,-0.6009068684231618,15.519389367065285,-14.789053021577894,-9.10828096437122
1422,-0.9884624371704203,16.75311806798791,-15.829035448374047,-9.9508222900352
1423,-1.4212886410016847,17.87212303262297,-16.945695754762063,-10.678092458280197
1424,-1.8858794728712915,18.852639267121198,-18.045741778826685,-11.289596438452454
1425,-2.3645928513583416,19.677118540262967,-19.021275190898592,-11.789550287252872
1426,-2.849216762040116,20.33961688587493,-19.79962724639956,-12.181620820153968
1427,-3.3327248114700736,20.84618974984138,-20.365110961024133,-12.461033410301477
1428,-3.790718461987129,21.21020623434847,-20.760601039846627,-12.611211140960314
1429,-4.169714254956526,21.445856860634784,-21.069238534880594,-12.610173686366023
1430,-4.422785637008871,21.563256859711636,-21.362855664683927,-12.443260993274702
1431,-4.554378875636863,21.569315076333265,-21.67639565529288,-12.116260380471747
1432,-4.608776301805604,21.473260036634123,-22.030579064729597,-11.650605512893753
1433,-4.614332842474478,21.287264459568615,-22.447653250711724,-11.060717462378067
1434,-4.554402758626588,21.023187535976966,-22.94546088746729,-10.344935743630959
1435,-4.398166075836675,20.69005199664256,-23.519493676124096,-9.499151350131772
1436,-4.145476316167189,20.29001630053,-24.125909642682814,-8.5354711110603
1437,-3.8344027613234566,19.816306033497025,-24.684499251858703,-7.485211626079118
1438,-3.494480727489341,19.257489550810206,-25.097180289846655,-6.3872483717807285
1439,-3.118310700892794,18.606305124571726,-25.274908573223716,-5.277271960419205
1440,-2.6861034085256557,17.86453805004151,-25.166194909362698,-4.187400045942904
1441,-2.190153687623975,17.038946500940856,-24.764503294245593,-3.1501960455351083
1442,-1.647272891663607,16.13703753533034,-24.08977360569684,-2.1969136740815527
1443,-1.081626712385814,15.168936900579501,-23.16311950973961,-1.3510703274507925
1444,-0.49210415684719366,14.151043274341992,-21.99851377042283,-0.6198013824052222
1445,0.15070940982950992,13.107629288491985,-20.617563387628444,0.009494139376585442
1446,0.871935751541367,12.068767956324962,-19.068251383384492,0.5667050235426919
1447,1.6677874550199498,11.0642989699075,-17.440757767870004,1.0913008719022717
1448,2.530982551081877,10.114934952087456,-15.851310408733049,1.615830185573708
1449,3.464127702634348,9.225063158704314,-14.37878584883654,2.1559161130712976
1450,4.4537963906483435,8.383834888992753,-13.0326944576911,2.7112104390325262
1451,5.45137849816825,7.573687942448616,-11.787637160421898,3.2689800061611973
1452,6.380216258630115,6.77820158574205,-10.62899887604045,3.811302984968079
1453,7.178203270729471,5.985883828071154,-9.575201119823639,4.323513716593308
1454,7.833957465033244,5.188741699286479,-8.664970626380912,4.798123721928245
1455,8.382261773210539,4.379216105077737,-7.928842467594744,5.2324170518422015
1456,8.865175078057613,3.5518782070450503,-7.365673320494177,5.627580569334777
1457,9.3006297401163,2.7088714058555086,-6.9244010927588455,5.991121160254322
1458,9.69693766385086,1.8670741103736443,-6.518937761021541,6.336365187823308
1459,10.08435828486664,1.0586957418172556,-6.073861969578704,6.68029059331515
1460,10.51797326967592,0.3210676601436553,-5.543553792546543,7.042655857767808
1461,11.033544689649686,-0.31277070748056635,-4.901754207334712,7.443171279439415
1462,11.616435894963713,-0.816544928524303,-4.1370965623836335,7.895304017730038
1463,12.219691880034024,-1.1704214745626278,-3.2468281583668905,8.40037051693575
1464,12.797967830924701,-1.3661240867227191,-2.2292477033438134,8.945611022683051
1465,13.327702795277798,-1.4142232365626846,-1.1031902091675343,9.5078804855038
1466,13.780820171212174,-1.3435681470454643,0.06014440522519163,10.054505834908758
1467,14.09636400743311,-1.1953853744626135,1.1485491746074923,10.539000230245723
1468,14.200406596513295,-1.015974301791102,2.062111762825444,10.909955699344016
1469,14.046779650480076,-0.8499647085062093,2.7527206967057922,11.133260791817566
1470,13.638207876891299,-0.7353073843646537,3.232149085567594,11.199142913858703
1471,12.99895707709592,-0.6982534515756276,3.557298706473456,11.10999463780402
1472,12.140496677396404,-0.7494562720277808,3.8026455077972585,10.87117822240485
1473,11.065498570968595,-0.8843768297104896,4.037405417003868,10.489975661894603
1474,9.80272847435758,-1.0870330226781528,4.305664727219753,9.977191334770344
1475,8.424959652450271,-1.3361974272074835,4.622158677089935,9.349864681326691
1476,7.009843965521101,-1.6135248952771257,4.989957539638938,8.63134851171473
1477,5.594795126443809,-1.9072960795587397,5.399482316565253,7.8421874770611115
1478,4.176542542201242,-2.2117229670757226,5.8132661305813915,6.9911348178945385
1479,2.7465196546419226,-2.527329889728862,6.180167937582693,6.080903240979937
1480,1.3141887360759017,-2.8607101756717825,6.4570096438543985,5.12033901483378
1481,-0.10218827977786277,-3.2225378210581925,6.611547343347895,4.132831046641628
1482,-1.493441394959616,-3.623762693430327,6.633103268812483,3.1512051950288176
1483,-2.8641668724977274,-4.073261843405087,6.549297775205063,2.202523749114423
1484,-4.199190456203706,-4.575375617817011,6.400786049005667,1.3057655299934017
1485,-5.445414920048537,-5.124304599549503,6.1883503712069965,0.4792735818690254
1486,-6.548029021848437,-5.703367036597564,5.8772449210479145,-0.26446368788519703
