,TP9,AF7,AF8,TP10
0,0.3471178676916469,0.43485450090731614,-0.9031824999744666,0.029965299930022615
1,0.9843522898939414,0.9377879979879544,-1.9723733534675043,0.16108454451295914
2,1.9154522499971696,1.6370680695206095,-3.4963302142274695,0.3673866931100927
3,3.1662522504711434,2.524715471152385,-5.4703759290519445,0.659209269607949
4,4.7330439435396325,3.5726341763535605,-7.84593078777506,1.0356246720713296
5,6.5622029566976,4.733310821870464,-10.532483352728212,1.4814334799359783
6,8.561630323797042,5.9461665463776665,-13.406731880802361,1.971890695326745
7,10.638725856846166,7.150408063439024,-16.328844308993432,2.4802235731942024
8,12.71857493772886,8.297061261416507,-19.164736172300415,2.9817226938414256
9,14.738918591439672,9.359125670617843,-21.818185406763725,3.455286237237918
10,16.653291698542606,10.344092765711931,-24.27117256777974,3.8872660963390504
11,18.410926132317545,11.245279761603841,-26.484841702680882,4.268406205006879
12,19.989009043921893,12.054320882876336,-28.43705311947872,4.597019746718424
13,21.386078152909622,12.760013303280525,-30.12147921835863,4.877875616040232
14,22.599548350328458,13.348225660885829,-31.53885554981433,5.114392931106391
15,23.613261975142898,13.806983840075711,-32.690493941407276,5.3018226803432
16,24.420805363290995,14.131674824076226,-33.57742747419835,5.431967373121562
17,25.047012916482576,14.320162070218274,-34.20219068907651,5.500557956806355
18,25.5295531549666,14.364965211039266,-34.56916374353193,5.506058499940458
19,25.88071959319673,14.256140372752007,-34.68316673258054,5.439951533199367
20,26.075092834446885,13.988196186720453,-34.55036387806821,5.286565119821141
21,26.083974593636988,13.559818133546592,-34.18246249298139,5.037688978559383
22,25.9062092858963,12.970703277774405,-33.59970149372459,4.697758620725
23,25.56428874274591,12.220599921651432,-32.82980369353442,4.280559410587018
24,25.074864559104153,11.309035140937926,-31.904985227333764,3.8107498736069365
25,24.43190025508996,10.236933251056954,-30.85885131951577,3.323087175172633
26,23.635606473542783,9.011735742096757,-29.725388079012884,2.856779825214059
27,22.723404479533052,7.650820138529965,-28.537275518565483,2.450654126976704
28,21.76275531537034,6.179458160812981,-27.319694065067218,2.1410633890571398
29,20.807161903272124,4.625417404780465,-26.08391721670732,1.9544611099905647
30,19.857379476170934,3.013081028120535,-24.827660858361206,1.8959003900792388
31,18.87931076136578,1.3618842055415836,-23.54242328786004,1.9494777285145173
32,17.849449285069714,-0.3097926364034781,-22.21668502863333,2.089253340991802
33,16.76917218639177,-1.9827950900904336,-20.835813331400086,2.283686908816185
34,15.637238524358384,-3.6381425589401153,-19.385783300565464,2.494695163841498
35,14.43085431077667,-5.255994980017066,-17.856663752232432,2.6825195550975924
36,13.124392238822782,-6.8162626860547215,-16.247096957131465,2.8201199995907476
37,11.716536061084918,-8.300991564456156,-14.568814833980413,2.9060246570395254
38,10.240071704516025,-9.694655029573404,-12.845394887297553,2.9561483601314102
39,8.732866040913205,-10.98486825351914,-11.10954686552558,2.9843510422483166
40,7.20803377164283,-12.165366264900902,-9.400412038956015,2.9925306602460924
41,5.665535225544642,-13.238178825709642,-7.756736648913137,2.9687683670759344
42,4.122461480137618,-14.211565333818271,-6.209941920720236,2.8909431262344842
43,2.6263479838606822,-15.096762510154106,-4.780869513545175,2.7353854536701183
44,1.2183549210205942,-15.909163319237212,-3.4795007871115646,2.4787231659590945
45,-0.1038387560345399,-16.66905989440679,-2.308723212385725,2.091924826545539
46,-1.3664930301928364,-17.394758248949824,-1.2694684114519414,1.544782969344942
47,-2.578648599790465,-18.095140140301893,-0.3574676940962931,0.8221472615530225
48,-3.7212574155456037,-18.76868944619986,0.44254299238652506,-0.0666465448349392
49,-4.779535513891459,-19.40599527689468,1.1530818324410885,-1.0908259426479359
50,-5.76445709959225,-19.99272582179144,1.7966931610986618,-2.2050773291679744
51,-6.698558784538472,-20.51254178146357,2.3916070814280292,-3.3553799383060587
52,-7.587452302860015,-20.9484162302079,2.9483888917095555,-4.48625031319191
53,-8.406769415749439,-21.283153495353485,3.466828764464296,-5.5496077189131885
54,-9.125244224329867,-21.503156063548666,3.9373593315199997,-6.510667779515171
55,-9.734418446042339,-21.603485146839205,4.345155155020396,-7.343532345424985
56,-10.25676877023441,-21.590906902426443,4.673495835261939,-8.02657223018964
57,-10.717868467128707,-21.48345839645955,4.910791179014592,-8.551659670604462
58,-11.12590362267562,-21.307351757099177,5.057788358727563,-8.929638123787967
59,-11.488398399625142,-21.094685364434564,5.128764227810714,-9.181783911431188
60,-11.82980084793177,-20.879358941121282,5.1488944880197005,-9.331040651822986
61,-12.190455763493294,-20.689432835280606,5.152253014757913,-9.399000398157606
62,-12.59132770128817,-20.54214766271491,5.179388004347046,-9.403596115110776
63,-13.010516801359177,-20.44668514449891,5.266838266378643,-9.358371339299476
64,-13.410815617676102,-20.410110443920534,5.433920306087489,-9.278281976131131
65,-13.774045492148328,-20.437119686962504,5.677664643122283,-9.184507977456832
66,-14.108079335212615,-20.5252485574512,5.977158964139823,-9.100106691602534
67,-14.421126660122775,-20.663713691627063,6.301540811778584,-9.041904614732381
68,-14.700269142737213,-20.83675343304531,6.61594257597739,-9.018851031912535
69,-14.918136100767445,-21.026237907613513,6.8891082296528605,-9.035538641596698
70,-15.057282599846232,-21.211783900628397,7.1020796607725325,-9.092810074057981
71,-15.12736333060617,-21.370841584125735,7.2528066402232,-9.187466043088872
72,-15.14173363121045,-21.479973465217885,7.352547732377587,-9.312770389807213
73,-15.084760519690628,-21.517403482301333,7.416870439030849,-9.4531385158772
74,-14.915170771014186,-21.46506610427855,7.458875276750181,-9.577196129980484
75,-14.604906462906715,-21.3106643586802,7.484938437925903,-9.644920459101435
76,-14.165672085023118,-21.049709870515144,7.495505269855683,-9.625592705815858
77,-13.633071614541365,-20.68613926428381,7.490386424595212,-9.50654904754438
78,-13.039219975164164,-20.232139146574724,7.470756668499027,-9.290247482544153
79,-12.402826612900956,-19.705401797793904,7.436162574224752,-8.988585846108275
80,-11.752039275160957,-19.123583875840996,7.3839072240493815,-8.617565916307774
81,-11.138779005055836,-18.50027807200308,7.313822068623914,-8.196146547134925
82,-10.607602678724257,-17.844273054038474,7.227221218422891,-7.746584041556119
83,-10.169522252617838,-17.162638740935453,7.1248807661833675,-7.292195566989743
84,-9.810403904922056,-16.466338180357674,7.014905632145514,-6.857546755248938
85,-9.518137911124397,-15.769343232431012,6.910642762564393,-6.469577288543331
86,-9.301486530097915,-15.07983724891976,6.816116624248414,-6.153548862034939
87,-9.174220048247522,-14.397387441995624,6.723860798184776,-5.925843356272
88,-9.118683222663886,-13.718752522423943,6.625033541971403,-5.790118411252609
89,-9.07897904704662,-13.04295384461877,6.51434468357827,-5.737420357231676
90,-9.006279577315933,-12.376017224417552,6.385573763688507,-5.74891158251018
91,-8.897431546328395,-11.733225826410653,6.2284031553460535,-5.805632549525874
92,-8.782083428398234,-11.135634466407355,6.03433882912546,-5.895568212074299
93,-8.68301586910749,-10.609571177535495,5.805318129132463,-6.009124201819439
94,-8.602632782952067,-10.186434778692103,5.557939866213961,-6.137266567484256
95,-8.55671200931693,-9.897673533840623,5.318510780023787,-6.278355718379398
96,-8.601002412181419,-9.773328487030627,5.114304529740258,-6.445232521347992
97,-8.818118070756903,-9.842109901612776,4.974564939572961,-6.66858713599246
98,-9.284443266064535,-10.128378039720953,4.936410463724699,-6.993882981813476
99,-10.055688997467922,-10.649608535246525,5.045399134882905,-7.469568366249173
100,-11.18138607147073,-11.41495655306938,5.349047983990658,-8.135744692959118
101,-12.70983305395966,-12.423948331493426,5.885673897461653,-9.019851037471724
102,-14.678528020207779,-13.667892608505158,6.68011971820402,-10.133579097150328
103,-17.093709862744635,-15.13516409287903,7.750365729143473,-11.472339524323127
104,-19.91396259931069,-16.81310629508323,9.10476889106121,-13.020526192132325
105,-23.07779841794153,-18.68209323979066,10.730845219179418,-14.756560588880422
106,-26.543456332115003,-20.711100867157736,12.59692931965436,-16.65319968327567
107,-30.283494654483288,-22.86072594008709,14.660662223746186,-18.67910775481094
108,-34.24597105658062,-25.088402571963933,16.875107282668314,-20.801801424759645
109,-38.33744036737979,-27.353059710046704,19.195053976159844,-22.982846191978847
110,-42.4467161682103,-29.61571785332652,21.580604922143554,-25.17693012326311
111,-46.48328883314266,-31.83636205970724,23.99352354005491,-27.339099607121824
112,-50.38728721196544,-33.973902343422616,26.394607813886676,-29.423666857364662
113,-54.098401063162704,-35.98476484256427,28.74726361536669,-31.378070129506856
114,-57.538029826886884,-37.82307297918519,31.011032978955843,-33.14267697757194
115,-60.61812637716902,-39.45001263654315,33.13007681334837,-34.658867516222834
116,-63.24853016404306,-40.83924785283021,35.0384799229165,-35.8811217696378
117,-65.33700230376382,-41.97509744600578,36.67864253137068,-36.782333060139536
118,-66.99272947652247,-42.920120292022276,38.04427646561067,-37.46221858518287
119,-67.79524986671954,-43.57055990739775,39.103490488331765,-37.73397708033466
120,-67.56422999745013,-43.88637794692801,39.85420801287845,-37.52551524228195
121,-66.3280489014003,-43.87920516729237,40.32060239955185,-36.85638255064993
122,-64.26692245696101,-43.597259560830985,40.548327403875945,-35.811124986382836
123,-61.634321799524656,-43.11176388567597,40.598838408722365,-34.51281782125727
124,-58.70846959645431,-42.5058750591336,40.54147895933537,-33.10062919345809
125,-55.780763605489696,-41.86304715681405,40.441355614195324,-31.71042501101351
126,-53.138511868815655,-41.25582483191175,40.343542610098034,-30.460854108577127
127,-51.02031970602502,-40.7385379072528,40.26580851571574,-29.44455346675291
128,0.09530207029241522,-0.5213597519120783,0.10613564096930533,-0.13069952163582088
129,0.09793323612830236,-1.1865473796138537,0.2964893207401908,-0.26750681093602263
130,0.04251329959472215,-2.1668610555562395,0.5576248619524076,-0.45736739437033336
131,-0.07816435638156657,-3.4761972606707077,0.8784122680635627,-0.6998884933494134
132,-0.28591471945613517,-5.097977431600833,1.2420958435595264,-0.9887593353692209
133,-0.6191832305888865,-6.9852209119357935,1.626187784534399,-1.3095332027898736
134,-1.1071726509379123,-9.064877452298699,2.0013177252193755,-1.6383351064433176
135,-1.7350078026170646,-11.247062335539452,2.3294093394541875,-1.941100267452078
136,-2.4478285613203763,-13.440128388351521,2.5741252054021633,-2.178520597677058
137,-3.1900861572442696,-15.571396832504592,2.719381325967391,-2.3163740943351274
138,-3.9198614929997557,-17.612257987953363,2.778612237139875,-2.3373356835361827
139,-4.595944766074538,-19.518324977542083,2.7841786786539227,-2.22607201561514
140,-5.165092420553181,-21.25043190279871,2.7771378645341374,-1.9696284717895607
141,-5.576686623715899,-22.780229998057763,2.7876933965005457,-1.5620088808359776
142,-5.810019244432876,-24.096814708114763,2.8111423612903024,-1.0114362800182026
143,-5.873320539352683,-25.204482907419695,2.81228079613187,-0.3400015814016348
144,-5.776564814121416,-26.114531894641896,2.755117233301925,0.42082056763514003
145,-5.518487484633518,-26.83957317875871,2.61787581458181,1.235221476823246
146,-5.110213120662086,-27.391592645272826,2.389603393900712,2.068344055282312
147,-4.588851250231535,-27.78149803696705,2.063705223268787,2.8924115521538605
148,-4.000247325899352,-28.018769978281746,1.6360014349387153,3.68976520350059
149,-3.3701352963537636,-28.111030333891488,1.1073084706228387,4.449036674905038
150,-2.693158539390824,-28.063526477090036,0.4869334490342425,5.159173741030733
151,-1.9623788571101084,-27.87963666961648,-0.20776465790721926,5.806412607205605
152,-1.2001702242172763,-27.563434191726262,-0.9543292040786225,6.37055467197091
153,-0.45417005785018516,-27.122231946687435,-1.7306228463436333,6.823299573564689
154,0.2434276180499595,-26.566590402811705,-2.5307073838846237,7.136944767021066
155,0.896051329630847,-25.909489025899102,-3.3743951206049845,7.295016859587163
156,1.5089173272027423,-25.167575658403038,-4.295477266345861,7.291098553498976
157,2.0612996016193907,-24.361504148476524,-5.324954778201041,7.119927512202077
158,2.5183506269897293,-23.511142333652536,-6.4729800832518825,6.780138765391591
159,2.863565136225995,-22.62874512680564,-7.713826198860352,6.287071032443635
160,3.113225169365023,-21.71929840494928,-8.996844907899156,5.67321400609136
161,3.2973561970048846,-20.787046012746302,-10.27356948591903,4.976541712198834
162,3.43252244887983,-19.839356179267945,-11.499883129233709,4.230234608270469
163,3.5145199351835332,-18.888056427871643,-12.630497677418424,3.4580423213324827
164,3.53940105545749,-17.947536370968034,-13.638716876242134,2.67494716176186
165,3.5207863898779004,-17.030819796039847,-14.533886956662514,1.8932715483704963
166,3.4853824704120817,-16.14961198550094,-15.348661199915064,1.129037637989402
167,3.450610809400935,-15.31583921051487,-16.106702466385194,0.4001173719804244
168,3.4057129398462247,-14.539754583950913,-16.804760080941367,-0.27971083073797315
169,3.3332411704104845,-13.826626004298504,-17.421649069135146,-0.9028203831085763
170,3.2359848295517337,-13.176706824076017,-17.93350794202073,-1.4638928375143436
171,3.1316523902456903,-12.588894280411884,-18.317859422595355,-1.9569191191809263
172,3.027833677162008,-12.063898553426647,-18.549400392895432,-2.37904625602403
173,2.9097517218642635,-11.603096836272186,-18.605204952373228,-2.73382192533532
174,2.754800191787445,-11.207067562157151,-18.48213866689487,-3.033171678909484
175,2.552098521267259,-10.875570141994396,-18.20511578297584,-3.296441919442449
176,2.3214520955728903,-10.60425942313229,-17.826155044866542,-3.5410429771365397
177,2.099565618157641,-10.382722654245926,-17.42341337425689,-3.7735364881254685
178,1.906434006665134,-10.198052368271714,-17.085666316519156,-3.990589442245794
179,1.7424335348493531,-10.040402510258945,-16.887315025888665,-4.188712480556396
180,1.6014376203562812,-9.907350350870674,-16.865554021098063,-4.374860146705339
181,1.4787151584357472,-9.804437201753393,-16.997885364625066,-4.567871124812691
182,1.3562486001470258,-9.741158640876954,-17.20753393268095,-4.791745386745928
183,1.1878751784708763,-9.72786724481884,-17.407013166570007,-5.072068863207937
184,0.9158072466442105,-9.778388351147699,-17.53144059148612,-5.431558049444041
185,0.5023900243687102,-9.911223809329625,-17.53530860104961,-5.882013829659244
186,-0.053729157579069486,-10.142585420155447,-17.374788255873046,-6.423085278947882
187,-0.7450568704063553,-10.476508413562712,-17.004913706661487,-7.0465249788136735
188,-1.5817432288998656,-10.899299273665708,-16.39797581287115,-7.741162303757355
189,-2.5748084920751806,-11.380719915511914,-15.56088094964696,-8.49493461340182
190,-3.7072660950237424,-11.879810505034976,-14.532986013795192,-9.291077644809024
191,-4.9252498824827695,-12.352142175813963,-13.367577974883506,-10.107752183545937
192,-6.16736130551981,-12.756115150963481,-12.120439307031026,-10.927025434823213
193,-7.406115470116936,-13.058295864641638,-10.854603838953981,-11.745684337892785
194,-8.643492040641176,-13.236441497314233,-9.634862591611213,-12.572477818468407
195,-9.86047999417655,-13.279479251880492,-8.51323264570693,-13.411320366324626
196,-10.999143526377727,-13.188598219939324,-7.523740138568347,-14.248628034061536
197,-11.991400101457295,-12.978009033564698,-6.6741817877815,-15.051580294923383
198,-12.787708135873645,-12.674870187474623,-5.936770447098079,-15.778839567103796
199,-13.372270328445293,-12.317202574050404,-5.250167245777812,-16.399203522069016
200,-13.742672896829916,-11.944374540038629,-4.5375672558503455,-16.89830820620357
201,-13.885527806335146,-11.58438020362573,-3.739987930038406,-17.270444788571158
202,-13.790519951633037,-11.247711243309304,-2.841905931946471,-17.510771289324964
203,-13.477788165724265,-10.931682035801945,-1.8698164746340213,-17.61656467933896
204,-13.004893628584842,-10.628411292558274,-0.8753777232567961,-17.595090070124108
205,-12.4302750087195,-10.327246125729813,0.0795204956584552,-17.459224399059337
206,-11.784314326573393,-10.012387591234603,0.9346933460173515,-17.2114397536301
207,-11.082749623212589,-9.661132486151377,1.6411668108730848,-16.83851549716818
208,-10.345826274597536,-9.247850423536365,2.1688580644542657,-16.317402502163876
209,-9.607075609346214,-8.752858110152973,2.5159347933795067,-15.622077660075496
210,-8.89313619943808,-8.165925104086849,2.7183254473741782,-14.733409168638493
211,-8.202821138352922,-7.482357749880128,2.837860638997837,-13.650207722392132
212,-7.515109637412784,-6.698003770968691,2.926850464041804,-12.391591202425742
213,-6.812306684993097,-5.807244442741684,3.007017707108074,-10.993421389692765
214,-6.098400697654589,-4.806282176792416,3.073744729857095,-9.505636421131902
215,-5.3851357964624205,-3.6975368961223687,3.1181734168374065,-7.987372822151705
216,-4.664777725082725,-2.4903076346833672,3.151423066038938,-6.4932831476632416
217,-3.90770941236935,-1.2012428764622385,3.2090667639955406,-5.062361850819303
218,-3.097374394427664,0.14480190740266852,3.3442729801060174,-3.7184673954077923
219,-2.251237991480326,1.5182786976984446,3.609776281659969,-2.471492210724401
220,-1.3973219470757305,2.8872757362357317,4.035820571051909,-1.3168983322239314
221,-0.5494317251466527,4.2156596466896765,4.631238110928563,-0.23886592301368845
222,0.2985372463419619,5.468324851793363,5.394741669284202,0.7773705818869454
223,1.1442950090452433,6.6196993020334896,6.30825774615399,1.7325025888904895
224,1.9520002644415915,7.654462380921943,7.315418330970622,2.616729972264273
225,2.6716980054105486,8.566965068984802,8.313833845783712,3.4189554300343947
226,3.2759201854603415,9.36289159929715,9.176993246984665,4.128959194908056
227,3.7792933399744215,10.055063577914435,9.783236080128063,4.7385278297051325
228,4.205764511914554,10.654079663037985,10.041186745855041,5.242735503816499
229,4.547409439110525,11.165754656674784,9.928346993830889,5.635837204125966
230,4.772403282365438,11.592716227597988,9.509457865276186,5.90229096188875
231,4.864842195407887,11.932942900902201,8.903733874262539,6.027749192104905
232,4.850986509543483,12.181122024936188,8.224145155255199,6.0254284069256565
233,4.765955891862724,12.33358958531548,7.508148694849791,5.9317515375147805
234,4.612608918634627,12.392864584886542,6.689732597239444,5.7810540457929385
235,4.374311136176196,12.365685585497207,5.659192041534782,5.595712875033159
236,4.04491045196069,12.257404512979392,4.343813396727864,5.377835631691251
237,3.6317703953804146,12.07521251627076,2.71473698800481,5.101480279534346
238,3.131627582892005,11.83693806236216,0.7711263414641761,4.723787894262078
239,2.5109345710398947,11.56542429403054,-1.4343287188455096,4.2011280749660544
240,1.726955485174181,11.262527454852274,-3.7885190670404363,3.506489344683132
241,0.7811921358018044,10.919540400660807,-6.179195763129933,2.6424844258121767
242,-0.26493373118776753,10.56277310294053,-8.560939084157228,1.6409598174688929
243,-1.3358496086826757,10.252987103082909,-10.942534923671792,0.5574721372096983
244,-2.385129855557777,10.049139995059708,-13.343853269870564,-0.5376889230595904
245,-3.386646601216003,9.981264291502505,-15.763261712391325,-1.5677040752222293
246,-4.302991323782719,10.094713816480498,-18.290973005802254,-2.4640689324519216
247,-5.081375615500014,10.269841981082939,-20.629165410767573,-3.1706198588087924
248,-5.693215564447633,10.419368362973918,-22.599914801756434,-3.65653426956377
249,-6.156332761579633,10.484352779317696,-24.08831858899379,-3.936572960770933
250,-6.514854480371604,10.427370049293842,-25.00204517685071,-4.064632147539687
251,-6.800237356588119,10.230064711651298,-25.26636985920337,-4.103075243594454
252,-7.026696091675286,9.896417760666077,-24.87333759393827,-4.107812715352891
253,-7.210314142773213,9.456550872446888,-23.934366667599317,-4.120969586441646
254,-7.366199956417122,8.9620932342986,-22.659285962199544,-4.156337968562849
255,-7.497057349783092,8.474683962001926,-21.29501855161792,-4.202432781425388
256,0.1896118560387764,-0.921807281016767,-1.1285650096130397,0.20251890539365996
257,0.17695099749206977,-2.3249904649964517,-1.725105889903041,0.19629438465557636
258,-0.058886647808717385,-4.56627026841182,-2.2442929765429533,0.01845614102169979
259,-0.5975788691172648,-7.779587778353476,-2.5989888265331462,-0.4101994022162263
260,-1.4780156299671692,-12.058059135859173,-2.7003805995032235,-1.1683519182216018
261,-2.691338642183595,-17.468570520662404,-2.4585124905836713,-2.3557740097190143
262,-4.181398348690273,-24.0252159018659,-1.8225323795613197,-4.073349527324626
263,-5.8515588258920745,-31.67453462966442,-0.8578857580926346,-6.370576960788607
264,-7.576845605843131,-40.337403570019205,0.26935358728013614,-9.234017861540917
265,-9.220499457250778,-49.964376224177705,1.3866339473119766,-12.595972160999793
266,-10.671002146917003,-60.582740871281544,2.3351136025108645,-16.338814678868662
267,-11.830432138769691,-72.170944777315,3.0456064587335225,-20.326862895262884
268,-12.594222039452621,-84.69568817592257,3.567409509679505,-24.45745244206237
269,-12.911192653587515,-98.11819045429029,4.023388100781804,-28.69202876080379
270,-12.829653672893073,-112.41382029039463,4.504341249585013,-33.03736897254717
271,-12.452844696814223,-127.57320139650375,5.0288747514857635,-37.49515361422346
272,-11.914253070169146,-143.5916160570163,5.547975829702303,-42.05021639580041
273,-11.351143652547526,-160.45958382106755,5.999087428111928,-46.68749924899006
274,-10.904709561107861,-178.15987256881985,6.400090194780712,-51.402086389296095
275,-10.771337337758965,-196.67762383685687,6.7991624717817984,-56.20119271524769
276,-11.193657717764612,-216.0106284238544,7.11425942103873,-61.083138814230374
277,-12.389061423367409,-236.1577750200157,7.128749676028158,-66.00634800920986
278,-14.471228286784111,-257.095247329234,6.622832519479147,-70.86209333800011
279,-17.438507932221622,-278.74568947314316,5.5056366109264,-75.49801343372047
280,-21.223314831567023,-300.94215933098576,3.895104559912487,-79.79197469456169
281,-25.708663693197302,-323.4299917442754,2.0696113530656515,-83.66696500084517
282,-30.720063614727472,-345.91979740295426,0.3051088274157885,-87.06350876350083
283,-36.03654630278058,-368.16129811994904,-1.221133133398372,-89.94281527351251
284,-41.42655252645164,-389.990742135293,-2.3853813643199695,-92.2818793452685
285,-46.71403980351512,-411.33962196868373,-3.0696368878235876,-94.05087308770388
286,-51.80457624366349,-432.21865295755106,-3.152323892976678,-95.21752174399256
287,-56.62029722074242,-452.67589651486054,-2.515618743570514,-95.76912726590352
288,-61.062285544038346,-472.76104263191013,-1.098450443875448,-95.7089108179496
289,-65.03165402051036,-492.5058333885486,1.0542569140892164,-95.04297203526562
290,-68.45835286456776,-511.90692375279383,3.789649439308256,-93.77546296714729
291,-71.30702984300288,-530.9070379368253,6.889280751890187,-91.90583210742008
292,-73.52990011895572,-549.3648864616129,10.170184362875743,-89.4273476760174
293,-75.06978174135284,-567.0444417668446,13.582136215783287,-86.34727773804485
294,-75.93385138566953,-583.6466671233525,17.15556576444361,-82.73109341159457
295,-76.2189182446337,-598.8645777799467,20.8539551001229,-78.69895223667635
296,-76.05593340081424,-612.4528068692405,24.539650079785286,-74.37240088056504
297,-75.51535701866935,-624.2807364877417,28.013849583712094,-69.82973151493799
298,-74.5802064166305,-634.3042976898622,31.061063244792074,-65.10222281795252
299,-73.208466554968,-642.5011017450719,33.53206290058086,-60.202050670027866
300,-71.38002254583188,-648.8593663082085,35.42111053061294,-55.14061564453681
301,-69.09372477187587,-653.3894144862173,36.82537694667452,-49.92725808988109
302,-66.34700954108152,-656.1227293382658,37.80997783055572,-44.56311287729736
303,-63.13259100035856,-657.1093982459311,38.3915928228991,-39.045833616820445
304,-59.4678705691745,-656.4150971380666,38.62669346318057,-33.385321051188185
305,-55.427377605304834,-654.1182821809848,38.6399301525534,-27.623126764680443
306,-51.12821883792372,-650.3075952810556,38.57358300609958,-21.842669386872497
307,-46.68478419149082,-645.0794863776644,38.514593256290915,-16.158915049402996
308,-42.18076285330897,-638.5360525390854,38.47505174690363,-10.685940803327435
309,-37.665736062663555,-630.7830912948075,38.421855506033666,-5.483926081044504
310,-33.15994249491248,-621.928363425519,38.30997723977411,-0.5575148416576554
311,-28.646270745259855,-612.0800585648051,38.1183336859181,4.093731335292164
312,-24.07472022966539,-601.3454554218407,37.85269351935015,8.452439854875013
313,-19.401283003205812,-589.829767188323,37.508602211561524,12.48705792402151
314,-14.621007943900672,-577.6351617214536,37.059625239879175,16.184084839845752
315,-9.775388547036586,-564.8599453736872,36.481658450691995,19.565272983535966
316,-4.940529592928003,-551.5978988451955,35.77748385472889,22.662685463791593
317,-0.19395025199222082,-537.93775314287,34.98529591569494,25.514302335859103
318,4.412817882221493,-523.9627936173356,34.19878442055514,28.17477302348502
319,8.854253054345477,-509.7505800947019,33.6028088726132,30.697129656591063
320,13.119088751277879,-495.3727713016225,33.39655832126374,33.110942989059346
321,17.2004681649127,-480.89504208064,33.63626254837871,35.43101325768351
322,21.084447655902736,-466.37708228907655,34.220287436769766,37.67862310324941
323,24.73663974477751,-451.87266675138204,34.98512422928038,39.87508791882518
324,28.107210189961343,-437.4297861757437,35.77081374325918,42.010330989418186
325,31.136588708843163,-423.09082953609493,36.448660990318366,44.02223278123928
326,33.745793168516116,-408.8928090469693,36.92751917264472,45.794231596272425
327,35.84607372439618,-394.86761950878287,37.14916299337431,47.20068846960551
328,37.38381926421536,-381.0423244642835,37.06988286728252,48.19607778245294
329,38.38324375591942,-367.43946227347374,36.641775748903335,48.825093595765104
330,38.928647451373465,-354.07736587594513,35.84480678535105,49.15013152873605
331,39.10946364887303,-340.97049065901723,34.731383246181,49.211573297887654
332,38.992575139201264,-328.1297454812394,33.40643160854735,49.0331613615324
333,38.63099826207041,-315.5628225085478,31.968584470267622,48.647341435036736
334,38.07441590156424,-303.2745221005232,30.46261890407935,48.09381436142263
335,37.34575302028281,-291.2670695334469,28.859299900114593,47.389764558593825
336,36.41971053902225,-279.5404208627212,27.06682574353643,46.53371878890758
337,35.245142913323235,-268.09255570789986,24.98671507244875,45.52917074543048
338,33.78229226986473,-256.9197551879678,22.586330082218492,44.38439788799347
339,32.021867994932805,-246.0168636420279,19.905957593551918,43.09792747494759
340,29.98334880879732,-235.37753314119908,17.01584948126912,41.66594748937948
341,27.70970576552568,-224.9944501316599,13.981774259005,40.111854288029335
342,25.268636772902504,-214.85954384721384,10.829890697860876,38.49560447263148
343,22.759217802834264,-204.9641763935824,7.5495113237045155,36.90102207595726
344,20.304873160098694,-195.29931463723702,4.150521189240683,35.41405858484069
345,18.001106448029407,-185.85568423054877,0.7037591814648123,34.086063891849435
346,15.866354507156014,-176.62390627412333,-2.6731350274631067,32.91528545230589
347,13.86779698961908,-167.5946172582826,-5.861996043338271,31.87229086483333
348,11.987048936841497,-158.75826068137877,-8.789268674779288,30.939258443290914
349,10.251726881601082,-150.10449029822266,-11.43288387202211,30.13171298683757
350,8.719967715378571,-141.6097609540126,-13.795563443225301,29.492572027896376
351,7.437873508032509,-133.23338544472614,-15.8907226789149,29.062915565507783
352,6.403760607064632,-124.95824768437247,-17.73917372301998,28.854277660155017
353,5.578725972095136,-116.8212415302472,-19.35692466481331,28.834913819501324
354,4.9184135744202075,-108.90065611291952,-20.763726825163708,28.932924496770884
355,4.382208821210694,-101.29516488029158,-22.016513530230945,29.04950231264526
356,3.9134466925715823,-94.05866780507539,-23.225737994344065,29.06817721266376
357,3.4175995770313037,-87.10925927136911,-24.546711143709874,28.86007126717965
358,2.7699508374322694,-80.18672299910553,-26.146436499868138,28.28820389240934
359,1.843684315146342,-72.8340122373092,-28.1650666211792,27.220175433962645
360,0.5426109148582935,-64.39999630124743,-30.715878813018485,25.55419618812763
361,-1.1917454800379943,-54.03275473579582,-33.89191549703715,23.245401397332106
362,-3.3885395431851,-40.621534743304416,-37.72280584332266,20.31699593244846
363,-6.027697671323947,-22.796140894638263,-42.128151260823294,16.85254894521742
364,-9.032885554382243,0.9547401911455964,-46.93732070592337,12.96991625977535
365,-12.295435095463137,32.09476069241698,-51.956663061943516,8.789084796440077
366,-15.712926371262514,71.83103252498358,-57.01883228314152,4.408480984460912
367,-19.227132375112035,120.9332876095499,-61.98184745961464,-0.10540704783553645
368,-22.799921667873974,179.61983699530302,-66.7074256538303,-4.702674379361795
369,-26.36076014334702,247.539710760783,-71.07291215406678,-9.323130750436896
370,-29.80505444072346,323.8210405795404,-75.01311403323287,-13.886153312665302
371,-33.04506482293569,407.1340188993529,-78.52458958690578,-18.30710479125762
372,-36.050286608192344,495.79840948862807,-81.62625406635087,-22.522478489262273
373,-38.81750772193132,587.9315287707034,-84.32514432404928,-26.48444375208886
374,-41.42055693107818,679.19279507789,-86.69610897237266,-30.176940073600566
375,-43.65843668668926,771.9996203834403,-88.63816008653438,-33.48794744201693
376,-45.40196448457454,865.8787597441844,-90.09100008016283,-36.31879161382518
377,-46.608777860210296,958.6420380221721,-91.02348288253985,-38.60947493931344
378,-47.30455093877743,1047.2884988741139,-91.44537228287831,-40.3498566896707
379,-47.544821528985146,1128.6491125639793,-91.42761489170371,-41.57376772279572
380,-47.40593678065174,1199.863189850781,-91.0941944439128,-42.34659291513978
381,-46.99926473238158,1258.7841605108038,-90.58586426899868,-42.75570794990401
382,-46.460305882752,1304.250748641775,-90.02477686374237,-42.90000599917114
383,-45.91564297823582,1336.1954554440395,-89.49937472076485,-42.87573736899782
384,-0.48321297329012475,12.289874893229134,-0.2035676275696044,-0.7265925121725643
385,-1.196955029063827,27.115614065839644,-0.6426287712384755,-1.5203570482794702
386,-2.2421781783259553,48.4937365337797,-1.2992044360029569,-2.606352543278395
387,-3.601953203080123,76.57512191293699,-2.17935198348404,-3.9544620912544093
388,-5.241618692537893,110.93227427400221,-3.259280680005504,-5.509910314294646
389,-7.101342629694181,150.58654918596136,-4.496230854114341,-7.201623277773843
390,-9.079535686495761,194.11994689666722,-5.8359634083328435,-8.944826147076544
391,-11.042502303550725,239.87810783859848,-7.204182427260816,-10.654435608740323
392,-12.867850353847494,286.2688671323559,-8.502299385581503,-12.26351054874199
393,-14.469516064311879,332.1586926886738,-9.616503944627102,-13.728473303426512
394,-15.797096686510823,377.3675388088797,-10.445031990460087,-15.035533080120288
395,-16.7500431123546,421.29431970188523,-10.906081326778374,-16.111447134367875
396,-17.202360106003255,463.41450158363307,-10.940607739665857,-16.85062619871547
397,-17.038573926380018,503.2945369769352,-10.499352848741028,-17.12833673004848
398,-16.18114445597492,540.5852325741666,-9.535127022443445,-16.815533521637224
399,-14.570791800316819,575.0149147811552,-8.005407046258524,-15.797607841189897
400,-12.154255842292034,606.3825641840496,-5.897898507827205,-13.995423149327017
401,-8.909480527055521,634.5510046120655,-3.2476579202454756,-11.380621030999752
402,-4.87355129984328,659.44022065275,-0.12858242591253333,-7.980740320818036
403,-0.15123340560567744,681.0208663223027,3.3594189605050575,-3.877049613385989
404,5.110379041109639,699.308017147941,7.096222611615274,0.803990047369433
405,10.756866980123187,714.3552082140199,10.94571345734626,5.906743090037347
406,16.63729685998093,726.248791777566,14.769758202209706,11.264822478959294
407,22.59520904636129,735.1026398794207,18.44354352589631,16.71519477660157
408,28.468253465946294,741.0532099616079,21.855477605295878,22.114148234316747
409,34.11552501878673,744.2549848384846,24.9067080074635,27.35481162084684
410,39.43517508984033,744.8762924397569,27.525919124342643,32.36142850947062
411,44.35181848054287,743.0955055224624,29.682176785638234,37.073323301880905
412,48.79765085691919,739.0976170062447,31.390748835944216,41.44272356856627
413,52.69909482068794,733.0711826872428,32.710702262535825,45.43192733346771
414,55.994706033180634,725.2056197931878,33.70961649178762,49.009083117740424
415,58.67592819819035,715.6888471158962,34.420489022904775,52.14925722139516
416,60.79584491008542,704.7051252353882,34.83479323468094,54.836287089964145
417,62.42243131949268,692.4323672161968,34.928443727723234,57.060782513967155
418,63.59002947903376,679.0386456330071,34.68259895680868,58.813662622867476
419,64.30607622349656,664.6852576858897,34.07825327172564,60.080531833639554
420,64.59140409586433,649.5329861953197,33.09260703927535,60.84641334194035
421,64.49361685188481,633.7401187442924,31.709681412385358,61.11233244598807
422,64.05790343294949,617.458644733528,29.934526928960356,60.90675994723079
423,63.30631077891344,600.8258239392934,27.805716312510146,60.27803197993745
424,62.247760312376116,583.9503557001469,25.399504619873646,59.275917997933455
425,60.89384932979872,566.9066222396532,22.81779352884289,57.937719071025356
426,59.25300265262012,549.7298199492308,20.168460385698545,56.29000520694853
427,57.31200544407205,532.4091495878646,17.54353276146022,54.36368042697455
428,55.03632324342518,514.8966860140837,14.995917279565527,52.196209507643246
429,52.3918349020715,497.1240041381286,12.535806305697816,49.817089156197085
430,49.37214474966088,479.0067979238011,10.140311570493363,47.24731658576407
431,45.9966658437511,460.4482894827364,7.7688016147314585,44.51317287881448
432,42.283137779735526,441.3570533477882,5.389622780427943,41.650237375242426
433,38.24460260867655,421.6710595698898,2.9870891819859895,38.69728954138896
434,33.916521319721106,401.37370376944176,0.5553117756683968,35.69138051882545
435,29.381323894976465,380.4964450467468,-1.890393529824428,32.66773981448795
436,24.754893895512023,359.10250647282567,-4.30419382041904,29.66151975347118
437,20.14079725463835,337.26142807328466,-6.621124916112994,26.70305476319976
438,15.597208056811054,315.03369628028753,-8.78083317058702,23.806221083765507
439,11.1418564781695,292.4645646565768,-10.748611758890618,20.96853062088107
440,6.786686302929029,269.5875877703155,-12.5219787115321,18.18880050715054
441,2.5679625930460435,246.43999032520915,-14.124499752061864,15.48315184838434
442,-1.4434014799746433,223.07119561268635,-15.598567770168302,12.883795731111181
443,-5.1562491416667555,199.53870148404297,-16.997437658560358,10.424814480489525
444,-8.489915250056589,175.90303699104433,-18.371850705683787,8.12776615884171
445,-11.383825216312983,152.2158667395303,-19.75165478614676,5.999885106348174
446,-13.789193297379171,128.50187052088313,-21.13480961039899,4.050129556325655
447,-15.666621555010643,104.75953246400708,-22.493292350933167,2.2967229099153363
448,-16.995767220351034,80.97905486868814,-23.785784121607538,0.7513377266049771
449,-17.793107707386714,57.14747817427001,-24.959852378731014,-0.5915108148225365
450,-18.111452001048622,33.240436070170546,-25.94226986885936,-1.748604394331048
451,-18.014876022641946,9.229970671201105,-26.66157291362556,-2.7376139066980905
452,-17.556229186060687,-14.888669239835059,-27.095519214534903,-3.568724536275323
453,-16.78086007367358,-39.076747441236066,-27.280133912351523,-4.246267095156272
454,-15.740990599016039,-63.249149496967036,-27.281002325993242,-4.7744228759482965
455,-14.490664337080128,-87.28516775397121,-27.16339113970029,-5.160471939759526
456,-13.071761809683826,-111.04001353711728,-26.978490526236858,-5.421026134305865
457,-11.512646886932535,-134.36010675310473,-26.769264546105447,-5.586013069118749
458,-9.854004930595256,-157.10929121987473,-26.575271739020366,-5.693616649378981
459,-8.173748372413435,-179.18570876826877,-26.41112139764344,-5.783326201529221
460,-6.564459927846685,-200.52148957229042,-26.258759269933726,-5.888045417661601
461,-5.084542177978619,-221.07005455155482,-26.096429867543435,-6.022663165123211
462,-3.737730474907792,-240.7912954068708,-25.916487062818497,-6.180970197054026
463,-2.5091811197390808,-259.6480040335467,-25.72238765739072,-6.346637453652766
464,-1.407881675925504,-277.6080059272332,-25.51992298644651,-6.51022028965338
465,-0.46159045466525367,-294.6492291189932,-25.3082827430339,-6.673492685962498
466,0.31053749807492564,-310.76337248683706,-25.081865974554525,-6.839688091557547
467,0.911353436507311,-325.94918923902947,-24.840265047636763,-7.011890828330573
468,1.3429995713757295,-340.2079927593107,-24.58010091243161,-7.199430422916476
469,1.5813119801319828,-353.5489771039293,-24.26838386149488,-7.420809283723266
470,1.5961672020071689,-365.9864727523032,-23.850195873243436,-7.699439068349231
471,1.3934718830217672,-377.5284680187612,-23.285788611940074,-8.052882959558346
472,1.0265542004172334,-388.1750503176662,-22.572566704216825,-8.486301298315803
473,0.5645748716370831,-397.928251966829,-21.74849129247891,-8.9907302387633
474,0.056977121714238896,-406.7959518890913,-20.88050368044448,-9.544732932502917
475,-0.4705989664794083,-414.7847355077654,-20.049981334726517,-10.121516588518409
476,-0.9889552966090176,-421.90095591724764,-19.343464135029254,-10.694966747630282
477,-1.4547046691893073,-428.1632356056861,-18.82713081010571,-11.243043727785919
478,-1.8476718550319688,-433.6115094795611,-18.505224705314443,-11.756072802259808
479,-2.197609632621016,-438.30624083146836,-18.324258405557323,-12.24369396242056
480,-2.5546752867552227,-442.3133768628917,-18.218931454283133,-12.724025768705072
481,-2.933546200332625,-445.6858460722377,-18.13204815966113,-13.205309560529573
482,-3.2979123837614726,-448.46280538771566,-18.017534271442436,-13.679051634118686
483,-3.6083210231902743,-450.6794953042675,-17.84617764294671,-14.126356023824748
484,-3.8652919526575196,-452.373914604081,-17.60559823192859,-14.527907396451912
485,-4.101109087054731,-453.59116170798916,-17.29776088623354,-14.871132603975717
486,-4.345354071032356,-454.385805047198,-16.932491806419794,-15.156190456057672
487,-4.614256277638815,-454.820699304324,-16.522653645022057,-15.39514927407048
488,-4.929254315686552,-454.96007963504303,-16.08849560473834,-15.604335728633517
489,-5.3297377094966025,-454.8627588437934,-15.660612047983893,-15.798838211724913
490,-5.867733211967692,-454.58251324510263,-15.261677045786467,-15.994924850079451
491,-6.577337386056552,-454.1679395767192,-14.878961935424844,-16.216801063128745
492,-7.45134694863108,-453.6563316919386,-14.4783274475386,-16.493288369239924
493,-8.451791044703475,-453.06349078628625,-14.04437346771195,-16.847585241138304
494,-9.532461611811913,-452.3763294023534,-13.587178355978828,-17.29066206723267
495,-10.651481625598226,-451.56010734537534,-13.123298275456047,-17.81664435852875
496,-11.757312970000083,-450.57355743713686,-12.655887735138226,-18.400032333000766
497,-12.782281567820979,-449.3810921555727,-12.162603361001764,-19.002229277306643
498,-13.665767733722172,-447.96364336099316,-11.60527356257705,-19.586962695449603
499,-14.380074421865315,-446.32279996869937,-10.952864937113564,-20.127981980682318
500,-14.938545112797161,-444.4752857912382,-10.19640223696931,-20.604641386508806
501,-15.362674420767977,-442.44818093647496,-9.353130226639982,-20.99845813474302
502,-15.649773574031503,-440.40783289249543,-8.46329240399331,-21.302540418759246
503,-15.80373496703762,-438.1757262159203,-7.584318021920057,-21.490513098614034
504,-15.855723854593972,-435.7082725808445,-6.773072511811907,-21.556551113265964
505,-15.847519933828107,-433.05580570154274,-6.07271632242871,-21.516892075706576
506,-15.812739411434563,-430.3250635058579,-5.505999006999629,-21.403958879498195
507,-15.764832965303189,-427.64591557527666,-5.082731739413861,-21.25276046000651
508,-15.70467080570075,-425.1483696831565,-4.8113316983127605,-21.089492495944885
509,-15.640464683755429,-422.9498137496243,-4.68982750534623,-20.9308537483646
510,-15.587403039796882,-421.1431959821713,-4.681838963190235,-20.790761148391045
511,-15.551959110234908,-419.78453789335305,-4.7263571213360756,-20.68048176770002
512,0.25931183260159013,1.3382915036660672,-0.5134144014671866,0.18082292189935148
513,0.43877901569798744,2.8779646889699473,-1.1389503556828693,0.3022657395091128
514,0.6528128525010298,5.080967396893213,-1.9889956572317202,0.40386609133467866
515,0.9008363176588577,7.95806451364127,-3.0244150028226375,0.45952350281068144
516,1.152343076203474,11.462499121670135,-4.199462447726023,0.4612825076964499
517,1.3590903743330036,15.49706319939298,-5.483073101002055,0.41896001627246326
518,1.4814817403249145,19.92723869238609,-6.854981134897816,0.3447290297206409
519,1.4941902353153047,24.597047324367416,-8.291369953255096,0.23521804138121521
520,1.3713687521317548,29.352641986549227,-9.762877244562889,0.0675328165108646
521,1.0899333499292625,34.077796955012346,-11.243232187913149,-0.19089057350852154
522,0.6514426390455337,38.742632701659396,-12.72329247971573,-0.5753171600208218
523,0.09081973014089703,43.255777768866224,-14.16381441484938,-1.122898215003285
524,-0.5540567558852125,47.52801237163763,-15.523886115594875,-1.8572529187627889
525,-1.2701186187567906,51.48716738653838,-16.770089080754797,-2.7847905762674805
526,-2.050280385769529,55.0757614393596,-17.879257582334805,-3.8877827067195194
527,-2.8480398659565096,58.239240378657755,-18.847011565605726,-5.111938523398246
528,-3.5637949812015415,60.92563270296633,-19.69561664284424,-6.369171013756527
529,-4.1006800231089615,63.09527979996326,-20.463134134932233,-7.555496220009061
530,-4.423846286918271,64.7294634269455,-21.196890418674688,-8.574471238143438
531,-4.550601057946439,65.83123268654808,-21.96457522733246,-9.359446265630277
532,-4.4990106614012335,66.41959672266412,-22.84129651912155,-9.883608578963496
533,-4.270920662838384,66.52497743111356,-23.871235238212442,-10.162948777989323
534,-3.873749137208819,66.1873408794175,-25.05061942482831,-10.246140070504664
535,-3.3387222026269394,65.45334376215658,-26.34229885541444,-10.18601936746176
536,-2.7196628604914066,64.37466068970619,-27.697455948690827,-10.02226203072941
537,-2.0628227285206404,63.006401087340194,-29.064750893223398,-9.783436857882288
538,-1.3885493449440136,61.40311399625347,-30.392735347879732,-9.488886148100903
539,-0.7052128462804734,59.61409888237264,-31.63392490545972,-9.141135621513413
540,-0.023760588620953926,57.67906941881156,-32.74388394942753,-8.72630749628473
541,0.635516798959799,55.62599930489594,-33.67782504348071,-8.23143931885625
542,1.2624010406270698,53.47246807611815,-34.393772186195484,-7.650587135778801
543,1.874019686566188,51.231311669155325,-34.859636857959565,-6.978441456170255
544,2.496060029747849,48.916409339386405,-35.062298398223334,-6.212247415905813
545,3.135021596251791,46.54352237671915,-35.017040015924984,-5.35754570204608
546,3.7738941460012265,44.127662700202684,-34.766628136590235,-4.426007303529323
547,4.405273508679056,41.68127280476088,-34.363941627671274,-3.4279215010600663
548,5.045376373474404,39.21351403708741,-33.84840480957547,-2.3707830822961835
549,5.705881997479606,36.729436586468545,-33.228589074825294,-1.2643970975639802
550,6.375383595690117,34.22963352250158,-32.474978591908545,-0.12361276608099117
551,7.023571249793816,31.712545009503053,-31.54242043784429,1.0295840558231855
552,7.617239700032919,29.182373695906865,-30.411745586549024,2.1633313165420547
553,8.141174105501499,26.65436769902465,-29.10006932201849,3.241414511206272
554,8.607308439792336,24.152357045830797,-27.64616434981137,4.2373898911994345
555,9.026752304300517,21.70271934707132,-26.09775168001798,5.1330286964675125
556,9.374663451050646,19.32660355952324,-24.50200958795468,5.900860803499813
557,9.6085813277732,17.037431438974515,-22.89976767838572,6.506251498951809
558,9.710871788938512,14.844329306092988,-21.321398210496987,6.925328445996696
559,9.695406444422272,12.756286261079325,-19.78171659919255,7.149183509498701
560,9.573357232334066,10.782896797099335,-18.277753250268585,7.1750272936077
561,9.325776202910673,8.928704750065636,-16.79407630333656,7.005387224201228
562,8.914565232947982,7.188334499978929,-15.30318659819318,6.655344146996257
563,8.317617232152324,5.548787102342627,-13.775216817013431,6.156569860349735
564,7.5629798987282655,4.0002395120836285,-12.205251903485088,5.557110442519507
565,6.710997274564435,2.5464718838993976,-10.625261919332074,4.915314739712263
566,5.816024824898046,1.2028719876348974,-9.100768519527545,4.290108371845443
567,4.925902166919734,-0.015489115099922596,-7.719215848330808,3.73273664311105
568,4.091801380291756,-1.1052639629937613,-6.555636918179818,3.283652783300338
569,3.3719353926011877,-2.078266722479047,-5.631742496953484,2.972914574204301
570,2.8129967581369555,-2.955669760254044,-4.918408630478269,2.8156497947221983
571,2.4225603695857716,-3.7577080748797416,-4.367633048026957,2.8033724373577935
572,2.1779177076291303,-4.500528892972254,-3.919840645913881,2.9078318524906117
573,2.0647716084982934,-5.198698425076356,-3.5083690414621684,3.101987864675332
574,2.0932449243123923,-5.8653013995268655,-3.0751062184166265,3.3719626706342996
575,2.2597567358952833,-6.512660372604461,-2.5772888471723943,3.708519354383993
576,2.5204650581437646,-7.152210018278811,-1.989918354906093,4.099212619225794
577,2.8220609904031395,-7.78756069869317,-1.3110036073593758,4.530002324549501
578,3.1494117790042395,-8.405799063259288,-0.5609813305792197,4.986811722933387
579,3.5379214548959315,-8.979831426806982,0.22809071582377882,5.45601645243939
580,4.029466674325019,-9.481487956728289,1.0225860606082056,5.928792369195914
581,4.619966714090897,-9.894781990437012,1.8016244717777221,6.394906241320623
582,5.256108773696154,-10.220748713163163,2.561969137646733,6.831299559287329
583,5.886402255876373,-10.472074911226638,3.301284932529856,7.208949513776519
584,6.491678943959057,-10.665163281977643,4.0089240633451,7.5046923219467025
585,7.059832359346483,-10.817239804589988,4.664069608522426,7.705002818198749
586,7.559752305245612,-10.947428829561906,5.227970173958473,7.807165851374751
587,7.94228969809595,-11.076631191022013,5.645542240189498,7.818342608465603
588,8.171836981713,-11.225957227757053,5.862909569125963,7.754078304437001
589,8.248004926691152,-11.41335709673525,5.846653779774676,7.633385263800925
590,8.185668936791638,-11.648557518812401,5.5982795939123005,7.46831364864387
591,7.991234776013164,-11.932363553009234,5.161754575006148,7.255071106963501
592,7.668946064923899,-12.26004943811354,4.615699056242852,6.976474306713343
593,7.24515748043498,-12.62315719459586,4.056195076270814,6.6180656856798965
594,6.759798594305198,-13.01307746501193,3.5841710477091127,6.180837450906442
595,6.229158917766667,-13.425475419149219,3.2830481141383894,5.675807163950853
596,5.637553740019492,-13.857422354565465,3.1837739493712762,5.109237130645643
597,4.964992716617113,-14.303129616602986,3.2611107249428706,4.47972697895737
598,4.216518831853102,-14.75500358943213,3.4589398053325215,3.7941073756893533
599,3.422454946231519,-15.206286164597463,3.71106405118382,3.085050360091741
600,2.6136397259942408,-15.653226381570127,3.960255672744744,2.405683111391127
601,1.7997187183940941,-16.096775010977005,4.1758162538183985,1.8055308885425174
602,0.9767545481187228,-16.542133571966687,4.359719474637933,1.313460921720932
603,0.14953654942378763,-16.995486403417473,4.54157406214667,0.9334011230067496
604,-0.6614127221784838,-17.461818921378974,4.761513206241143,0.648918118742246
605,-1.420683966036331,-17.94395275267733,5.049280543443981,0.43280547359661903
606,-2.0999703744930533,-18.441667633424327,5.418227678689915,0.2560041815001957
607,-2.7034018520111354,-18.953146281263987,5.861631516997062,0.09149869930089052
608,-3.2625575133399716,-19.476935676545676,6.341201004559293,-0.08695308508718388
609,-3.8148485507573455,-20.013607332190322,6.793067755312156,-0.2957922335252441
610,-4.372186327221678,-20.566743158296497,7.153186102083088,-0.528383988739061
611,-4.920431893764585,-21.141842508782563,7.381400067594172,-0.7609464852021087
612,-5.456736579474612,-21.745630131080418,7.4725515876189945,-0.9635956517946359
613,-6.005973652727004,-22.387426050288113,7.456977689057659,-1.103402892798823
614,-6.59744692775758,-23.074824100038832,7.38552697479398,-1.151699485561399
615,-7.230113866749182,-23.804308768698455,7.298152531039493,-1.0964985813015922
616,-7.867351028154695,-24.560457744845415,7.214172705561575,-0.9459095586704153
617,-8.458490666484314,-25.32056478467548,7.143261763346062,-0.7192766465979117
618,-8.958159678323696,-26.058151522757704,7.089543336136479,-0.4313640469375739
619,-9.32630298422075,-26.74881566950605,7.046853596242045,-0.07810475937000305
620,-9.516496263587673,-27.37516011460849,6.993614427353611,0.36094886194637926
621,-9.482611701971663,-27.926642118968267,6.901266990129615,0.9051138839561874
622,-9.205204807943465,-28.399088579075784,6.746727029597683,1.5546684879172803
623,-8.703212286942,-28.798419325205195,6.5185798383197975,2.2847886160357076
624,-8.00443511268789,-29.142696635015003,6.221041962821147,3.0562895064555304
625,-7.123468236232715,-29.456382491129187,5.87470974669087,3.8353364597955557
626,-6.083640418364144,-29.76111036739619,5.502692063043547,4.598949489928549
627,-4.944361071820199,-30.069853539592362,5.116810417146736,5.322811767358748
628,-3.7936932282668465,-30.386694393188044,4.730675652149919,5.982248781508166
629,-2.694501714575524,-30.709026440489158,4.372034306480597,6.565480386341067
630,-1.668928096051993,-31.021911799469866,4.062201649375842,7.098410974483587
631,-0.6726613708168276,-31.329284036563536,3.810791967128037,7.5520394730765235
632,0.2923177281642557,-31.62839357279165,3.62192843393346,7.9153074531805485
633,1.199339466814238,-31.913256821812666,3.48887469698213,8.190483497580173
634,2.0293350185367927,-32.17473361563957,3.3941786261248312,8.385930560654446
635,2.7779490502490343,-32.40346350282855,3.3156118565737187,8.508254071914408
636,3.4400043076136235,-32.593079373973026,3.2386033051533967,8.557449195977279
637,3.9970466691092312,-32.74115160349422,3.1640094177069154,8.531718569250602
638,4.425786175919185,-32.850787694473546,3.1020591283787926,8.439720581810882
639,4.7208561042238575,-32.92918306827021,3.057663507113663,8.306522980155009
640,0.18452514764889222,0.12456741747695843,-0.3164554191615119,0.13538689474315402
641,0.29350406179696825,0.23392156104365103,-0.6820543379879793,0.21682863939165045
642,0.41259650938852327,0.37661196475883946,-1.178436522418113,0.2837744241985027
643,0.5306806072920703,0.5573382087005582,-1.8131147425543543,0.31308017415738015
644,0.6178285340478891,0.78245547361167,-2.5907131854598604,0.2776114043091856
645,0.6422550147812836,1.0588828015311158,-3.5163738532140827,0.15550573710857696
646,0.5971788029963391,1.3954308243966238,-4.592965460759672,-0.060524392888367896
647,0.5012627113270319,1.800727305302713,-5.815023346339285,-0.35808471678732734
648,0.37485627066383337,2.279141825844457,-7.16852955860144,-0.7076167869133665
649,0.23395771158806444,2.8307833066613597,-8.63749112296869,-1.0705514938552936
650,0.10621945889959314,3.4528165466643492,-10.216863854388114,-1.4022866770689635
651,0.03930407253131117,4.124280059406148,-11.882567748335559,-1.6600289123165521
652,0.06953467320281949,4.813241335030138,-13.56264283075796,-1.8150892550801716
653,0.19357338920321426,5.487696259388047,-15.152219855617206,-1.8564890087899535
654,0.3882031002894327,6.124827896380448,-16.576859095908393,-1.7762464307245889
655,0.6450808698579538,6.712046517237156,-17.820333215726457,-1.5621764342254705
656,0.9821839198673772,7.2454242388120615,-18.910386735938502,-1.205345544108266
657,1.4118719411579266,7.729012661002743,-19.882564361409884,-0.7094065476456795
658,1.9080355879965842,8.169528466104843,-20.74061988457018,-0.09654077986208494
659,2.4148526641770194,8.568576819741788,-21.458572259646907,0.5951966947948852
660,2.883539098464289,8.92181476814337,-22.013541622835326,1.3211536184988644
661,3.301422705117861,9.221502978231708,-22.397847138266176,2.036869323785204
662,3.6720538459510372,9.457178900512153,-22.604904724198423,2.699168982827695
663,3.977932716089951,9.616561090652041,-22.620948056928153,3.2661563304602406
664,4.185534888977146,9.688192423240503,-22.43521200369669,3.7007524306244264
665,4.2855778389398385,9.665983713340566,-22.052987096670066,3.977370832666417
666,4.310224454494551,9.550871690547355,-21.502101754781602,4.089267683089919
667,4.298686408753689,9.350643823331497,-20.830838761908108,4.048497622819673
668,4.260820572429568,9.080181619880868,-20.10433417127518,3.876178426742721
669,4.1829199942291035,8.756400560868334,-19.402807377413662,3.5954251796198946
670,4.061973899464596,8.390032327805555,-18.796943356747047,3.2286372162845813
671,3.920034506434403,7.983487236718717,-18.299554475881582,2.7920364133255036
672,3.773841562737132,7.535706860699043,-17.85541026893972,2.2902480542461165
673,3.6063164525448026,7.045424645767408,-17.39134132295976,1.7185716577060066
674,3.3778461086343774,6.509932761051414,-16.866186714211146,1.0696561769526118
675,3.0681456954520003,5.927481382965829,-16.282412516385772,0.3384134151520145
676,2.7008111400523824,5.300617330619795,-15.661916912544706,-0.47262323637342707
677,2.3155600982775266,4.634732207422632,-15.013303487382007,-1.3524430508422476
678,1.9301523541980012,3.9397349003335025,-14.333377373138696,-2.2872137952874496
679,1.5382011549023165,3.2344412621571244,-13.634360672243497,-3.2645137990895137
680,1.1391104709961746,2.545011234390823,-12.954829550183325,-4.270509178467396
681,0.7470564994101416,1.8994701774722134,-12.345001132864796,-5.283131549406039
682,0.3681144810081296,1.3235180143580265,-11.844706730653277,-6.2740121842735785
683,-0.01673859554444146,0.8379181260887535,-11.47064331100384,-7.2175295993667214
684,-0.4495167887856071,0.45726315042785093,-11.216523622185685,-8.09462546062441
685,-0.9630046443430682,0.18894473628778677,-11.060220977449406,-8.89120814192943
686,-1.5564348032750357,0.034104835877797494,-10.97519321955965,-9.594563760108652
687,-2.2036371171826312,-0.008921385619370822,-10.945944519466092,-10.19147187688447
688,-2.8764267606951055,0.05530561002188207,-10.974187934855296,-10.672459161725124
689,-3.566403259979126,0.21750440890403971,-11.065928323393246,-11.036835269517825
690,-4.266192770933378,0.46486662788930705,-11.210718081191795,-11.288645340855439
691,-4.942276087846456,0.7814860181094861,-11.373757946770047,-11.4307936156778
692,-5.541750932504302,1.1453610369438325,-11.510749605546405,-11.467431854890403
693,-6.026081284774074,1.5287700068192112,-11.588305832294598,-11.408256082135019
694,-6.396632057903622,1.904843811365276,-11.58904414789774,-11.268341302840264
695,-6.674426642468451,2.2489376992725423,-11.508806002236776,-11.06462813666704
696,-6.872410699332653,2.532978510209514,-11.355327348649228,-10.814009875300622
697,-6.986289146103867,2.7249861372069666,-11.139876816201122,-10.534335494894206
698,-7.0113733524513275,2.7960946001074056,-10.870821845392802,-10.244121732003787
699,-6.96852734996307,2.7281360810565203,-10.557507672519662,-9.959736652073778
700,-6.894216237315692,2.517304511882801,-10.216348062324759,-9.688427675668175
701,-6.806846862705829,2.174036427252264,-9.874058241793268,-9.42233152572427
702,-6.68866981580348,1.7201295784200923,-9.5562607835286,-9.146668933644301
703,-6.516867749870782,1.1834191631254554,-9.269680748251718,-8.854083946256681
704,-6.298288791806222,0.5920965323810228,-8.997682212447764,-8.547531466546586
705,-6.055717933378526,-0.027783325142736764,-8.712449633338768,-8.232901002148001
706,-5.793607726336106,-0.6503504830868593,-8.388423013635876,-7.910521425886822
707,-5.485056829454851,-1.2489238182738653,-7.998683667375482,-7.575778690000516
708,-5.1119195242377335,-1.798406831137715,-7.514353415549383,-7.228269933978798
709,-4.703076015832666,-2.2788105088855106,-6.920786143344565,-6.875134411787973
710,-4.311306014861837,-2.678990314301048,-6.220318894999168,-6.522726385769319
711,-3.9625963868831717,-2.9982175149267767,-5.416979043666081,-6.166373846215939
712,-3.635326709474079,-3.243628476275797,-4.513192538730506,-5.789474831716082
713,-3.298934433023689,-3.42565319535251,-3.517774890814677,-5.372569342673052
714,-2.9583835153424496,-3.556151484227537,-2.451617771273938,-4.903841789218453
715,-2.6464006205735826,-3.649574597551992,-1.3504629553536824,-4.381405694929951
716,-2.379165190964619,-3.7240317511370877,-0.25562685843467525,-3.8110083642160064
717,-2.1355058607046287,-3.8007987955193396,0.8046915817313591,-3.205907517033885
718,-1.8907413824518327,-3.9024486953891944,1.819375710858946,-2.5887577141475067
719,-1.6495931474570935,-4.047452832377734,2.777971608663465,-1.984515312300116
720,-1.4316071796030454,-4.242365151066902,3.6608126099836635,-1.403577627068897
721,-1.2298993111324177,-4.4799512761615885,4.4508279676499525,-0.8422423296183063
722,-1.002932697096004,-4.745386760691864,5.146064170475734,-0.29667754006342817
723,-0.7033914823111956,-5.024214871674843,5.755515902310009,0.2342115443056021
724,-0.3049407604398995,-5.306580309268749,6.289926417896611,0.7482074779067933
725,0.1850389648069362,-5.588019894488754,6.760927382311553,1.2353604824341373
726,0.7549265664781837,-5.866649751470988,7.181182483874595,1.679082806526639
727,1.4110467132864846,-6.1388039389016384,7.552520757993866,2.059356390323844
728,2.1503155764608164,-6.400194093722631,7.852979208300968,2.3553751642898844
729,2.9369283147598204,-6.6494768658155445,8.048675441774984,2.550003618875667
730,3.7080737744392787,-6.888921907074846,8.11787256364772,2.6341757100632766
731,4.4162398840268215,-7.1235848319554655,8.05419938461742,2.609855499994478
732,5.056819901469937,-7.357327890288078,7.86461140892315,2.491886151685063
733,5.647167354914579,-7.588738060618261,7.578313048884978,2.308667877928561
734,6.198467194586654,-7.812277159502099,7.24217799894509,2.09874655970862
735,6.704884738328416,-8.01920796871622,6.902645101347885,1.9028708526091183
736,7.165845275483605,-8.197842299350352,6.597284625891312,1.7558286121450353
737,7.601387194868154,-8.339188600077895,6.352046452762807,1.6787662272578818
738,8.03321689311671,-8.440212400430921,6.177699152407701,1.6769854113027458
739,8.468604083244697,-8.499879076877308,6.0732467202864395,1.7426179060185933
740,8.899636784674948,-8.517263986679158,6.0281869631097065,1.8617117317263594
741,9.318419998823526,-8.492277705666167,6.0214809452912,2.030146078441543
742,9.743166304946968,-8.42490811896999,6.026445146174839,2.2635756691075835
743,10.218534597442453,-8.316571060320646,6.024139828045776,2.589654320543253
744,10.766350020550533,-8.17505994097634,6.016630818737054,3.026617988071631
745,11.351397668314917,-8.015202282147305,6.024863807442932,3.5654813555999927
746,11.904519637985587,-7.852973387186863,6.07837288654014,4.16706286878056
747,12.36355569077468,-7.702233334719863,6.2040152446532355,4.776648798995392
748,12.697213813351961,-7.575931971346397,6.410834695385402,5.342581425971542
749,12.87678938316456,-7.48818569683853,6.679907032589876,5.815627939199488
750,12.84228686572179,-7.455302336763152,6.964746954565,6.141542626719055
751,12.524795167663212,-7.491441470600411,7.208621435820144,6.264120822314246
752,11.889936896836042,-7.601845313425667,7.370919136283335,6.137669948398346
753,10.956442161835836,-7.78351829229379,7.436691052476992,5.736474920580582
754,9.767604746898042,-8.030014564695742,7.407521246923203,5.055988151547202
755,8.357811705584094,-8.332543825350108,7.284396977204822,4.109793580219608
756,6.752041662362971,-8.677894682922329,7.058577955327978,2.9239184865695647
757,4.981500548387487,-9.045904819916712,6.7230083855212985,1.5339662670023746
758,3.154609740487354,-9.408452203534244,6.314168723105334,-0.010881144646885388
759,1.2393721367879795,-9.753294818652314,5.813788094692331,-1.693024040522712
760,-0.7544289750980376,-10.072164032455419,5.237884024349031,-3.457167631456228
761,-2.776072702722084,-10.358578054757247,4.614216185486763,-5.220355032527571
762,-4.7292465278308375,-10.606768029655873,3.9702689322692515,-6.883764754642153
763,-6.501048705568856,-10.813292137726284,3.3314342216640074,-8.350412535875153
764,-8.010387763698766,-10.977265159867686,2.72412492418055,-9.548139694140582
765,-9.227887543521856,-11.099192190186544,2.1782319198414135,-10.446299611686667
766,-10.156346646789027,-11.180348608820113,1.7235615379813294,-11.054586490236128
767,-10.797523518629744,-11.224404642937403,1.3813657495183094,-11.407987952640855
768,0.10918163782078942,-0.19376979117206894,-0.4498167374441174,-0.21761793733055382
769,0.04169870806654531,-0.48490832941590223,-0.9766425707456652,-0.5069269328573767
770,-0.1047063206701623,-0.9227648943957045,-1.7123826107413476,-0.9314935738477563
771,-0.35843933532084116,-1.5176826198483981,-2.6485918165888647,-1.4943119571603385
772,-0.7416147439646473,-2.2658286491317585,-3.7577853381706876,-2.182236002806823
773,-1.2451195812776257,-3.1447399667208913,-5.0033070291484565,-2.965796755877788
774,-1.8262822866358184,-4.1145721303709575,-6.344175802776991,-3.804217957258129
775,-2.4331405256465883,-5.12538522937258,-7.734224427276218,-4.653354656455521
776,-3.029920986695893,-6.127850764062807,-9.125443567313058,-5.472988816144899
777,-3.595452865218168,-7.086012397144018,-10.476476823743909,-6.229597825743683
778,-4.103327529801947,-7.988762936803904,-11.766623510858002,-6.8987654083715935
779,-4.52299428307068,-8.827583880709318,-12.955235915425655,-7.446917462812847
780,-4.838374926178657,-9.600063727255494,-14.008409872797536,-7.857376383412437
781,-5.061158748730285,-10.306596520547515,-14.9061699198463,-8.13466816374718
782,-5.2078770214166905,-10.94910604947667,-15.641296127442345,-8.296341831509595
783,-5.276515400647639,-11.530290006518587,-16.214176616400188,-8.364781737549276
784,-5.256238687602228,-12.053108814801854,-16.63660864533535,-8.363393392321266
785,-5.150144149932438,-12.519759335357655,-16.934141292223543,-8.316288279511523
786,-4.988204843753798,-12.9308281388361,-17.14180879221758,-8.246056714877872
787,-4.8081958332498385,-13.286266125667542,-17.302256412231465,-8.168129748346812
788,-4.632141314557264,-13.588314247723495,-17.460845886617918,-8.089216330972857
789,-4.465448068599046,-13.8413277280942,-17.656292813274415,-8.009369966370059
790,-4.31592720226345,-14.046534938961214,-17.90998096857331,-7.925185347276938
791,-4.208590860059106,-14.204162206693423,-18.219449547090434,-7.837328737027602
792,-4.163315061346922,-14.320779563503237,-18.55919036026554,-7.755194894743541
793,-4.168091559736551,-14.408530224835252,-18.898669768766045,-7.6932977890371745
794,-4.1825678850895125,-14.479061415809378,-19.233160090475124,-7.666039023622582
795,-4.173739816623832,-14.539228055210945,-19.590922850431625,-7.685778582712535
796,-4.143879363426672,-14.592419074932849,-20.006605679088587,-7.75767944454767
797,-4.116507808930885,-14.642118417027667,-20.486742281409107,-7.87101381377348
798,-4.10500851332394,-14.692580277833635,-21.005540019278623,-8.002766485529692
799,-4.092539393647762,-14.746098345630983,-21.5271789202926,-8.127197062719947
800,-4.0598173169062735,-14.798674294444478,-22.020231722517746,-8.214036882958073
801,-4.020161938170243,-14.840330299201066,-22.45585891492607,-8.230173707976496
802,-4.001930497779844,-14.859270824858484,-22.803488113860936,-8.152531866518709
803,-4.011225980688642,-14.843577853732299,-23.028759793640653,-7.973437729042734
804,-4.018505319715002,-14.782278943037886,-23.08806038462935,-7.695423633381567
805,-3.9936340748888632,-14.668000271049138,-22.937917178684884,-7.33086517408201
806,-3.9452626386377316,-14.498998883729197,-22.5598659922838,-6.905618764216709
807,-3.9114967913579948,-14.280614236533152,-21.975576708347685,-6.45148267363095
808,-3.9198158439093675,-14.02050749246693,-21.242629277528028,-5.990848960369046
809,-3.9643679737825126,-13.717941972321457,-20.435732288614275,-5.532887968753534
810,-4.0307662576581365,-13.366998360169449,-19.6196437820452,-5.083073537830724
811,-4.121747765699966,-12.96941049003498,-18.824132815901617,-4.649480948514723
812,-4.247864979128787,-12.533821246997162,-18.050109161164333,-4.239482652703627
813,-4.399337247024773,-12.066716145327772,-17.29818738457651,-3.8559275537753663
814,-4.53370356951454,-11.567834629155415,-16.577262686465875,-3.4992364048445963
815,-4.610169191638948,-11.033553918816065,-15.889223962085273,-3.1717851403127915
816,-4.631326872426544,-10.464693960798344,-15.217754341698198,-2.880441239772009
817,-4.638468216254905,-9.868310139647349,-14.545291727575098,-2.6391626850477374
818,-4.661844302170465,-9.25167198912805,-13.872879669753466,-2.4694891872462703
819,-4.694807731251846,-8.616301034875518,-13.217215190218115,-2.389937829344178
820,-4.725704776822012,-7.960479818575606,-12.599674930963861,-2.4062839801131237
821,-4.766294627733311,-7.285210680393686,-12.034492093707005,-2.5151506081854555
822,-4.842255207478806,-6.594394589363261,-11.513048272643752,-2.707745540306505
823,-4.954990010872302,-5.895573854857705,-10.995289315058578,-2.9671108337797603
824,-5.063781480590508,-5.2046422990224155,-10.421908914498463,-3.2691907825944755
825,-5.116021692158209,-4.545468874969686,-9.737291841764192,-3.589536808877122
826,-5.082824019095759,-3.9424327991511903,-8.909768589247149,-3.904875305399958
827,-4.9674251234377635,-3.4133082798144065,-7.940179223056851,-4.191280837271147
828,-4.776953044402769,-2.965964064962217,-6.857671304018566,-4.426573278100941
829,-4.50177780555915,-2.6000009996841764,-5.707363854918503,-4.591213160414787
830,-4.129399694220709,-2.3127847399473476,-4.534309450079295,-4.66800630044281
831,-3.6675850357856703,-2.1020090528216127,-3.3867156041197037,-4.645896499691529
832,-3.151509121659674,-1.959944710396267,-2.3298573499476225,-4.520266363578219
833,-2.6115682458837366,-1.867509633556805,-1.4291539320135664,-4.287633190944789
834,-2.0442751862891955,-1.796635636054095,-0.710360591709374,-3.941961667710398
835,-1.4229698472743237,-1.7182665117913913,-0.15396381210139065,-3.4730203194364466
836,-0.7305850911264793,-1.6107695186642277,0.26961803945519125,-2.8702589387447994
837,0.022290801220807066,-1.4640029287436394,0.5774273332989596,-2.1350814040440387
838,0.8183764242858447,-1.2789861440178805,0.77252602589666,-1.2854064810961128
839,1.6530784517940158,-1.0681633843307046,0.8515132787225018,-0.34761173135608997
840,2.52784683792269,-0.8531411202940233,0.8239203671206573,0.6492189162504866
841,3.424986416688298,-0.6576543457454234,0.7240845814682544,1.6715560835309025
842,4.292619861251379,-0.5022139065467323,0.5999255755848977,2.6795388120867845
843,5.068856528253721,-0.4020883735448222,0.5048234359051476,3.6311097419260268
844,5.715645461645794,-0.36464467342266654,0.5045166521310586,4.487298234628828
845,6.2322780347785045,-0.3874208417834422,0.6650702012861708,5.216721710694053
846,6.628809083183181,-0.45718909722434053,1.019443775441263,5.798199663468747
847,6.89642531081616,-0.5528696338145296,1.543738947485602,6.21931129666977
848,7.018458711996619,-0.6552140554457936,2.1687149759246807,6.4805543562469445
849,6.997979422407482,-0.7515253832154958,2.818506250878195,6.598044094433571
850,6.873050024802754,-0.8322737128342987,3.4146206665258534,6.596672985366276
851,6.685501412340829,-0.8868750375030126,3.8458297457125075,6.506418967429543
852,6.442738767124722,-0.9053446900065951,3.9947679113927954,6.35908209080816
853,6.130949239103606,-0.8832495189360959,3.8166746055497995,6.180965194794506
854,5.7520305808159735,-0.8219876844342137,3.3693860437832988,5.9905237520193255
855,5.333661033823503,-0.7314309650006622,2.774480745725032,5.799199466034316
856,4.904075078777354,-0.6257488644048975,2.170306473889823,5.611278603075091
857,4.4735217021933185,-0.5086856070063306,1.6812535525362247,5.427055311242235
858,4.039578821108514,-0.3728972684127308,1.3900925975608285,5.249398986232465
859,3.602313596732169,-0.2129843792752056,1.3147904658977525,5.077039145666841
860,3.1567109804435542,-0.03456313273883657,1.413262303134488,4.878148441054504
861,2.6730188867894378,0.14825422030546828,1.6183074709549334,4.602354965458314
862,2.1138263667124577,0.3214884938233895,1.849463539053911,4.235938242407638
863,1.4559059118680262,0.47981711876914945,2.0013957573626557,3.805197850701974
864,0.695132533007839,0.6359765167375389,1.9628705290508466,3.3333547807257977
865,-0.1615218588782914,0.8146075117954047,1.662817565128988,2.820620473580877
866,-1.1209003022895079,1.0263237064828064,1.1091663312011988,2.247544786094928
867,-2.213152915801612,1.2532641591989215,0.39874321486868386,1.5842763767499373
868,-3.466731372063146,1.4620128033707787,-0.30424544828235783,0.8074199841054227
869,-4.85425932180493,1.6245184614176547,-0.8280915584492439,-0.07832713963594518
870,-6.272999059243417,1.7271331041544207,-1.0641313337440277,-1.0360729047813781
871,-7.59858735884494,1.767571931882159,-0.9751017292170102,-2.0121194581922457
872,-8.748275805192199,1.749830822683372,-0.5544643836486038,-2.951819610427704
873,-9.697279937962348,1.6790713119219773,0.18050047597932817,-3.8112775977671927
874,-10.45347333307462,1.5518095118581798,1.1842839363959974,-4.569623531689275
875,-11.031564562935102,1.3584804632703495,2.4274190006543206,-5.232382233932871
876,-11.451739986713836,1.1014135112016872,3.883623044430574,-5.814112226753435
877,-11.75007452953148,0.7988816270010308,5.436549974526603,-6.318236166573062
878,-11.984235687037028,0.4714629702448918,6.878236751195012,-6.751906585258595
879,-12.22385504658387,0.12669416407521453,8.011448149160206,-7.168734880984229
880,-12.51469350760038,-0.24729471442757778,8.73594010172925,-7.651786726636272
881,-12.841888005339069,-0.6834236983728561,9.043218834093867,-8.239628834197044
882,-13.149020977613244,-1.2183786054113026,8.964929083888553,-8.90753364778029
883,-13.38949043743581,-1.8592794380950113,8.570487179469836,-9.610247553464273
884,-13.548334067018079,-2.5900602997155446,7.97208431287633,-10.321024461820235
885,-13.634141524182104,-3.4017433471517684,7.297206073434336,-11.03529883363348
886,-13.6162092335693,-4.118195763339368,6.590533247191475,-11.719650342010455
887,-13.58151198790212,-5.059418904967397,6.161003154845064,-12.440224525986006
888,-13.61259708685158,-6.382515084880084,6.1890952886733395,-13.223871966755423
889,-13.745694802343735,-8.116684800816977,6.721972849000441,-14.063941203618972
890,-13.967617000264038,-10.19715934978444,7.696995000423822,-14.931725887222408
891,-14.245968069187185,-12.495723135523468,8.974511346591548,-15.783563337361775
892,-14.550144470550656,-14.850365178999729,10.356748622873852,-16.56923898636689
893,-14.85069778305241,-17.094732645163855,11.639254511089913,-17.24540190720022
894,-15.112576513732748,-19.08160319573719,12.707590529562298,-17.78661330920939
895,-15.302537191949174,-20.69615159007157,13.541061821945823,-18.182736323390902
896,-0.0512935424701175,-1.615480658044071,-0.3972516629333056,-0.18824481399747378
897,-0.2899392546054255,-3.926200324052511,-0.8619081826130994,-0.5490617998597602
898,-0.6421411897561771,-7.466063078999797,-1.4868474631086843,-1.0974630295565468
899,-1.1569534664495864,-12.396774543398113,-2.26392816632465,-1.8590523096092408
900,-1.8904243611960825,-18.818941163170923,-3.16514183322966,-2.845184620501107
901,-2.856795096773131,-26.744550579680812,-4.146807215336977,-4.033245206184596
902,-4.0228347331566185,-36.07829356221977,-5.139661675652345,-5.369393271726172
903,-5.327966899014999,-46.64836091645674,-6.066648175243943,-6.778782993848466
904,-6.69542716196151,-58.261291549265536,-6.898983098496929,-8.166973408392192
905,-8.046962674756557,-70.76559302327549,-7.66275140731175,-9.440601914095009
906,-9.328866093871863,-84.15776367128079,-8.392044592913333,-10.545320435268469
907,-10.535695494018002,-98.41479789500956,-9.081214321709684,-11.46597408066296
908,-11.699635628853828,-113.56322681938644,-9.705290079274805,-12.231863526609212
909,-12.859844608312542,-129.64880684535026,-10.242337000794873,-12.888929682367952
910,-14.040525889959442,-146.72145140917021,-10.710632336979877,-13.487219919266089
911,-15.248274634511413,-164.8543069413141,-11.210370134062682,-14.0872436398899
912,-16.494996248140684,-184.1658145971615,-11.874758160789296,-14.752647631483168
913,-17.81595233388328,-204.82754167672607,-12.76180347762237,-15.53060730719426
914,-19.25239530181675,-227.04154786371728,-13.83523407228941,-16.447917633537607
915,-20.816348220716275,-250.97596879682547,-15.020407273042801,-17.522385799189788
916,-22.483307083901185,-276.7006896200391,-16.259399206587442,-18.762277970096928
917,-24.231485860787906,-304.16840859214864,-17.5261659540023,-20.165660085520116
918,-26.08945794254847,-333.2222936558389,-18.803594398309126,-21.733550509046513
919,-28.115009143582935,-363.6036847927065,-20.062077410442544,-23.466056113650595
920,-30.333715004493392,-394.95084816264034,-21.25701530962867,-25.349937756975073
921,-32.72236536261425,-426.8010652418801,-22.336221931144838,-27.370706691488422
922,-35.21054468906927,-458.6259421267599,-23.27583953906562,-29.50593376593585
923,-37.679967128029894,-489.86966639334105,-24.134620253875124,-31.689587908373557
924,-39.98157523536128,-519.9854590475431,-25.02897722758401,-33.807460781284796
925,-41.9568618769361,-548.5013406551851,-26.03866027088735,-35.72450106647312
926,-43.45245139352085,-575.0773624282407,-27.138701891212072,-37.31624249722585
927,-44.357638549410446,-599.4984609917026,-28.196349065871637,-38.489936569780866
928,-44.66184296421912,-621.6161093620565,-29.03630490711435,-39.19416728291225
929,-44.46703333993408,-641.3129588643038,-29.529449616147012,-39.43201560606744
930,-43.929282031357175,-658.5081253476592,-29.67008220413782,-39.25777330010118
931,-43.181773141287835,-673.161765381756,-29.542496969859283,-38.73781545780716
932,-42.304489546908314,-685.2706354230517,-29.19288377419203,-37.92503018189202
933,-41.346175095148155,-694.8634934774853,-28.59497174251101,-36.88112012343899
934,-40.35998785360485,-701.9965922602674,-27.721979343054493,-35.69734482568545
935,-39.38722639035942,-706.7494326129979,-26.62494213105135,-34.47463975474726
936,-38.410375350379496,-709.2207937422318,-25.440456723194192,-33.282399592530574
937,-37.35056327611846,-709.5250513936426,-24.335953384805634,-32.128616972602046
938,-36.11284855404943,-707.7887902042405,-23.435261621063525,-30.968146563523135
939,-34.6511847535934,-704.1477121641963,-22.75992467747843,-29.742777692046673
940,-32.98800648598077,-698.7438393478839,-22.233165707664988,-28.417962491480555
941,-31.17547598564504,-691.723005815337,-21.72812397276817,-26.98826171991645
942,-29.254711897504063,-683.2326308122675,-21.123875345256018,-25.460808940921122
943,-27.27191140910286,-673.4197630787434,-20.348406820145406,-23.852319558455395
944,-25.311811066016688,-662.4293841819118,-19.388972065902223,-22.198800334178078
945,-23.44852161138932,-650.4029572840304,-18.26447922377452,-20.55061408371942
946,-21.69788960922546,-637.4772066105759,-16.989999470777587,-18.957131883408163
947,-20.050742622985265,-623.783112061306,-15.566320895776872,-17.462796392489338
948,-18.522131163684442,-609.445102877342,-14.025440647359577,-16.111462513776523
949,-17.155733810507996,-594.5804340078193,-12.508296079457416,-14.932888498970225
950,-15.978297741961969,-579.298728779724,-11.224517254790218,-13.915774862297965
951,-14.958480306141993,-563.7016716347099,-10.308808059793348,-13.001590564564992
952,-14.011409706131833,-547.8828350290373,-9.771682814631877,-12.104652497078272
953,-13.05749186257233,-531.9276250708166,-9.55959127436894,-11.140689560389559
954,-12.061436748727415,-515.9133310679042,-9.600236715089546,-10.051306984064503
955,-11.005677631423717,-499.90926485708826,-9.798536074780328,-8.805853909585663
956,-9.846832081840747,-483.9769765595803,-10.048240824176718,-7.38553174899155
957,-8.51599125365077,-468.17053424003905,-10.25866210749158,-5.78626517712538
958,-6.981339851693242,-452.5368558189518,-10.345145262431226,-4.030178553269624
959,-5.291083480455842,-437.11608248555524,-10.209671444886524,-2.1654211433099393
960,-3.544568320406754,-421.9419837666917,-9.761464805833128,-0.26073605679089185
961,-1.816867020616096,-407.0423853138714,-8.963013371723497,1.6117556163136852
962,-0.12596844552579117,-392.4396113657124,-7.850738666764012,3.3926941814054263
963,1.51711276723239,-378.15093471681166,-6.516035744925104,5.040428300807792
964,3.083669863378224,-364.18902786928766,-5.067428013244298,6.534594490286256
965,4.551559822692742,-350.5624098534368,-3.5943059721077293,7.873394031198856
966,5.930394976228088,-337.2758839740817,-2.141505066787888,9.069615496238258
967,7.269614699630381,-324.3309624653322,-0.7248095082549276,10.158142434980551
968,8.625319745672812,-311.7262747157264,0.626708641546635,11.192763352823894
969,10.015214955712297,-299.4579563561145,1.8708442163771388,12.215323769973605
970,11.407108233516723,-287.5200170830546,2.9876587711332125,13.235304753465197
971,12.75090080134899,-275.90374841454155,3.9800923112494493,14.234639184734238
972,14.003816947635485,-264.5924267061795,4.839624439221255,15.17132222460782
973,15.122536769836923,-253.53190189832637,5.543503456493268,15.98508777326997
974,16.049637899852687,-242.63908925342986,6.0660113370600435,16.61036040668466
975,16.718009848216976,-231.87793014896076,6.360154967041993,16.98470269961071
976,17.087980299824146,-221.3185067475832,6.342107428585414,17.056772099011962
977,17.169072884528198,-211.23537505364516,5.9228050332586655,16.798009256271296
978,16.993854699128313,-202.0836340397414,5.068204304127327,16.20146726688779
979,16.57253855137588,-194.12549764349188,3.809032567864065,15.265218587612992
980,15.879935992949763,-187.01320456275593,2.2035411526821562,13.989510666066277
981,14.895769648481675,-179.61906997189226,0.3131863774034096,12.389483671428897
982,13.637590505229083,-170.09507654291176,-1.80620999226461,10.501874333162126
983,12.165507679637987,-156.09638153176937,-4.10324646538909,8.383790248743077
984,10.556201635461294,-135.09961744988303,-6.511845574996838,6.104413633099118
985,8.87043091463603,-104.75633122366604,-8.9430019050089,3.7381538088203183
986,7.1671454657976525,-63.22976322481351,-11.312200822811368,1.369488972277691
987,5.530382284421323,-9.47107536231471,-13.557344603223624,-0.9059635835295363
988,4.069056463496721,56.60173017701476,-15.634202189895888,-2.9936705396852368
989,2.8802139496663406,134.05232428789944,-17.5112805848913,-4.810650759950756
990,2.0143991463616464,221.02599441336628,-19.15399366768357,-6.290977283742234
991,1.48145520349002,315.0155341793404,-20.499441232463017,-7.392490502262848
992,1.2692329184442008,413.27980477281164,-21.45221801610473,-8.097684931608818
993,1.3502405397756883,513.2718646418701,-21.919975695060224,-8.413616748800191
994,1.6613151505486314,612.9396026132981,-21.850217477715525,-8.379351463268142
995,2.0990129965816613,710.8356442463951,-21.24524630741971,-8.057675211286602
996,2.570495877767298,805.9084561238869,-20.162025128130992,-7.501285273505444
997,3.0530264467657893,897.2195018238696,-18.68776565133064,-6.724676213906616
998,3.608217373698719,983.9205552621629,-16.906078648869826,-5.7010193642615095
999,4.346242502653515,1065.315165371835,-14.86593380829746,-4.369173323331754
1000,5.386818332949813,1140.8595101360825,-12.555686959320887,-2.646133639747699
1001,6.851043584451414,1210.1516500181742,-9.902507797826681,-0.45018246134157147
1002,8.878334498978806,1272.9177216408577,-6.793201469517173,2.28532221298401
1003,11.613453674744703,1328.9985640818143,-3.0938178210752696,5.610695823600991
1004,15.14627560852342,1378.3366206412468,1.3153671098103308,9.552483330159594
1005,19.46501957575139,1420.9634029005647,6.487378971461391,14.09735380612661
1006,24.45239491730881,1456.9875293256184,12.387658114731085,19.173494430124364
1007,29.93060009320311,1486.5834057278182,18.899995827666533,24.652026845063517
1008,35.712359114173914,1509.9805984919587,25.831620828553433,30.371968880429222
1009,41.60880290150462,1527.4539366080885,32.93139023267462,36.163208610453935
1010,47.43505019951489,1539.3143651833964,39.92912000486953,41.86661727532135
1011,53.03739498404869,1545.9005612206875,46.573947363625486,47.353851237728975
1012,58.324226471291134,1547.5713119822155,52.65682199543061,52.531845023217585
1013,63.26362951113937,1544.6986471504288,58.039872533146024,57.328605951523485
1014,67.86969271974185,1538.9707876576392,62.70003020073447,61.69591790168196
1015,72.11682132130632,1528.6461310920627,66.67717064090827,65.5853473323323
1016,75.94629008022487,1513.3758830578372,70.00619618868902,68.9520026573935
1017,79.30375433185155,1493.823848694895,72.72052725099606,71.76872008692231
1018,82.1507736443093,1471.316859499892,74.86097111485789,74.0314664182269
1019,84.45719344118314,1447.5315659814905,76.48769102446929,75.75997871020166
1020,86.20259182540154,1424.2225979440095,77.6781357889137,76.99438669423898
1021,87.39751205441077,1402.9963978644328,78.51353294120806,77.79387667440238
1022,88.10742397789538,1385.1343729344148,79.07014206715597,78.23910334796665
1023,88.44782261857206,1371.468390949803,79.41237009250936,78.42745669074421
1024,0.8282425855379536,12.295089252422127,-0.08885615841491401,0.6156526125321637
1025,1.5353921379437618,27.123550943686457,0.28371433959740555,1.1638593025554524
1026,2.4983344309805045,48.50476270551154,0.9075817501593677,1.894941448946484
1027,3.68463597120427,76.58935668148713,1.7387542781684682,2.791156382189569
1028,5.040671526164493,110.94949743022352,2.699929198470759,3.822263121539126
1029,6.524616290693246,150.60619489958071,3.7044959656258656,4.952723543099709
1030,8.102253231124031,194.14133941995485,4.677324964509396,6.141279400468467
1031,9.716793027560202,239.89625213035143,5.561273268903295,7.337549469626347
1032,11.287260577215704,286.26720155961414,6.317477385822266,8.48047218335777
1033,12.745473346651835,332.11675694284276,6.924626927485425,9.516415315124382
1034,14.091537270837968,377.2841257088192,7.380439326971957,10.433889083324196
1035,15.295368851761724,421.20226787746265,7.703636475171181,11.200497691091057
1036,16.308637342733434,463.3783517744594,7.9210240114856205,11.77766663046405
1037,17.086710180213657,503.3903091701372,8.047610893133134,12.131140802224175
1038,17.616579204171963,540.8577420029153,8.075377119689012,12.245904221715527
1039,17.92831358072915,575.4175122015126,7.964896711462111,12.12752215038924
1040,18.06931707476726,606.7128567963022,7.645315275616713,11.794629522277061
1041,18.06637806249035,634.3924529859912,7.051258014977523,11.273803339836883
1042,17.926092319201935,658.120884450984,6.177002519549301,10.6011453859128
1043,17.668488623065105,677.6032475432071,5.086946381220772,9.827034653844366
1044,17.347292911841794,692.6148837245961,3.879196907544496,9.006486557758718
1045,17.01280655938439,703.0216669607865,2.6478642987602314,8.178873462948292
1046,16.66342439196032,708.7889681522753,1.466657961695456,7.3593893509284305
1047,16.253981202181514,709.9873728379671,0.38204360962838435,6.547259187662619
1048,15.751611876135037,706.7918226045788,-0.5905787698417666,5.740233562864768
1049,15.165608182522742,699.4680099632367,-1.4661456044545442,4.944903928742135
1050,14.51875474459061,688.3370890505864,-2.281879839828492,4.17441884448381
1051,13.814637891017465,673.729142974239,-3.0799114676036132,3.436927679694383
1052,13.042226999056297,655.9648481576845,-3.8974795878036472,2.73866678851848
1053,12.209743717008513,635.3571343535316,-4.765701039202902,2.096307915760193
1054,11.357772084121967,612.2084030981125,-5.703459147547064,1.5340441070669206
1055,10.526879604522135,586.8144059767853,-6.710744642112488,1.0708930395052494
1056,9.722454812618713,559.4675738372009,-7.766715598936792,0.7126861550296931
1057,8.918048749590065,530.4509054127876,-8.833940606109662,0.4530597228909968
1058,8.096645465599002,500.0394590370309,-9.866445047187586,0.2784861067787493
1059,7.271768006694631,468.5143774900593,-10.818669462744838,0.16981991039022076
1060,6.4672002932588235,436.1626907679825,-11.657360840228606,0.10031500052583907
1061,5.691735125925009,403.2580622211883,-12.371851354008646,0.03963657022638055
1062,4.934083001031875,370.05430512928876,-12.969653165240471,-0.0343497738464978
1063,4.200738271037926,336.79090918592595,-13.462199737739537,-0.12853686873262066
1064,3.5407058954574055,303.6861262856178,-13.85807179485417,-0.2343480398247253
1065,3.0108983682740145,270.92462635443025,-14.164157556912748,-0.334378240187484
1066,2.6353197870594225,238.65439909938263,-14.389797670645866,-0.41505659570190184
1067,2.3972469996563075,206.9891945985858,-14.554407747511776,-0.47438412057587975
1068,2.264508885698094,176.01877079940994,-14.6889860054525,-0.5221802620424384
1069,2.2098050950055086,145.8205948477891,-14.819642061382087,-0.5777502321834945
1070,2.2024754382906755,116.46023519403934,-14.951058143434356,-0.6641712869320232
1071,2.18943691500931,87.99403807159318,-15.073085970268112,-0.8021815860285223
1072,2.094614161594197,60.47690580468673,-15.17877756208089,-1.0092292703449899
1073,1.8560083826179858,33.96565912295689,-15.273722925839248,-1.2975231479825247
1074,1.4586247498647087,8.523007046067042,-15.377275274934311,-1.6683244166060303
1075,0.9300424636677506,-15.784480952310656,-15.513248678511657,-2.107218063745162
1076,0.3085750576056413,-38.90320488800505,-15.69384057026501,-2.5876463711234776
1077,-0.3859572313795642,-60.80595738538788,-15.911560723924515,-3.0809079998379763
1078,-1.1410382326930346,-81.48466465323985,-16.15430899228953,-3.561813595972288
1079,-1.9220510567513636,-100.94224390041497,-16.435339185351545,-4.007647072506627
1080,-2.6682537587988397,-119.19770137874633,-16.800531939467366,-4.397500595719713
1081,-3.3337067302295478,-136.28527789345532,-17.301954704373596,-4.720704177274759
1082,-3.9224826503498154,-152.24674833095105,-17.960340651253347,-4.9857342604402985
1083,-4.469433785114907,-167.1293921815354,-18.74926552580196,-5.214224328440804
1084,-5.006010143817173,-180.9824816108109,-19.607552923856527,-5.429212506251395
1085,-5.538303220126661,-193.85035483026198,-20.4672380628433,-5.650706242161514
1086,-6.060326951029249,-205.77099132608524,-21.271388192849205,-5.898488001247767
1087,-6.581023334731153,-216.77776700237996,-21.967086131090966,-6.1968909422474105
1088,-7.118566186561443,-226.89852677795452,-22.503964616529256,-6.571068979883848
1089,-7.676026215597051,-236.15527502194251,-22.84589679906995,-7.034894328929094
1090,-8.228532576420985,-244.5656754910855,-22.981228442281807,-7.585226900154878
1091,-8.74489267048432,-252.14680584070194,-22.93057585911147,-8.208085083752124
1092,-9.214258945455871,-258.9252499765467,-22.745477175959486,-8.885134198394299
1093,-9.64313758847795,-264.939924451258,-22.502120010119594,-9.591059333480418
1094,-10.027366388177704,-270.23280989431294,-22.275669532590072,-10.287585925619524
1095,-10.339956109307142,-274.8476543241252,-22.093495031519723,-10.9310781841086
1096,-10.560138321345976,-278.835111903555,-21.922961212883063,-11.490403208537181
1097,-10.69161872030396,-282.2511146392953,-21.70726099918537,-11.954117667414193
1098,-10.749576453887927,-285.1511628385488,-21.401498806733215,-12.324122465040443
1099,-10.733023971169347,-287.5845460085604,-20.9844973972842,-12.604860342094216
1100,-10.614911667581355,-289.59044033673126,-20.455513114920734,-12.799530578968085
1101,-10.38266069069528,-291.19841539951034,-19.823250175747933,-12.91633421554634
1102,-10.074479763993937,-292.43191793494384,-19.098022072238358,-12.969780283974647
1103,-9.759909308983033,-293.31174881522264,-18.288638276560004,-12.973758091639429
1104,-9.485641810197494,-293.85651128626,-17.404851865276395,-12.9360767266749
1105,-9.248235046750485,-294.0826374777683,-16.46041924986867,-12.860241231064565
1106,-9.02501407187696,-294.00631470067805,-15.468881604654129,-12.753845907910756
1107,-8.816751061490466,-293.6438601827692,-14.44254492077572,-12.631762668440295
1108,-8.650547548775648,-293.0160341483278,-13.386618931384465,-12.508219362138306
1109,-8.543409433774846,-292.15440121318017,-12.289400417236484,-12.388317227221481
1110,-8.47970321876374,-291.10135058747636,-11.13796179171349,-12.269604137231838
1111,-8.431885800949528,-289.9062794164752,-9.951048234653715,-12.150184859488263
1112,-8.392293623450799,-288.61716890545307,-8.794358214059276,-12.033768054073947
1113,-8.3724027710025,-287.2725542589629,-7.75468491612116,-11.927895392487788
1114,-8.375707599143773,-285.90125624676233,-6.8912782065938165,-11.840619031919895
1115,-8.387028897592634,-284.524848452005,-6.222246754220655,-11.77895694627965
1116,-8.384877058399836,-283.15740072797246,-5.736474474184094,-11.747440310080691
1117,-8.36681549010092,-281.80521896215583,-5.3944903980380525,-11.748642099307729
1118,-8.357852750022419,-280.4688109695266,-5.137045881397775,-11.78214121608338
1119,-8.377163575321863,-279.14563692026564,-4.905474893160453,-11.838197002313008
1120,-8.419602040044245,-277.8335260486107,-4.65700988276898,-11.892526383306926
1121,-8.474720969759776,-276.53213032670885,-4.371967327623971,-11.910947844975365
1122,-8.543027958384409,-275.240849893773,-4.04346203220683,-11.863102213706004
1123,-8.634155911645223,-273.95543581135246,-3.659200207913337,-11.72578497546098
1124,-8.744666050383074,-272.6718081833527,-3.2083486326794044,-11.475928521863372
1125,-8.838590818388473,-271.39197176701157,-2.7074816042903254,-11.095005938990196
1126,-8.850244569326042,-270.1176489795318,-2.208491237855486,-10.579685791250181
1127,-8.720950670228522,-268.8452269012778,-1.7724068821648662,-9.940477075426903
1128,-8.440156372268818,-267.56907149001665,-1.4326091678650819,-9.197159435486032
1129,-8.04106001762745,-266.28357189724426,-1.187407095248397,-8.382767636279503
1130,-7.578521772746946,-264.9832798724369,-1.0173973319666476,-7.539506116314376
1131,-7.115628342146057,-263.66112320145686,-0.9084167201827331,-6.705855837449324
1132,-6.713932303932365,-262.30837355947244,-0.8677792792760262,-5.913188507900395
1133,-6.421194910950133,-260.917750570974,-0.9139538811923784,-5.189975889897812
1134,-6.25551342183088,-259.48581920911266,-1.0590736596946415,-4.5599212258058115
1135,-6.198475159618417,-258.0094806584274,-1.2995631907735852,-4.035054777933139
1136,-6.2089120777478986,-256.4806958899791,-1.609472575744221,-3.6135995167640673
1137,-6.247392080006737,-254.88963792947547,-1.9422027991998454,-3.285045932439976
1138,-6.28164169769249,-253.23302159955918,-2.2383892201039957,-3.036976916045328
1139,-6.279495181880862,-251.52048013683208,-2.436076765073329,-2.8560881914082565
1140,-6.211617063252078,-249.77455864201679,-2.4829545540193023,-2.7337414540942637
1141,-6.063608685587218,-248.02060725462724,-2.3397983087927745,-2.6742197944263872
1142,-5.8569316326991645,-246.35832015431058,-2.0405135379050674,-2.6841151239980863
1143,-5.6303942713307515,-244.6472583484763,-1.449262729648417,-2.762251112000914
1144,-5.429054643697586,-242.83830338040954,-0.5259780519394183,-2.8986071776417015
1145,-5.2656707316320706,-240.94913675392192,0.6861423501432667,-3.0749098398997945
1146,-5.123627941124617,-239.03926156218873,2.084752571412215,-3.2634027530194167
1147,-4.990084127311938,-237.18986902910527,3.5409570537705104,-3.4332216789115564
1148,-4.866770766607459,-235.4853688995636,4.9291666137806,-3.5649636175788344
1149,-4.761213924896845,-233.99945965855008,6.154791683397094,-3.6526109213910307
1150,-4.678296429919322,-232.7862700300984,7.160640638818132,-3.695168537812638
1151,-4.618737089193148,-231.8753589576419,7.913790828121082,-3.6969738517068564
1152,0.028237207309399354,0.38686371014445786,-0.41335910340296983,-0.15541501139395728
1153,-0.0376011362138481,0.8325311231015621,-1.0514359682999603,-0.41842735962625854
1154,-0.1523515716733225,1.451898407798777,-1.9948191592313,-0.7957313704318654
1155,-0.3405890412176616,2.2377327869008203,-3.2402838077020304,-1.2777577766989452
1156,-0.6117651644895289,3.167199841366756,-4.74855555113296,-1.8407370428743532
1157,-0.9539018299254552,4.205611588130101,-6.449660534599074,-2.44929905625218
1158,-1.3483373814695145,5.309886463085666,-8.249217602659247,-3.06354517556135
1159,-1.7900539889901053,6.432303665731086,-10.038062403829345,-3.6513143773358037
1160,-2.2823723668816793,7.528858897163782,-11.710493128149775,-4.197077008912843
1161,-2.8145282694574028,8.571741971277232,-13.194356918903042,-4.701140332298788
1162,-3.35674560708228,9.564444890333025,-14.491168593271267,-5.17407293604357
1163,-3.8842074774147703,10.502519532395763,-15.636212796549012,-5.621682659917163
1164,-4.387681253165829,11.380972178725559,-16.691112503867554,-6.054453780353325
1165,-4.8541129358187,12.192455852951882,-17.721678466042885,-6.479835294139951
1166,-5.2524895102599265,12.930977187110443,-18.777780373129907,-6.895433495072373
1167,-5.545888117924954,13.593160017920873,-19.872928109132225,-7.289155320792816
1168,-5.710544337898411,14.175076724787857,-20.972403828597756,-7.643582767350507
1169,-5.746729115267032,14.671078058073576,-22.01033939505683,-7.942313557656752
1170,-5.668423401586297,15.075372588885319,-22.923874758915193,-8.175051262653794
1171,-5.4898598721530645,15.382485617288863,-23.668903649863584,-8.341435342360727
1172,-5.219165096416536,15.588094368073708,-24.223279731399117,-8.450849754956863
1173,-4.871758026001376,15.690544904110295,-24.58954494432826,-8.517892209056884
1174,-4.4865202102049695,15.689606073628875,-24.79687040979338,-8.555916889487513
1175,-4.107253402225441,15.585068675709495,-24.89623802203647,-8.57193289189864
1176,-3.753211820018207,15.378287445312033,-24.946270984130106,-8.560146693791069
1177,-3.411559111555762,15.072851982294026,-24.998757223135634,-8.499493675549777
1178,-3.068534886180697,14.673348194038269,-25.085961492696327,-8.365989836699349
1179,-2.738777354375904,14.184152855911952,-25.206735402874884,-8.148224712336951
1180,-2.4515742826011846,13.607681478725228,-25.324283789603502,-7.8482577377973435
1181,-2.2178944876899203,12.945544103638126,-25.38497243891025,-7.470108317338635
1182,-2.0081793056759474,12.2029285235486,-25.339112165641343,-7.017423223238368
1183,-1.7830882711286729,11.389341968592953,-25.155508283017603,-6.502152339456111
1184,-1.5403273791074326,10.516807487944247,-24.831351333434675,-5.9479946949267815
1185,-1.306929813860276,9.599993000167629,-24.389143684190234,-5.384256048287771
1186,-1.0982171064576618,8.654978321890724,-23.85946680044055,-4.8353331463436175
1187,-0.8950970894980839,7.695691322323613,-23.263589656421775,-4.316649991114069
1188,-0.6680263587358827,6.735324492183163,-22.612567057940208,-3.835084775863351
1189,-0.41590972769973694,5.790805811159138,-21.914644161816884,-3.392157080153929
1190,-0.17080462028302032,4.8805699924265555,-21.181681949672747,-2.992551037106239
1191,0.04045669229852595,4.016943985349418,-20.43410089248628,-2.6417711587360437
1192,0.22605547963888079,3.200672147912058,-19.69883911355625,-2.3322577919326877
1193,0.40277634313718014,2.424383688067841,-19.001736425515578,-2.0414451941871063
1194,0.5645860441618982,1.680805565340621,-18.353448141319664,-1.7453593917986974
1195,0.6929655775409251,0.9664268406430886,-17.741441623283,-1.4306341406147804
1196,0.7906307622629747,0.2823024175586138,-17.134388912199633,-1.0969942254293648
1197,0.8907853284494879,-0.3649222587976109,-16.487446905450195,-0.756157515121617
1198,1.0219419132530505,-0.9642200874510324,-15.755686579880859,-0.43063446985887655
1199,1.1722989759523637,-1.5062686140134036,-14.913520862815995,-0.15035845655995092
1200,1.2942065721286202,-1.986862199577861,-13.961863940327731,0.0546080849733805
1201,1.354289633727742,-2.401262199249112,-12.923565223547971,0.1604874765593748
1202,1.3589343888789103,-2.740611319237981,-11.841045946707235,0.15545910271793995
1203,1.3245715368177746,-2.994847452387558,-10.776976199007544,0.04745084870695404
1204,1.2538309602718658,-3.155029186871201,-9.805048816246197,-0.13697683011673695
1205,1.1377391754410369,-3.2153350109795342,-8.991838114057051,-0.362584151600807
1206,0.9876607487102453,-3.173356926394173,-8.383573514489209,-0.5904569803051131
1207,0.8560263859715387,-3.023953226486676,-7.998078408050428,-0.7779267447271495
1208,0.8063331506751483,-2.7511618542363525,-7.8201426054551515,-0.8911398129912603
1209,0.8686780837423607,-2.3269774992683936,-7.807743339528088,-0.9291632094326794
1210,1.0270127588751894,-1.7200939009201468,-7.9027588058936145,-0.9237028488615683
1211,1.253717614388588,-0.9085486799181931,-8.044034642740096,-0.9110236137481457
1212,1.535034597493953,0.11467074143187539,-8.18201107553102,-0.9121653289116242
1213,1.8623559487034416,1.3410394078616346,-8.28128935530264,-0.931558042429038
1214,2.215176258813229,2.747960307417884,-8.317177418229026,-0.9627205362078243
1215,2.5522299859776845,4.304213347860504,-8.27252535549725,-0.9942714531898493
1216,2.8382189420973902,5.973044985138977,-8.135880915882163,-1.0126106808553117
1217,3.072583561702664,7.71268880845955,-7.9094090455398085,-1.004171419853802
1218,3.279472657013019,9.474870175840307,-7.607426213132957,-0.9622959257727861
1219,3.4746740877946887,11.203667919061331,-7.2352931508801515,-0.8942382756808178
1220,3.6503323931157765,12.842128736862715,-6.780947839082721,-0.8213310731757915
1221,3.7946497391461222,14.341102738146473,-6.227222785217264,-0.7691105625355251
1222,3.913371930207532,15.665764264676055,-5.563165615339865,-0.7514298203093546
1223,4.029232044034106,16.798449157281844,-4.785802365604537,-0.7639502397022466
1224,4.155389902759155,17.735340088111148,-3.8991758421439124,-0.7905834310598263
1225,4.282853639564193,18.482172729579315,-2.9135817921287432,-0.8084667001450573
1226,4.400585261551546,19.0504684390475,-1.8427761059830103,-0.7850443918041178
1227,4.512657402149856,19.452549705483722,-0.7041210073390829,-0.6840868650017995
1228,4.641452922949321,19.69765920100399,0.4838756801793878,-0.4837830833283201
1229,4.799377847509039,19.791065215707263,1.7016135554496872,-0.18070837692154573
1230,4.960261502836869,19.734449560151496,2.914561679028674,0.22092707882161833
1231,5.078407572202619,19.527599301033696,4.0691455851545735,0.7144699395973799
1232,5.129276107105404,19.170303634738715,5.115840777994592,1.289033710152892
1233,5.12777537549881,18.664505814993444,6.0405731143032515,1.9301726751602126
1234,5.09537893280073,18.017696483814774,6.863634157574259,2.6240941416866743
1235,5.023558855521471,17.242243003265315,7.606337441121911,3.359771726956005
1236,4.884203509224277,16.351905667498286,8.273279237076562,4.127135143428797
1237,4.663396064237395,15.359127990025343,8.86410342492818,4.914283744145903
1238,4.379613120224988,14.272800174356748,9.39189404340853,5.706025250711156
1239,4.061994432733999,13.09527139686166,9.885871471916682,6.4826072124788094
1240,3.7190815660093444,11.820244093141083,10.381455045503829,7.216240639813307
1241,3.3330808251683304,10.436247565751176,10.907813432752999,7.867898165323264
1242,2.886928685367608,8.934239669721245,11.472980698997766,8.398605395355094
1243,2.3926538259484635,7.3150320017422095,12.057110644869848,8.788152844985017
1244,1.8807636409692743,5.5916857097901635,12.621723535164868,9.034948500242676
1245,1.3691023151448212,3.78667411208417,13.126822969052567,9.144722687007874
1246,0.8524433402745142,1.927811628781043,13.546303821631868,9.123754875852004
1247,0.3292883792176479,0.04469362346606037,13.873672149185868,8.974136529736432
1248,-0.18355806419577758,-1.8376876428339712,14.108578328793692,8.698054088465524
1249,-0.6677289214700004,-3.706393401137363,14.240381447567978,8.306933900810579
1250,-1.1183259617774088,-5.558046898062139,14.248703619890524,7.82067051425821
1251,-1.5433713995053653,-7.3905272840521254,14.11607313015164,7.262542838251853
1252,-1.936048740015949,-9.199482361755722,13.847682708754796,6.657117321416663
1253,-2.264598963796008,-10.976722847699179,13.474846702477437,6.0285154211154595
1254,-2.504620042359029,-12.706356945093518,13.040122903240391,5.3947010197499985
1255,-2.6612632669124228,-14.367250542311833,12.594252025885675,4.758847549628672
1256,-2.758508967273313,-15.94171781345962,12.188440967958474,4.110236128732259
1257,-2.8066002191728994,-17.41660804668026,11.85597199884461,3.4376267867009687
1258,-2.785283431725372,-18.77862798911051,11.611527463290264,2.7393035949136513
1259,-2.665799996994293,-20.012031784632224,11.458797718881321,2.0209223734557678
1260,-2.449068199763759,-21.101369236875172,11.393223174990256,1.285422712196726
1261,-2.1770965245267013,-22.034367697006317,11.406317912755778,0.5383686667973208
1262,-1.8954598554657547,-22.79967688425767,11.480816042291975,-0.19174310483366494
1263,-1.6180665640810736,-23.385296980794475,11.578868642121272,-0.8559375297419958
1264,-1.3297701400602688,-23.78227724340145,11.650270034749736,-1.404491198117602
1265,-1.0193391221543204,-23.990043264008886,11.656042134759637,-1.8014763892696444
1266,-0.7120441938712261,-24.01764937008807,11.577674970538164,-2.0354598610898647
1267,-0.45201184081438883,-23.881061549366585,11.415514647746882,-2.1188671423781593
1268,-0.2515677548655876,-23.599213857008852,11.19388921173564,-2.0776938228983917
1269,-0.07551938604865391,-23.19173292207354,10.957127392846699,-1.9444835178173505
1270,0.10726838820808302,-22.70665518218356,10.760399817876653,-1.7671508822763136
1271,0.37892078169994525,-22.128028027555597,10.620593755511827,-1.555061943581438
1272,0.7830865027006678,-21.470957578253294,10.5394890308161,-1.3213593546168008
1273,1.333069975883856,-20.76274555134226,10.510966318341929,-1.0770097675389079
1274,2.0080923669730906,-20.033222625837034,10.532371822700455,-0.8309776630800266
1275,2.7536850814729013,-19.316472498460534,10.602884039037818,-0.5922399394856462
1276,3.4972545830571287,-18.6502092038288,10.71095237854394,-0.3685066737889751
1277,4.17504650761994,-18.069209012216163,10.83194629638258,-0.16521068429302016
1278,4.748687976340022,-17.598723093804956,10.933356022909678,0.012439874136924923
1279,5.198697941143711,-17.252527922569286,10.987419543710644,0.15614407510973183
1280,-0.027087635948234837,-0.004252895005838475,-0.012292910815375709,-0.03798686129721425
1281,-0.06593989055267868,-0.049788058047750675,0.026724392638386385,-0.18454640492649632
1282,-0.12317966626497188,-0.13550401548318547,0.0863709075206786,-0.4079971872323738
1283,-0.22581747777521094,-0.27441182619570925,0.14636253089482187,-0.714417804360182
1284,-0.38023335260635643,-0.4794899177396469,0.16532256963653064,-1.0975090139272212
1285,-0.5704305320547387,-0.7601902430312178,0.0930159256030342,-1.5385951298185505
1286,-0.7817156397830227,-1.119781549834147,-0.11528365380648245,-2.0131909364562457
1287,-1.0125577549669045,-1.5560492092592937,-0.4916148404134654,-2.4959782065160554
1288,-1.2648415532345325,-2.0653080362504403,-1.0553152306604376,-2.964966829604288
1289,-1.5265765284933221,-2.644288107906983,-1.8128610884460166,-3.4053155457735746
1290,-1.7724549224728587,-3.2887459693832573,-2.7557521146766986,-3.8126028223380515
1291,-1.9845838419564634,-3.9881732586148493,-3.857025599370133,-4.190034375910863
1292,-2.1598453859321194,-4.728354059935286,-5.075565050439081,-4.5402781360223905
1293,-2.288845644439095,-5.4898884700291415,-6.368189777535533,-4.8635802155390495
1294,-2.338069659407447,-6.24339908545146,-7.69736244197569,-5.154837997671032
1295,-2.27527238222467,-6.95489464424052,-9.032459602605435,-5.399678728170572
1296,-2.109756042886987,-7.600036195980374,-10.345277704987451,-5.584749752357213
1297,-1.8949149722507295,-8.173950522417135,-11.605038047225241,-5.708812481919273
1298,-1.6818829246541676,-8.689835382556213,-12.784879200909593,-5.7803534066941795
1299,-1.4943483603968488,-9.169575647217883,-13.8656814166998,-5.8095947983519185
1300,-1.3449881118672284,-9.636426039907882,-14.832012654659831,-5.809559679606629
1301,-1.2534879022924064,-10.111549208576745,-15.67895387494682,-5.806807867703436
1302,-1.2524764543044085,-10.6126964973937,-16.417847430765832,-5.840508378912872
1303,-1.3578685564294612,-11.153183582107522,-17.065491351604326,-5.947265395322605
1304,-1.5434475113974835,-11.73894362084325,-17.63034145951345,-6.1500101671213265
1305,-1.7613794035560286,-12.364570211787575,-18.10573249184996,-6.45591923897379
1306,-1.9711739205152226,-13.011607264837298,-18.47443725404706,-6.860258252591355
1307,-2.1463254725015672,-13.653179027966251,-18.717873331054435,-7.349996073978293
1308,-2.2598624336592015,-14.261358925091644,-18.82393298149031,-7.902347093848625
1309,-2.275191510865391,-14.810989986228382,-18.795382801291773,-8.4820297653886
1310,-2.1627974564492862,-15.281567020944781,-18.65189431301456,-9.043107390775951
1311,-1.9302531423364355,-15.660112952466488,-18.426972211337233,-9.538074723781019
1312,-1.6235184182155804,-15.938145275645828,-18.161910839854087,-9.929027407857818
1313,-1.288418460458093,-16.104867456037784,-17.894512494043948,-10.187886570282894
1314,-0.9398813661478277,-16.14808064576201,-17.651384356068338,-10.28975605551412
1315,-0.5616955987596339,-16.059760091378763,-17.438919667289923,-10.21731269041079
1316,-0.13893797309052677,-15.8412845761413,-17.228099054453438,-9.973693600562537
1317,0.3061307327927397,-15.506471421776403,-16.950180930854938,-9.588088837837686
1318,0.7302569698197225,-15.079839379869476,-16.51995444497196,-9.103664744258081
1319,1.1148513616850555,-14.591867184880474,-15.885270487773989,-8.561628986614386
1320,1.4778990170183095,-14.071726319428176,-15.061778596288676,-7.9979439848933005
1321,1.8369663108127243,-13.540098234581947,-14.122967937801977,-7.446990753684968
1322,2.1798214992170086,-13.009298791011586,-13.165412896271993,-6.942326735807843
1323,2.478959753132999,-12.488638879600746,-12.274345569360785,-6.507950657758289
1324,2.717154370935047,-11.98591806921299,-11.510541999604992,-6.146304987941481
1325,2.90576520831047,-11.505345553722613,-10.915353711398687,-5.837209266028157
1326,3.0671299519210544,-11.047052402423718,-10.5006186478818,-5.549850471197223
1327,3.1977173894656468,-10.60871220522118,-10.23299082193919,-5.255854297172683
1328,3.2758375150393557,-10.185397649856379,-10.041014200466487,-4.936075395152467
1329,3.296146619198688,-9.767609508628677,-9.839274859885775,-4.581728093582412
1330,3.284644589562198,-9.344112909137396,-9.555973026575597,-4.1931491989414535
1331,3.2725160935079565,-8.908668918906052,-9.148651235146396,-3.780977812289054
1332,3.2573899613839408,-8.463354989679427,-8.603882854966146,-3.36711556993945
1333,3.2018406937994044,-8.01581853818079,-7.932907737936786,-2.9823741863490665
1334,3.0775545347706825,-7.573268770615547,-7.166152875501624,-2.659295677985752
1335,2.9006339862163135,-7.138958727050615,-6.336918134786205,-2.4249443060646714
1336,2.6911912000515064,-6.713457061712328,-5.459274872739716,-2.3023676172180725
1337,2.423524105217078,-6.297588161900536,-4.527753068792642,-2.311175769056179
1338,2.0521115434323582,-5.892249117350932,-3.550941161996904,-2.453175932695515
1339,1.569424166065206,-5.494318451292554,-2.576919384378209,-2.6974234810990745
1340,1.0204823286200533,-5.09445513293029,-1.6781562371615455,-2.9883475281549408
1341,0.459072399761905,-4.6819238677141914,-0.914593222702055,-3.268407341682558
1342,-0.09457936574564065,-4.252225943947602,-0.3042662049778869,-3.4912914924778624
1343,-0.643941137873402,-3.8090471430802504,0.172300480836232,-3.6205992890139056
1344,-1.1715558802219528,-3.3628057198035686,0.5447537182007539,-3.6265815908327292
1345,-1.629112879572123,-2.9310542629244867,0.8385427363415512,-3.4917106731652217
1346,-1.9831684528936542,-2.5379462187563444,1.0845128137287792,-3.217950166848832
1347,-2.245382351800982,-2.2098697792098165,1.3354556638189785,-2.830754580974771
1348,-2.454118549178408,-1.9685391325657007,1.6510799153817708,-2.377949572977449
1349,-2.6321188774327027,-1.827349092954393,2.057404811141935,-1.9131730817047532
1350,-2.7686654729371214,-1.7926837329251049,2.5337940136317343,-1.4751411291656154
1351,-2.8463352803408313,-1.8656646193733473,3.033557034317266,-1.0857226784493093
1352,-2.8795958035313,-2.0435302958900365,3.5062483039950676,-0.7593116343226686
1353,-2.917026942830043,-2.3202113921700644,3.9081796265252904,-0.5020173807583377
1354,-2.9869545161192854,-2.6847330524517714,4.205683661680503,-0.30563065789151367
1355,-3.07498028739024,-3.1208904148856034,4.379715762178826,-0.15316438361493784
1356,-3.1671538921197637,-3.610644719363197,4.43241010080218,-0.03274715330183142
1357,-3.270221079201212,-4.137069938798626,4.381231667079377,0.06298931123571858
1358,-3.3929956172700386,-4.684822782092998,4.248171801828334,0.15025877992611367
1359,-3.5209190691017986,-5.240546658075062,4.060420679158308,0.25203545553268336
1360,-3.613352111977485,-5.794159739341534,3.857327135560676,0.383857564243313
1361,-3.629874120393296,-6.3398430227827856,3.6894395173140784,0.5523370182390047
1362,-3.557507100895734,-6.872603953845047,3.6063231147337174,0.7636712429996863
1363,-3.418819228946555,-7.381951398459988,3.644257635454954,1.0259915527051258
1364,-3.245617111989088,-7.850046691277322,3.806671566309153,1.3481816962176927
1365,-3.049414103470336,-8.255225459911802,4.05502276939181,1.740965588085068
1366,-2.819360855394473,-8.576659859506062,4.333871482167957,2.2120064966496615
1367,-2.543675366675277,-8.798112459290348,4.586998998781151,2.754463689237714
1368,-2.2277260835314654,-8.90774856322979,4.754060715852577,3.3477911923904338
1369,-1.880104601483119,-8.89445884871707,4.778255222378908,3.970519886642657
1370,-1.4901673845279846,-8.750349610231867,4.616816082485087,4.606422147642799
1371,-1.029030350154311,-8.479143927184275,4.255627890282142,5.245603141513027
1372,-0.48348401237033745,-8.099826238095526,3.7274496374410573,5.883618208721146
1373,0.12197296829546522,-7.642525553384219,3.10362240195491,6.513770029629712
1374,0.7421844857738794,-7.139276157297312,2.4637069551680013,7.122372663945129
1375,1.3383185682497305,-6.6152775823521415,1.8730189312817216,7.690551653363671
1376,1.9006544085265196,-6.086988949148321,1.3725781913710002,8.203414316060332
1377,2.435839578965848,-5.564755843734507,0.9788844740140726,8.66406546357228
1378,2.9388056678622663,-5.054747877267214,0.6940927064422939,9.089324705604152
1379,3.397061395951838,-4.561457285561918,0.5184585744878062,9.492031033539796
1380,3.8110168294398856,-4.0906049597937875,0.4520730434628485,9.87464530535952
1381,4.200948304743832,-3.6489744032621223,0.49468494220249887,10.231298216319187
1382,4.574847658150915,-3.242909928271932,0.6548173275301885,10.547724762028208
1383,4.895224767798311,-2.877774288111433,0.9450127707149485,10.80250453592532
1384,5.100079138523262,-2.5573983359790713,1.3565550962908028,10.972410047107052
1385,5.149771952537069,-2.283653954672369,1.84564838525612,11.03508018860053
1386,5.047578596371762,-2.0572598731835345,2.3461889293450726,10.9692342003832
1387,4.812555308307142,-1.876953861447146,2.7916279171076503,10.757473042868295
1388,4.4471923631576455,-1.7363611087817354,3.1240489360454777,10.388208351446433
1389,3.9447064421862987,-1.624079069158018,3.2907893702770212,9.860273768707405
1390,3.320422162372135,-1.5257818652526376,3.2493923525440507,9.187739832744708
1391,2.6228689888722387,-1.4271628388039055,2.9915313415889484,8.392551245819336
1392,1.9041220152642648,-1.3191829734345213,2.5645163223757796,7.497321402171661
1393,1.1843888604588384,-1.1973353500147328,2.0576530456274944,6.521672514703896
1394,0.45165629670812313,-1.0547892751451406,1.5604283108664412,5.4697738067911255
1395,-0.2974505516646252,-0.8804007078513976,1.1272498715195631,4.338010988944703
1396,-1.0337904521107693,-0.6612465501934428,0.7685455346378093,3.1430794477202575
1397,-1.7222459083876354,-0.3843696554409631,0.46457749234511286,1.9253440414773566
1398,-2.3472037756590165,-0.059530027591022605,0.16906370477965657,0.7346874929507068
1399,-2.909801178634408,0.3542673938887936,-0.13339751255931984,-0.38480231233289774
1400,-3.3893757797350164,0.8650949844245297,-0.4586390140818726,-1.3877292331403293
1401,-3.753855606045132,1.45617480775689,-0.8110052194955922,-2.235831201277221
1402,-3.996785236270655,2.092190585836415,-1.174603172766317,-2.9046319999947903
1403,-4.145592011731106,2.728122893138553,-1.5192690448338904,-3.3878966706737517
1404,-4.237179910929159,3.3194929311094192,-1.8158259732079014,-3.699979623732508
1405,-4.289842886914051,3.830108579460451,-2.041124343344965,-3.8728920724198304
1406,-4.305137382744051,4.235868966319336,-2.1778413957474028,-3.9472973996217435
1407,-4.291472242251704,4.525365167046765,-2.2200792693393416,-3.9638430933778928
1408,0.019823035422836255,-0.09824578173991,-0.44512446587995236,-0.17751723391148275
1409,-0.11465760321096652,-0.3371449459110766,-0.9033503115468411,-0.3700774104584024
1410,-0.36818370280965435,-0.722263003876256,-1.5239846360840081,-0.6343871852221749
1411,-0.7530366169814011,-1.2677530000177823,-2.2918836923510044,-0.9661246551535991
1412,-1.2413579566077253,-1.9727486182487157,-3.173027109362598,-1.3549555278348486
1413,-1.781938125229547,-2.8218233488080586,-4.122807491171632,-1.7849059697979524
1414,-2.334512119793591,-3.7870290389550973,-5.09611942598233,-2.23542432510408
1415,-2.8788583990558627,-4.831397630140375,-6.056854560885467,-2.6845051302683265
1416,-3.3968051078863524,-5.913789235963792,-6.988238373661849,-3.1137714473898863
1417,-3.853815681468475,-6.997064394160819,-7.899910935721694,-3.5138909286108833
1418,-4.217739930030135,-8.06006978156998,-8.832392768100622,-3.88997140326815
1419,-4.5049788442782495,-9.086421152858048,-9.799967336131404,-4.241749447071931
1420,-4.775501658737882,-10.068689590904397,-10.786085146889622,-4.568565058131503
1421,-5.078427083054261,-11.004447333108363,-11.749518753622958,-4.868183686046053
1422,-5.418678535129639,-11.886851356415216,-12.656143558856776,-5.1349699778765965
1423,-5.77138850936067,-12.701589121063655,-13.497024748993038,-5.36134250464812
1424,-6.10703116933502,-13.431630499600576,-14.275857937231526,-5.543195817517899
1425,-6.3957302484024625,-14.061754980693136,-14.984416512947309,-5.681983188755045
1426,-6.600027366301626,-14.581211869269074,-15.595106567391957,-5.779913784685636
1427,-6.675218201913901,-14.98652985918438,-16.076668108305434,-5.834398455461346
1428,-6.598453033842996,-15.28270743260748,-16.41379951729551,-5.842441039034848
1429,-6.395607271355343,-15.481003719860816,-16.610595184755656,-5.8111470831276275
1430,-6.1271461506362,-15.595286947978593,-16.680755426128684,-5.7597443080110065
1431,-5.849044793882461,-15.638486342131497,-16.639216930254857,-5.713367702625183
1432,-5.590221270616704,-15.621727694462251,-16.49796233197677,-5.694293373380817
1433,-5.3733019709996395,-15.554942433999473,-16.264666158596086,-5.716945666424855
1434,-5.233030028839956,-15.446599039254595,-15.944047674831479,-5.791231145032715
1435,-5.195847261447473,-15.302553467350293,-15.543271489613442,-5.928003754621633
1436,-5.241194040299377,-15.126889474157593,-15.076910439602935,-6.131575057871538
1437,-5.298164384712716,-14.9238110130483,-14.569191353121363,-6.382970591502373
1438,-5.299702142011473,-14.697434172305382,-14.047317552427366,-6.641977297709767
1439,-5.2217264169877,-14.453854251963824,-13.524715355912672,-6.868828500359287
1440,-5.0718082269935385,-14.200993663842292,-12.999295871864481,-7.039930752881599
1441,-4.857423408177547,-13.946836732438207,-12.472011621066784,-7.144253544773544
1442,-4.572875060109911,-13.703134810579666,-11.958858064324195,-7.175726755778011
1443,-4.2149698609695205,-13.484944811759517,-11.48444372030844,-7.136147360692646
1444,-3.80164463092143,-13.304206088188526,-11.067146668590564,-7.036822956110313
1445,-3.375114305955305,-13.165594102476906,-10.711022847381093,-6.889503428054739
1446,-2.968853121619192,-13.06624763950272,-10.415214847662632,-6.695541839447969
1447,-2.5789923759024873,-12.997909672931488,-10.186964251955875,-6.447262755528387
1448,-2.1828271817079776,-12.951219637792887,-10.03802384936294,-6.140448383990992
1449,-1.771190040122593,-12.920291635612976,-9.975440024731556,-5.783496464522626
1450,-1.3604451880024733,-12.90376094166059,-9.991532379402189,-5.395001688894159
1451,-0.9678112114495645,-12.903425353228235,-10.055477558414076,-4.994966720347613
1452,-0.5912092682068351,-12.923851896188808,-10.120661296572134,-4.598814075294425
1453,-0.2194864529883101,-12.972235575680592,-10.140638418984617,-4.219151204744781
1454,0.14594311776188243,-13.057581776057052,-10.080557561172299,-3.8757020742338346
1455,0.47395317129668824,-13.190336301058755,-9.918802014144546,-3.5935574767261906
1456,0.7277943076566477,-13.378768250077744,-9.645148581826982,-3.384573270510888
1457,0.9012120201822484,-13.618586378421435,-9.268819242225144,-3.2383747571703796
1458,1.022082262551945,-13.88438721347291,-8.830882131733322,-3.1301892230140336
1459,1.1249516040941097,-14.132757612791627,-8.393785662485893,-3.0375486122378472
1460,1.2212397269781807,-14.315899672587452,-8.012567186818686,-2.950522639764169
1461,1.3071567539544016,-14.396621848762955,-7.718959826594588,-2.870558443917327
1462,1.3933535232228595,-14.355778160535454,-7.518125313469258,-2.811472887951705
1463,1.5162545904217808,-14.192711908352592,-7.389907254212927,-2.799523491926274
1464,1.7004680475690612,-13.922187103538906,-7.291923892350898,-2.864997347899109
1465,1.9219439531771971,-13.569331619846942,-7.167686626200545,-3.03066528105328
1466,2.126411530460931,-13.164337309744257,-6.9699704195027445,-3.3026234003617456
1467,2.2646470447141267,-12.737847880608456,-6.685673823966879,-3.668680748194155
1468,2.31159113387059,-12.317780287716651,-6.342809688221823,-4.10404486129493
1469,2.2476250612818762,-11.926636799765856,-5.993358116090159,-4.576329189267662
1470,2.038748769167723,-11.577566978478963,-5.685182029094569,-5.052860867189856
1471,1.653863696991583,-11.272432604564074,-5.451781981001135,-5.508064054613655
1472,1.096229290094236,-11.003860916831885,-5.320219516544885,-5.920119843078106
1473,0.4167912519996849,-10.760373481555176,-5.313193981998875,-6.265157440807911
1474,-0.3267175701714191,-10.53379720469755,-5.436113362381894,-6.526863611914286
1475,-1.1105237959882301,-10.324252007961892,-5.663908007239475,-6.713108221246899
1476,-1.9316982068612494,-10.13725337736648,-5.949045117967022,-6.849978981287924
1477,-2.7747176191316107,-9.975939372626213,-6.247889019848813,-6.958277735442892
1478,-3.6007793334667517,-9.838801195577945,-6.532762223502318,-7.041867695959673
1479,-4.3839422296651005,-9.722125840339638,-6.77880010567068,-7.091511004184499
1480,-5.146311542926389,-9.621087042399926,-6.953166156260259,-7.090753509520736
1481,-5.931323298825646,-9.53099047955662,-7.024466065972144,-7.020937866852217
1482,-6.742395539528531,-9.447811478852927,-6.980075307508589,-6.864963836411356
1483,-7.5255122411521365,-9.367233032001206,-6.827768659899174,-6.609017786810943
1484,-8.216137684275525,-9.28423959713995,-6.577675078019731,-6.246278650686931
1485,-8.78264191364756,-9.192832893400492,-6.231017108669203,-5.7823716100382
1486,-9.221566350507244,-9.086395027565194,-5.794564939987314,-5.238674097777224
1487,-9.519441125026082,-8.9571575097492,-5.296834822410534,-4.648345650215328
