,TP9,AF7,AF8,TP10
0,-0.3867096779769656,0.11633142874108707,-0.19150583654756623,-0.06378592339246461
1,-0.7216204872337222,0.2895603726746553,-0.38972271567306366,-0.31298638999808726
2,-1.1572471697767406,0.5674336682101411,-0.6570349611432617,-0.713230763396862
3,-1.7182403472425185,0.9684568889717434,-0.9891876543567164,-1.2877813649578942
4,-2.3060460256679662,1.5022136725626514,-1.3777901274051485,-1.9988473703613048
5,-2.755901518368924,2.1668130320928363,-1.813380234507457,-2.766548637866689
6,-2.9899556621544314,2.9473842498334673,-2.2869461802188047,-3.5288177126007385
7,-3.052270232152362,3.818451179750517,-2.791676267131157,-4.260285736681297
8,-3.0113865408938505,4.751864124620687,-3.32442754607672,-4.947495433605855
9,-2.8545318438604084,5.721440873692311,-3.8789849489416404,-5.558201467641347
10,-2.53315163553698,6.703043145165657,-4.439502216242323,-6.0585373157765705
11,-2.107048337934718,7.6612790261683905,-4.9728503693965465,-6.468636692752557
12,-1.7341076441074272,8.567682379743763,-5.465757121570044,-6.854318406171122
13,-1.4973457065225635,9.408968736885939,-5.934426760519144,-7.245093484048458
14,-1.3031017277737504,10.184486728257102,-6.409938464968576,-7.594134568564006
15,-1.0291468350853372,10.899445431665901,-6.922020823221665,-7.84269574390718
16,-0.6897312979779961,11.558526843735986,-7.486822162659038,-7.988131162797194
17,-0.39493841730956725,12.159467609074959,-8.10358879295687,-8.071432370059526
18,-0.20623502144280276,12.688816350202657,-8.756604178663656,-8.12139796605723
19,-0.06196028577657284,13.123879069299944,-9.415638459072522,-8.125838056078166
20,0.08871460236238227,13.437916298172317,-10.040237758805965,-8.08271834687722
21,0.14611566067987825,13.60389267787857,-10.587328531303944,-8.056953605597839
22,-0.07621272196035522,13.598907162810386,-11.014248312503984,-8.149716573460092
23,-0.6716297619288221,13.413754672120788,-11.282955524494632,-8.41450785229369
24,-1.561173663144238,13.062708319222732,-11.367314437766698,-8.821222787243098
25,-2.623091939595792,12.577687994683538,-11.255471746974642,-9.306946980407234
26,-3.8204458432187414,11.993515584835146,-10.955241255962383,-9.830752014882046
27,-5.179205080529491,11.34365148138066,-10.496620070167616,-10.37787767318136
28,-6.640284116844358,10.658497569340119,-9.919445825822793,-10.915870616440705
29,-7.997484503772377,9.956754615080833,-9.258340808671782,-11.373154903646459
30,-9.053572824850512,9.241598279243915,-8.543476246828325,-11.695916766103178
31,-9.772637026953793,8.50962930788666,-7.816536113037126,-11.901053264746457
32,-10.27040857826499,7.760806950553869,-7.128973526199868,-12.059137893426815
33,-10.637968595925026,7.0023862132320565,-6.521476742916081,-12.223627702988829
34,-10.842845218626334,6.251917487464443,-6.013089260705768,-12.398064897291505
35,-10.823764045052474,5.535931492641326,-5.602215084267946,-12.574628881588865
36,-10.597036835562,4.882321469137199,-5.271898360943426,-12.77392496713007
37,-10.281280116588036,4.313390116593565,-4.994581683747964,-13.046627587592866
38,-9.96459975197615,3.8433849535284716,-4.729421361195438,-13.419238700096702
39,-9.60701799559619,3.4777034334876307,-4.419766913874612,-13.86056538777843
40,-9.117751227800815,3.21044629866608,-4.005987853434355,-14.311847620561815
41,-8.472413944338257,3.0213780496325633,-3.443818695248936,-14.72664835599396
42,-7.768685573904047,2.881777682286354,-2.7184069621517835,-15.091687766773955
43,-7.11907673345256,2.769498482986152,-1.8482685877488756,-15.392089244391846
44,-6.52775139964225,2.6751300775301994,-0.8757602671740204,-15.57448289077237
45,-5.9080186915198905,2.5970384482878583,0.14480776828028075,-15.56622898682626
46,-5.217079452213317,2.5356945489003424,1.1630335609089852,-15.333360539863826
47,-4.550178872576786,2.4891296249793204,2.1444158102336566,-14.91840668128432
48,-4.03653558152403,2.4497730309089683,3.0640170540572895,-14.402152417895412
49,-3.7039139627519426,2.4023883861030213,3.895091759850621,-13.848507657473867
50,-3.4649371053500073,2.326169273482088,4.604320600470637,-13.282171896139094
51,-3.250892170356661,2.2039086366060654,5.160082327445841,-12.72265161633638
52,-3.126500957599911,2.0311222175920074,5.548337901465558,-12.227509071922478
53,-3.2123407030238087,1.816941322717177,5.776989392547695,-11.858316895985741
54,-3.540294572342943,1.5779243631410043,5.867975329741929,-11.622129245384583
55,-3.9887938871302886,1.3285674324420582,5.849114223195036,-11.461806772458786
56,-4.418649464918219,1.0765526164846777,5.747637646469499,-11.31477961559242
57,-4.824352256903818,0.8260305053266129,5.586961138300225,-11.170722312437519
58,-5.280984909024403,0.5821205347608779,5.3887771081224844,-11.05408626237123
59,-5.805504840679711,0.3487638209935219,5.172046529794738,-10.968762173047457
60,-6.290279785198135,0.11926360554981899,4.948919106181313,-10.87345921734212
61,-6.644779594004917,-0.12589027607052788,4.721162915078748,-10.735346356085495
62,-6.941636292776948,-0.40994730247324623,4.479264873349771,-10.57958259538957
63,-7.342424056959392,-0.7488975014982189,4.207737449225058,-10.459781998575407
64,-7.926580447466134,-1.1459718573882078,3.892069207158649,-10.398355320803677
65,-8.615994512234556,-1.5894491356242664,3.523872572958014,-10.362248438622691
66,-9.311191141882396,-2.050841255216919,3.1064258242744707,-10.314373179569255
67,-10.032752801130835,-2.495183354355925,2.6551551258722164,-10.26671240367858
68,-10.88335393303724,-2.9006643797079383,2.1908582513063624,-10.26550770347904
69,-11.89391073633863,-3.268689939924478,1.7334678566380142,-10.326982017328241
70,-12.952306661116916,-3.6171955386955252,1.2998969324184209,-10.411210766957666
71,-13.940779580781303,-3.9676307205537156,0.9033506125794727,-10.482241176356197
72,-14.874538034902702,-4.339534393928563,0.5485758591741838,-10.554067059394294
73,-15.872579401200614,-4.751694097987428,0.2246854609452698,-10.669381772484979
74,-16.986438873682168,-5.221250271331419,-0.08961113056454513,-10.842486382774037
75,-18.12009811509595,-5.756574221334935,-0.4108612868546501,-11.03934355142208
76,-19.153821303497686,-6.3503702734658924,-0.7452850677717988,-11.222828684947961
77,-20.06320564291179,-6.979765186105933,-1.0903882232632776,-11.39337392447618
78,-20.916805967538483,-7.613281627529036,-1.4364509348792667,-11.589256527016992
79,-21.733757201937404,-8.221325149685608,-1.7700263340662186,-11.834472994847824
80,-22.413038684351328,-8.782252694681238,-2.0824066230283664,-12.106433120433513
81,-22.847523267264474,-9.286079765718444,-2.37677046873199,-12.373744800652718
82,-23.04031518258296,-9.739205469064816,-2.6602826831455464,-12.644600788291969
83,-23.12274932989144,-10.166074750853113,-2.9399448385275644,-12.978880385839586
84,-23.216107215272537,-10.603290765487076,-3.236861644983542,-13.43123986144929
85,-23.31215946912907,-11.084676200349492,-3.5894183711074463,-13.990514933517781
86,-23.30950586582643,-11.625626946801106,-4.035913755097954,-14.582620611242646
87,-23.141164499123292,-12.21602355827114,-4.596590821345611,-15.128613136734165
88,-22.868731540607474,-12.820955594088797,-5.267447338930796,-15.598881454960166
89,-22.583175482849636,-13.386207081178203,-6.021927872981342,-15.9854966417866
90,-22.275743915478788,-13.84532286735686,-6.813457940340898,-16.26012181971241
91,-21.848287682806106,-14.127363765700018,-7.583897393403993,-16.38267249914529
92,-21.24725025914751,-14.170333765375837,-8.277580906291554,-16.3455801685547
93,-20.570742291292433,-13.932844093705608,-8.84689062253211,-16.208473547803322
94,-19.980290512187814,-13.399433156803898,-9.250492822569598,-16.065615529302143
95,-19.558109423153557,-12.584399699328472,-9.458503837785495,-15.98123325692772
96,-19.261752229771886,-11.530329559393415,-9.460338566029096,-15.953862279739107
97,-19.0394129100951,-10.303928841806114,-9.266199440445385,-15.959592358458101
98,-18.949263595735772,-8.990476511678283,-8.911073353638953,-16.004541657169124
99,-19.089831676569737,-7.679579521685923,-8.46109488694182,-16.101041773607815
100,-19.462939604932423,-6.447619704110275,-7.999714721299068,-16.223736954972285
101,-19.917936081512664,-5.344402993007661,-7.596556332234459,-16.300933133083117
102,-20.299952672843453,-4.3857522934885935,-7.292949996029469,-16.278812096666574
103,-20.615625117078505,-3.5608174044647423,-7.109982588769591,-16.17992198311688
104,-20.968574907687252,-2.8494236949101897,-7.0525082017589416,-16.06591049798933
105,-21.387190460070496,-2.2294366627113997,-7.104332043588997,-15.965802636150158
106,-21.751251232992466,-1.6778936325613687,-7.2250666871467715,-15.85203396457399
107,-21.949798826749845,-1.174035886011217,-7.352209889978938,-15.699107889988701
108,-22.036445225513486,-0.700337916108518,-7.412847788556911,-15.529554552100477
109,-22.155951150515378,-0.2460036802052583,-7.341623966557945,-15.382671465260403
110,-22.368509370383105,0.1875172648368371,-7.094792130696862,-15.257892769968617
111,-22.57708676476851,0.5838070365387039,-6.658852110038834,-15.091275412713095
112,-22.665360765432958,0.9169625919816802,-6.052198385527345,-14.817744053296298
113,-22.631351556053403,1.1627231801019522,-5.317976810830688,-14.438694799521114
114,-22.546711173818142,1.3054897807099535,-4.515402335763196,-14.00038572220998
115,-22.404801943162653,1.3422575025010546,-3.7125945532276408,-13.519185960258854
116,-22.059709991010948,1.2831474994025718,-2.9764651624473504,-12.955756268212554
117,-21.380521793774456,1.1476106312830212,-2.3628403618168234,-12.271319375678665
118,-20.46182280248309,0.9971375956020853,-1.8993602733051764,-11.537267191875276
119,-19.299889644984795,0.7832806065837427,-1.6578996984157741,-10.729066718424292
120,-17.877395113245104,0.48721959749888466,-1.6584582715832181,-9.83321672783412
121,-16.16106755870725,0.1126955944625969,-1.879739998922096,-8.838980707063905
122,-14.224574417451528,-0.3197304375598523,-2.2717681056530736,-7.777227649413838
123,-12.270415755740947,-0.7805921111429256,-2.7690548173378913,-6.725025986127758
124,-10.524570356234229,-1.2406246327223254,-3.3041429295818014,-5.7690149460115805
125,-9.087665092238083,-1.6768226203164613,-3.817815491973093,-4.955016510119429
126,-7.936054213898093,-2.070561530704159,-4.261361793880748,-4.287087250578692
127,-7.0515835415024375,-2.400484670108357,-4.599330405690866,-3.769641655967956
128,-0.5144325606094947,-0.04163733481665867,-0.0017047146120809514,-0.20977845288335206
129,-1.1242335560775496,-0.13970099513141754,-0.09891287365939294,-0.743706159867741
130,-2.0322241925314186,-0.3110614531553424,-0.26095205110384473,-1.6048187127754536
131,-3.2888641720526746,-0.5596079349994875,-0.5073351086771286,-2.839133467126741
132,-4.811934510996402,-0.8795283111774246,-0.8555940262133592,-4.432024331678035
133,-6.442507333400499,-1.2651128972004875,-1.3196640035165217,-6.323182125935672
134,-8.082367743772966,-1.712541038510354,-1.9140782049576146,-8.450900461874241
135,-9.71688561627052,-2.2147291206811377,-2.6557490427123844,-10.76157275971436
136,-11.318340263898,-2.757793441742679,-3.556932403129939,-13.178574511351322
137,-12.784421219367267,-3.3215280850687448,-4.615352852555377,-15.588483763621024
138,-14.01875584324771,-3.8882693642900206,-5.811628229899058,-17.88991255417006
139,-15.054099166146166,-4.443945155023822,-7.10999730766066,-20.045823377232416
140,-16.005998291969593,-4.984652596534979,-8.45510756275911,-22.066643297125122
141,-16.93088035761176,-5.515046236923502,-9.77301740475609,-23.957792314386978
142,-17.768464913960898,-6.0443718054026565,-10.979848791935488,-25.691322438628983
143,-18.4653169440627,-6.579923678343975,-12.002248149017715,-27.24529209973307
144,-19.094360801662507,-7.121193203486622,-12.802379136215192,-28.650661930286432
145,-19.785386738001584,-7.664594310540025,-13.375097744437628,-29.968754929286746
146,-20.590388796158358,-8.209052265723528,-13.731012055893668,-31.24395256490386
147,-21.41825953370872,-8.752135998591186,-13.898816656381594,-32.47644005836182
148,-22.168667807653232,-9.289076647153085,-13.92701047372362,-33.64623506952588
149,-22.873474712789363,-9.814151830259844,-13.872413162794057,-34.74106615993981
150,-23.63724060336863,-10.316280979963802,-13.78967372704534,-35.74798333383318
151,-24.491118026081352,-10.778551871878893,-13.716360291989725,-36.627106278384765
152,-25.325142952779803,-11.190124956324162,-13.656006306203171,-37.29929257095564
153,-26.035407245999643,-11.556898600964598,-13.584874002171677,-37.70497078344288
154,-26.666379257326323,-11.898700909314675,-13.485366830170408,-37.86358472475702
155,-27.35014800391832,-12.235408121978656,-13.370732172422077,-37.85571170687842
156,-28.14987948648196,-12.575882366291212,-13.277849690162112,-37.75450336052333
157,-28.991928170412454,-12.921471702413221,-13.24518824343052,-37.581359052484885
158,-29.80264353545884,-13.276542200034552,-13.29516009093374,-37.349900369635044
159,-30.647050932690185,-13.653834366568022,-13.419334791026806,-37.12563840318923
160,-31.691983671250796,-14.070676941882429,-13.567971897053182,-37.01219089415179
161,-33.02790670775225,-14.543337732493066,-13.661289884717505,-37.06931833267088
162,-34.5741987764875,-15.086211823144783,-13.612562918122553,-37.268232747922376
163,-36.19403098715719,-15.7144620697497,-13.35719940511055,-37.535551927024684
164,-37.826210696331174,-16.441635108075374,-12.885196948092899,-37.80671401808963
165,-39.49497195030753,-17.26381019162758,-12.244469305294116,-38.03921619252208
166,-41.16775242146805,-18.151965697889143,-11.515474528288715,-38.18170116066702
167,-42.679779012585136,-19.066061670139067,-10.77750195658488,-38.15713398153667
168,-43.85056974651312,-19.96788275043791,-10.08823206723667,-37.89497941181975
169,-44.61385909568654,-20.820978877544512,-9.486533156477101,-37.37795100345064
170,-45.03816498480034,-21.587354845732055,-8.992036751663004,-36.65149213588286
171,-45.181742031020896,-22.23417440395062,-8.582319333822158,-35.7612929356484
172,-44.999213137267645,-22.74645527016216,-8.178072211312163,-34.70945301368685
173,-44.41741230160972,-23.12813851014829,-7.673264871467522,-33.482943993229604
174,-43.446291975420344,-23.390213167311927,-6.981658922945585,-32.10573632748475
175,-42.22583058862833,-23.54208764007484,-6.057244584659331,-30.654429100865606
176,-40.89567290169642,-23.5903096774948,-4.895675583030824,-29.196740348086305
177,-39.46276635379027,-23.538374363608963,-3.5477429683923294,-27.74003664404902
178,-37.83579636438446,-23.385643672009362,-2.131457452188477,-26.24570280846254
179,-35.96597615199932,-23.125615481816705,-0.7937396296720692,-24.683367462795363
180,-33.94427129788805,-22.747852452540386,0.3524611240430731,-23.077422850042048
181,-31.89809359414132,-22.244424915289503,1.2558079049145088,-21.478830917016616
182,-29.83875360151435,-21.620038420492417,1.901645099209842,-19.901474045545427
183,-27.64839791183138,-20.893522620439686,2.27999469553309,-18.303180601429226
184,-25.23196585113343,-20.0879798337716,2.391462785729941,-16.64024337101852
185,-22.65302265428562,-19.22719858240467,2.2569120855108364,-14.926715134241658
186,-20.061367200706254,-18.335477378485336,1.911903958271782,-13.217667593099051
187,-17.54000220723798,-17.4372531482629,1.4094160850211486,-11.558080016282076
188,-15.0447350347243,-16.55595832295608,0.8242118072626744,-9.960999730760918
189,-12.539958505492255,-15.709980803567246,0.23739222809022678,-8.455343026344439
190,-10.144668230694533,-14.915115706037934,-0.2814229216048425,-7.136861039289377
191,-8.067144820346064,-14.192209077550324,-0.6809538587554252,-6.130873332618608
192,-6.445106021467306,-13.571216993756979,-0.9362962565262719,-5.515173320821221
193,-5.264695810011674,-13.087903598003704,-1.0495623283770745,-5.283904906647472
194,-4.49012577947096,-12.777344488796288,-1.0348348628912167,-5.40116286431825
195,-4.198619267152309,-12.668095509022642,-0.9032957395035915,-5.864038473790202
196,-4.5155443737955,-12.77660601858207,-0.6716898286483659,-6.682031245538393
197,-5.465985448225555,-13.10375138452465,-0.38325079751747076,-7.8170272021351614
198,-6.907484675538953,-13.633940548098767,-0.0910965524551738,-9.168174891705174
199,-8.686053848405948,-14.3339445240186,0.1890076814996215,-10.644036113685562
200,-10.785263509815497,-15.151499754232654,0.475374095680414,-12.21747125184422
201,-13.249850511614344,-16.01963335178186,0.7695235991891924,-13.886147063380939
202,-16.018832471788507,-16.86974018565864,1.0519622358275154,-15.604545718658525
203,-18.870098120816515,-17.650474964828476,1.3330575585026283,-17.263532154734076
204,-21.588581547474757,-18.337994447627597,1.6757197743365349,-18.757397920867522
205,-24.12866917524743,-18.932373118138734,2.1537269030912247,-20.051205007827242
206,-26.560578921879497,-19.449760618737773,2.793400345831052,-21.160040570747277
207,-28.878687978917686,-19.905667854140646,3.549722141876096,-22.073316132869284
208,-30.921344081509492,-20.29879248715908,4.323423165755405,-22.724148628069035
209,-32.51450462126051,-20.610539552736913,4.997104784415556,-23.05194413743186
210,-33.62400568941468,-20.813262745107576,5.474405605783698,-23.067457306785833
211,-34.35442453487009,-20.881112847180418,5.708187203911337,-22.845098653775292
212,-34.78041091973925,-20.798970326645147,5.70884742084483,-22.44859218832544
213,-34.84841907372836,-20.56732549290271,5.530732708403331,-21.888678807981563
214,-34.47169322444123,-20.200388368471966,5.237284902004736,-21.153470070368805
215,-33.64172021185657,-19.718409966275225,4.870678786869635,-20.241429248733684
216,-32.45670589514546,-19.145399920967943,4.446371196030254,-19.172819575519984
217,-30.989352313120044,-18.513290368300478,3.9817328845263518,-17.952521377335206
218,-29.193765896929868,-17.86185540449363,3.530908739444524,-16.544409883572417
219,-26.98360233468393,-17.22709213819339,3.155367807898731,-14.90694261660163
220,-24.348234371591115,-16.625264966080476,2.8534291803284626,-13.038009652480543
221,-21.413720514307947,-16.048548617152562,2.5457523795767516,-10.994148020776569
222,-18.321294868596112,-15.471494184408916,2.1273272856692276,-8.838820996209954
223,-15.103229678633422,-14.859930458915963,1.5299057892568524,-6.597097066861631
224,-11.72348594048506,-14.184591730019411,0.7443039437848281,-4.282374258871866
225,-8.197970920760342,-13.428161248309612,-0.2113017759582027,-1.9387473014902168
226,-4.6636210330747705,-12.577799310201785,-1.3245723227685433,0.34907059217340586
227,-1.2655225647909036,-11.620992710165089,-2.5974139283832436,2.5086117857187795
228,1.9756609799138598,-10.551468643156506,-4.034596941968595,4.526614652404454
229,5.155668194478469,-9.376066287608731,-5.606975603437094,6.437534422563783
230,8.338203959939495,-8.11745892335526,-7.2305794878792735,8.264329327929637
231,11.431782701305279,-6.8135069343031445,-8.781370697818106,9.96770050778028
232,14.272497306252221,-5.514519151360043,-10.122880033278092,11.477736141464531
233,16.781319780045997,-4.273872946542991,-11.134963632167265,12.76152271381672
234,19.019246709158963,-3.133067621839934,-11.75837147332953,13.845540480919045
235,21.05100160072431,-2.1131708551386112,-12.038925671475186,14.76517439641748
236,22.814822981820694,-1.2167248249949247,-12.109257869025415,15.521896764512775
237,24.19341205632411,-0.43190633642174037,-12.127377259983575,16.104633980198333
238,25.15919159513682,0.26445158541843033,-12.241231520046679,16.52865370365853
239,25.830373282302823,0.9004129846764594,-12.5731724908944,16.851571281019144
240,26.321417070867614,1.5013674530380183,-13.193833759306758,17.12053057211092
241,26.60920540223606,2.090528441015832,-14.107487527052324,17.32319354737041
242,26.605376363217356,2.6880941279986885,-15.23394413533008,17.420949641035094
243,26.3014807522444,3.2999050308584024,-16.386848753058107,17.40924682109746
244,25.83657567208438,3.9149303549669625,-17.325485893739817,17.344460535072674
245,25.350907352695568,4.521806043341758,-17.866681689755215,17.284259756870057
246,24.837241421858756,5.113478212077895,-18.035854135601976,17.219737076120786
247,24.175888929337557,5.732073570003012,-17.80144101827984,17.042685713815136
248,23.400432530966544,6.38933606220579,-17.20980344641277,16.732771051597606
249,22.638667730590722,7.075153297734737,-16.362934217722923,16.330582143272736
250,21.94941540736335,7.766322275556122,-15.404815581287929,15.866406029973534
251,21.282885815265132,8.433709728157751,-14.488470830269707,15.340535744465877
252,20.583065202315105,9.046980859945396,-13.724420035770894,14.759174232149261
253,19.896423809902817,9.57810164832115,-13.161352657727814,14.167473504853286
254,19.338276998198854,10.004939212911347,-12.805694808910882,13.634515706858352
255,18.96083035429521,10.315405747581217,-12.631656562245396,13.208525288430025
256,-0.7156183632006273,-0.32680580773761575,-0.3293280771171977,-0.39407752037297955
257,-1.5873608680720204,-0.725903486944846,-0.9257793337578668,-0.9581924617559014
258,-2.9288853124541765,-1.3221405244637379,-1.6315055399461569,-1.8467631424559938
259,-4.821911025297415,-2.149806839529748,-2.372648773520356,-3.1098487402695056
260,-7.202084853000314,-3.239100398246984,-3.091152389191409,-4.719061569571122
261,-9.918402096276061,-4.6037555651290845,-3.7488618716565503,-6.5973274086763
262,-12.850700809604723,-6.225513793944239,-4.330818667413453,-8.66510438076011
263,-15.928213328352768,-8.054408319387973,-4.827929954534026,-10.859187891519442
264,-19.0610135275887,-10.02805987062377,-5.183729917586968,-13.127106314556462
265,-22.121538791030183,-12.084171685403623,-5.31390057708507,-15.419870907457744
266,-25.020414276883457,-14.169921365505294,-5.2045926730138685,-17.714963836376953
267,-27.76643767503024,-16.219435165072838,-4.961494069377933,-20.022035856247964
268,-30.37784278811694,-18.193892400436905,-4.732998012381466,-22.340239340101004
269,-32.79421933185517,-20.09973929168845,-4.566450771580717,-24.629761152684928
270,-34.88521876707162,-22.00126912989892,-4.38009799615127,-26.817899041746543
271,-36.56826165320146,-24.001491466891764,-4.066620897558614,-28.847509378455282
272,-37.921620859383864,-26.198836560841947,-3.5802406266208093,-30.717034113161063
273,-39.07250315581383,-28.69129727162736,-2.9517772105039746,-32.42336507752982
274,-40.0433767545242,-31.590806964396393,-2.2413076242030243,-33.9184664919271
275,-40.75794928207345,-35.003763856522625,-1.4727723740988263,-35.140742926294365
276,-41.1973430423882,-39.01295590881673,-0.6333849986365339,-36.081895339778434
277,-41.51766208127706,-43.67238169079516,0.2674167014337565,-36.82681200456197
278,-41.94295386006372,-49.06267874690062,1.1898522748296747,-37.49630754528772
279,-42.56754252611867,-55.39942726334934,2.105631081991208,-38.152278425776416
280,-43.29002496950179,-63.089284968052695,2.9857296008028937,-38.75951642875376
281,-43.94261519356178,-72.70139646687774,3.741044973894501,-39.22039932883215
282,-44.419621589075824,-84.89890419486868,4.251411761980564,-39.43101439499363
283,-44.7003137652472,-100.35169053532572,4.486571059210732,-39.32720965594548
284,-44.7812478230449,-119.62349750785934,4.542666725274697,-38.8964121834945
285,-44.6039485309468,-143.06054877060308,4.563925599814514,-38.17207872658185
286,-44.15907818355954,-170.7246310805663,4.658305312994139,-37.24711740714517
287,-43.60743806346395,-202.37464126745144,4.865997232593949,-36.27666869536672
288,-43.19557074460799,-237.4902202363326,5.186704166388708,-35.42898896054821
289,-43.046861046015536,-275.33544540192884,5.634973106918331,-34.79065499224417
290,-43.092812618198735,-315.0235974967936,6.268882528736015,-34.34013311003772
291,-43.23521651288831,-355.58798237566276,7.154624026176384,-34.00706452282238
292,-43.473288908766385,-396.1038461165691,8.295869568627863,-33.71791100389388
293,-43.87844092306158,-435.7969876696025,9.606511360359725,-33.41950244997649
294,-44.46339410248541,-474.0835797302888,10.954197299314396,-33.06247162553711
295,-45.12249048523928,-510.5478853778568,12.20611316193109,-32.5911433172928
296,-45.768900873983206,-544.8642430805327,13.253323686514197,-32.00011375667967
297,-46.450037950629344,-576.7481736154048,14.009831047781624,-31.38032929970412
298,-47.32604498378607,-605.9692381104951,14.380684662842848,-30.905629920592595
299,-48.53468029095956,-632.360382118852,14.24110826537938,-30.760093205135817
300,-50.07438524573641,-655.8111904857656,13.446151881219883,-31.05324760763957
301,-51.86091381944833,-676.2617051061106,11.87397835788962,-31.800511210152216
302,-53.87342592380067,-693.6967590966997,9.471885118287265,-32.97488389752941
303,-56.18292168626664,-708.1403260652473,6.287277386726878,-34.554824723983806
304,-58.79940069314884,-719.6501402806872,2.4904474009471893,-36.5015656980676
305,-61.58401135094439,-728.312616393643,-1.6503171914618158,-38.716971473742525
306,-64.33731971971754,-734.2380900604967,-5.855997702023142,-41.067008178482105
307,-66.92728306744952,-737.5563942262002,-9.914919526945495,-43.44295374139155
308,-69.34828082962878,-738.4127799073576,-13.687062729292089,-45.781078137174006
309,-71.61224097730553,-736.9641850691871,-17.064658351245455,-48.02696868067911
310,-73.62285651674603,-733.3758505833979,-19.972577627467643,-50.094691696918176
311,-75.19877962562703,-727.8182782599263,-22.425799268048202,-51.875335809401676
312,-76.21991169198849,-720.4645225315412,-24.574050721486486,-53.297346116034035
313,-76.73080632730502,-711.4878045014882,-26.671043534713448,-54.357467229784746
314,-76.84480603517021,-701.0594347036687,-28.9456974011323,-55.0815421122636
315,-76.60439464437471,-689.347029034156,-31.449484013256836,-55.47991431231481
316,-75.95818621485677,-676.5130008533627,-34.05057133380621,-55.551541417457535
317,-74.88000564538184,-662.7133111910215,-36.55117419657866,-55.32586687272509
318,-73.46480806577675,-648.0964582728943,-38.76139168492774,-54.87035674263867
319,-71.85386089551929,-632.8026871910944,-40.52648440617262,-54.248988291144215
320,-70.11738985895933,-616.9634004226507,-41.75436661780917,-53.488515586127
321,-68.20968425860204,-600.7007500283138,-42.442022302787386,-52.57321678052803
322,-66.08976314965439,-584.12739270228,-42.68287604798723,-51.494626588208284
323,-63.845278666978466,-567.3463893618541,-42.634687149474594,-50.290349807480105
324,-61.6188636725653,-550.4512316345531,-42.47619996196023,-49.01131809092417
325,-59.463826678666585,-533.525978391214,-42.37568696091567,-47.67677645310925
326,-57.27849661255921,-516.6454863619713,-42.471732000805396,-46.248197685005366
327,-54.9627722517436,-499.87571983422396,-42.8598534791356,-44.669269472916596
328,-52.590304593984534,-483.27412544690344,-43.55733644389201,-42.93357576215684
329,-50.342143803729456,-466.89005914444317,-44.48967919035733,-41.093087650577814
330,-48.32578855489033,-450.76525342002,-45.52964608247247,-39.217079118313215
331,-46.46851653523098,-434.9343140459191,-46.53497204152143,-37.34600545004802
332,-44.65675314592517,-419.42523654634664,-47.367505950212326,-35.506920655702864
333,-42.9095084613312,-404.2599337034785,-47.91771441511764,-33.753700562528124
334,-41.3279564481755,-389.4547663915707,-48.13821372783961,-32.146777623401405
335,-39.93450800046853,-375.02107099871455,-48.04900884265653,-30.699627830811842
336,-38.59835810807848,-360.9656776149583,-47.71271428734231,-29.354197868776815
337,-37.16426566881976,-347.2914140340453,-47.20718666087961,-28.023104111130408
338,-35.608024817148426,-333.997591430221,-46.60110158382964,-26.653827656506973
339,-34.014720669620296,-321.0804683288306,-45.93849082555283,-25.22982821122403
340,-32.39824557813522,-308.53369018818455,-45.232865417355555,-23.709715871122064
341,-30.61106602112537,-296.3487025497378,-44.46866890669993,-22.001675406053142
342,-28.490576377308745,-284.51513629411585,-43.60505854616623,-20.029577478299927
343,-26.020542588142913,-273.0209141496561,-42.577443721438414,-17.812167756404893
344,-23.31872633378909,-261.8516545288564,-41.300721009590546,-15.451264307091833
345,-20.455168488485924,-250.98180915966222,-39.69594019801254,-13.035279675541572
346,-17.37529061910266,-240.37723670477882,-37.732598332314375,-10.587520105706673
347,-14.02195511686746,-230.02823585365633,-35.441326768842444,-8.102520703873282
348,-10.445594334176745,-219.96700935524944,-32.91319142621932,-5.589188424263216
349,-6.798347370676135,-210.24133657512027,-30.294771714143057,-3.0700217112732324
350,-3.1662919848373194,-200.8704856568835,-27.743637616580454,-0.5366109747005717
351,0.5161046017788122,-191.82057108149286,-25.365667336643764,2.0630935961026946
352,4.365453789417812,-183.00229913920592,-23.191994388726595,4.785205809217515
353,8.438354954612116,-174.23656378950525,-21.198806783978146,7.648649093598376
354,12.680924333616678,-165.2075403175243,-19.326456314406244,10.61495504229963
355,17.0321343398062,-155.5027773978827,-17.49905245023122,13.621731043205022
356,21.51519886991863,-144.6650232147455,-15.647635050070196,16.61259901831541
357,26.183073251367677,-132.185712589748,-13.717840063276164,19.52919809288506
358,30.996372920703454,-117.59358154852166,-11.673680944719663,22.29402937863936
359,35.75851089317116,-100.56727395890017,-9.508334656242802,24.8053519123741
360,40.25397514666577,-80.84554173543034,-7.253038991846437,26.994185437146307
361,44.403165518072086,-58.03184917697013,-4.977910906998697,28.86809985951244
362,48.264831687380855,-31.490509227858297,-2.7863003709421883,30.488168696568607
363,51.91442243133788,-0.3582859222149999,-0.8021577904648118,31.924339298991004
364,55.3314366398959,36.37809908797078,0.8549948180634961,33.21878381942458
365,58.463094484340225,79.7445706217605,2.1050953646414903,34.402347572759545
366,61.361650151087865,130.58899318420646,2.9355576826866456,35.537847419050536
367,64.21635166946025,189.4080059213321,3.391987695310587,36.73284729655293
368,67.18864877263933,256.2373454867786,3.5529481747877383,38.07800728467104
369,70.23882563386503,330.59874966549467,3.5274676458523864,39.564306011006394
370,73.18460139962619,411.48613772466547,3.446253932362442,41.10102160084188
371,75.8883757591998,497.4094380108926,3.424213875262365,42.60997880803808
372,78.35657802279194,586.554200290361,3.5218824695907234,44.07879136831187
373,80.6165310047674,677.0107496322017,3.7430044937490754,45.510907671616785
374,82.62104364825561,764.9732061876502,4.039760552981836,46.87563256565969
375,84.16542970422036,852.4353020480106,4.364212396605925,48.072188194883445
376,85.2196856632644,939.1296698365321,4.656295299755126,49.05418016578568
377,85.87059753237558,1023.4237282652188,4.8627909545797925,49.81977409109589
378,86.17253888530625,1102.9183677754174,4.953521944147583,50.3678865788436
379,86.11555122138537,1175.0210111928836,4.928590279725739,50.69210198335612
380,85.7259006015345,1237.4559231651076,4.814123803949988,50.81173922121577
381,85.14674210912733,1288.6058274700988,4.649735002327613,50.79131326742975
382,84.57734665296559,1327.7030614201856,4.476761805256462,50.71446032805209
383,84.11840578460584,1354.9025436343595,4.333981017540292,50.62530845727648
384,-0.7746938965184931,12.295089252422127,-0.01497077393729418,-0.2867273179738272
385,-1.4685844782638358,27.123550943686457,-0.258930568206861,-0.7705559581781714
386,-2.403266059168266,48.50476270551154,-0.7076767299580144,-1.5224976197572972
387,-3.556633359175126,76.58935668148713,-1.3924475470313036,-2.5608726477839046
388,-4.8070144032218005,110.9495600044632,-2.3014109214493015,-3.849148007036348
389,-6.019191684097482,150.60645734419228,-3.403959691515137,-5.3211105668045136
390,-7.133724785571893,194.14182422196996,-4.675820514684806,-6.912210469847844
391,-8.152774926757967,239.9011660012834,-6.097011258932226,-8.56294453462024
392,-9.058146088427144,286.2923180758571,-7.634053967429165,-10.200423307820202
393,-9.794388097780455,332.1819308296888,-9.241609788252585,-11.748043603989133
394,-10.344490042711481,377.3903703636991,-10.884721514513657,-13.170343555548104
395,-10.790313778992461,421.316503655381,-12.540571447728485,-14.484602793398196
396,-11.20028714622169,463.4357730191725,-14.180474832226249,-15.708511898426721
397,-11.523644310021176,503.31467696386784,-15.747906078687148,-16.813710613116868
398,-11.649349890467997,540.6040647813992,-17.179354894175624,-17.747231146525074
399,-11.524143270298907,575.0323020255238,-18.443009437293263,-18.478734178582272
400,-11.216790264067656,606.3981550499525,-19.537013520611634,-19.02510775067627
401,-10.807312378204228,634.5612447292109,-20.46305717331479,-19.40837840819171
402,-10.271755378241036,659.4322255057845,-21.20806503196757,-19.61674258141331
403,-9.517642643283313,680.9767621981727,-21.746907895054104,-19.622903381039013
404,-8.512430485882842,699.2293974907446,-22.078582329114845,-19.42772028107159
405,-7.371726420848504,714.2843036474444,-22.244110245723828,-19.092892748304532
406,-6.2622536309456125,726.2579102498146,-22.28616249763061,-18.705116999961454
407,-5.2568074009299695,735.2485999895852,-22.20514246707781,-18.314685536944125
408,-4.304494065156391,741.3226198478635,-21.975147123871132,-17.921509382101245
409,-3.355631222518341,744.5380198832215,-21.60388841890086,-17.515672337731857
410,-2.4741208367115286,744.9637930840626,-21.16140150328265,-17.11463731126177
411,-1.7756296344137197,742.669033818081,-20.743211866017397,-16.73935531254681
412,-1.2957717459696556,737.7166936375106,-20.424349063457484,-16.374882784135355
413,-0.925385869248081,730.1778204208543,-20.255014827287017,-15.967749991990114
414,-0.5578967805816416,720.1379882571426,-20.260546336887874,-15.483498789890367
415,-0.24690544579847623,707.6885605630197,-20.4261434880484,-14.954835526591067
416,-0.1381423740549757,692.9243639923901,-20.69307116786478,-14.446769729947945
417,-0.3071597505198661,675.9444810359663,-20.974225111344236,-13.994666675339195
418,-0.6742130288750159,656.8567485257817,-21.185281550911647,-13.577159301499082
419,-1.1398485460928225,635.7874333516695,-21.27065773524604,-13.165602133470506
420,-1.7376046930029219,612.8768761586797,-21.21257652164312,-12.778623385174424
421,-2.5805502030584746,588.267874854045,-21.02421406551277,-12.46143397346623
422,-3.708186403765897,562.1149042265533,-20.733007252145594,-12.230120082202658
423,-5.014995443694886,534.6123246151029,-20.3783940682352,-12.051520929249206
424,-6.380272708288759,506.0075817683662,-20.02403746639133,-11.893122216173756
425,-7.797375724547302,476.587541694368,-19.739796073011735,-11.754873948361867
426,-9.332291607592742,446.6460543309942,-19.550421827863197,-11.646102221754315
427,-10.976171413417461,416.4568405497134,-19.417516862387792,-11.54873944138981
428,-12.576865259118781,386.27855222718944,-19.27370704622633,-11.405424516635865
429,-13.967168047298415,356.35913466297194,-19.07371493574411,-11.167062049163013
430,-15.11014540520941,326.91032396864415,-18.816234638984415,-10.843451236030573
431,-16.09637515784569,298.08579780763876,-18.52023537648174,-10.498982549638797
432,-16.975570409100875,269.99049472895956,-18.19908238410596,-10.19032174091269
433,-17.669649503869717,242.6922401879453,-17.85630637374467,-9.931601991010483
434,-18.09927182388604,216.2130263029865,-17.494485502964036,-9.733253565376828
435,-18.30550014277641,190.52183933730274,-17.12262023430964,-9.632679395573017
436,-18.436710641017694,165.53981286265014,-16.75136890197486,-9.678567041468362
437,-18.576901891533222,141.16178651307484,-16.38899642837483,-9.870722555539173
438,-18.654504379418476,117.28977033825876,-16.043768927094828,-10.131652836843116
439,-18.549243731131043,93.85581252896631,-15.725486621785036,-10.355855562470444
440,-18.213924043392055,70.82714411288504,-15.440773932688412,-10.466312237717844
441,-17.719136496064166,48.19881413288869,-15.183555429726653,-10.434462417234146
442,-17.139607010435004,25.983504402975605,-14.933636573680861,-10.255092346079312
443,-16.441028079756883,4.207161184173401,-14.66539545697665,-9.92250332833442
444,-15.51589142893756,-17.0949499811689,-14.35686250804646,-9.434100441822059
445,-14.31475363543015,-37.894184823996895,-13.991700642221101,-8.818761205086878
446,-12.940026986940229,-58.189600698546556,-13.553953596174686,-8.157781386737696
447,-11.533085489105714,-78.01195303376831,-13.01776284693373,-7.531761686025514
448,-10.126725020052477,-97.40844713499217,-12.353666689774668,-6.960866944276229
449,-8.652685499444866,-116.4283660719224,-11.559257218177663,-6.41718935044478
450,-7.077297406778624,-135.11799323119985,-10.667699620660851,-5.879765770571359
451,-5.494470822466793,-153.51022956530974,-9.725850985310348,-5.366071236032367
452,-4.037210728681358,-171.61234793438413,-8.783065245395026,-4.899701850294607
453,-2.7460067638787002,-189.40598352284775,-7.8981367590025,-4.465628570016957
454,-1.5276674136227142,-206.850835052431,-7.128720007276564,-4.008615386365692
455,-0.28761720140959685,-223.89076388330267,-6.500229913392173,-3.486385806447611
456,0.9310802428734636,-240.466784533117,-5.997434081972754,-2.9135376161298994
457,2.0014396646729318,-256.5271453169359,-5.58495948122108,-2.337384751435881
458,2.852974183517407,-272.0291099830853,-5.231728219677343,-1.786257808706757
459,3.5592059953615056,-286.93923420392963,-4.915654108671515,-1.235183098518655
460,4.2043496876832105,-301.23799615624216,-4.617352079599663,-0.6460679330525317
461,4.7198711232979145,-314.91866524614545,-4.327486740714596,-0.03319471508346526
462,4.958044307269375,-327.9743382429034,-4.054346496198097,0.5479945341201532
463,4.870216150830206,-340.39048839950743,-3.8167234643972265,1.065129546680501
464,4.576117871670213,-352.1512130301457,-3.631951006003904,1.5435417472637227
465,4.197976425326243,-363.2471740545553,-3.511755543009439,2.0096242232981933
466,3.708148505365209,-373.67694276303473,-3.4640359568556693,2.430783645835572
467,2.999093755878479,-383.44063525864505,-3.48510549239549,2.7358588090621994
468,2.0372230811294783,-392.53098646250714,-3.544818541647788,2.87013889025359
469,0.9277464201705692,-400.93483113106316,-3.5817970294524586,2.8274478825570126
470,-0.21891050593451333,-408.63958349494015,-3.522476081905845,2.6149241091197983
471,-1.4245295655921795,-415.6337555516369,-3.33354513151329,2.218907711415676
472,-2.7857502332643027,-421.9020584361832,-3.063618271561334,1.6331553085806756
473,-4.296512614923072,-427.4194197262935,-2.8189442993868745,0.9092323342323846
474,-5.786894834508572,-432.16057971024344,-2.700336399600085,0.16647102736057745
475,-7.07889932780444,-436.12267744164285,-2.7584555970446782,-0.4734552226377323
476,-8.14494841569256,-439.33915106702926,-2.9865950509030634,-0.9574591737468232
477,-9.098550898932038,-441.87689383921685,-3.3373084008779417,-1.3019268792835097
478,-10.008085293774782,-443.82079292040635,-3.736950507208651,-1.5250778221117862
479,-10.803556569122692,-445.26009519136375,-4.096910819133896,-1.6168643227646629
480,-11.403722612179047,-446.2786323925818,-4.330667604443181,-1.5890756016372751
481,-11.834012980412073,-446.9417165014706,-4.380859165931007,-1.5070158208787239
482,-12.220372551252023,-447.29008352055365,-4.2444458281707975,-1.4583457264708684
483,-12.63545070951263,-447.3431664981918,-3.972375958682559,-1.4816709445800886
484,-13.010849838686042,-447.1021408955633,-3.6485294165267357,-1.5424857764721416
485,-13.224767342263831,-446.55348403993935,-3.364873161965715,-1.5854327464395497
486,-13.20952373330251,-445.6769269936899,-3.202958969696077,-1.583446114331922
487,-13.002727057770224,-444.46064636629274,-3.217637380466017,-1.545416119556363
488,-12.646647684991486,-442.9198242967665,-3.419133723135513,-1.480300593489026
489,-12.091963197786688,-441.09612395062567,-3.7685178982817247,-1.3752530815174846
490,-11.237151613716847,-439.0358698137363,-4.203970003889293,-1.2112956995604776
491,-10.039413157921153,-436.7710900921195,-4.669541528331386,-0.9961538796706603
492,-8.600374390885918,-434.3121834394056,-5.117104499933621,-0.7862528626374278
493,-7.063186612168766,-431.65169575213787,-5.4988652253372425,-0.640484315704871
494,-5.467388858257834,-428.77362038079394,-5.766096814974139,-0.5657423711474721
495,-3.74475200458233,-425.66159926343107,-5.879881088840758,-0.5203872577589772
496,-1.8546696437644028,-422.3048960363176,-5.824933180440724,-0.4624492701637437
497,0.10754805739068457,-418.69902713569275,-5.617049143747738,-0.3883674412327336
498,1.9981754614491045,-414.84410143743196,-5.300804048687846,-0.3084135212418825
499,3.766045434316858,-410.7445923901507,-4.923901446279599,-0.20703679005878603
500,5.491485586748571,-406.4079791311895,-4.519077868230706,-0.035975492431897044
501,7.2498895793989995,-401.847532047955,-4.115583609724002,0.2456536498967668
502,8.961530480085129,-397.3054618276096,-3.7946980130713666,0.6103326078024722
503,10.505542133341319,-392.45552815649074,-3.517970765171605,1.0412486981600486
504,11.854329193410788,-387.22190212099116,-3.255683325845703,1.5282624056145395
505,13.030019200200824,-381.6978749607266,-2.9712617025196293,2.0550140379886837
506,13.998771988740998,-376.0853415190355,-2.631909665988063,2.5781355264730745
507,14.668783416139565,-370.6462271613032,-2.220333104806506,3.03406078116052
508,14.998807017182797,-365.6526816077841,-1.7401053875828991,3.375892883465054
509,15.075000512111734,-361.3404680086463,-1.2195139180138168,3.6058745194993427
510,15.052499923260948,-357.8772905187756,-0.7102175471005951,3.759888835308859
511,15.005836743116925,-355.3453287275495,-0.2705119593547748,3.855910269535227
512,-0.8261755987814496,0.1517298391948076,-1.2721936558105762,-0.38184433031638304
513,-1.5961386051428934,0.2794285653283964,-2.3784045696177207,-0.7905894979131145
514,-2.6476517114722125,0.42373573557890365,-3.8151098626999627,-1.4007240376280907
515,-3.9421838856792846,0.560000690944625,-5.542197879741928,-2.2196838295308194
516,-5.3287118208922495,0.6595264690758595,-7.492793928032052,-3.1967937372754647
517,-6.654396582401094,0.6929865339372443,-9.587817806354458,-4.26636828132625
518,-7.855875880596932,0.6301664184901482,-11.746329144771662,-5.380035200762698
519,-8.933562403581575,0.43684222157905017,-13.886334019540115,-6.498718602074639
520,-9.851028939675594,0.07902770493022715,-15.929974108680595,-7.562892270472771
521,-10.53655428992417,-0.46436456167113066,-17.827962986323303,-8.501632088034832
522,-10.995592475267069,-1.1884797693844897,-19.60704687436843,-9.283095243168596
523,-11.34580717940088,-2.0688615542481235,-21.247647789374973,-9.920218768863787
524,-11.662616823460906,-3.061215349828711,-22.730721964577704,-10.42230963195973
525,-11.881991406497557,-4.108278408214526,-24.062557986179936,-10.755358426523722
526,-11.902513505725057,-5.141517158071204,-25.2854397234365,-10.88112821046251
527,-11.703140351141585,-6.089623284165403,-26.46090416604099,-10.810211832749888
528,-11.3708449831905,-6.893953345792865,-27.648983096754062,-10.612394962568628
529,-10.968480465945182,-7.517902344856981,-28.89407865569353,-10.352378342927636
530,-10.43318299830493,-7.949936229351405,-30.220098856583043,-10.030297835318068
531,-9.655031239239271,-8.207920340088847,-31.62186459970304,-9.605297638680957
532,-8.61115867232367,-8.33985771434442,-33.05077555430568,-9.06494304345187
533,-7.428069465491318,-8.41847803450405,-34.42048786302655,-8.462688309437933
534,-6.2582864658267745,-8.533103071541651,-35.62370532984715,-7.8711984301664435
535,-5.1390025625159055,-8.774218254117985,-36.55948567721542,-7.329419814779244
536,-3.9981133004223124,-9.210384706359294,-37.17512437173195,-6.835168503270888
537,-2.788432073612012,-9.871915941591487,-37.486394488718766,-6.382254287730893
538,-1.5880165742514654,-10.75466647127294,-37.55364268103979,-5.994952600616362
539,-0.4999993853313344,-11.831528381506065,-37.43006531763316,-5.695755959281165
540,0.4705801792232368,-13.060921634039639,-37.1430296615037,-5.4716384757586285
541,1.4154577033254885,-14.392730007321276,-36.72284499863295,-5.2815905435340404
542,2.3950636026747913,-15.771174614918932,-36.2208894088264,-5.099552780553596
543,3.3345667171924918,-17.140671953122013,-35.68663326026975,-4.942549829536023
544,4.110523651015253,-18.4584533166308,-35.14249242142162,-4.824893980679019
545,4.696624209307558,-19.70689729334706,-34.5892807412218,-4.704442680323619
546,5.211114845973836,-20.89292553643969,-34.01246446718189,-4.489357318757559
547,5.775474233903,-22.034107246792473,-33.381000613187524,-4.112103669943226
548,6.377598901160844,-23.143651748938886,-32.65827707395775,-3.5802952768208645
549,6.931185859824104,-24.220044365949228,-31.819522777277566,-2.940963928589552
550,7.41203214953558,-25.24031076280738,-30.85604753952167,-2.215261252731677
551,7.927276620880576,-26.155846448311976,-29.773622107035145,-1.3695791656364356
552,8.569931901831742,-26.900166294767633,-28.602365915886867,-0.37813309336057077
553,9.265925157997447,-27.411142926950138,-27.394020543121087,0.7087101251804604
554,9.84172781573792,-27.646157559783504,-26.20726729668665,1.790573605470499
555,10.194890216925494,-27.58040911562342,-25.102517857517274,2.795650247611528
556,10.38058670628643,-27.200570647843573,-24.139462582153303,3.718451057938374
557,10.47821200546665,-26.504979502052706,-23.356475545548633,4.570658627879955
558,10.448070236871084,-25.50713862130592,-22.73319348897826,5.326802278797284
559,10.175049705103564,-24.235385521384217,-22.19022770652617,5.93022106634441
560,9.621248165439647,-22.726862889207574,-21.630535405235534,6.3480616363656255
561,8.893427694217454,-21.01703051621723,-20.985049493610358,6.608815325306499
562,8.106626950707426,-19.12877181467953,-20.23642614972244,6.75203142834462
563,7.2548634783183275,-17.0730322491893,-19.407151636694426,6.774665616166358
564,6.251135846687548,-14.866660325254253,-18.54321972363329,6.652390124173594
565,5.087755807002564,-12.543650683382914,-17.704462677964038,6.394710013283437
566,3.9071562222898293,-10.149205850632866,-16.945032686364154,6.062496983777686
567,2.8693777622428103,-7.73191542450611,-16.285984017607298,5.716784253283396
568,2.007665834444536,-5.33363187437467,-15.701324925534392,5.364718714711383
569,1.2278218175037543,-2.974719642071902,-15.132214595165273,4.970563359795557
570,0.4770323495194175,-0.6480176879878379,-14.522641712393717,4.524042410450641
571,-0.16033247003109302,1.6683421115148356,-13.851661530100698,4.06564379523957
572,-0.5670110930995191,3.9930438184418557,-13.137962124881007,3.6408225026401935
573,-0.7233595247524915,6.338948439039131,-12.424787407900702,3.2570226036361785
574,-0.7433018830350611,8.717678283238236,-11.768358026023217,2.880238436806673
575,-0.7257052299989393,11.138564513357393,-11.221370919783839,2.493483211632552
576,-0.6409117178216241,13.609327995502012,-10.804608897337381,2.1361261627256467
577,-0.39909616890982186,16.13994522098908,-10.501443068661347,1.8691606946722916
578,0.036689255379748265,18.73982616947245,-10.272029208348416,1.7255025067469125
579,0.5891653796049141,21.40923905848675,-10.053448999299276,1.6905341012213217
580,1.1739614210473348,24.13964319120774,-9.770057799454055,1.7531794121817301
581,1.8268369733257168,26.924828620193946,-9.380521193338355,1.9511289097559161
582,2.680095032552238,29.761491848711433,-8.914403696167804,2.3456695055186416
583,3.8255480150832963,32.63612369961042,-8.452762868830094,2.970888195401376
584,5.214388246553995,35.51412403102027,-8.07835135818877,3.802226596223089
585,6.74361666817956,38.33566340390845,-7.8381878752089795,4.7845669782808855
586,8.378800777549863,41.01860292661895,-7.727231671293403,5.871356914721507
587,10.167643451420806,43.473740141196,-7.691914560180326,7.0339925725523615
588,12.113913671576299,45.626337667548704,-7.641879312106772,8.233095594730386
589,14.068143011647923,47.42697742386958,-7.467432370500045,9.383008192432563
590,15.819914232179286,48.8493192601115,-7.065229371568363,10.386971598362145
591,17.259607397891738,49.88578059398916,-6.36962722867888,11.204085696794696
592,18.443926641158953,50.548004563429956,-5.386698828963941,11.86948239020222
593,19.456567773432916,50.86879326419959,-4.205837078022803,12.437320326073179
594,20.263949124340503,50.89926161010693,-2.9701289947292997,12.926594397127543
595,20.775356206771328,50.70304044357502,-1.8290935405066047,13.338235453789236
596,20.97722452510762,50.346395662341465,-0.9038061862122119,13.69592932978137
597,20.99069211261603,49.880822279992984,-0.2536274297707183,14.061930312446272
598,20.928049156814804,49.32911776253484,0.14269872557616708,14.48609984017451
599,20.755594667562683,48.6884211073218,0.36064524202456044,14.958793026104127
600,20.364313675418614,47.94571121687356,0.47178786827455604,15.429626087434453
601,19.72104450028702,47.08535908396706,0.5053279423259659,15.85835126000602
602,18.93368075878998,46.09279900850396,0.463237752873207,16.251769905340474
603,18.12173650537663,44.961320034617174,0.36352464146796104,16.6265999774573
604,17.282152574987812,43.692433854942024,0.25578551547938005,16.96372254219613
605,16.32870397889122,42.295189050940806,0.1961357362193406,17.227474947925227
606,15.250468478420203,40.785776280722374,0.22240618320479186,17.421325460721746
607,14.185106167106508,39.18270829231227,0.35772666880274595,17.604863924121712
608,13.268642006195224,37.501908476741825,0.6222402374624694,17.825839496828554
609,12.488435738077024,35.754729130636704,1.0271813173977444,18.062879807668335
610,11.727478944905343,33.943951929190675,1.5577084184082124,18.252954284885575
611,10.945600931518083,32.060873849066965,2.162099960425828,18.3628119893105
612,10.252559061171963,30.092801805690907,2.770052534620181,18.41569589988257
613,9.782140186552443,28.033954054808227,3.323164782355792,18.444699247391306
614,9.563803609076182,25.888978409578883,3.7746084806866276,18.44604092978941
615,9.504895232209982,23.670133275528535,4.08846011458704,18.38516749898233
616,9.534488611889753,21.39333728903472,4.2696173022474255,18.25613744744353
617,9.701257249523866,19.07671220191238,4.380409048703446,18.113729190648336
618,10.094754094512625,16.74048060697347,4.50783341531625,18.03462817550509
619,10.736612362013652,14.407981382397232,4.71278048031507,18.059515832866506
620,11.533085123827526,12.10722766477588,5.013406678900832,18.172460648230743
621,12.397414672648475,9.873223113050805,5.393995766808144,18.352623543157257
622,13.368106003271338,7.742993418258122,5.825651124594908,18.61422457544345
623,14.555965757753356,5.738925288494587,6.287277930461666,18.98690087234499
624,16.011948185750345,3.861362423108309,6.764276450117601,19.47804786269166
625,17.650123318439892,2.097970621651016,7.251623291767893,20.050602794413592
626,19.356506312738922,0.43577139826257905,7.764391164382868,20.66062082085078
627,21.11300757852107,-1.1314982320392966,8.326785048090334,21.298517056352445
628,22.987576173500656,-2.599528464383229,8.951296848198531,21.98684671013082
629,25.011758122773237,-3.9575913281849244,9.631339604569018,22.74293828211214
630,27.04181769765988,-5.180800223302026,10.340710238553969,23.522701648987944
631,28.96688152956748,-6.288230193700282,11.05388123669702,24.311649034747955
632,30.75957603762094,-7.278425518127256,11.736441115077206,25.1066569549009
633,32.41708489872101,-8.139655810069781,12.356561688908569,25.895068749508955
634,33.871918002406915,-8.858621172565233,12.88360895032887,26.635906487617543
635,35.01339517263668,-9.427567071967317,13.29800060923255,27.274900028448215
636,35.792608684922506,-9.851299779589862,13.605656533816044,27.77980311076227
637,36.26919445823006,-10.151258618019368,13.833328330618222,28.156423775251895
638,36.55517530240104,-10.361545381508835,14.006260080349314,28.43004508469586
639,36.698717269894125,-10.51525539801388,14.138021259961134,28.6070519087098
640,-0.6300029417675399,-0.15356185388890461,-0.3986347616698459,-0.22471434625125203
641,-0.5583274848655304,-0.22189656691029758,-1.0020748875874654,-0.05128371028204315
642,-0.3078449766837643,-0.23692311722384693,-1.8553811561975846,0.3020620832390992
643,0.20325158306589364,-0.1514295573685622,-2.947519217975456,0.890232572685386
644,1.120013848455364,0.08646642104087338,-4.241424615141688,1.787358868458738
645,2.5164402591435597,0.5211508077058187,-5.674906673086689,3.0315728287839367
646,4.339342599975819,1.1701807076319053,-7.16887923068546,4.606089834073732
647,6.4677215565253885,2.0201046125871054,-8.643645698180743,6.470926929274868
648,8.829094693512262,3.0357071289802438,-10.035545606162865,8.607010294848948
649,11.407406749187587,4.165006417806193,-11.306682324977169,11.008417264798817
650,14.133013957032297,5.340889997197613,-12.452603163367803,13.630180738624965
651,16.84980448023784,6.4969777548659815,-13.46712115306552,16.37306619020961
652,19.451233159094908,7.575132301804218,-14.350521185728981,19.136485787503037
653,21.97037010339131,8.537212526986307,-15.092582435797473,21.860040526534505
654,24.465207331140903,9.377825003756312,-15.676055704451029,24.496629227970946
655,26.90514571469703,10.117068211167718,-16.10162238691867,26.98024012734175
656,29.196341503369094,10.778910809654047,-16.392184740727984,29.238605355976595
657,31.33350238513252,11.377861289260176,-16.569061544013163,31.25471973883376
658,33.46038201538333,11.91774614493943,-16.62962156083406,33.091295349558756
659,35.73616567241099,12.394814340361565,-16.553961460890125,34.83388016833759
660,38.20416936631293,12.800185635295172,-16.332961460563833,36.53448234352276
661,40.76754122648708,13.12183301737081,-15.971760918217324,38.20428352547553
662,43.33388218049582,13.350926718770598,-15.46882663734799,39.8617319637231
663,45.92153734215564,13.492836430123091,-14.80789316545864,41.55240051900749
664,48.58570868862903,13.56527880059194,-13.961038428452966,43.30209647011614
665,51.30545519305541,13.58553935457812,-12.902902590359014,45.077904879507656
666,53.93606174533384,13.56818551268836,-11.636095362504431,46.79586309461166
667,56.339565758367144,13.528808423632192,-10.199544774216477,48.38291645320194
668,58.519554583868356,13.48020071688944,-8.652767524092075,49.82107721491383
669,60.586594981384444,13.427604858546589,-7.055938888050253,51.12638137034381
670,62.614777469727656,13.368777268565632,-5.46362979599634,52.30141047941859
671,64.54114441353032,13.28895174333437,-3.917869041836018,53.310516982937614
672,66.24783741167906,13.162282371080401,-2.432921660522498,54.102642135112056
673,67.69136089474817,12.966718821019521,-1.0031526267009123,54.652047760461784
674,68.93442675296765,12.690314244913282,0.36717858708849105,54.98498159610909
675,70.02842492103572,12.326744945377671,1.6484518266713835,55.141782814634084
676,70.8984268765404,11.869954469157085,2.7985848661557027,55.122368805066735
677,71.41439184223736,11.311887280790867,3.791757539937138,54.89988938608695
678,71.52702136562989,10.645701815507216,4.631423649774178,54.458031162478036
679,71.32293235822748,9.870751224111967,5.335352243336495,53.80941518928991
680,70.88616284035174,8.994158475605804,5.928639049954149,52.95954688919801
681,70.1533312526575,8.030226801718966,6.453764120356051,51.861771350038566
682,68.99306011845721,7.0005837842640615,6.9721911387142015,50.4513663619385
683,67.36902874279427,5.933590567590634,7.553552508644913,48.71051871641204
684,65.40654671618428,4.86490258438129,8.259939515926355,46.690827897714456
685,63.23834069729309,3.8314019640803036,9.131136571846962,44.462490127059475
686,60.845468470327035,2.858707261396666,10.178834533445949,42.05836149649549
687,58.12543663111863,1.960130359609494,11.38209094288408,39.48932165141038
688,55.062360827631124,1.1482464243580262,12.671532465101443,36.799606134299054
689,51.800663651747314,0.4463602830171037,13.92341895775457,34.092081976099635
690,48.495830925311786,-0.11180925270615918,14.995738770541744,31.471134257391146
691,45.15926412842168,-0.4907920546317527,15.790860819287344,28.968943899232706
692,41.705683038158035,-0.6586485439350236,16.281712658994547,26.551344757966564
693,38.119870514201764,-0.5856293161539703,16.49058444928218,24.195107877144032
694,34.53529803950409,-0.24737148984439888,16.46238106875377,21.929055517824576
695,31.09001001196275,0.36011658625138676,16.255798902240688,19.78588475345417
696,27.767417958265703,1.2098954767440473,15.950444745602328,17.748773851196937
697,24.432424058023486,2.2526867776896635,15.643176854668555,15.757031604520964
698,21.029045657654226,3.433689060831227,15.426717468905068,13.775328146843059
699,17.67243988060495,4.701419689782462,15.371076916682698,11.833008271034084
700,14.506128307958608,6.012734008158097,15.52068774688305,9.973009474628416
701,11.560980318578007,7.335545176715001,15.898170337517366,8.206323268703493
702,8.765022108462468,8.648284694401083,16.493820838814646,6.517844348017981
703,6.103943837457269,9.94475479047267,17.258536484124377,4.913744558310838
704,3.7036094176204983,11.230054946169133,18.12256973351315,3.4482103633863765
705,1.7136958289429318,12.504893792176036,19.019020075455835,2.1802337967398255
706,0.1823425366147008,13.76201288800502,19.896660204398874,1.1188573668139303
707,-0.9681451370801532,14.993161430876418,20.718515574084204,0.21566340723036753
708,-1.805441914462206,16.192782907211367,21.452571882400125,-0.5752865609109017
709,-2.2870638471573876,17.357614241465164,22.075325815030386,-1.2509067240082987
710,-2.327887626568241,18.48576600020167,22.57963072905046,-1.777107157991616
711,-1.9172081547819368,19.57659860319721,22.963317816706105,-2.135490200388849
712,-1.1768645460652778,20.63474240028397,23.21465065049466,-2.349292626040218
713,-0.23657128643685876,21.668311606173297,23.319818287496442,-2.4401093205487943
714,0.8875960351564555,22.67534394092405,23.288507112844474,-2.3865694658409327
715,2.2525007563076302,23.63357992251041,23.166379495597962,-2.1440151350797034
716,3.856187242988539,24.505333906367397,23.029029587596533,-1.7052452104563662
717,5.550904003055974,25.25161187096956,22.984233338974917,-1.1395769638493742
718,7.15503217426804,25.839700357508814,23.138196439059982,-0.5457101130758245
719,8.605179984119074,26.243455873629724,23.530536726333256,0.012633731948349679
720,9.97003644505134,26.441465261873255,24.12652913321292,0.5192879782339226
721,11.305675279373373,26.41863767252051,24.84787580445701,0.9615666462135212
722,12.526061099302206,26.174995212427717,25.59388550063099,1.2912020496342171
723,13.487079884245956,25.72876369094764,26.2596286231831,1.4675517145630939
724,14.142278319925657,25.108474609688933,26.747601367651427,1.5181960863287223
725,14.587716045651717,24.342489754629526,26.991080192302697,1.530170192204265
726,14.914312525511836,23.453909220131862,26.994780065239684,1.5740119372605434
727,15.06509722791971,22.464578409906615,26.836785525659412,1.6459825049552015
728,14.903091368625617,21.402548823468187,26.630821887489084,1.6917624252817482
729,14.371370799347892,20.30636908829348,26.4925644284616,1.6709256942336987
730,13.572317488442199,19.227220668979154,26.514369783648068,1.5925984525007424
731,12.624939673061558,18.22757092243768,26.742947369269803,1.4638122035961754
732,11.511507244007705,17.361242826538472,27.165990693009817,1.2296510320298402
733,10.132488658815308,16.647054038968122,27.718894539148376,0.8060818407094066
734,8.463022520770883,16.07251570740096,28.297777071196176,0.159848548382782
735,6.628225873808519,15.626019308449104,28.797747386840097,-0.6599694239620687
736,4.7547369819832825,15.329000001307273,29.186986752789345,-1.5909636887883034
737,2.8274531157972564,15.253573756372754,29.515243186871697,-2.6234068938761554
738,0.7546816047594417,15.522192275175518,29.850020034970655,-3.780122025431312
739,-1.467097222374354,16.258526562072017,30.244669662634003,-5.056876641837317
740,-3.6977084439116568,17.521117889351846,30.73510182024611,-6.398343755603741
741,-5.809276593325042,19.310658600393364,31.32737801937489,-7.754896136414785
742,-7.81364338297244,21.625032305139392,31.98442238026031,-9.13045276475766
743,-9.807943738847099,24.498998577138412,32.62347827004518,-10.558193125914102
744,-11.816132002019895,28.01819267124866,33.14654844867621,-12.046125863374076
745,-13.731099809982709,32.312812038041656,33.4898579822984,-13.558157466399988
746,-15.446936290567233,37.5408946755406,33.62875475719078,-15.055841962910982
747,-16.981702314753388,43.857113475565164,33.54990949609503,-16.529900344331445
748,-18.459022385037184,51.37858855124665,33.24273841071945,-17.98113234891486
749,-19.943560899854376,60.16806756106963,32.709258101607716,-19.36782225736749
750,-21.362142199190885,70.22025831275185,31.97454236981767,-20.602350243131493
751,-22.61177560237626,81.43175275223801,31.07520644369094,-21.619264779258025
752,-23.676106217564968,93.57788046348013,30.034161572196197,-22.42362334954521
753,-24.651678396519717,106.32184422184096,28.8454725834592,-23.083170766242077
754,-25.618413382854424,119.24678478048952,27.48464333326504,-23.66974144576453
755,-26.539198262478017,131.91079775996005,25.9428321839641,-24.220820054655732
756,-27.30779312117975,143.92907112474367,24.237534158983834,-24.75219517916182
757,-27.86466894591553,155.0429042950986,22.39621613302347,-25.292538168255163
758,-28.274557436062427,165.2044979836973,20.525929354684916,-25.86364952763936
759,-28.645923692080824,174.2005361838972,18.542655808891002,-26.587017035131886
760,-28.980641208039046,181.8660184068062,16.455267078491524,-27.472959714069262
761,-29.26964359940174,188.10955092542824,14.322691204013145,-28.47675003987176
762,-29.561565420783204,192.9177379325506,12.221311009518429,-29.544595024039964
763,-29.93238069012809,196.35477272165065,10.231526195753123,-30.621793499180534
764,-30.393425527271255,198.55948844592592,8.435500854167236,-31.64225918009599
765,-30.873674568417513,199.73710580968157,6.906839935496699,-32.53862948372058
766,-31.29143020601652,200.13878663082568,5.694307808273169,-33.26427299352138
767,-31.632144380655014,200.0333874536969,4.809803822941315,-33.80971763209335
768,-0.655918734607955,3.944286579473509,0.30012536021518643,-0.4061338472592131
769,-0.9223492022819024,9.189701625611159,0.6860856487881737,-0.6614894103163776
770,-1.2996617763374707,16.797172648411806,1.2569031581460903,-1.013674357638759
771,-1.754633064878478,26.78575034688599,1.997437783584882,-1.4636954789842003
772,-2.179059091115962,38.93959601057979,2.873751144578244,-1.9907949021771036
773,-2.556253648925898,52.80567670403019,3.842738799345124,-2.609312578425155
774,-3.0003357927383325,67.71839705124552,4.855292266378564,-3.377820363362843
775,-3.6539379406476806,82.89203925861639,5.8587208656378245,-4.355896854055306
776,-4.562363563727621,97.5758969119499,6.801178316453416,-5.557500826865414
777,-5.690658646300921,111.23548761009154,7.640788613991428,-6.9667706914213845
778,-7.05665777003742,123.75103910547271,8.361030466939567,-8.601759792594146
779,-8.740817991885507,135.00193253838856,8.937681839696436,-10.495232461580496
780,-10.743783680487017,144.98423318325666,9.346739878428263,-12.626700857650672
781,-12.903281364754815,153.7814997485348,9.566490603419494,-14.890334330273442
782,-15.048613323673663,161.52933675880283,9.58575903360898,-17.17268199945232
783,-17.160033585079265,168.37021411694366,9.411907133483465,-19.433400654504588
784,-19.32030124229645,174.41701634487094,9.069128331819728,-21.683090812942453
785,-21.534895069180504,179.73634009704782,8.584153301912824,-23.90894878685151
786,-23.6669210450907,184.3459591473059,7.98199088247242,-26.054936119656034
787,-25.582034143133846,188.20906440281888,7.2943137890902845,-28.06787420239027
788,-27.279861772994714,191.23444922780604,6.553773704417123,-29.936852428803046
789,-28.869490729085054,193.30466136538385,5.7795115631875085,-31.69146400250899
790,-30.39347545205036,194.31841059852303,4.982567860804712,-33.34335478437509
791,-31.751004262826566,194.22605015129497,4.171170563720098,-34.853443480837264
792,-32.827558396714196,193.03835739307564,3.336662369438099,-36.179188209915296
793,-33.610042892500395,190.80526385356114,2.4597956826874796,-37.315656557533835
794,-34.19945377944905,187.5927699602825,1.536119450042684,-38.2896426801075
795,-34.67229494412851,183.4641670671819,0.5829170492757529,-39.110452449114575
796,-34.97747107741062,178.47273464427724,-0.36614437776860215,-39.75207569799066
797,-35.00905158019379,172.6665337341769,-1.2687201594616861,-40.19337998698009
798,-34.729059389747356,166.09934601768975,-2.0884714644437303,-40.4497371686356
799,-34.226738646025034,158.8484942875297,-2.805180874401745,-40.571474680432054
800,-33.59764785735032,151.01803963049917,-3.4121634955046445,-40.59209562772739
801,-32.827071820805884,142.72519153942787,-3.9139908895968483,-40.49806538220678
802,-31.827227038221466,134.08834679340296,-4.327883200387919,-40.25580310916153
803,-30.558037731902683,125.2169964539158,-4.670746253576695,-39.85098165499268
804,-29.113708028984775,116.20042545405262,-4.93736027467927,-39.31932434371398
805,-27.626938626898394,107.10738159475501,-5.106910582514936,-38.71891852045645
806,-26.135144206706716,97.99284210057544,-5.167054217350065,-38.074139139484096
807,-24.57562166847865,88.8995330840937,-5.123765291737842,-37.36617366709764
808,-22.919186828150384,79.85725017933824,-5.002080339640062,-36.59020589489709
809,-21.279477884988935,70.88032057627828,-4.837224357363299,-35.801406233642695
810,-19.823508883008373,61.96888075160509,-4.665223349602938,-35.072958908264496
811,-18.610443527911745,53.12215167110162,-4.525454079157506,-34.433717766828806
812,-17.54120653386597,44.35381240957332,-4.452103374753581,-33.858583814398344
813,-16.513335465282175,35.69065445646056,-4.451128563510129,-33.32026895437087
814,-15.565727821478959,27.161801566956488,-4.5039689886987215,-32.838014370130125
815,-14.810275604340717,18.797502443597523,-4.592465106534661,-32.45831473154628
816,-14.282427749729928,10.626994359177296,-4.709740448723968,-32.197873748487325
817,-13.87606609764912,2.671808023576633,-4.856007580928826,-32.01610938038262
818,-13.497335964566062,-5.052707328425585,-5.024163266570654,-31.87069952359703
819,-13.221705193486567,-12.531770826749787,-5.196952906208792,-31.779247524874854
820,-13.220547266517976,-19.750537057964884,-5.363098615191316,-31.793505511115026
821,-13.587400420668791,-26.695874842423095,-5.528147360381832,-31.929405995086743
822,-14.259875951995546,-33.358157658832624,-5.702976119801888,-32.13792877528469
823,-15.15224272996612,-39.734526254817396,-5.887615809134802,-32.364375282429044
824,-16.28313642745033,-45.83107292230347,-6.074011473581907,-32.604143134822316
825,-17.723280767791923,-51.66256898624068,-6.2419983343592635,-32.88012220248583
826,-19.451336209796544,-57.246600819050364,-6.35252914450239,-33.18774753824623
827,-21.29090592460702,-62.59700418233159,-6.366933303504893,-33.47509391273437
828,-23.067538510910868,-67.72292746013699,-6.2670088467871095,-33.70221621873083
829,-24.76801985286892,-72.62882373044022,-6.053198595695294,-33.89016358920557
830,-26.49753389838005,-77.31519516299008,-5.739866182095611,-34.09119355016452
831,-28.303488429851082,-81.78368717486438,-5.358759975074109,-34.33124129250201
832,-30.093092187793918,-86.03915537574358,-4.949631244116155,-34.59023333738179
833,-31.753730150290664,-90.08223688828501,-4.552063795986691,-34.84146575584869
834,-33.28319070812013,-93.90359281839963,-4.2130116091669105,-35.08874505218341
835,-34.78099107610006,-97.48856278198296,-3.9845610206301565,-35.35803124133616
836,-36.282976117085695,-100.82604245188827,-3.9076237081674554,-35.64019342267282
837,-37.680234923303196,-103.90864300148384,-3.995133674928942,-35.86607389416398
838,-38.83292330587569,-106.72515250998411,-4.231355696436031,-35.96381543720097
839,-39.68224925191435,-109.25955040625482,-4.584548962407722,-35.913063413605556
840,-40.27995113416864,-111.49768238015722,-5.011580415350614,-35.74353732658805
841,-40.66758375550782,-113.43490322206151,-5.454083862873718,-35.48030965353951
842,-40.77783308412406,-115.07851077855082,-5.850428150739063,-35.11381541605001
843,-40.50064600072751,-116.44432213499361,-6.168893105405849,-34.62384975330834
844,-39.80630871417218,-117.55261399221693,-6.424033396361574,-34.01160110736873
845,-38.80986800025005,-118.42519816615274,-6.6602918238252204,-33.31460219591913
846,-37.640958404925186,-119.0849204441433,-6.932215639272658,-32.563304453836956
847,-36.31593372080905,-119.55489544726608,-7.281354299844353,-31.741078091219084
848,-34.781093817957654,-119.85770954483081,-7.707131508560536,-30.8007151118994
849,-33.03553503879689,-120.01649729565142,-8.16518070492928,-29.709438228957378
850,-31.202514371796482,-120.0555780381387,-8.59308805542025,-28.486078143040732
851,-29.425799092066544,-119.99757075931997,-8.937177337344298,-27.177486839663242
852,-27.733062759543493,-119.85468336078601,-9.167228111564775,-25.812437994168874
853,-26.02232336111185,-119.62172010133844,-9.277099405672153,-24.391720945617855
854,-24.203389516040712,-119.28302523332754,-9.283204667540046,-22.931750789318052
855,-22.32677682289806,-118.8308971676364,-9.226764683888991,-21.502425820988954
856,-20.516146430108687,-118.27558761848321,-9.161533706363324,-20.184792714374353
857,-18.826224467089258,-117.63856858883398,-9.129411761244238,-19.01131781977051
858,-17.188295269657658,-116.94265765336014,-9.152059109109302,-17.95811657598706
859,-15.550128121190388,-116.20742606103607,-9.230815259731997,-16.993105072135606
860,-14.009321262556844,-115.44864568800729,-9.343663924966577,-16.118179025811177
861,-12.734618741967864,-114.67785861026631,-9.45276472886004,-15.35370068198545
862,-11.8070844089904,-113.8997600940825,-9.524398792600762,-14.694444523398191
863,-11.145870720203186,-113.11160847851465,-9.54903875191935,-14.086730476998957
864,-10.65561563890654,-112.3063734903767,-9.540299199903831,-13.485690818100858
865,-10.373708224796752,-111.476774021271,-9.518502573343184,-12.917257583818392
866,-10.407157345500197,-110.61617041481081,-9.500820877456354,-12.451352940422826
867,-10.785005313128272,-109.7176984053206,-9.50079109284465,-12.131048198887283
868,-11.38181180464833,-108.77659314143136,-9.536520501445962,-11.933698128280945
869,-12.052588578572893,-107.7960402469269,-9.63513538631653,-11.818091816941669
870,-12.789253304549076,-106.79399773222664,-9.822276623714439,-11.779930155859011
871,-13.67942071103265,-105.80241529459995,-10.094139062578911,-11.83794987558582
872,-14.74218974954901,-104.85489915493562,-10.39445867262559,-11.980486855762114
873,-15.860580644557666,-103.97268122178676,-10.645800119451877,-12.147106649859442
874,-16.915700601000296,-103.15957076010804,-10.818782520835946,-12.281071040743019
875,-17.907226815501808,-102.40730969658696,-10.95104160604907,-12.371964824175459
876,-18.922690274427715,-101.7013228613593,-11.111422806406091,-12.448862627503617
877,-19.983489578233453,-101.02436832687134,-11.362849188195318,-12.533556631740325
878,-20.96600841177141,-100.36167191588751,-11.72971258421508,-12.606667291764763
879,-21.733627251320563,-99.7055778519564,-12.188231270241335,-12.641177560791148
880,-22.279438508060036,-99.05362935985572,-12.688471757766944,-12.648652553707102
881,-22.715341416513276,-98.39955873978927,-13.185016958574844,-12.677136478488908
882,-23.102524312060407,-97.73265262411735,-13.661164017927113,-12.744905531476917
883,-23.3679449300721,-97.04697792102625,-14.123632457531064,-12.805046982861557
884,-23.41128671193533,-96.3447304491101,-14.572417652640798,-12.793312014877644
885,-23.22298145254917,-95.63015327146697,-14.976683188645957,-12.681416396015289
886,-23.0284316703184,-94.94607799947255,-15.222146483530164,-12.550952902549835
887,-22.706781718823645,-94.21193671658747,-15.340871933840289,-12.310816605559562
888,-22.122279959670788,-93.39120029971063,-15.391851689301896,-11.891850156993607
889,-21.22394206985064,-92.48365458545479,-15.459841641716705,-11.280172845656391
890,-20.093858748163896,-91.52045060110424,-15.615232682300181,-10.527276685437775
891,-18.88564669005018,-90.55431731878724,-15.869215645586387,-9.720745150252254
892,-17.7049654333943,-89.64408511184006,-16.176653978843657,-8.933952560113546
893,-16.58169844974136,-88.84128484013473,-16.479527375340748,-8.205717690770008
894,-15.544615626548199,-88.18360903046586,-16.737246688344865,-7.562741878709651
895,-14.689191270710367,-87.69153428779647,-16.93530972461792,-7.049962367508859
896,-1.8615075927970732,-0.9337279931584241,0.08059418185678571,-1.4088426793553555
897,-3.4847508673511998,-1.8850345389456526,0.04425092037924655,-2.9300914495027452
898,-5.766600211206925,-3.165513866703046,-0.13700847543913197,-5.127898530831191
899,-8.64650111963788,-4.754005615581898,-0.537076138066702,-8.00526108732881
900,-11.949935410370335,-6.609606584177357,-1.216265725029421,-11.491667190702344
901,-15.543906333499766,-8.674689615379032,-2.207127876240631,-15.499744958009845
902,-19.38803017100376,-10.878647972945164,-3.5058696248423598,-19.9447258140404
903,-23.454729596765652,-13.147976626956728,-5.069524556677539,-24.71670452896255
904,-27.62327822573549,-15.425182854330496,-6.819519101309287,-29.655748819126064
905,-31.74670000501763,-17.68732104655754,-8.657303934577516,-34.60497031105462
906,-35.854922081873006,-19.96534900587709,-10.487002368706184,-39.5232998317191
907,-40.006689959876525,-22.239668117248044,-12.230109906221445,-44.35317051310227
908,-44.20288917287472,-24.468269034838208,-13.852881300379739,-49.02857422209051
909,-48.30254890388025,-26.594568941538224,-15.371846084558497,-53.44598287327466
910,-52.17054822642921,-28.560438349416337,-16.827329634199337,-57.51603588060029
911,-55.831992604491084,-30.321808326050895,-18.25307856586219,-61.229428748253476
912,-59.40591921937876,-31.86203721752487,-19.669566510480657,-64.6416125267216
913,-62.93145860830395,-33.19596410562985,-21.082662523352177,-67.79922039002724
914,-66.29945614871082,-34.358926930137855,-22.475988839280006,-70.6963720331365
915,-69.39594785923333,-35.39020594396598,-23.814908205547805,-73.31547949968505
916,-72.2356724931885,-36.32548030611438,-25.06370046773525,-75.66754963038655
917,-74.91260247065135,-37.19440700358753,-26.197002291260745,-77.77189642250333
918,-77.4362526054517,-38.01879259249188,-27.200956266498746,-79.60602656287945
919,-79.6655566347895,-38.811585247760355,-28.07339612896466,-81.09220453004933
920,-81.45081762132705,-39.577373993140526,-28.821670115266745,-82.16203492470999
921,-82.7826503003091,-40.31247661054668,-29.451179182198448,-82.81968940279198
922,-83.78271739418429,-41.006497937052735,-29.952166313004625,-83.13252443872909
923,-84.5229205910008,-41.648523679754994,-30.298470017421742,-83.15625923128647
924,-84.92994775901023,-42.22945296295073,-30.456141921341796,-82.89786173854486
925,-84.90572757869604,-42.7392810823474,-30.39437131775847,-82.35616666857948
926,-84.45253927140647,-43.16418217560322,-30.107861401506618,-81.55957443376282
927,-83.68900258851451,-43.48647492358591,-29.64176871231865,-80.56561252701285
928,-82.70072790386597,-43.690266800298,-29.07843952467586,-79.40419633231326
929,-81.44131806439543,-43.766721168706006,-28.495478904253396,-78.04594052689714
930,-79.82374238122736,-43.71609159849305,-27.94636947852507,-76.4492111436129
931,-77.83376026779958,-43.54723773851361,-27.465540588455568,-74.61586439067851
932,-75.57452661839294,-43.27602818899318,-27.0697012905852,-72.60711710185714
933,-73.15767512365781,-42.92255664275053,-26.750732113098433,-70.49106593720525
934,-70.59403992927145,-42.50721168103656,-26.477594042368647,-68.29508912734053
935,-67.82586928966914,-42.04785160810228,-26.21444050082785,-66.0187355736852
936,-64.84260107264225,-41.55547396458545,-25.937123111928944,-63.67041504791868
937,-61.758944643703124,-41.030977694756174,-25.64012862477278,-61.28475097058006
938,-58.71437457976948,-40.469119053927976,-25.339842183570404,-58.885399163711604
939,-55.74600418181844,-39.86816617853026,-25.070872295891512,-56.4529747885346
940,-52.78880250266771,-39.235461025200735,-24.871751113179087,-53.94728857286419
941,-49.8079811104414,-38.58342580737179,-24.770206611071846,-51.36039051973877
942,-46.902981436443696,-37.92328918978207,-24.776943819426037,-48.74557766255745
943,-44.212640925101304,-37.26220939505204,-24.883174346968197,-46.18064760656952
944,-41.76831424400984,-36.59800474327391,-25.062584766938357,-43.71041113548859
945,-39.461242067340365,-35.913652870880696,-25.284587614814647,-41.32891810576861
946,-37.1968084602263,-35.184203319449985,-25.532434739084078,-39.03346560940446
947,-35.03376411199636,-34.39059402986056,-25.804770821136138,-36.874552391357305
948,-33.11203895310046,-33.526888173925,-26.099597482247457,-34.92600837512847
949,-31.504227041897924,-32.60171440098093,-26.40447534602127,-33.226920751453164
950,-30.135809723136937,-31.63591541212248,-26.702134837303525,-31.756463057034225
951,-28.918596252513435,-30.6576277593038,-26.982148993366646,-30.486014063064953
952,-27.910622424283435,-29.69936702414316,-27.246211073804556,-29.432640102296116
953,-27.251985212395684,-28.797226699893827,-27.505713317047395,-28.635818033107675
954,-26.990640944817265,-27.983261378178696,-27.77926306281766,-28.10569705370879
955,-27.00044068189038,-27.270522747371995,-28.086730392798938,-27.794422893408793
956,-27.127392454499034,-26.647497498487283,-28.441050316135737,-27.63277060511983
957,-27.352700270237534,-26.086903411557866,-28.84070011559576,-27.5824087199548
958,-27.757167810268733,-25.55908232027953,-29.256621602231426,-27.638447057535796
959,-28.363792213101565,-25.041432073379706,-29.627928010043895,-27.787962994335402
960,-29.06236617239064,-24.522296115756497,-29.879301147144943,-27.978210549469285
961,-29.744251216908356,-24.002064699381837,-29.942348484516987,-28.15888455823501
962,-30.43358362497692,-23.498961883590034,-29.77274075053978,-28.3290673734174
963,-31.240834288048415,-23.0500564701502,-29.363667922206076,-28.51535403055797
964,-32.192391811980976,-22.6903347753543,-28.750962358854647,-28.711802576565244
965,-33.15459483401477,-22.43174041046911,-28.013402663331046,-28.860161236722295
966,-33.97041574975305,-22.25324980412127,-27.254889824172704,-28.902136303485683
967,-34.60407535692825,-22.10405204145592,-26.571944546606257,-28.82881341570729
968,-35.13741247331246,-21.922447315919907,-26.02696074406715,-28.676298761775307
969,-35.5974852391074,-21.640895581852106,-25.631698671193174,-28.46460557189926
970,-35.867518432818166,-21.18000895315614,-25.350244154352165,-28.1633882014231
971,-35.81307709434687,-20.45504838572666,-25.117173054630268,-27.729778390298396
972,-35.40676835326551,-19.392525223917048,-24.86060449363721,-27.151504681613467
973,-34.74108055157507,-17.939932886370993,-24.526723678412864,-26.458032183392813
974,-33.88301030031864,-16.063513170565685,-24.08561402964398,-25.672973735079506
975,-32.775300615837196,-13.75009636953765,-23.52393129898443,-24.777307843970277
976,-31.31651477117235,-11.014214882836683,-22.847555293192762,-23.739442661574092
977,-29.48442180992009,-7.899511118188057,-22.081138049036312,-22.566143530167807
978,-27.39500301030185,-4.471227058080441,-21.26042894371977,-21.31884908555174
979,-25.182479155819124,-0.8042502706284946,-20.429284720137343,-20.06043025697047
980,-22.872511329158055,3.029220867360526,-19.635882960725116,-18.80886025802091
981,-20.411364601599516,6.9600234823180935,-18.921563417214955,-17.54422950766153
982,-17.789185826783314,10.912039382071779,-18.308631986481455,-16.247423795988247
983,-15.115652407141809,14.805435629033628,-17.797129435427085,-14.930713360242244
984,-12.515358932477715,18.56818380349415,-17.37589421675148,-13.607997660895252
985,-9.998591904931889,22.14601493316642,-17.033650820242332,-12.252410866277605
986,-7.461188447253095,25.49687210179486,-16.76177805280299,-10.799301010775654
987,-4.83228451497523,28.57123194779347,-16.545178777654055,-9.206238286616095
988,-2.1938326759277036,31.31504688890032,-16.34482833249579,-7.502332307342668
989,0.30490066983760816,33.686665538239225,-16.099768679115527,-5.7580899010158175
990,2.595494596121518,35.66017904883311,-15.743150377642655,-4.026387766160269
991,4.745575935441818,37.22001748854001,-15.218221764365332,-2.3142872973317554
992,6.821217662961843,38.35873701576495,-14.498504212881224,-0.6262470521996987
993,8.74468666251587,39.081317552346,-13.594950185197737,0.9856672382228322
994,10.363346696718994,39.41336940870194,-12.54805112498528,2.4537688510283395
995,11.609644447403605,39.40424727481637,-11.418742199399999,3.759607027193602
996,12.583904952956154,39.11545449807413,-10.276982843508994,4.951127112178537
997,13.405572573827165,38.60038834488502,-9.185039302653047,6.0786127209551175
998,14.049980163752645,37.88867579512729,-8.180875817457972,7.132518261606309
999,14.411619855743801,36.986021807693255,-7.277220679219373,8.0676593232688
1000,14.45801774013005,35.88535118254507,-6.4668925417743015,8.869619669350254
1001,14.300400889897956,34.578474988481716,-5.725260318875657,9.582884980517285
1002,14.061434940396797,33.06374294810679,-5.010111733244036,10.254310536555126
1003,13.733678458496984,31.348259306769958,-4.2636553329043,10.872947077403566
1004,13.233030553741502,29.451014090909954,-3.4296694847279756,11.394595513670986
1005,12.564025345254851,27.406525568768238,-2.4765103020753356,11.8131181185977
1006,11.887667100371704,25.261730533156605,-1.414231112459376,12.186675179890097
1007,11.373239462231863,23.070579950238162,-0.29804995897351105,12.58318924124512
1008,11.050215554660944,20.891176611204404,0.7867797850560829,13.022659250611737
1009,10.833948840831368,18.779759507128876,1.756759623873269,13.47680672655777
1010,10.691423261252995,16.77982802460615,2.562841730903303,13.928858254981153
1011,10.72064930621429,14.914369808693559,3.206447382794054,14.40626737210856
1012,11.014745323064066,13.186341187670923,3.728800300785529,14.931192124855384
1013,11.528987386941228,11.580168274957192,4.180451159063535,15.488378787313199
1014,12.008965931363715,10.010458173361991,4.594514792820635,16.00134947123042
1015,12.526162823034891,8.524138370731311,5.00651762098511,16.523464400517163
1016,13.19534528492455,7.1723160717072405,5.429763205353853,17.106730559313824
1017,14.046177161909817,5.998592635001243,5.864804321134444,17.757387402485186
1018,14.988559727454984,5.034377302591757,6.302757950158312,18.428767368183088
1019,15.891827604389796,4.298179377666542,6.7230722965107494,19.061031419753746
1020,16.70943480063346,3.7948824481312826,7.092938928040868,19.63113556005397
1021,17.478935325552122,3.512807801049834,7.376535910604811,20.14792576274744
1022,18.207561887095125,3.418948973101206,7.553036196774214,20.603645746060636
1023,18.816926584954434,3.461781854315869,7.628688857873283,20.958701939308796
1024,-2.041242781379883,1.2075184173971563,-0.7027222557002868,-1.7223082349376417
1025,-3.830691259710173,2.8060324706246935,-1.5301790957997676,-3.5180756135467264
1026,-6.334409561917977,5.0985684667304945,-2.750063479666722,-6.04626896218305
1027,-9.461892087632723,8.0721614959835,-4.394323713546255,-9.272534976846051
1028,-13.01266767627846,11.642374198601708,-6.462705901259089,-13.083495614084104
1029,-16.822635379444733,15.65633872999619,-8.914395958426976,-17.34396056439522
1030,-20.80728448607893,19.904256514512916,-11.670087313543174,-21.920627178731465
1031,-24.879437164118755,24.14514103635227,-14.629459553717705,-26.665466898407455
1032,-28.86824028003322,28.14455304544469,-17.697585028490465,-31.409128907666076
1033,-32.60815059745978,31.726318103543832,-20.807318477679246,-36.019770379911755
1034,-36.148681446250954,34.83511949426161,-23.94482196387318,-40.50776671622254
1035,-39.55946310873115,37.40967609718964,-27.05698690342006,-44.850815059706655
1036,-42.87719843879111,39.406117473657204,-30.069711933455714,-49.01520616294981
1037,-46.025195923027404,40.78884090501303,-32.9067888406206,-52.93261159607459
1038,-48.93686066771288,41.53162912939276,-35.516415489248914,-56.554451313629684
1039,-51.68061287067137,41.62693335544523,-37.87574125147765,-59.90040593169167
1040,-54.38406854757044,41.093338602834926,-39.986627898168045,-63.01941984669824
1041,-57.08956932948368,39.967993689887784,-41.87271885363553,-65.92964732479061
1042,-59.69028768709427,38.2956809661396,-43.57467361057904,-68.59961169755391
1043,-62.07258810708134,36.12496785447972,-45.13641138932295,-70.9907549356953
1044,-64.26353524517211,33.50665043215995,-46.58379155699559,-73.10192895210719
1045,-66.37235778732312,30.489479966011864,-47.91784652331847,-74.95812405993641
1046,-68.43504080811165,27.118481498031905,-49.12386734597328,-76.55840587799658
1047,-70.34628241976019,23.438268050128947,-50.17421483155843,-77.8509282994791
1048,-71.99731456031274,19.4937906515399,-51.0260046543857,-78.78192427768002
1049,-73.41917366259457,15.329780869517728,-51.62573636527836,-79.34470873393458
1050,-74.73626653221115,10.993044335427124,-51.92551146053604,-79.57259669068168
1051,-75.98489068605991,6.534002018355814,-51.906395016749215,-79.48389406679732
1052,-77.03425457028042,2.010714719245771,-51.59253008296394,-79.04766493306761
1053,-77.72874593255838,-2.5068037987270735,-51.05092118062319,-78.22507720352655
1054,-78.03496607376634,-6.942636335240157,-50.36840635867511,-77.0221220396282
1055,-78.0401978303369,-11.2276288410065,-49.613900725571895,-75.49237458166299
1056,-77.79427657558153,-15.311872694625396,-48.81936709833652,-73.67942948270542
1057,-77.22366338922103,-19.170941227448285,-47.975599336179975,-71.58758094619735
1058,-76.24800592324135,-22.799103585038278,-47.045599879299246,-69.22865521515546
1059,-74.89406965030913,-26.200571916808087,-45.99688662613343,-66.65515766242055
1060,-73.29424728294963,-29.388074920152935,-44.8212455518076,-63.95191859105024
1061,-71.54004096624371,-32.380048319534716,-43.53890788521129,-61.191057866664856
1062,-69.59532014365351,-35.19339073572783,-42.188544435989456,-58.3957508929991
1063,-67.38849948355436,-37.83670878047283,-40.805392534579426,-55.56275270467146
1064,-64.92763671377321,-40.30919119714605,-39.410043043952875,-52.71185249024428
1065,-62.34308958491536,-42.60573947706224,-38.009216810142554,-49.908923119152384
1066,-59.764340261359386,-44.72389876108768,-36.596521767426296,-47.22216456344456
1067,-57.20366238867906,-46.666467201303874,-35.15322632002898,-44.67595967933261
1068,-54.598650264923684,-48.43849492593712,-33.6508107984962,-42.262666013342546
1069,-51.932892205961124,-50.04603823500457,-32.05542031866009,-39.989059877404955
1070,-49.30867473875537,-51.498919165679546,-30.344037203693183,-37.897481425847666
1071,-46.83495063011957,-52.81159494054202,-28.527482390515686,-36.01929023188001
1072,-44.49367859006602,-53.99751627371695,-26.657859006306715,-34.33357685407435
1073,-42.1531939148232,-55.06223910855601,-24.821249616812132,-32.77978531522547
1074,-39.71849641827321,-56.0042709404307,-23.125000472268518,-31.31012411974458
1075,-37.249765884603825,-56.81981959064428,-21.66612543174037,-29.9279612838494
1076,-34.87754077373954,-57.501839369567136,-20.485140475334816,-28.66060197753625
1077,-32.655242647489416,-58.037900436011476,-19.563200297389514,-27.508119289807485
1078,-30.509647313012472,-58.41500051460834,-18.861190219851416,-26.418591658476284
1079,-28.36872067939081,-58.62804281760852,-18.339553331284883,-25.337496787626343
1080,-26.29179491838329,-58.68464458510644,-17.960227692061377,-24.26658524941375
1081,-24.40570103226682,-58.60229647643329,-17.68200932131957,-23.24640837442635
1082,-22.765015545141917,-58.40209860165585,-17.454136509001305,-22.30210253361174
1083,-21.286100316920532,-58.10522729921651,-17.22289221392421,-21.409593501105714
1084,-19.8842641879489,-57.73393909430591,-16.944549609249528,-20.5416430400966
1085,-18.614291847036505,-57.31211296201819,-16.594680574741783,-19.71971256810337
1086,-17.602469455793724,-56.8583302533835,-16.17009943617987,-18.990155389091615
1087,-16.89744835627602,-56.37815056355453,-15.684145817773915,-18.37372511353061
1088,-16.40018039512555,-55.86464362173022,-15.156137043809826,-17.8395215662004
1089,-16.002448440194485,-55.30437408219849,-14.604106355884172,-17.34918356624491
1090,-15.725350890025343,-54.68380562734215,-14.047552825239569,-16.907131112482404
1091,-15.654953951197076,-53.992873062474686,-13.514094581277925,-16.54159190263967
1092,-15.788215146537267,-53.22629023007305,-13.045689681315656,-16.25253894638423
1093,-15.975017761957728,-52.38810594244411,-12.692889110401932,-15.995103017276529
1094,-16.07357727405363,-51.495940187679814,-12.489264491183786,-15.728593409326988
1095,-16.096005014630666,-50.57561453972562,-12.428667732607723,-15.458274657353272
1096,-16.156047674793363,-49.65030519575969,-12.4715100647555,-15.216653495274805
1097,-16.29607056390627,-48.73371782970715,-12.567388354841386,-15.000655626688276
1098,-16.40666218841424,-47.83054991357119,-12.669688166607934,-14.746317931066725
1099,-16.363140723764314,-46.940263546187644,-12.739969114792439,-14.387124993220787
1100,-16.176388357668593,-46.05866483942057,-12.749616683017791,-13.91672984701292
1101,-15.98207885447921,-45.180477083387885,-12.683859329073938,-13.390775446846948
1102,-15.865763456151727,-44.3047443746057,-12.544742969133855,-12.856833409265544
1103,-15.763082070850864,-43.43716014253031,-12.349561976248927,-12.308678482462213
1104,-15.565711778509078,-42.586851774991736,-12.124369449110288,-11.7261920817245
1105,-15.247513689036982,-41.76164070583453,-11.895820313281162,-11.123834501361873
1106,-14.889360504085316,-40.96635873257999,-11.682007366599162,-10.551745128228454
1107,-14.538934428340992,-40.20210997561969,-11.48013701937377,-10.042141241927684
1108,-14.11621919033165,-39.46559643818402,-11.262428852316633,-9.576939554207842
1109,-13.4984673582865,-38.75055124115843,-10.982168869338246,-9.110578747025881
1110,-12.633463245751038,-38.04605097389822,-10.585057699286242,-8.60658956872437
1111,-11.589471183416373,-37.331894953372846,-10.033210366704209,-8.064958349002177
1112,-10.439233226626879,-36.578256999939406,-9.322545459649096,-7.493348080224117
1113,-9.152645927780327,-35.75185179551595,-8.476704161655864,-6.867146680982664
1114,-7.648406553848509,-34.82555649555376,-7.5408151748510255,-6.148536082572661
1115,-5.915280157605513,-33.78672587024811,-6.580926009046554,-5.339817667030465
1116,-4.079644694618815,-32.641558605671705,-5.669929240509206,-4.503538654788689
1117,-2.2850920357885727,-31.412577741629494,-4.861719362395144,-3.7044814336592387
1118,-0.556942207681707,-30.129595389721484,-4.17830744026984,-2.9543560925955625
1119,1.188929899730442,-28.823680944076006,-3.610754463682583,-2.2251941201489336
1120,3.010850459272918,-27.529628930802243,-3.1175726036201783,-1.5026763487505894
1121,4.833900352049498,-26.284478467433292,-2.637251482462027,-0.8131926709681168
1122,6.537580303098051,-25.116430494937198,-2.124734274715641,-0.18260410117976417
1123,8.101343659201111,-24.037262262413325,-1.578454556465789,0.4120821286044214
1124,9.644552651917445,-23.042226528689636,-1.0399442755408355,1.0470926941645846
1125,11.281218304383598,-22.113147834501202,-0.5709429491018126,1.7947202425526525
1126,12.981666501719907,-21.224567867940515,-0.2201722404059699,2.6617490155131227
1127,14.629795131662746,-20.354676515650656,-0.008626033306984651,3.5982703025660223
1128,16.155097243076764,-19.495778401573208,0.0792882858683652,4.554381084311512
1129,17.608267188642483,-18.657290684706837,0.11079026953172169,5.526126607618051
1130,19.03310535088111,-17.86333211178722,0.19114318612021472,6.514701695640976
1131,20.328889678038205,-17.14332258957664,0.42054195039084996,7.473821420875993
1132,21.324037263891526,-16.51800759761476,0.8554505643614911,8.34324129749709
1133,21.931837559041234,-15.99222695157651,1.4985492506849745,9.105862873974786
1134,22.22981721028746,-15.557105944004531,2.3027903299076287,9.803446657226358
1135,22.32140707025534,-15.195392575748611,3.178860940535055,10.479856832390523
1136,22.182380656889585,-14.883475652584751,4.015399509400786,11.12538127441961
1137,21.71618500489203,-14.590421845915332,4.703819794227964,11.694787357165149
1138,20.916852328116132,-14.284515087885987,5.1712919477918335,12.156771401654105
1139,19.933236195342072,-13.947407697398823,5.413911950599034,12.51654821261903
1140,18.916640706918823,-13.578127771497424,5.49503627385301,12.776497778147519
1141,17.87778341944495,-13.184362771740348,5.509902024163275,12.90185672775574
1142,16.68796254655748,-12.798624709579407,5.5018290673043975,12.798886703769972
1143,15.427553685414898,-12.382540711516203,5.598023507017432,12.55670714012366
1144,14.26064978441874,-11.92416272356347,5.861699627053314,12.290713007798827
1145,13.283719642253478,-11.428562428059653,6.296968726722461,12.083645006725606
1146,12.47159057815547,-10.91175396891611,6.85648512755961,11.958041014732567
1147,11.757304368369047,-10.394695562809545,7.461915396040201,11.903493827158014
1148,11.16375502425607,-9.899411452492455,8.037747317390442,11.933437691574044
1149,10.78391987119503,-9.449093251845778,8.534847409165113,12.077276077906523
1150,10.640764614680744,-9.066522075605416,8.931297863324364,12.319002322120628
1151,10.639527158807065,-8.769506475400572,9.219496123527087,12.586271855556461
1152,-2.338321626575716,-1.0693235935801693,-0.38501240440343476,-1.580277213620829
1153,-4.088133187762876,-2.3438928506724457,-1.1366081238902317,-3.0590691102845544
1154,-6.389491148227393,-4.173095908916267,-2.3075131853767745,-5.089974938954142
1155,-9.118750800979582,-6.556777050856951,-3.9447079962687335,-7.630913485045463
1156,-12.08019298989726,-9.440900635301222,-6.070535175682594,-10.586583884632217
1157,-15.135516660523765,-12.724296399158192,-8.663601868979885,-13.851163751050738
1158,-18.223198063422334,-16.27309065952896,-11.644253732891423,-17.32257560441001
1159,-21.271832601649585,-19.94055905021097,-14.877900530282817,-20.89001362825021
1160,-24.164877837886024,-23.595349907548762,-18.19209196640963,-24.43673334653031
1161,-26.831867392966377,-27.160527166468295,-21.3999730819001,-27.889027883659185
1162,-29.416638716732077,-30.651753589298604,-24.3586745737336,-31.30349652578244
1163,-32.017355943518844,-34.04514286464843,-26.984244115061728,-34.6860720462236
1164,-34.62252853525136,-37.31287755689993,-29.281450811162088,-37.9930486317373
1165,-37.081577594684205,-40.425759937629344,-31.311464478167736,-41.12744253088785
1166,-39.268657090608485,-43.355123081502626,-33.1592317557668,-44.0013327974084
1167,-41.20830516168657,-46.07324650975219,-34.902058333550606,-46.582208285802494
1168,-43.00179619397097,-48.55610396708793,-36.57900936039877,-48.877269118336876
1169,-44.69874036719622,-50.78793565832122,-38.18158034867461,-50.90029112116641
1170,-46.23164388057468,-52.761619728480404,-39.66841685892282,-52.645109506074284
1171,-47.53877467034973,-54.47654448173133,-40.978448918294276,-54.11459046596401
1172,-48.70339805138349,-55.93819721732355,-42.031477307366686,-55.3656503266773
1173,-49.88337102205444,-57.153594519981134,-42.73914647424437,-56.483454038655374
1174,-51.151597081884255,-58.1237294681847,-43.043993962971555,-57.51953902467187
1175,-52.415203588262905,-58.843647314229834,-42.956437768747925,-58.453318663345456
1176,-53.55874326765452,-59.30752517935595,-42.558521103942475,-59.239144426008636
1177,-54.60017302384827,-59.51198564696826,-41.980631772378324,-59.87695824306088
1178,-55.635743094210085,-59.45770717836688,-41.368346131304584,-60.396306891758904
1179,-56.69416754897078,-59.155055308602385,-40.84049224887918,-60.78709331349444
1180,-57.671459613575315,-58.631147462557045,-40.447783039974645,-60.975006556583274
1181,-58.467894576489435,-57.92770306088233,-40.1749903734669,-60.89532361330891
1182,-59.12201802416656,-57.09360962989696,-39.97800171053506,-60.56415729943001
1183,-59.748042333180045,-56.17523074115872,-39.80958590879468,-60.0538245271924
1184,-60.36718840957292,-55.20364584441153,-39.635997832744174,-59.42116392318901
1185,-60.83644248217913,-54.18877250079808,-39.44097977682315,-58.67103146440208
1186,-60.9836634543503,-53.12540316549925,-39.2129429121259,-57.78894319600334
1187,-60.762450606787894,-52.005422097407816,-38.93482957653483,-56.79600246960947
1188,-60.25338434199216,-50.82378878433354,-38.58413283051791,-55.755915756400924
1189,-59.49617012743526,-49.57299994881364,-38.136357894603236,-54.701663704073795
1190,-58.398040560845764,-48.24249217868528,-37.56289690451005,-53.58911408256727
1191,-56.86695519282586,-46.829717605549696,-36.8258910108282,-52.349837789271874
1192,-54.94372166543031,-45.342087165563825,-35.8852446496305,-50.941955556163585
1193,-52.782085445843016,-43.785584629117224,-34.7288543692252,-49.34354696915856
1194,-50.4759483901459,-42.158976909031864,-33.393761343957024,-47.5027033696664
1195,-47.97395170069251,-40.458353598550076,-31.95249736371276,-45.33100154651648
1196,-45.19310988204229,-38.68560584564546,-30.48718127772894,-42.77837609135513
1197,-42.14471815979909,-36.854034047661976,-29.06089860743014,-39.891469209047365
1198,-38.96893974867071,-34.986733828102984,-27.69298369277079,-36.799644757737425
1199,-35.804272942255594,-33.109894111035665,-26.359991848690694,-33.64243873620525
1200,-32.67093892670501,-31.24654451571377,-25.028378678337695,-30.516224020611286
1201,-29.51626408956255,-29.415217409482786,-23.686272656008406,-27.474963503143215
1202,-26.332593663689824,-27.62857649896024,-22.346197417421997,-24.560760463363742
1203,-23.226856312648,-25.88978367767096,-21.03365473325957,-21.826625697091654
1204,-20.312055644487554,-24.196063598794638,-19.766535726185264,-19.30268480842873
1205,-17.581978898432677,-22.548329444361787,-18.542195263667917,-16.95675443688404
1206,-14.929039193894551,-20.955514477930983,-17.347769005354536,-14.709688346627203
1207,-12.284607350551097,-19.432255291121628,-16.17388872752865,-12.504738821116899
1208,-9.72197179974964,-17.99585014158436,-15.012720895665849,-10.355151334609427
1209,-7.364120587736261,-16.665531679337363,-13.85320376320866,-8.310194295842892
1210,-5.255524061302846,-15.462615197015994,-12.687652932045811,-6.413626956612028
1211,-3.332888121175028,-14.405196994608415,-11.518693755101449,-4.692551357850828
1212,-1.5411350557182983,-13.497271015929972,-10.367682581968698,-3.181301549946505
1213,0.04736066144796729,-12.723856155371115,-9.276637617718427,-1.9437638524689078
1214,1.3038358057156418,-12.057763408114804,-8.2992255162172,-1.0313204811880663
1215,2.1880271384550856,-11.471236225369658,-7.4848578896530205,-0.43036048098648244
1216,2.807054700614523,-10.94392338531098,-6.871198834731126,-0.05762607031758028
1217,3.2733733398492535,-10.465520378479912,-6.486075638837783,0.1791980587462897
1218,3.559546052662378,-10.034725392766779,-6.330729414248577,0.31672657159601825
1219,3.5616429340129883,-9.653269475442409,-6.374686154406477,0.3512155083004715
1220,3.2485350770625017,-9.318724794079623,-6.569870127775109,0.3031949977490747
1221,2.7389393334432843,-9.025442275937278,-6.84968363011751,0.24507396380620572
1222,2.1619457277522383,-8.770002957163875,-7.131361657375668,0.24369053193945642
1223,1.499067472597182,-8.55189263172789,-7.336481216609739,0.2994615804840555
1224,0.6370117413912457,-8.3728305941625,-7.4179244431046305,0.36563975451286623
1225,-0.46459747709568316,-8.22823626898639,-7.371562211454683,0.41783011540453957
1226,-1.6889375824301252,-8.093738663652395,-7.225539661837199,0.4925227482792884
1227,-2.8967993594124977,-7.936081419474853,-7.011060448047895,0.6347412350100131
1228,-4.077661763051318,-7.736926633904918,-6.741015357533541,0.8408677171877554
1229,-5.319228096543036,-7.495586347363274,-6.4201903954420025,1.0756987141479686
1230,-6.635435949723653,-7.2158727916937595,-6.056193155334787,1.3302753819707995
1231,-7.8813572407026715,-6.895625596758658,-5.661526633960538,1.646778703188579
1232,-8.891445460324295,-6.526705088128666,-5.256378907254684,2.072784593498172
1233,-9.621950351931035,-6.102650219255047,-4.85694391789343,2.61490535228347
1234,-10.140193533082387,-5.6240817122573095,-4.4448142407835975,3.241573290455134
1235,-10.471572017480003,-5.099828285580468,-3.965099962989566,3.9245702257014705
1236,-10.53184427176532,-4.5463848806919875,-3.37099374859661,4.657800667884202
1237,-10.235693786526236,-3.9815273034340586,-2.658599849230851,5.437469828199314
1238,-9.59891084373986,-3.4144305319050994,-1.8686452427816225,6.234152421129132
1239,-8.752323088365054,-2.8397782494019492,-1.0576308967456909,6.978183130695673
1240,-7.793345293982151,-2.2417250014365084,-0.2607178296752286,7.609715985761898
1241,-6.690809381063668,-1.600601957455958,0.5228024746345061,8.115932872922123
1242,-5.384725666633919,-0.8962752125395149,1.321597979284867,8.495159878242564
1243,-3.8999456479900068,-0.11430032552222341,2.171203563042291,8.719108631801198
1244,-2.369762947884719,0.7584127865636592,3.0899522190092283,8.741370916475104
1245,-0.9032488319538441,1.7417939596912624,4.063378812784289,8.550584462094813
1246,0.5192254470298356,2.847123945578097,5.059574594352419,8.188572016701247
1247,1.9872194477983738,4.053592924674085,6.04051764762897,7.7215203100421155
1248,3.527412052431081,5.3094550068627,6.9450526452689845,7.202942870805426
1249,5.040670639122462,6.53615974076708,7.69677327442423,6.653639695395149
1250,6.405384101556438,7.6492757013238055,8.233313850872932,6.086804377183329
1251,7.591490184082968,8.610548734187642,8.519302302858065,5.535013762090708
1252,8.67651893609469,9.418238510967473,8.549103782066535,5.050175126019082
1253,9.729998708202764,10.062199225093252,8.356941359674343,4.6721468403076605
1254,10.705376592274918,10.516831727359728,8.026385393455433,4.39810630700141
1255,11.49502822488563,10.716117950834096,7.6634839773159795,4.197001723669331
1256,12.047790999492928,10.556880301287332,7.3468474202634315,4.055215020341953
1257,12.435494149416787,9.969555981321115,7.11093568609943,3.994865269168521
1258,12.73103320592436,8.909895807900934,6.960673029922477,4.021143152826225
1259,12.869600139531153,7.249839907807244,6.885535334477844,4.076341706928148
1260,12.71530744001403,4.721059662639442,6.8637295243169385,4.076259082471083
1261,12.213797594504811,0.9289483740716529,6.872757626085283,3.9803374884616867
1262,11.474816305685147,-4.636486755121303,6.905677121883784,3.825708419910959
1263,10.64095934455106,-12.57248156037639,6.968679124842326,3.6761001567211755
1264,9.721934918891906,-23.50202864869566,7.085321555188081,3.5434173276728225
1265,8.623600376884104,-37.99840548771849,7.334425650944883,3.392245674065952
1266,7.288309751534058,-56.50783348166957,7.84811319211347,3.1965380518271247
1267,5.77948104040545,-79.2871073609369,8.754517812061827,2.959784085057193
1268,4.1729679267503785,-106.37330595184868,10.11787847940733,2.688097632539074
1269,2.4319024068690416,-137.54994077665353,11.888565936141463,2.3679774726176426
1270,0.44880892564262237,-170.86905390191754,13.873771495230061,1.9425608955726414
1271,-1.7924453977054315,-208.06780201937875,15.924808449760482,1.4601205870570597
1272,-4.157941522388656,-248.94871488339822,17.876627374824245,0.9771750852150445
1273,-6.5174043871842375,-292.0733886737253,19.593055078470123,0.5372089394868056
1274,-8.80835060902975,-335.3957698863798,20.98555925236939,0.1608791352924344
1275,-10.978376508845356,-376.74081209503004,22.011491413400634,-0.1361238727973739
1276,-12.883799881047015,-414.0853709990901,22.676128517410515,-0.31176454317990165
1277,-14.337655174666201,-445.7947001063404,23.031678999440928,-0.319135942084922
1278,-15.278017203415171,-470.8337371589944,23.163250769425677,-0.1732046057042261
1279,-15.817049775962321,-488.8414561582897,23.16493960316049,0.037923284994685516
1280,-2.5202727758962924,-12.69810160103576,-1.0191816434880907,-1.3821939992064356
1281,-5.186747066453342,-28.01261532899823,-1.4862197281324305,-3.1926414318147778
1282,-9.048408833213847,-50.09466725484589,-1.9525026219478572,-5.895536984717957
1283,-14.006855931289683,-79.09982699051213,-2.373806363932876,-9.454330217954478
1284,-19.816422606616694,-114.58629999366214,-2.7060350949459866,-13.72269682281177
1285,-26.234572472710934,-155.54308373579897,-2.9536516648786253,-18.524134072049787
1286,-33.04387740412729,-200.50546672488395,-3.193014088083668,-23.669261545625325
1287,-39.969322972314096,-247.76472277264065,-3.5542573400143107,-28.92009598124615
1288,-46.693310902466386,-295.676498794599,-4.179502694765773,-34.0177136436334
1289,-52.98114702599581,-343.0702958803376,-5.179178293829389,-38.76964210871982
1290,-58.86397482562588,-389.7605920336612,-6.626639032183862,-43.1466707377086
1291,-64.31477897995227,-435.12655010253224,-8.461477559915185,-47.095987985625335
1292,-69.23937817511855,-478.6264182826221,-10.542534908262152,-50.561621101851884
1293,-73.48385378729739,-519.8124856328777,-12.704300317653344,-53.48740269264281
1294,-76.96498358664147,-558.3241568721996,-14.791552242165494,-55.85160419035881
1295,-79.7711219999549,-593.8808938340137,-16.67522155110209,-57.69478779292635
1296,-82.06538130485046,-626.2751248763246,-18.26861231444069,-59.1000102781804
1297,-83.94059962597885,-655.3652107218932,-19.54431189362894,-60.13819000591517
1298,-85.39176837936697,-681.0685429999062,-20.553731327185368,-60.8422359545145
1299,-86.43621660420398,-703.3548402411477,-21.433618691316116,-61.24468354082879
1300,-87.22396949090135,-722.2396952911055,-22.37671442806083,-61.410834193445645
1301,-87.95475229641558,-737.7784180824319,-23.55863006790432,-61.41498238936893
1302,-88.70908488560389,-750.0602084692985,-25.049317061160536,-61.28492530584719
1303,-89.37082500478238,-759.2026853789869,-26.77828506749759,-60.9764114604649
1304,-89.78540274054232,-765.3467908778376,-28.58270594352809,-60.447088747829625
1305,-89.9171416797173,-768.6520808675834,-30.28198068395281,-59.70942604398702
1306,-89.82201121624861,-769.2924080046528,-31.743537210512542,-58.79760950682256
1307,-89.55314361618659,-767.4519970432902,-32.91774341137311,-57.74801114935505
1308,-89.07174703909163,-763.3219081119952,-33.8091251006502,-56.59879144426428
1309,-88.36761231749894,-757.0968794063317,-34.43151302808302,-55.42813274688698
1310,-87.60211729732917,-748.9725373808031,-34.820193707147155,-54.382644576908916
1311,-86.99756551622745,-739.1429597070114,-35.06250075509771,-53.60692320979802
1312,-86.63477473487372,-727.7985739920032,-35.28347924501413,-53.13602217929603
1313,-86.36595085009287,-715.124373475849,-35.61467420338732,-52.8608120332038
1314,-85.9817157146672,-701.2984296072897,-36.152559112839015,-52.62000879212633
1315,-85.41658757513211,-686.4906804870961,-36.89935928732504,-52.31235520745895
1316,-84.73454459764841,-670.8619736278988,-37.75866814761424,-51.909084807019
1317,-83.94772222264466,-654.5633412650516,-38.59369050827569,-51.38897186446019
1318,-82.92543999799777,-637.7354865255678,-39.268345546792524,-50.70259225141842
1319,-81.53972145566898,-620.5084590830843,-39.675769901454565,-49.81642252319616
1320,-79.83030757002821,-603.0014994599643,-39.77452111515548,-48.77232268972439
1321,-77.9799837710012,-585.3230318490394,-39.59655071269628,-47.66827453526744
1322,-76.10527337221335,-567.5707861854353,-39.21700491097307,-46.56833347120667
1323,-74.13705015243157,-549.8320311741113,-38.713479718659705,-45.463886932567426
1324,-71.93847517075696,-532.1839010442988,-38.141500303844644,-44.31163045484403
1325,-69.46620740734637,-514.6937999335047,-37.54502564066691,-43.075982460645086
1326,-66.78501302436368,-497.419868979109,-36.98173740873149,-41.73578570517443
1327,-63.887332122617465,-480.411502395131,-36.49860129461048,-40.23801571450614
1328,-60.622741656941,-463.70983757178016,-36.077833016138214,-38.486685489558155
1329,-56.852235755443616,-447.34832052134317,-35.64580793617468,-36.41735921569068
1330,-52.58560070306795,-431.35273809105047,-35.12680141420299,-34.057255766624216
1331,-47.99317758110304,-415.7381844145556,-34.47306215759731,-31.510774279876742
1332,-43.236589310357935,-400.5086401428005,-33.68029258379941,-28.88129723968014
1333,-38.34658416059085,-385.6687432085343,-32.78369663716411,-26.227082024106007
1334,-33.29268452753934,-371.2397171788913,-31.825067967793398,-23.58522873912673
1335,-28.10138542614029,-357.25849307111145,-30.85060062923098,-20.99462574269214
1336,-22.899936414642536,-343.7590445189796,-29.92708578171391,-18.49150381640735
1337,-17.794305882175806,-330.7544454675623,-29.116140049518485,-16.079175094357343
1338,-12.769919972515737,-318.20976004712026,-28.451583948208345,-13.723838977881185
1339,-7.741291664263616,-306.00388714044664,-27.941713056674068,-11.38778947368716
1340,-2.679969988890764,-293.9190484572831,-27.569591971780703,-9.061501480094215
1341,2.3066443315682683,-281.66710434658364,-27.297109637950633,-6.776733654796838
1342,7.078864309765781,-268.9265523306195,-27.071841449027634,-4.5781835718622155
1343,11.59924118523207,-255.3645606136229,-26.82989150728449,-2.4876206256828817
1344,15.94810746226687,-240.6408428772696,-26.502922974207195,-0.4930008249757358
1345,20.1924548717071,-224.4140598280124,-26.031362698874624,1.4130967853209921
1346,24.26700579749398,-206.3601411608277,-25.36935719826659,3.19069621091748
1347,28.056417589448664,-186.20822009075002,-24.490902545276807,4.789631909831452
1348,31.54519602371473,-163.7824232610523,-23.404118787842545,6.211876171572417
1349,34.86190430366873,-139.01352056064442,-22.150046628308996,7.526684014231668
1350,38.12911646390739,-111.90969400672455,-20.78705883773668,8.820583544655973
1351,41.312326225177955,-82.5070229816324,-19.396000373067984,10.140055954873121
1352,44.28259248760537,-50.90895949328097,-18.07885436127126,11.492618663654557
1353,46.98362082660192,-17.378277932555925,-16.90793165815107,12.887189124628817
1354,49.519196948231766,17.762342236823894,-15.898375274511777,14.366194772747859
1355,52.015469997564416,54.36254145909692,-15.026794784187997,15.973310353576732
1356,54.45419997176041,92.57913704054629,-14.241386189270095,17.69565563355971
1357,56.70702557485592,132.8957210767809,-13.475400017830227,19.462289464966734
1358,58.68932928365607,176.06939463261216,-12.66906361989284,21.195521354058567
1359,60.44468213378216,223.00178604194133,-11.779481684143638,22.852626440227763
1360,62.02872221517723,274.5546099446402,-10.782939896255678,24.403977444616515
1361,63.38682829301276,331.3582657081236,-9.681644941268953,25.79705891988406
1362,64.39894909534148,393.6622913562686,-8.49557697803726,26.96951751334833
1363,65.03491641403053,461.2557056092201,-7.253523719385141,27.909349611505856
1364,65.41696572842746,533.4571035859049,-6.002590355906633,28.676054878695815
1365,65.68946095767862,609.1701238629416,-4.79716404338019,29.344255414019578
1366,65.9121821389636,686.9860364318612,-3.682501684301325,29.962302219795543
1367,66.07539464885623,765.3258824818245,-2.6955952641574026,30.55353554739835
1368,66.22214964865985,842.6302125012489,-1.8489761350842993,31.149974924300626
1369,66.50151065921207,917.568018295862,-1.0991561341236422,31.807028977862526
1370,67.03182110557375,989.1906461586169,-0.3549294003460821,32.56286542630401
1371,67.77461951347155,1056.8832271877645,0.47555586159206775,33.40178242848385
1372,68.54716136915027,1120.1671683622426,1.46310890362391,34.25766418570809
1373,69.1976404294668,1178.6230965959687,2.662655569542889,35.075668400884275
1374,69.71753235805473,1231.9253328422774,4.104221480038036,35.85525255688075
1375,70.16501863673234,1279.8519458506596,5.774562835024595,36.620915719165964
1376,70.54900410228483,1322.2752133554143,7.613627962936545,37.37291611524108
1377,70.77214803234999,1359.1508432286744,9.523114382571556,38.0595420649858
1378,70.74670628136835,1390.5077109159688,11.380015814188019,38.6225587583784
1379,70.51739100197723,1416.4380005163061,13.065003354237772,39.05464243144209
1380,70.22394608019492,1437.0878777195433,14.502034592910281,39.39172450114048
1381,69.96566082955655,1452.6487361615054,15.678032047247962,39.666312450211315
1382,69.69959244701224,1463.349046523216,16.613483752980716,39.87542349593939
1383,69.32390880485562,1469.4468267125537,17.330986436742567,40.00467711792582
1384,68.8171708710592,1471.2227416928588,17.86837913279709,40.071193466957766
1385,68.26186423014887,1468.973832921398,18.280513911648466,40.13207368675042
1386,67.7127732053357,1463.0078698806005,18.61289173591634,40.229526934991306
1387,67.08412322841431,1453.6383097693777,18.889818393193444,40.33911497762098
1388,66.24218912156248,1441.1798460080745,19.12331631111702,40.39415581645918
1389,65.15958224131172,1425.944521732564,19.324138645952743,40.345247369700616
1390,63.959166328152605,1408.2383808418085,19.49602668301834,40.19622616618934
1391,62.75761602579193,1388.358626348952,19.62735551153558,39.954422860619395
1392,61.510801213234096,1366.5912536981589,19.705198075977204,39.57275540528713
1393,60.08370608377044,1343.2091252781352,19.73122957034134,38.98386610321387
1394,58.41881052782707,1318.4704515200376,19.72129910885121,38.170462355678595
1395,56.61507106030404,1292.6176436455714,19.701392593029553,37.19011006266065
1396,54.7737151526034,1265.8765032664899,19.70263084281969,36.107752239583256
1397,52.83991441835287,1238.4557145681151,19.74385070399426,34.93486166580734
1398,50.763326321114384,1211.730615917237,19.8317241609376,33.689434842695924
1399,48.35333111605375,1183.8993286176035,19.91465955591365,32.31696030873877
1400,45.63885904536447,1154.5056733350832,19.97037658694846,30.845335039526407
1401,42.68628979959981,1124.0232913826205,19.97562077642415,29.318418473050546
1402,39.54202265205349,1093.4950327760334,19.9057598340233,27.768352317855648
1403,36.31175103639002,1064.227458711018,19.756466491230714,26.240021430340583
1404,33.22504493975872,1037.5400754429234,19.543174609850887,24.821059193576172
1405,30.55879538210922,1014.5687171217924,19.287256541739445,23.616259341653265
1406,28.467862234280354,996.1223252291206,19.01179879203207,22.684472136799194
1407,26.93578165967031,982.5922300367369,18.744331680492206,22.016457898377386
1408,-1.9246249999990575,12.295089252422127,-0.4912231876828028,-1.071945068815163
1409,-3.023163839831597,27.123550943686457,-0.931348590793322,-1.7822895445246156
1410,-4.35262471984797,48.50457523871988,-1.5039345732533986,-2.6548425292267783
1411,-5.755479688130767,76.58757064081132,-2.213146864256822,-3.620659355596043
1412,-7.06321192991638,110.93829100719424,-3.0533013655762318,-4.6019640571026335
1413,-8.206896252451697,150.56769706553115,-4.007583950444432,-5.55368938914942
1414,-9.205549899176523,194.05874581180512,-5.0529806030876605,-6.464915321660297
1415,-10.069865136780255,239.77732276883003,-6.162144441198273,-7.330822193570387
1416,-10.77937053390642,286.1666226608279,-7.3025471059348295,-8.149610887020117
1417,-11.3528862910179,332.1333590629134,-8.44888661069312,-8.949328515125261
1418,-11.962187769021824,377.51056801255015,-9.613515000052363,-9.826151914887085
1419,-12.675605559597958,421.64376157596377,-10.815807776927926,-10.810649553781095
1420,-13.41885064252756,463.87705656020165,-12.077602740378596,-11.8604002142651
1421,-14.040759497120318,503.5767146578815,-13.399744070296553,-12.892418635509543
1422,-14.46462498051076,540.1384382907764,-14.765385433918945,-13.854500820547718
1423,-14.750759482306467,572.9967146856063,-16.166108346727874,-14.747675545862217
1424,-14.980930298691186,601.6470619367681,-17.60324481614582,-15.582899924324607
1425,-15.14110862707898,625.6761974438041,-19.056606572743945,-16.33881427470065
1426,-15.133015486258024,644.7790186164266,-20.468446818779462,-16.96669502496604
1427,-14.903650148871964,658.7653968781877,-21.76272412365625,-17.442472418572716
1428,-14.547910650319634,667.5628980225514,-22.874355277494477,-17.80051368582186
1429,-14.202383908912687,671.2091436993878,-23.760375625486635,-18.094260470854124
1430,-13.893675434544427,669.8408050963609,-24.396208570090433,-18.344737565019535
1431,-13.520855707567563,663.6825878228775,-24.773476319742105,-18.529695842248806
1432,-13.005519129413294,653.0278270089965,-24.9062778299489,-18.633757608450935
1433,-12.421755431188984,638.2207658042234,-24.837253500896377,-18.700860104032255
1434,-11.919828197301415,619.6422585635221,-24.62569493829956,-18.80482078033221
1435,-11.56872787748635,597.7026080733893,-24.323251262236646,-18.983537010883328
1436,-11.285351416044568,572.843886341294,-23.95760488312966,-19.212004108967527
1437,-10.980907064877517,545.533046724186,-23.532218306247426,-19.453156518393143
1438,-10.71024924297972,516.2435137089929,-23.04498998046063,-19.713214052772393
1439,-10.598878739442405,485.4322363354545,-22.50802283084873,-20.018638823695916
1440,-10.695407468282275,453.51697894535073,-21.951829307894858,-20.366859937342237
1441,-10.904018012993568,420.86006864269837,-21.417730195912494,-20.704131658231024
1442,-11.123519129903988,387.7654718318332,-20.943054833010315,-20.975086313658064
1443,-11.404644797661074,354.4981737022806,-20.545703169311132,-21.185723060502465
1444,-11.885469879895041,321.3075557856684,-20.2191782522309,-21.381081015363122
1445,-12.614480517698759,288.43001374374154,-19.94259042067116,-21.582644332157113
1446,-13.482757480824256,256.0778674262254,-19.698452472566878,-21.76687131806238
1447,-14.370769523676714,224.4262565410245,-19.488606495951306,-21.903175746683903
1448,-15.278875196487583,193.60568578610827,-19.334262133942406,-21.990003803346813
1449,-16.276324917950138,163.71385529498332,-19.258023846978965,-22.047431393039385
1450,-17.35144606431795,134.84379977083265,-19.266154409635543,-22.066614505270685
1451,-18.355109072364684,107.1007288215231,-19.34834280145886,-21.989130815472137
1452,-19.150362682510405,80.60433802042613,-19.4869326525143,-21.766339093237445
1453,-19.748693265611653,55.483654431102174,-19.66209989452683,-21.397811282228226
1454,-20.270244503594096,31.858622098684755,-19.857466226630603,-20.910430784172068
1455,-20.768479346347316,9.815301452208914,-20.05492022313338,-20.306751949555487
1456,-21.152405845315844,-10.604559877779046,-20.216691961462104,-19.547559860573003
1457,-21.31706927066983,-29.39900213021588,-20.291647228854174,-18.606144502097926
1458,-21.26721949720089,-46.60733365751331,-20.244253170635094,-17.51637376290639
1459,-21.116245864525368,-62.319256168089474,-20.07458135881052,-16.36777645574944
1460,-20.931707792799617,-76.67535672187626,-19.822259008395772,-15.238085987458211
1461,-20.64427319766779,-89.84714673020778,-19.550851461405443,-14.15088262470382
1462,-20.1507670095056,-102.0085623785185,-19.321694668915665,-13.107990399200908
1463,-19.430248292769587,-113.31666840362098,-19.175964498460463,-12.125249433853766
1464,-18.58418083768291,-123.9019537466106,-19.12820926609711,-11.246196953906185
1465,-17.717024253897527,-133.86642224059824,-19.167325581640995,-10.506896900579624
1466,-16.822468017456536,-143.28841549487973,-19.264865601913314,-9.893832554756811
1467,-15.831828335445797,-152.22944327315955,-19.38790377730607,-9.357899546775641
1468,-14.731465992428975,-160.74312968936474,-19.50567639008535,-8.867827203901777
1469,-13.629294641547528,-168.8819263380358,-19.590182522877498,-8.441055892662872
1470,-12.644025802026286,-176.69288031121744,-19.62317888632016,-8.106115578316082
1471,-11.77772273674857,-184.20838130656207,-19.601015341943064,-7.856348542391494
1472,-10.929843868665305,-191.4433028905594,-19.53129770006783,-7.648453866411544
1473,-10.02570793038989,-198.3987722599885,-19.436816678723787,-7.44596504504335
1474,-9.112906149814732,-205.07477147633168,-19.355479804712207,-7.249146274342832
1475,-8.274432457583565,-211.4893968983635,-19.322205108435075,-7.062673501033281
1476,-7.496572346738204,-217.68718825148474,-19.352030677939347,-6.854737642641636
1477,-6.646498618483272,-223.72909476140498,-19.434223623412713,-6.556562521714214
1478,-5.618895830655913,-229.67829547279572,-19.52998391317143,-6.123403729339699
1479,-4.464814548289993,-235.59083559425315,-19.577282563920765,-5.583930366560868
1480,-3.316227043472455,-241.50815037770624,-19.50771629087227,-5.01046911374538
1481,-2.242425380030894,-247.455501710091,-19.262017176145186,-4.457804216511775
1482,-1.1820675549854114,-253.44678693818759,-18.79928392931829,-3.9261203739530695
1483,-0.08059917254549112,-259.4872563238104,-18.107958595505803,-3.4070897167762646
1484,0.9638026404229613,-265.56985973233736,-17.206712109853914,-2.9397400239371065
