,TP9,AF7,AF8,TP10
0,-0.0709967678925367,-0.1966418991494227,-0.3209470959780406,-0.3617266073411842
1,-0.11607731290021193,-0.40645711943641694,-0.746418956335553,-0.7554960478877588
2,-0.19646827371493017,-0.682164983273269,-1.364164525385371,-1.2991954404446275
3,-0.33638294621987386,-1.0252030533674454,-2.175283460183442,-1.992020406589519
4,-0.5250503119290177,-1.4453608958686863,-3.1612942128925368,-2.806414928162752
5,-0.7294783082902896,-1.9515984069263452,-4.286318909583874,-3.693942977823082
6,-0.9332617278280424,-2.5435025796025346,-5.503895179232668,-4.603595745428953
7,-1.1442204703572239,-3.209541027292216,-6.768452917953404,-5.490656142285074
8,-1.3620233071199617,-3.929898710652821,-8.04589674984539,-6.319644515763344
9,-1.5471868396436896,-4.683512957235888,-9.323222699868698,-7.070379391042745
10,-1.6402418257066929,-5.459321290856398,-10.617117565667485,-7.746821737790274
11,-1.6070135617598567,-6.240572899979536,-11.933052042302148,-8.341387724597976
12,-1.44849437862751,-7.004875856021121,-13.268851554557289,-8.83961770313522
13,-1.1789856283276658,-7.726092755511335,-14.611836585027495,-9.218940198912483
14,-0.8061048129340012,-8.384205690025881,-15.941242923758987,-9.453512216758135
15,-0.3467211202594568,-8.972563369052658,-17.230179749665695,-9.52135850673588
16,0.1482358116816854,-9.499298551827764,-18.44508035220197,-9.412986996317818
17,0.6075966078455246,-9.983794579972114,-19.548605191704382,-9.135102661183918
18,0.9868452804157879,-10.452513406755548,-20.50657946969864,-8.701426056747453
19,1.2891937310803456,-10.930527852318438,-21.295185070196908,-8.131512157384023
20,1.5254009689044046,-11.428458466088056,-21.90551860083809,-7.461693223945422
21,1.6837403229911228,-11.943907605218552,-22.343921461068586,-6.743069487348353
22,1.7467400405148823,-12.474625832717356,-22.63046384513462,-6.026607442495048
23,1.7291952717483534,-13.022349777426848,-22.793079323708497,-5.346867355783444
24,1.6915553784165405,-13.586696503271629,-22.85678685681626,-4.716096802235787
25,1.6947855062165382,-14.160450725806209,-22.83725067456287,-4.127001794737772
26,1.757961051912932,-14.731365781120012,-22.740115556988332,-3.5582587468342117
27,1.8662398810273217,-15.28542621925457,-22.563160451904512,-2.9873106333377777
28,2.0164118392963046,-15.81222150334849,-22.300496723462597,-2.3954867609127986
29,2.239636837230054,-16.311675582388347,-21.9448346287699,-1.7612195776179824
30,2.5692598804428624,-16.79083334649283,-21.48865855468262,-1.0666603427366406
31,3.0030322867717008,-17.25336512435994,-20.926023416681964,-0.31558144864070015
32,3.4969458212198794,-17.694896025492458,-20.257000819821116,0.4619784302851482
33,4.004451372972892,-18.105547711920916,-19.493809551753596,1.2244894427777646
34,4.512122812487383,-18.473819271903267,-18.660265472432588,1.9394705567048212
35,5.028877254226587,-18.788148526209,-17.78539879849668,2.5900635062978274
36,5.554566954224181,-19.037552148386204,-16.898318109398254,3.166497368310178
37,6.063562148986276,-19.21239653851573,-16.02542053148274,3.656373491133512
38,6.533607614150516,-19.303361020274327,-15.190508446881568,4.048146271882402
39,6.972402050336635,-19.30189284829549,-14.414112409792539,4.3430761116875285
40,7.401733762693513,-19.20392315789303,-13.710026320745614,4.553922626212469
41,7.82326178881497,-19.012061851914755,-13.080326639264122,4.690182971035269
42,8.199977848834745,-18.733244941959157,-12.510747218612316,4.748112190243557
43,8.48995445072139,-18.374134851156306,-11.976782994794956,4.716873742142765
44,8.684768780872544,-17.939772839740556,-11.456155314952166,4.592571122296341
45,8.804705546808496,-17.43576112595967,-10.93486419741681,4.381920797137813
46,8.862027680843253,-16.86991971214374,-10.409073225940494,4.093812253052553
47,8.83538897764536,-16.254775959802746,-9.884247754180864,3.7365278733591607
48,8.699273949476535,-15.610714936953983,-9.372192287615967,3.3320439384863763
49,8.463909438668923,-14.96422309891716,-8.885941181784132,2.922954517152057
50,8.179112131957785,-14.342504939488176,-8.432826197216233,2.5583665966926694
51,7.893079133425884,-13.76887985932549,-8.013685181915164,2.276755489716869
52,7.61443985148931,-13.261206726187469,-7.6287858713987475,2.097096607047448
53,7.330068011879959,-12.833228129088607,-7.28170997975733,2.024482617379954
54,7.042927419167102,-12.493206690582378,-6.975749216113215,2.061103638053586
55,6.787113064133732,-12.241581853498406,-6.707156704645202,2.208644093936315
56,6.590913287032178,-12.071840195154182,-6.463528816403238,2.4579138085951864
57,6.438969036098172,-11.971468625840151,-6.230756620140194,2.7829875362335463
58,6.2896299615948585,-11.923280580850808,-6.0025517501648595,3.1541005817259546
59,6.118603926223241,-11.909468508191537,-5.782373244380881,3.5500578709942117
60,5.944809983759955,-11.912253467416573,-5.575022847715997,3.9609013360521526
61,5.793834916551818,-11.908005147972503,-5.377282973027353,4.383317494105657
62,5.661344437816677,-11.866784226126184,-5.178304980279707,4.812270283092684
63,5.5304275639228875,-11.761019820617811,-4.963947941431629,5.241430087564458
64,5.405993133688491,-11.57465209795139,-4.718977990965054,5.6750985918644545
65,5.326415251797988,-11.306538967135134,-4.431395155563549,6.132996821623274
66,5.32070356163937,-10.967549725818253,-4.096649965742624,6.637058387136125
67,5.3693773851826165,-10.578305394827652,-3.721837620293617,7.197522330878206
68,5.419136871714012,-10.169155917039337,-3.326807883398756,7.808544488923461
69,5.42749946651424,-9.776095218917499,-2.935745285875825,8.448166645997322
70,5.382746463506317,-9.43267112924004,-2.5672505950225517,9.078209841917104
71,5.27395420905485,-9.163846403420319,-2.2296663779377117,9.644748093672597
72,5.064803444655787,-8.984856842221504,-1.9213992290466726,10.084535866045416
73,4.705357088560966,-8.900599150713123,-1.6339299921360464,10.33676909638621
74,4.1788658897281925,-8.903802882982864,-1.3561797395417172,10.358462347602469
75,3.527309425780737,-8.977284415742647,-1.0792675708864432,10.13469737089229
76,2.807151189493338,-9.100583543216517,-0.7985086504167159,9.670747388123853
77,2.038387219895273,-9.253841413830378,-0.514960379374059,8.977057019305112
78,1.2109133526071534,-9.418805437870033,-0.23884432426732377,8.074452710773176
79,0.33626755770204864,-9.581218156288843,0.01094596206782837,7.011713184890794
80,-0.530189148309017,-9.731371278424042,0.2107551773280843,5.859912224538104
81,-1.3255244686529024,-9.865236176746741,0.33571750663828215,4.683976336001715
82,-2.024710225148954,-9.98725488536776,0.3673793105312102,3.52114363040645
83,-2.6533204143723492,-10.109520064798582,0.30294516257595755,2.3843947128184353
84,-3.24792822701374,-10.24587240087847,0.159100781178527,1.2796490798745592
85,-3.8222156628535116,-10.405612021072415,-0.02928042855372258,0.21839843337985296
86,-4.377048811918482,-10.593239693907337,-0.21460502289845068,-0.7812306432666479
87,-4.924702531131736,-10.810940535639865,-0.3463865337073741,-1.7019490546266756
88,-5.49800952957608,-11.05812946964862,-0.3822851855273446,-2.5317980451986437
89,-6.124354260502739,-11.330860564427253,-0.2970424128366693,-3.2633629222425067
90,-6.800118006610731,-11.623054899661048,-0.08668132613915631,-3.8906501563311657
91,-7.491132615969003,-11.926666478882437,0.23313047260780018,-4.409261271912639
92,-8.16378168357229,-12.231242729789408,0.632563344635969,-4.822172924305316
93,-8.813825823142853,-12.52455503083905,1.077096048512621,-5.139525413760524
94,-9.439434743271718,-12.793895174145916,1.5388109742029317,-5.368457720982485
95,-10.013075786576396,-13.02773973864501,2.00132777813623,-5.512121674665434
96,-10.489978575173827,-13.215336996393626,2.457083171889181,-5.582064140271591
97,-10.840478332094024,-13.345381949413834,2.902687559782155,-5.595962644181845
98,-11.077297155699483,-13.40802430419524,3.3368938584065324,-5.562628178861121
99,-11.226840899838237,-13.39663658523214,3.760826414112696,-5.477666978378662
100,-11.293815451072991,-13.306680611832666,4.17679229779956,-5.3265383419996715
101,-11.273072306576525,-13.134252465255306,4.588093809023334,-5.090052430282515
102,-11.176362443835343,-12.876028586854904,4.999047126011241,-4.754743138271708
103,-11.029140086771113,-12.530833751218621,5.410687668139294,-4.324513821920918
104,-10.846033911442278,-12.101997637231474,5.817453453984481,-3.820795674824747
105,-10.620000727947764,-11.5979941070432,6.207708832251652,-3.2715909239775987
106,-10.334499862341909,-11.029681267357956,6.565755776365062,-2.703731161120693
107,-9.988203111570769,-10.405750969869324,6.876099230796572,-2.1427233520036113
108,-9.60001648681272,-9.730663673372646,7.126359839253584,-1.6185465025964614
109,-9.187424280868969,-9.007900260292375,7.30361532077572,-1.1670430988873846
110,-8.742395865481907,-8.24428946845163,7.392694710526202,-0.8179515767310968
111,-8.243737445775857,-7.450864312539344,7.381454226414155,-0.5816778862253354
112,-7.695098860562747,-6.641519234108999,7.26604955177033,-0.4487426504679878
113,-7.133015824381884,-5.829727348500334,7.054575029249332,-0.3961537604182774
114,-6.606452909580791,-5.025062420121785,6.766467878173616,-0.3934786103957085
115,-6.138943146313694,-4.234088287220537,6.427070964018889,-0.40907312347831715
116,-5.711928001976972,-3.46241509375557,6.057954220652672,-0.41439097305430334
117,-5.299808298873913,-2.7138712013464996,5.666128355299583,-0.3875023538934196
118,-4.901039803396618,-2.017249079894126,5.224831268001116,-0.31171666359088945
119,-4.4934883677259805,-1.330476449490011,4.745463939628911,-0.19743010884681475
120,-4.069727258273551,-0.6378687505303025,4.245209229603056,-0.0561042090573552
121,-3.63474223364285,0.05959939678868817,3.7447552165344327,0.09933060360036608
122,-3.20150397928704,0.7490366906373135,3.2667405680706585,0.24812448494697092
123,-2.7872014583858338,1.408921363628072,2.835915268991285,0.36493231012737853
124,-2.410081204413964,2.0128459272961807,2.476296867864181,0.4317630402532306
125,-2.0868384286199504,2.5343788328087706,2.2047822238082277,0.4478171826592043
126,-1.8305071903098158,2.953369715738716,2.0287809332188047,0.42991954500566637
127,-1.6487986943534152,3.2610202087587274,1.944962589078078,0.40022734994745746
128,-0.10908286792420818,-0.38655181035204456,0.10980490569702014,0.08463916513354329
129,-0.10532323370324438,-0.9193381550860527,0.01733871937477463,0.1645193960372239
130,-0.08898174485930457,-1.7022426383139484,-0.184868271072406,0.24809931410727923
131,-0.060736176941790565,-2.738332805536567,-0.5446819586740849,0.31794699234952006
132,0.02559431521917102,-3.9993579884662505,-1.1127082316365766,0.3728674275251703
133,0.23478972555957564,-5.432699908198327,-1.915025283637041,0.4254411737395979
134,0.600100670736687,-6.973462123150628,-2.9394170575572853,0.49002808746071286
135,1.1085604400799116,-8.555001959674838,-4.136300022427767,0.5751702809182941
136,1.7277353325207743,-10.120533494741037,-5.426469678201622,0.6839637386771311
137,2.426347910037597,-11.640211788975353,-6.708771959813671,0.8185440478581298
138,3.1606492278967884,-13.130161428227888,-7.876108318325781,0.9795462438629142
139,3.851741729678704,-14.605413074245908,-8.845489619071783,1.150981049964877
140,4.39456497353545,-16.08681367625472,-9.580802131232364,1.3005904921089735
141,4.694792977774478,-17.599292083776756,-10.086193324239716,1.3857017498883444
142,4.690375071127484,-19.17189360486539,-10.371389009297449,1.3565270317166123
143,4.321425596702454,-20.835310333656178,-10.420967086666375,1.1543688748421692
144,3.50298857544771,-22.617576087831253,-10.20285827884112,0.7230736304863357
145,2.166911262380373,-24.536242933206797,-9.710973278553265,0.03403090295667138
146,0.3161744777775235,-26.59142614967661,-8.983611100891473,-0.8987250908854272
147,-1.9805694887613756,-28.772704003338927,-8.064141269323738,-2.033866283706293
148,-4.655575793597804,-31.07448863080784,-6.964835137120839,-3.334549527087816
149,-7.685331793351287,-33.497882485478044,-5.679900453035202,-4.777802913231102
150,-11.052871809611682,-36.038786182488266,-4.214047090043684,-6.339705463612044
151,-14.692347637106185,-38.68060686373912,-2.5846861166942903,-7.982370888227101
152,-18.475882004660647,-41.39833519699883,-0.8083579665586861,-9.655450160495501
153,-22.263510291994177,-44.161973706008254,1.098483379988961,-11.308321719961617
154,-25.958334774607312,-46.930937241987834,3.114551347969119,-12.904765741497513
155,-29.49767425674438,-49.651386824108975,5.218982808931893,-14.424400931627222
156,-32.81195253584107,-52.263285150404364,7.39864848798289,-15.849129008619515
157,-35.804539457582244,-54.70460020921305,9.642645593917916,-17.152718248876987
158,-38.38414926170211,-56.90943728930033,11.918334304212872,-18.298864123528872
159,-40.50862677178276,-58.809017278092284,14.154615717149396,-19.24610469699071
160,-42.178379204760475,-60.33888053858712,16.25047610490939,-19.95568241419608
161,-43.38951099147569,-61.4501606535093,18.10451991870467,-20.398549367027442
162,-44.11326202353049,-62.11882619971872,19.651427361522305,-20.56232423767258
163,-44.33433469538687,-62.34509487208864,20.879637632957806,-20.451047383629696
164,-44.078267016021286,-62.144065134957955,21.81380180162652,-20.07583626744568
165,-43.39744825571055,-61.53547998695066,22.48326017299111,-19.446016019905972
166,-42.333711856385364,-60.54269732078667,22.91868717275921,-18.573980028665883
167,-40.89616008855258,-59.19609869988494,23.15871424319756,-17.48495174564978
168,-39.08933172297667,-57.52621543026647,23.2381008549493,-16.209682793687026
169,-36.94682183196747,-55.55510323318622,23.173146729968032,-14.776131498138774
170,-34.53580282121707,-53.301361701407025,22.96225122642967,-13.211711080974041
171,-31.91103630498311,-50.7936030392406,22.597438200380587,-11.537396373594555
172,-29.077474570061124,-48.073741522943514,22.06382050051113,-9.761133000273981
173,-26.024987475028325,-45.18915334158064,21.336282440011473,-7.88796080253265
174,-22.7771377947005,-42.18816867715411,20.39224938796366,-5.932529381534569
175,-19.39909556506569,-39.11864460910526,19.228388896963214,-3.9216961307620988
176,-15.956894162079102,-36.02367106004135,17.86583513520403,-1.8890172588713203
177,-12.48677863103233,-32.93777815989827,16.340777233665104,0.1339360616387006
178,-9.004470958385825,-29.88432649900175,14.693472416541724,2.118959803378673
179,-5.5348680372136165,-26.874668526139075,12.960021677834344,4.037619586509998
180,-2.13140353772547,-23.914745877947798,11.162326415960928,5.861321781361368
181,1.1527779275957502,-21.012820758664255,9.315168984836202,7.561821308060117
182,4.297584966517083,-18.178047602459078,7.44703761289642,9.116727273988133
183,7.313769635274138,-15.417816426089765,5.591851458925412,10.519135038971692
184,10.206498008424878,-12.740938935166389,3.7616176942301025,11.772242289033148
185,12.945266626272302,-10.16035375930009,1.9430560262676546,12.875007376289682
186,15.491712394910792,-7.691322949038264,0.11474876461022587,13.821632067150937
187,17.842221917296555,-5.345528066274875,-1.7347618187636105,14.611270057810994
188,20.029705972220647,-3.124136658892722,-3.597408896790193,15.24771759859172
189,22.074804271587013,-1.018849052300325,-5.441874515857151,15.72883298419742
190,23.954360642186554,0.979851176822411,-7.216416598578792,16.046479339227297
191,25.633797790060527,2.879230232214338,-8.865621830217528,16.197132254651073
192,27.106925747725132,4.681586298211964,-10.35562756119748,16.18800970198143
193,28.404452317032824,6.383284965068354,-11.686685378343432,16.037569185390986
194,29.555634967435815,7.980995654337199,-12.880930441859652,15.772243949735358
195,30.548493149936846,9.471501722640387,-13.96271956181287,15.422563809204824
196,31.34178191517123,10.846334198710755,-14.950004024547003,15.019126610755736
197,31.90950244008205,12.093297454620565,-15.852327030965736,14.591541456455388
198,32.26745450578048,13.201102106855465,-16.678742531081067,14.171529363548375
199,32.435454315677816,14.160359816367256,-17.457724040218885,13.78867292859309
200,32.39131745608894,14.96241676518136,-18.2223381276712,13.457814447136695
201,32.083946408484266,15.600593852561966,-18.962274883704286,13.175619658763011
202,31.486272112023823,16.071657274555157,-19.623671561503855,12.931334585012706
203,30.62334896900436,16.375780829829534,-20.155053110393954,12.713629699930442
204,29.532096506840983,16.517065861897283,-20.536154211562184,12.506715136911541
205,28.22180867231294,16.503739712263318,-20.777616293318385,12.287365718721034
206,26.69197975306474,16.348401758975353,-20.909692548568056,12.034091974603529
207,24.978219669057278,16.069889444219665,-20.97031854436333,11.741296700120174
208,23.169360851467133,15.694217653324449,-20.986602186176132,11.422970266141434
209,21.362726133236333,15.252942377781904,-20.95950882783898,11.104477945229508
210,19.61538583787483,14.780292461690017,-20.868550267822837,10.814507054607317
211,17.948413068550586,14.306404869417936,-20.69067077470641,10.583601637672277
212,16.38765689532924,13.852517328714617,-20.415861941828688,10.440614833591315
213,14.97558451344524,13.434055797188366,-20.041663404098262,10.40452518025098
214,13.739860042362647,13.060719668723047,-19.573251787887937,10.476386677314878
215,12.670245622874146,12.737280015904897,-19.042204111659018,10.636647988265011
216,11.735244980071842,12.469662955183749,-18.503690167580153,10.85306853774518
217,10.929578641176656,12.264155071273816,-18.014113757302653,11.091019725704442
218,10.28329856028921,12.122568804351323,-17.614421733444036,11.314319895066179
219,9.819968101144834,12.040498682998116,-17.321364618218972,11.480823381066573
220,9.52235524907882,12.008207241660864,-17.12300774455048,11.547018485582168
221,9.336506587067698,12.01154587344659,-16.982175211214543,11.477569685521896
222,9.212712819937465,12.031972547842999,-16.846932534012655,11.248564967250893
223,9.131482600081052,12.049454874577703,-16.659315070426345,10.85039694721716
224,9.09739311839424,12.046846240465918,-16.36947442514762,10.291043960542616
225,9.107426356035626,12.010398443501526,-15.958673734206503,9.591625293715087
226,9.121074001608543,11.927068122528036,-15.444621599913168,8.777686757303021
227,9.092767076395864,11.783925925708095,-14.861873998498657,7.879126524970746
228,9.01151453594917,11.573838434962092,-14.247010358823353,6.9326353601070885
229,8.892638268071094,11.302181278524753,-13.638724664687325,5.979774839117702
230,8.749508139967407,10.985942550654864,-13.0760311597832,5.0647348652560105
231,8.573354279852166,10.647174424456837,-12.588215227714832,4.22614915426338
232,8.34040621616807,10.306891415618601,-12.171030595977403,3.4858942772141646
233,8.036754772020487,9.98153574687504,-11.781006674534765,2.8439067406247647
234,7.679510396630359,9.685995915795136,-11.365150719759532,2.2820139416261234
235,7.301513695539632,9.44043147370265,-10.901395463704624,1.7736673112703067
236,6.918862175597468,9.26846844960785,-10.432243716424171,1.2957654996743793
237,6.537146641794867,9.190409890692068,-10.03880149812089,0.8351448154415282
238,6.171050593638219,9.218529664188187,-9.788740688753839,0.3847077945843398
239,5.835122637980477,9.350245162439794,-9.715339807129844,-0.058019475682174276
240,5.508627360554182,9.556142139163953,-9.805415021138359,-0.4990197553366715
241,5.110949279099164,9.793102373904366,-10.012884568092536,-0.9651661538692374
242,4.5405162057921,10.046990253176663,-10.293504664337183,-1.4962527141732278
243,3.743436264890385,10.338437413599731,-10.619380298608586,-2.1183790171539982
244,2.7207678905256203,10.685970110690537,-10.981103018883376,-2.8393029792521975
245,1.4900271065891175,11.083238821953849,-11.37741131845236,-3.662035083309191
246,0.07789310733977103,11.490046063507261,-11.791569312460217,-4.582338172237389
247,-1.4442125673786745,11.887767210249752,-12.213851361719108,-5.590705711345918
248,-2.9593253008380853,12.260860736392226,-12.629875535678813,-6.647189777997522
249,-4.338251734942862,12.59516411454466,-13.03230311510618,-7.694396588543439
250,-5.487088414856798,12.876916076660185,-13.430219763210072,-8.669441365020191
251,-6.372660336248362,13.093916947100489,-13.839297480739297,-9.515138158858926
252,-7.004593931852017,13.237224592951039,-14.252865152592898,-10.189579551596319
253,-7.400495249029949,13.303829964337618,-14.622363313800259,-10.675265930994904
254,-7.58697585035491,13.301104206054086,-14.881753279415252,-10.983634190656694
255,-7.622407470742604,13.249610258891988,-15.00550688534105,-11.147997259966692
256,-0.021018482692674582,-0.2812920602035949,0.03740908951833838,-0.00604813129578121
257,-0.016697187982427534,-1.6503064455557777,-0.3828334872561417,-0.017084477783948157
258,0.006253620976145631,-4.112503110443187,-1.286851116634391,-0.021971510295528157
259,0.04304349891501931,-7.963367394307886,-2.6489030541305096,-0.04467556980897991
260,0.0799971308518433,-13.425778369524739,-4.314200536796492,-0.12951539704234932
261,0.08602707641889024,-20.586234415963826,-6.081280605349275,-0.3261076761700847
262,0.019655910628127715,-29.36309050363749,-7.749038045765015,-0.6713816774078951
263,-0.13934264389779785,-39.537744361333445,-9.13864566906672,-1.177610712117187
264,-0.378668037201404,-50.86571865070222,-10.113537999616979,-1.8274709959681736
265,-0.6679253201426134,-63.229222386864905,-10.599935735790062,-2.5803002988936496
266,-0.9833580861653194,-76.75751713088198,-10.619295085614485,-3.388797919974748
267,-1.3421770790285636,-91.76982103045724,-10.236554531270217,-4.216875623685695
268,-1.7947677753005826,-108.7754398023842,-9.464336632399325,-5.047664422594754
269,-2.3804078292490196,-128.35233946294545,-8.31864854173049,-5.875190663024418
270,-3.113150885651695,-150.9922640333995,-7.025404436874399,-6.699043509490709
271,-3.998327841544698,-177.01694698925633,-5.950458625036035,-7.53716032423939
272,-5.055282877145253,-206.54314783296329,-5.293175975448012,-8.435421183520937
273,-6.341185622316558,-239.4325607776239,-5.016928636928426,-9.46995176376599
274,-7.916756614949353,-275.24185384245595,-5.00450794537302,-10.7110276819904
275,-9.740340738129106,-313.24633877828364,-5.138105058128756,-12.144599769349707
276,-11.690203046472108,-352.54567192850357,-5.33179298247701,-13.683417850519607
277,-13.709492244775971,-392.2004764246103,-5.557352011751008,-15.260388982468996
278,-15.823569582487117,-431.36182912869714,-5.789126293236964,-16.85717303389393
279,-18.06135253975965,-469.3543645166339,-5.938843345339675,-18.476612882846283
280,-20.428844913466786,-505.68753918903803,-5.907826228015134,-20.12392401251779
281,-22.91713635732682,-540.0068953617791,-5.691007786780145,-21.805679587844736
282,-25.498068595502172,-572.0288434725079,-5.387838537002501,-23.52812355708173
283,-28.116880508315035,-601.5129195530346,-5.158080890121653,-25.2824157384119
284,-30.68266520420231,-628.2717988944102,-5.196719527765776,-27.042610288045335
285,-33.073707755090894,-652.1761846956676,-5.698768521138118,-28.78271003399751
286,-35.19879809357163,-673.1488423518573,-6.746288876195745,-30.486025498428567
287,-37.048100449092345,-691.1586993360517,-8.179583289281261,-32.14217595644414
288,-38.67788101564082,-706.2152685301504,-9.69646197475183,-33.74484004524418
289,-40.158503349034376,-718.3632521363037,-11.102036206846549,-35.28448933007659
290,-41.52576900709181,-727.6774302714068,-12.363388606602088,-36.74101993829043
291,-42.79336479342417,-734.2578579060321,-13.514053811141048,-38.09057830142066
292,-44.01177667511665,-738.2253870593369,-14.586818634852358,-39.31903906229229
293,-45.259063748817425,-739.7175250904602,-15.57188741853919,-40.40955609831425
294,-46.52480600098303,-738.8846345183372,-16.396886039990175,-41.305346010249764
295,-47.69495146505293,-735.8864750337251,-16.973727057728702,-41.92992146645502
296,-48.68267707158247,-730.8890842126939,-17.279684436873865,-42.25402511919701
297,-49.48179191110698,-724.0619898693467,-17.343342971205047,-42.292848714977964
298,-50.11467274797996,-715.575743963526,-17.150094578979097,-42.04935329714391
299,-50.58239586553701,-705.5997654710428,-16.655177485689336,-41.511851667813986
300,-50.86246948785979,-694.3004775923952,-15.887472403806548,-40.69592889112371
301,-50.92995869096233,-681.8397230830226,-14.97424308490155,-39.6498942812629
302,-50.77917662807839,-668.3734402956475,-14.105203847039268,-38.42511451931991
303,-50.43174539091764,-654.0505816951633,-13.485606202048636,-37.05640510033365
304,-49.89819568938276,-639.0122561014624,-13.262988718824797,-35.558262568964395
305,-49.15758884397428,-623.3910756992084,-13.456661998865936,-33.930271563688706
306,-48.20282826196812,-607.3106888907778,-13.95461003984146,-32.18395719185905
307,-47.080573906915475,-590.8854803259325,-14.593308822554398,-30.361531864897206
308,-45.86969271530197,-574.2204198874794,-15.22955091476617,-28.510767668362103
309,-44.625328223420475,-557.4110430163973,-15.755127146611892,-26.660500846792083
310,-43.356668679257595,-540.5435454947773,-16.10367163310396,-24.8248528630273
311,-42.041904502719085,-523.6949766447069,-16.250675015864633,-23.0030111403772
312,-40.663638621033094,-506.93351582225716,-16.212990111036486,-21.17772129503745
313,-39.23132982041022,-490.31881806644526,-16.05777449198446,-19.330692766373765
314,-37.75408852273996,-473.90241578404294,-15.888767073450294,-17.45700500627353
315,-36.214542610433995,-457.72816439496205,-15.80272373320804,-15.577316208849576
316,-34.582284414730836,-441.8327209142991,-15.844755191456695,-13.723572897260185
317,-32.83072073532819,-426.2460454924881,-15.988176505779608,-11.898327635469121
318,-30.950165536702066,-410.99191696273,-16.12723819818207,-10.077706010171394
319,-28.964796999131686,-396.08845444504686,-16.146135494227458,-8.247353254114604
320,-26.904141516817575,-381.5486380206274,-16.04141465273417,-6.422956497819289
321,-24.76770348097385,-367.3808224118031,-15.925050670780557,-4.6339775614841665
322,-22.550713276231324,-353.589238476637,-15.925597270018496,-2.884009257050566
323,-20.26677105996366,-340.17447814857087,-16.103124934945285,-1.14455265704015
324,-17.939172831929927,-327.1339592179187,-16.412115006731156,0.6135764860834805
325,-15.594799534564999,-314.46236706127377,-16.727121097507947,2.3950978514637282
326,-13.25742043936844,-302.1520710761373,-16.92603751050516,4.180458764072089
327,-10.943154509433096,-290.1935141710729,-16.94514589037475,5.934335109126188
328,-8.664060319133268,-278.57557419702187,-16.758016034089863,7.618959896295653
329,-6.425886878721875,-267.28589668420346,-16.351043279483306,9.210815072825582
330,-4.202053218545012,-256.3111986729573,-15.723122031819143,10.70922312049122
331,-1.9221990361381585,-245.6375437980865,-14.892139763785876,12.136136043524964
332,0.46159404031359175,-235.25058910716956,-13.895749915090587,13.525016221266782
333,2.9009479878540656,-225.13580436667743,-12.806283876187672,14.899196479552788
334,5.268962307880053,-215.27866483851508,-11.756545059907435,16.252634867513557
335,7.4408047009039855,-205.664818696874,-10.919320191745715,17.555735163095502
336,9.36346432546078,-196.28023040424088,-10.433517247696507,18.77959298735404
337,11.040398808920418,-187.11130147927003,-10.297854529132776,19.91476579884653
338,12.463228164256904,-178.1449701712104,-10.35883255400647,20.963415622931127
339,13.607416785551438,-169.3687916088755,-10.437158567082816,21.907825358371312
340,14.481577229345394,-160.77100001985002,-10.419205135480924,22.710195336467663
341,15.152854496683695,-152.3405546207495,-10.267791951657466,23.346104076337603
342,15.7210120729503,-144.06717076478176,-10.00206103766797,23.81358748878545
343,16.270925253816788,-135.94133790132145,-9.658285784428756,24.125340601261
344,16.85116916695093,-127.95432585630975,-9.253792230868596,24.31888105084041
345,17.4890937463034,-120.09818088443085,-8.786502069343511,24.452652942486914
346,18.2105823413212,-112.36571287645555,-8.254004345127703,24.570969567474542
347,19.021714808163892,-104.75047502993435,-7.651075967661317,24.685770488400298
348,19.88390653498995,-97.24673721047404,-6.974144304408132,24.786183018572384
349,20.743053358303904,-89.84945414583801,-6.24379200486896,24.861406854785304
350,21.5965995509501,-82.55422950762139,-5.497703827618299,24.925675305863138
351,22.509012085702715,-75.35727684662507,-4.74516738841898,25.01710411647152
352,23.541720108365865,-68.25537825949516,-3.9583709610628497,25.164472817351566
353,24.684383876743077,-61.24584157674464,-3.1145100939436365,25.356842046879617
354,25.859542702063667,-54.323145204749636,-2.232569717723602,25.544232697187308
355,26.98422155524056,-47.46150630702495,-1.3871914779259733,25.66130029964652
356,28.006458655366576,-40.53645368262452,-0.6717069096645762,25.655836844699223
357,28.88948669869718,-33.377917619061776,-0.13164752588452877,25.501600876850745
358,29.588773419498867,-26.12800779700544,0.2535336218500684,25.1946086850372
359,30.05320422833631,-19.398071957256224,0.540078284461992,24.74792907964807
360,30.269638799815613,-13.867746033246895,0.7900635586355982,24.190819668465593
361,30.29331185617568,-9.72471674151521,1.0524381989955718,23.567748484441783
362,30.217512317441326,-6.3392014858834,1.3510511884008232,22.932195938090107
363,30.131409924148052,-2.2201823856399834,1.6847870586380556,22.34008223281272
364,30.10764343746967,4.823827517240382,2.035222495036535,21.843940542828918
365,30.211174612118935,17.392414288539154,2.381373174664631,21.482912787597922
366,30.48860338442092,38.13276589034453,2.7222610271523817,21.27179831303162
367,30.942867811140207,69.36740864348747,3.0902630708820005,21.1966339001555
368,31.52834786284463,112.75863366871434,3.544646264408551,21.224885054916545
369,32.17731706589676,169.05062322949718,4.143184625783635,21.324648091664173
370,32.841136695944854,237.92332759840187,4.9053292212942265,21.472977742857154
371,33.49660856920101,317.98569014804514,5.80749603725558,21.652902002677983
372,34.11762537827509,406.9298825888966,6.811770283922598,21.852076735238754
373,34.66081857484337,501.862796849349,7.883768261634403,22.05959934462805
374,35.09488939599344,597.0247192794344,8.90874461852312,22.274851294002687
375,35.38989492845402,694.8649580640497,9.975788026382894,22.460714632196453
376,35.563748076375006,795.0366591000881,11.101525076315772,22.6002034764231
377,35.6547933239205,895.3340882598143,12.273074962051552,22.69106672449235
378,35.687061665330475,992.3503643648335,13.470305319644266,22.73721162344379
379,35.6668401530871,1082.2779208616353,14.668577572445551,22.74322623037246
380,35.602768596737796,1161.64006063694,15.836358144632818,22.713897474118443
381,35.51202918199887,1227.7850503439722,16.935244626892494,22.656163645723343
382,35.41391282112792,1279.1797731438494,17.921614676242253,22.57882050464681
383,35.32441663544297,1315.546057849966,18.748222740452988,22.49167308492431
384,-0.18590587406841314,12.295089252422127,0.023119478103769395,-0.05008766236349416
385,-0.13005168437700795,27.123550943686457,-0.27320748031165903,-0.04578900751688261
386,0.005256616371680706,48.50476270551154,-0.7362377234610039,-0.02261362458302059
387,0.24555806427370264,76.58935668148713,-1.3260294391624254,0.0325950643355228
388,0.6288141014690434,110.9495600044632,-1.967243063119834,0.14229758391102734
389,1.1628795304723485,150.60645734419228,-2.569155182118104,0.3224626270567299
390,1.8145530288965075,194.14182422196996,-3.051565408985044,0.5806881060412347
391,2.5326319836770703,239.9011660012834,-3.358773643224562,0.9278850321588715
392,3.2790876514646654,286.2923180758571,-3.465447811571114,1.377956949871231
393,4.034199062587371,332.1819308296888,-3.3814866470203615,1.936667054671155
394,4.775464937532533,377.3903703636991,-3.1553287830239043,2.5945796777226997
395,5.469982130196311,421.316503655381,-2.8665875277879658,3.33235145680443
396,6.108291457542545,463.4357730191725,-2.610913675751462,4.128881085419118
397,6.727174817024029,503.31467696386784,-2.4649142823243713,4.963843292981269
398,7.366499110076727,540.6040647813992,-2.4534394424953794,5.816821164150808
399,8.030815396319694,575.0323020255238,-2.5528792259306976,6.667029476670504
400,8.705183986980657,606.3984049630201,-2.7174880254672797,7.492333027832069
401,9.388119330270907,634.5652296640304,-2.897957939686075,8.272420561786774
402,10.084941927524657,659.4527895822142,-3.0475875436915185,8.996264280633294
403,10.77291864993121,681.0317643216252,-3.1319543603290443,9.659085391375159
404,11.392239079989945,699.3172518420201,-3.14190064036352,10.249588222092227
405,11.872327257369092,714.3628066494085,-3.087555622043973,10.751948618474987
406,12.17550633055927,726.2547975729892,-2.9753173639601105,11.159751045254097
407,12.298216535063716,735.1071105505289,-2.792467777885111,11.475360580964946
408,12.236064695452692,741.0562144290665,-2.515883052626402,11.697601834603633
409,11.974116985237327,744.256601125124,-2.1278931877544696,11.824271428364703
410,11.504741870882286,744.87660555952,-1.6182647364496876,11.864871314698338
411,10.85249774595882,743.0946055612488,-0.9882438651699474,11.843627299786716
412,10.07451047635587,739.095597392451,-0.2624192803000833,11.796034896319455
413,9.239140053409038,733.0681386478398,0.5104983403336563,11.761641858836796
414,8.388299050080585,725.2016469895049,1.2669925779443796,11.770178175544178
415,7.5112850132090445,715.6840404519079,1.9453941591133372,11.82630112688237
416,6.5769911281530495,704.6997028507014,2.5090338313333658,11.910106016623647
417,5.576023927122438,692.4277561105033,2.9507447019766184,11.992713447624766
418,4.538630293639955,679.0406200484135,3.2777687761806966,12.042153217187796
419,3.521787718926691,664.7028392697613,3.5021989223280294,12.020531911945785
420,2.5735317643770625,649.570156308821,3.638957697482334,11.889297588456968
421,1.718976954907404,633.7888099398609,3.705479717401473,11.620121371475095
422,0.9747354367514012,617.49503765405,3.7169521333661284,11.204824002019961
423,0.37546170678372,600.8147616084831,3.678108057071472,10.660859034640838
424,-0.035302239488375436,583.8634378698252,3.5862913857137557,10.02269034281009
425,-0.2471383117665843,566.7460494638766,3.441939920765323,9.324483675663727
426,-0.29121156171788387,549.5572245730824,3.2512261055545078,8.592556695629117
427,-0.20969850230473502,532.3814621682444,3.02183486059127,7.846400509245817
428,-0.023629087081922323,515.2934483924267,2.762951551391952,7.099662433174664
429,0.26499973004882155,498.35844811062105,2.4906135010202655,6.358325161887784
430,0.646512240887072,481.6325072637217,2.222758160842417,5.618624506706682
431,1.0924723332133464,465.1602797708061,1.9728503220701457,4.869552376234723
432,1.5868380556831763,448.9713112241945,1.756104169612535,4.103789007602742
433,2.1547367513187283,433.0904710380372,1.5814185541429178,3.327008917454131
434,2.8158353249719874,417.55993848353046,1.4370859386765107,2.5493473259055377
435,3.5326279621310954,402.4399895527828,1.2954387566626562,1.775438274929511
436,4.230715679152205,387.78324169948286,1.1176469752248717,1.0080976966084993
437,4.8530670178104165,373.6039566518835,0.8555919255441544,0.2527351194196385
438,5.386861468305168,359.8574899989981,0.4641856779777801,-0.4832821733642958
439,5.837529865350186,346.4384005549732,-0.08240808604163444,-1.1939696074491963
440,6.1941802375722315,333.1946954218381,-0.7828508490503678,-1.8799556791453549
441,6.432368031915527,319.9446493490501,-1.6119934034655867,-2.5464176105412535
442,6.556273856035357,306.4925964613172,-2.525455030317036,-3.1907936799173067
443,6.614404393958707,292.64357454397043,-3.458513744151268,-3.7998144760633297
444,6.654028507979947,278.20668962671687,-4.329487607998164,-4.359500408528098
445,6.686314617504356,262.9918021145306,-5.057283798455903,-4.862697067931029
446,6.697724478852873,246.8251768040647,-5.584017741988285,-5.306243437784464
447,6.686701193329646,229.58747524941612,-5.888416932475367,-5.6800588327291175
448,6.684404492023371,211.23447445230937,-5.991111846312638,-5.964407223321056
449,6.727043221382721,191.78010875612313,-5.952008608308307,-6.14076105052064
450,6.807291503847082,171.26127305505182,-5.848475330512339,-6.207852747989734
451,6.868643051504931,149.69993356582128,-5.747406191762014,-6.186598142656667
452,6.865118753616356,127.08596154554309,-5.698188397074556,-6.102539818809636
453,6.795112361579885,103.39565108105971,-5.729022827956402,-5.971532703613721
454,6.67058058047664,78.61807947951074,-5.83496852749205,-5.806386439180017
455,6.484605100409897,52.764485481183506,-5.989066939946228,-5.6244554915515454
456,6.204890665219897,25.86542014563815,-6.17112955216365,-5.44556786887313
457,5.806167414179452,-2.0317917081202834,-6.369318355664583,-5.28563928966723
458,5.302271593923529,-30.85823239123237,-6.559113485514108,-5.152396012553085
459,4.739284878439994,-60.50676083320815,-6.705971601275388,-5.047775395650233
460,4.161070793174775,-90.81081097646607,-6.789980511311998,-4.973789689596988
461,3.5837973008956947,-121.53481947767177,-6.811274619849845,-4.933812337022732
462,3.00818073534969,-152.38255743209456,-6.772686531260997,-4.931727216492009
463,2.4345719158907193,-183.02917056546323,-6.6701173431213325,-4.975021273178312
464,1.8685485758985942,-213.16812499757182,-6.497842916342877,-5.077284670727921
465,1.3087708863886598,-242.53765905284033,-6.254328656859168,-5.254456810939149
466,0.7338224777297646,-270.9152206610603,-5.944821874078546,-5.517952511228318
467,0.12302508437225754,-298.1108638565215,-5.585243944455075,-5.86912968978937
468,-0.5181158138377823,-323.97146693915437,-5.203286013842848,-6.292815612873297
469,-1.149422304456637,-348.3788766446795,-4.834046939313898,-6.756821380940789
470,-1.73323003819114,-371.2482654267873,-4.519647267913302,-7.229813878732067
471,-2.2739350396177773,-392.5357431270975,-4.30280428255065,-7.696811805743998
472,-2.7986991052583834,-412.234455696014,-4.204955455767152,-8.152440850023979
473,-3.321081938121661,-430.353316866409,-4.216651412020625,-8.591513908855378
474,-3.821057836876847,-446.9020473285874,-4.3151170922771405,-9.005515646404508
475,-4.2762298512139205,-461.8915154913974,-4.484301299288679,-9.382511205451907
476,-4.703963781289516,-475.3358762212155,-4.708235628602115,-9.710778520616064
477,-5.1437436722980925,-487.2501387410181,-4.955375783323003,-9.979743525886713
478,-5.607565979346194,-497.6449088265462,-5.19134182182288,-10.177858890023966
479,-6.056155385932441,-506.5223515374084,-5.398727589922348,-10.291463255469944
480,-6.433285070907553,-513.8815484457114,-5.573606380142445,-10.30536764879529
481,-6.713882162610325,-519.7271421442838,-5.71712578292867,-10.206397506339485
482,-6.910721470027285,-524.0735411345911,-5.836193452313603,-9.986886893502913
483,-7.039245076654412,-526.948710841232,-5.947181907106639,-9.643632452323692
484,-7.092415123106813,-528.3976871316341,-6.075920318080437,-9.18119833225185
485,-7.0683312286975095,-528.4819133135325,-6.248051921074719,-8.622502370517633
486,-7.005041471512031,-527.2744898906398,-6.4809850716092035,-8.012386388222003
487,-6.962836784772271,-524.8565845122693,-6.7860691229129175,-7.401929035752923
488,-6.965660981689221,-521.3158484678012,-7.173688303973468,-6.824088404778825
489,-6.984880050533706,-516.7471569500826,-7.655935593445187,-6.290509120826798
490,-6.980491002954593,-511.2582898892707,-8.236628693913858,-5.805953546328732
491,-6.937684744598409,-504.9735801007823,-8.897615982812594,-5.376486825022105
492,-6.872013755126774,-498.0279522419631,-9.602627275499657,-5.0106770409813
493,-6.788157972947553,-490.5565367711251,-10.30952094939051,-4.715012830910445
494,-6.657705080433856,-482.69094460354785,-10.978556479259572,-4.489286537551284
495,-6.455677814587826,-474.55495664593474,-11.57942302485477,-4.329016417313001
496,-6.186271336661989,-466.2497973601773,-12.097808486842954,-4.230522385759392
497,-5.867982786272389,-457.8470832873027,-12.538399092723056,-4.189038185281172
498,-5.502485424254958,-449.3979166805773,-12.918402735939132,-4.191359388048477
499,-5.075244164576841,-440.94197918435646,-13.259188979732796,-4.21622932364465
500,-4.58551686208151,-432.5128420890134,-13.583697749896436,-4.2401065753405325
501,-4.062519368111468,-424.1452159086277,-13.90991444656965,-4.242699696778867
502,-3.5385909664187123,-416.10012173715245,-14.243190429573241,-4.2138548939905816
503,-3.060417090608563,-408.0523209174081,-14.597814495676811,-4.1481430853780825
504,-2.64791457384762,-399.96151127658135,-14.969290968057674,-4.046404463376295
505,-2.3192237008543626,-391.9731506319383,-15.339065009531271,-3.9213889302910165
506,-2.0994446961137387,-384.3337621018954,-15.685481964461498,-3.794881362243474
507,-2.0077768497388977,-377.3206901554936,-15.992379039848107,-3.6874032681488123
508,-2.0347926071635962,-371.18475215324963,-16.251278759251644,-3.612023779816006
509,-2.135899089719497,-366.10958690651427,-16.45958389060619,-3.5718316417301406
510,-2.254535059277231,-362.19105780909274,-16.620065626148214,-3.561739327196987
511,-2.3561455378700527,-359.4312736392025,-16.73768492081504,-3.573759795601979
512,-0.018801673071041403,3.040444553075547,-0.1932208565918011,0.0930204520178351
513,0.013176751448722372,6.653958281219984,-0.6086730139956734,0.19254760516919917
514,0.04341130797405795,11.80652660319432,-1.2349495897774772,0.31271313814523977
515,0.08491915413409183,18.49521743486124,-2.058664609214103,0.44143314353932517
516,0.16914380441227755,26.57172461431488,-3.048418300155359,0.5714613585641397
517,0.3155169607503469,35.7525990876763,-4.159637736126085,0.7046570192084253
518,0.5170066821099815,45.653385281342544,-5.336096079525539,0.8462161564543444
519,0.7543780058508163,55.848540874778365,-6.515147418685063,0.9936557741351498
520,1.0264399681607088,65.94769916104894,-7.633272732532918,1.1344441461174344
521,1.3480002584673616,75.6848710968473,-8.64224905173149,1.2533054843405076
522,1.7201406318068295,85.03103421218395,-9.535755052135597,1.339593262298906
523,2.1200738334164626,93.86218249560089,-10.326500656117307,1.3814603187207557
524,2.520447892029302,102.08469662428165,-11.046654946912234,1.3694429898450327
525,2.923705899898818,109.63782603883706,-11.732634879149906,1.301053342718562
526,3.3552275287347246,116.48728095139808,-12.401285338527924,1.1823770463854477
527,3.812336085252229,122.6207513246552,-13.043017969056596,1.0226402434265933
528,4.251338519888988,128.04113966737344,-13.633984669842452,0.8337621765039426
529,4.639147947146855,132.75699047881375,-14.146306413862376,0.640362346351664
530,4.98435816313459,136.77938929982264,-14.554790035145977,0.482533230343191
531,5.3001382539852955,140.1244264207945,-14.84370922458238,0.3997519279195121
532,5.572030451091167,142.8133037016792,-15.008213135143764,0.4115303224752437
533,5.768996387516302,144.8715421804686,-15.049420062840868,0.5101552994678152
534,5.879407898904178,146.32471284217831,-14.975612883204313,0.6668275980713083
535,5.933940032607179,147.19173025992328,-14.806240220660072,0.8478132087228061
536,5.97653004769012,147.48326788583108,-14.567205048335774,1.0283362116981087
537,6.018312512513611,147.2077417041355,-14.285475478733149,1.1897956298033412
538,6.033590128286057,146.38029702138607,-13.984354615030911,1.3094401027245421
539,6.00355818137751,145.0242922776821,-13.673895589290233,1.3640480498245078
540,5.941590002847847,143.1629146240481,-13.351176073557191,1.3398430005587783
541,5.865179712390362,140.81086343885116,-13.010936041202157,1.237890489977756
542,5.763229918648235,137.97579042141285,-12.649829720969253,1.0779738431323542
543,5.604273880914254,134.66773400617566,-12.269330581743784,0.8967935891208387
544,5.378054673450608,130.9096133721565,-11.87533032808429,0.7422280606165667
545,5.112668192673606,126.74359511268739,-11.471801567501945,0.6630474980180254
546,4.855658104908159,122.23000047275019,-11.062209294094533,0.6946821433307628
547,4.636022017168106,117.43897134783091,-10.652585677000474,0.8474497577640692
548,4.439852632474504,112.43832701212567,-10.252419275053981,1.1034540579696852
549,4.238767893750636,107.2859106827195,-9.868364787774716,1.4268804937798067
550,4.0281000707032275,102.0272925221796,-9.485283882594356,1.7767150396576192
551,3.8398778727476115,96.69720217698986,-9.08147982531009,2.1152849405858474
552,3.7127731700244313,91.32597212227505,-8.67437279296712,2.413969631422034
553,3.6536067811212956,85.93994266344721,-8.320788311471935,2.6563945361223134
554,3.6569063561848516,80.55601032702246,-8.07896640144815,2.844820421399867
555,3.7333039376418293,75.18318252916667,-7.987010369106175,3.0055740797560744
556,3.907157394645981,69.82915722044038,-8.06530038293027,3.180901923703913
557,4.185823955141965,64.50360771836984,-8.322972285769497,3.410281079280456
558,4.53048812976689,59.217167805164586,-8.75292397434809,3.715811667950241
559,4.876842458474141,53.97880917989063,-9.320418348391433,4.094752437392112
560,5.1728790312669055,48.796517756323986,-9.957819494287213,4.523192477118678
561,5.403180583410692,43.68008933158627,-10.571421642876507,4.970184279407179
562,5.575950573551175,38.64135821159601,-11.060040397668754,5.40347561180558
563,5.687231500263315,33.693716298402975,-11.340268107406793,5.790096910647207
564,5.726352457110305,28.853406275369963,-11.371907917937342,6.103994944824823
565,5.715744468601924,24.141901799619312,-11.1698866076735,6.335338693760943
566,5.7208757736966085,19.587537148640575,-10.79846195417853,6.491763166201412
567,5.794403817117353,15.224366967440607,-10.359329279281592,6.5857999345361
568,5.924260678091811,11.085774760943686,-9.96161268684047,6.621540785794668
569,6.058843126117304,7.195467466165761,-9.674051584124973,6.598711613265543
570,6.170840038980895,3.5658363885145574,-9.51936108581739,6.526216407478115
571,6.272283733072839,0.2042543814022293,-9.50526283275561,6.424765219225897
572,6.374697937929187,-2.8872572794747096,-9.621299849446318,6.318530015151924
573,6.463447360995528,-5.718623337593379,-9.816017017337794,6.227508059550725
574,6.507118560289983,-8.310814434972803,-9.999254435376313,6.167793535273475
575,6.49828645676941,-10.687274827011016,-10.073400005306441,6.157300549978418
576,6.474616858038682,-12.865468993958462,-9.975929821699316,6.213924387658884
577,6.4762159442972935,-14.8558865835532,-9.703333975546954,6.345376692612826
578,6.507659919630076,-16.66814939518834,-9.302876312069822,6.547185386241702
579,6.552427060935285,-18.31364206832553,-8.845745462014461,6.811878293731772
580,6.615007204185386,-19.80284199732378,-8.402221196505145,7.141520543565075
581,6.726975190710246,-21.14374766868387,-8.024779974747215,7.553396011891176
582,6.9104824388906785,-22.344265984195232,-7.741437037848014,8.067299843087465
583,7.156266083043181,-23.418437066697365,-7.559950450148387,8.68731215166169
584,7.4292676414774,-24.390433130723505,-7.471682784725899,9.39823213242532
585,7.702025977145139,-25.29011180780778,-7.454742950943373,10.173361395830044
586,7.96825053944049,-26.144755465145604,-7.47887111387489,10.978587636282098
587,8.219091999871775,-26.975459673641566,-7.507521489232733,11.769719545417896
588,8.430166005472842,-27.797132577962955,-7.4994273147418085,12.496736780356207
589,8.563387891288889,-28.61637172326162,-7.4138498179995524,13.114777153357576
590,8.595047522502266,-29.428798399628594,-7.219184094078461,13.594190704313776
591,8.548443924348016,-30.219714953624635,-6.900403449556475,13.927117672308457
592,8.482292828762953,-30.967140985598036,-6.457944580366375,14.123412122896482
593,8.44312121800356,-31.647171133135853,-5.89806869887608,14.202056399750832
594,8.435957041136897,-32.24132035536926,-5.228781019872338,14.186593836281967
595,8.44697536084469,-32.74101250995435,-4.469505233053969,14.098836985641121
596,8.471998638505827,-33.14718066968995,-3.6591748958864763,13.948808823198764
597,8.52477662922646,-33.46791475949085,-2.8476197077993537,13.730777742198908
598,8.613941716488947,-33.71495240709213,-2.0822981068834063,13.425809178881781
599,8.70350033911879,-33.89943983842413,-1.4060929078276656,13.010776647159762
600,8.73120007546814,-34.02866860390819,-0.8568929120143294,12.472084628866183
601,8.663441777750519,-34.104408789218674,-0.46128755253677156,11.812585190618567
602,8.51109575116709,-34.12513936365381,-0.23056958081617418,11.054167930138371
603,8.295015550593874,-34.09008494631476,-0.16201647415093273,10.232601716750967
604,8.01325054699463,-33.999365609871084,-0.24199983003377185,9.38360261178895
605,7.6477268387378565,-33.85228884612977,-0.4451642888984657,8.534323625968517
606,7.194998505853966,-33.64865072697961,-0.7342669966020776,7.701226745923822
607,6.688181337290736,-33.39137053908636,-1.0662300139241794,6.889153606431032
608,6.15955604500515,-33.0882214175217,-1.3961031861576465,6.090816554391482
609,5.594818089227716,-32.75428249524488,-1.6866090850545559,5.289501292309052
610,4.952881116482425,-32.41024727027326,-1.9268855531259965,4.464913289478713
611,4.216658512263854,-32.07535675157947,-2.135057002121409,3.5997967845902856
612,3.4159132816341247,-31.762984178029377,-2.3449783599317087,2.686476567330635
613,2.589900195900803,-31.482424624788326,-2.5917091107449983,1.727724795943434
614,1.7422845550874781,-31.243380735896523,-2.8975963753965983,0.7341513789040167
615,0.842155945241337,-31.05781952021765,-3.2639856896188593,-0.27748466850819853
616,-0.12921157747839346,-30.9394690115822,-3.6695604723812147,-1.285264967658791
617,-1.147323698403047,-30.90039449753515,-4.075476765610243,-2.2637287728587605
618,-2.1915367600288786,-30.94668068720086,-4.438584890300481,-3.19415379235506
619,-3.284544595886997,-31.07800868092904,-4.722936970687064,-4.080159139136569
620,-4.467766813584374,-31.291761137764208,-4.9050744172961,-4.943730158367914
621,-5.75481644290303,-31.588770797182722,-4.9792025366846255,-5.801635032690021
622,-7.105366593272626,-31.972323362719138,-4.959046400067291,-6.652927562934146
623,-8.456724269229941,-32.44193956182085,-4.874597764367086,-7.483339565711365
624,-9.77359598687575,-32.99154881412051,-4.760783526755706,-8.272505876845527
625,-11.054318274043158,-33.61199687178589,-4.643518765708279,-9.000397104542241
626,-12.283158925824827,-34.29215771708994,-4.533748237719406,-9.653455332716689
627,-13.40640042701174,-35.01834478729437,-4.425572157675266,-10.226584073662151
628,-14.37726546594943,-35.77274400985506,-4.305275645531421,-10.723568791785462
629,-15.196349520235922,-36.53220029651894,-4.1677128440911595,-11.161258160885183
630,-15.925806432051798,-37.25236838511654,-4.04393174364722,-11.564324330621481
631,-16.55354503302816,-37.93957635037485,-3.9092007769953208,-11.972953206280005
632,-17.049057671228308,-38.58617972753737,-3.7623224252997334,-12.405043628910281
633,-17.393740234625344,-39.17840821614264,-3.614545745642445,-12.86263023861014
634,-17.60717942643412,-39.70366465534981,-3.477896976206781,-13.336462926194184
635,-17.730516864785645,-40.15598454984587,-3.3577447704572636,-13.807168777737115
636,-17.780694381549733,-40.535519964477956,-3.2492059996414286,-14.243595411690183
637,-17.75077682953022,-40.84375072746245,-3.1423525477942174,-14.610181286398685
638,-17.649367305714495,-41.080902720972034,-3.0312715733255353,-14.883055760508896
639,-17.51977235251601,-41.24834644820733,-2.917919884885672,-15.058274292260347
640,-0.10721758070527392,1.0675990333937375,-0.4602992835615639,0.006659479451741682
641,-0.10612917546271705,2.3722942419977686,-0.9311016941008987,0.006457583601507874
642,-0.11375235752536134,4.252084588164244,-1.5592363739245099,-0.025995845763786538
643,-0.1177012024775792,6.717977774919712,-2.3235665716364866,-0.11241656942634333
644,-0.09126531629628547,9.735821020742842,-3.1909054692542687,-0.269034697281822
645,-0.030947766201754254,13.23227868854001,-4.120194845949672,-0.5074540068285462
646,0.03666422132498466,17.10813162063968,-5.066841720680828,-0.837001724780761
647,0.08456171917513516,21.253946318106152,-5.990053557850828,-1.2584155109359982
648,0.11922890571832406,25.57104856298791,-6.863902221719225,-1.7531754423498196
649,0.16898635695136194,29.999412900367997,-7.687255504482106,-2.2851107734311764
650,0.23598401132566357,34.55069526040842,-8.49193333601898,-2.8139230054794844
651,0.3006862722436974,39.18068348516723,-9.290190801995305,-3.2995883845706317
652,0.3568117786238206,43.8372194350912,-10.091173888091449,-3.69565279251089
653,0.43429870336595966,48.47319106940371,-10.904117080769655,-3.9589722187320726
654,0.5672623616759718,53.046759894610354,-11.734751100821056,-4.073564859563608
655,0.7470479404548457,57.511616108123825,-12.581770950524783,-4.052934839088964
656,0.9267389440848978,61.81626218768194,-13.4424697371178,-3.922412205078796
657,1.0719536435191883,65.91699680618542,-14.319832242226727,-3.708173713170166
658,1.191055018446572,69.79080524516384,-15.218431356531873,-3.4350871540507733
659,1.2953578326412025,73.43292831946636,-16.132521071712752,-3.1261108992275495
660,1.3592380127729187,76.84290304104361,-17.04081311670089,-2.8025403308247356
661,1.33887143002307,80.01525066853445,-17.9102741144236,-2.4850096960322525
662,1.218695794352808,82.93903403100171,-18.703727000115332,-2.187558058445892
663,1.0308995712524247,85.59856593944416,-19.388564627568663,-1.9089832700643419
664,0.8160684644029302,87.97211269285172,-19.940609438265177,-1.639771884205559
665,0.5852507736072838,90.02991823844499,-20.34268343420156,-1.3773015213394886
666,0.3319636884494453,91.73333526634725,-20.586851192463314,-1.1257684880856067
667,0.07377600487699601,93.04067976173316,-20.679769356053846,-0.885536650443359
668,-0.13790637061781236,93.91518682188564,-20.64218029980724,-0.6539812568221173
669,-0.27054368419733443,94.32342613900705,-20.502794450832294,-0.43741939251282647
670,-0.3509393207844593,94.23086972620719,-20.296304397277922,-0.2526196689729231
671,-0.4422958615143695,93.6097032598022,-20.0640472787694,-0.1131522473165188
672,-0.5851658099743027,92.45342399870518,-19.848193608307028,-0.02506095262026968
673,-0.7705585924179121,90.78141187530065,-19.678743824201838,0.007099418818375457
674,-0.9684150722775844,88.63289459928902,-19.563892631909358,-0.01804930309861991
675,-1.1631994997184532,86.05676113508682,-19.493803100432917,-0.09439656714076047
676,-1.3628578062297505,83.10509507469312,-19.45249804744353,-0.20967671506945876
677,-1.561371210546283,79.8327140130404,-19.420235061948024,-0.3476247353655768
678,-1.7148306153436756,76.29145617545274,-19.36319021416932,-0.4870282923454052
679,-1.7756522687634637,72.52203258612363,-19.24007714511463,-0.6039497332354765
680,-1.7351390801233915,68.55466030132303,-19.02501822905449,-0.6797138948703244
681,-1.632084220109742,64.41695891018708,-18.714368294692367,-0.7042112641726962
682,-1.5135489592212699,60.14020793852008,-18.321246412755524,-0.6722399990875928
683,-1.4011597743121913,55.7578060821241,-17.867654802545463,-0.5863047083298115
684,-1.293768735324993,51.30261550262515,-17.377071638477048,-0.4632679631786797
685,-1.1883924895435767,46.80868151473153,-16.872926468643183,-0.3314866732316912
686,-1.0984395617010005,42.31347110983631,-16.37413327314187,-0.22636053159326416
687,-1.0246660763468,37.857313452292274,-15.8844295532498,-0.17760151130571225
688,-0.9228179057235285,33.47791726020632,-15.386521345944423,-0.18819166222164735
689,-0.7256432246865232,29.20346180672589,-14.850433560081134,-0.2335246497120093
690,-0.39311162395018145,25.05030600528211,-14.247162042758417,-0.2810821911155264
691,0.05356842245046664,21.023569172724716,-13.558705900157795,-0.3131596577386208
692,0.553383289032763,17.11798623629374,-12.785218420085947,-0.3332624854575838
693,1.0552305081646447,13.32532663319366,-11.944419187393953,-0.35478895161572643
694,1.5384940442251107,9.644516576559447,-11.064908260052945,-0.39120103237633685
695,1.9770531461805805,6.084700817109518,-10.179202838277396,-0.45887044213988615
696,2.306672384222108,2.661708030891994,-9.31256011719598,-0.5858283800681331
697,2.4550845212031414,-0.6104766622857711,-8.468144429486406,-0.8109942797637917
698,2.380993622299733,-3.7230692746698284,-7.636481368652167,-1.1737090221614574
699,2.081320110340563,-6.666832408811548,-6.82044183208368,-1.7028793122798749
700,1.561325565583724,-9.429982172054777,-6.03774223157857,-2.4087853129111436
701,0.8072331288715954,-12.005595575140154,-5.303992961943975,-3.279667594145227
702,-0.1948752931745631,-14.401267876265363,-4.61157152653385,-4.2877037833483875
703,-1.4231823890439395,-16.638027002849256,-3.9358539379975563,-5.3942918765875545
704,-2.809687213473431,-18.73806809191641,-3.265549002433236,-6.55286630819149
705,-4.282953321998113,-20.714979559646757,-2.60875177013675,-7.725796323390804
706,-5.802486779973758,-22.572924460476823,-1.9766129805473165,-8.892869799148864
707,-7.337102255123773,-24.309522839426958,-1.372245795749839,-10.034016845845079
708,-8.830490517503046,-25.91726923832464,-0.7907786842099693,-11.116700136646452
709,-10.192991864407972,-27.383603893736044,-0.22607832168797337,-12.102270942887134
710,-11.351344653915783,-28.695624573228216,0.3273349251176704,-12.96315885671849
711,-12.292532370369214,-29.84982184073421,0.8773484611625514,-13.690919984141933
712,-13.03585470738047,-30.85590100901051,1.4317371573931001,-14.286813943229193
713,-13.58747794920827,-31.730553158419323,1.98886865320206,-14.746937951232955
714,-13.942897802336818,-32.489397635160294,2.530945406027397,-15.05445168431744
715,-14.118785522526478,-33.14582467863019,3.0360804934356422,-15.18576899699301
716,-14.155008090436674,-33.71467601551641,3.4977242290579453,-15.12096215244548
717,-14.08787724087164,-34.21335853379709,3.921012518623274,-14.853388994321863
718,-13.92288613384368,-34.659745769954824,4.306878112444101,-14.395005658494794
719,-13.641620854303875,-35.066575059467176,4.646195660327328,-13.770388702918758
720,-13.23581552521782,-35.43711806125473,4.927352675488356,-13.010245284284318
721,-12.719159043091976,-35.77086579298096,5.152653308481504,-12.153380799310176
722,-12.111293990841228,-36.071608889232415,5.335847159841437,-11.2440672513135
723,-11.411366283823774,-36.347090044613324,5.484895755425466,-10.319439425023193
724,-10.599610508828372,-36.60362247472983,5.602015882303575,-9.401103957099345
725,-9.665070293351508,-36.842839943872356,5.69112222745477,-8.496063777540174
726,-8.629544232757489,-37.06277094640864,5.7571330366443805,-7.600931244471547
727,-7.5526550953691665,-37.260320615851995,5.799047999636272,-6.706470075285494
728,-6.4908419007219385,-37.4304182281402,5.801395064095447,-5.798442518729922
729,-5.4655428806783855,-37.56398764319486,5.740871149532315,-4.859170564518537
730,-4.473924235542528,-37.64973796412742,5.606634834695902,-3.8802911928917996
731,-3.5069501705246195,-37.67903466771724,5.4090540021169815,-2.8771247076093536
732,-2.5728551193470017,-37.648334063284146,5.167643106478361,-1.8859515090928596
733,-1.6980556213546745,-37.55834796690183,4.8960815636563,-0.9467701569387039
734,-0.9008317065465099,-37.41184704704004,4.60789688935083,-0.0898726629399854
735,-0.1728107724382154,-37.21049381282814,4.3259228428126475,0.668428904858946
736,0.5101609455531625,-36.95722696438936,4.0746777823150175,1.323049963951965
737,1.1588867876254385,-36.66209013365281,3.8727819825745673,1.8737835180163218
738,1.7643170389459788,-36.340359471411986,3.7321296339845453,2.3224861281532654
739,2.317862076004655,-36.00407139908082,3.6547258792351602,2.6774445617577696
740,2.8344028494501385,-35.65895405538854,3.625926116185426,2.9596316772198463
741,3.3405080355256906,-35.30945874962431,3.6102642467927835,3.1933818909136487
742,3.838148620467163,-34.96338409348955,3.5647776555104995,3.3891142251701276
743,4.3055727358679965,-34.6309477948842,3.462015512464265,3.543931490215253
744,4.737502941715703,-34.320546339119836,3.3027167309569907,3.6559790517274853
745,5.168353205793309,-34.03932319086596,3.1183085815730944,3.7339235358760696
746,5.630567172978158,-33.798022210615926,2.9595132807963336,3.7911019332545175
747,6.108620956960706,-33.611838768493044,2.87459820693627,3.837720931166542
748,6.559800532918916,-33.49783393902931,2.8932460939676337,3.8851251079591425
749,6.959443509537617,-33.471526485507766,3.0274486735067647,3.9459508842373707
750,7.315600071390736,-33.54185759690866,3.2816664198706054,4.024983052012356
751,7.634221105837005,-33.709558650486684,3.64801945775722,4.114851367419544
752,7.886301004850509,-33.969929320466406,4.095619741048436,4.204171308001127
753,8.028054157237706,-34.31121878614276,4.5745821432399945,4.29014055523097
754,8.046538778227445,-34.71206253469784,5.031577023655168,4.383763426963294
755,7.979047331735327,-35.144744062124154,5.428938195743847,4.509727365114726
756,7.8738072734130204,-35.57962738368408,5.7573777416936744,4.695688942112897
757,7.742196066995899,-35.99007451723253,6.039089154207924,4.954557005832697
758,7.568638505003202,-36.35249184648645,6.325379133727028,5.276374920702024
759,7.380254164249444,-36.651207183778766,6.632565236774144,5.6777556208033815
760,7.2208954597928035,-36.877585982633725,6.96003126692153,6.160848884787512
761,7.1074727337213846,-37.033052501988436,7.287561267777079,6.703824213854402
762,7.018235994241221,-37.128362555913036,7.585762550225412,7.2623977303684875
763,6.923978818224306,-37.179328561366695,7.8276239062502295,7.784839529098624
764,6.827189438478957,-37.202773973696566,8.001129028338477,8.22918788938975
765,6.753792677282869,-37.212886408724444,8.111440624740409,8.570198866526697
766,6.711004100509394,-37.218063183039334,8.169303191794805,8.79903165302867
767,6.680855137314955,-37.22158586929956,8.180350377754946,8.925522006664721
768,-0.55039964852793,0.03363205234323245,-0.2427260095265908,-0.16844873497034094
769,-0.8545495264055101,0.011124125987552254,-0.5864423504852434,-0.2901361123931665
770,-1.200493636061829,-0.042805452185314924,-1.1234148298207827,-0.46656059625043733
771,-1.5446229271098026,-0.13521296211097153,-1.8751527845856983,-0.7001696347266395
772,-1.8430577204780836,-0.263662131146204,-2.8362651950627003,-0.9878297458967831
773,-2.0753086770073015,-0.4160638268680442,-3.975010149354449,-1.3225290274132968
774,-2.2433749606059017,-0.5778724009839316,-5.244540945191685,-1.6930363159296435
775,-2.3513002950309376,-0.7363276525538583,-6.58939163992353,-2.0848348425424432
776,-2.393650598280219,-0.8793035276757941,-7.9453331911518426,-2.485020930423764
777,-2.373927256238978,-0.9944349336856214,-9.251898828337357,-2.891284273062893
778,-2.3430068464112117,-1.0713885588351002,-10.480296137119998,-3.317319745462363
779,-2.333213874565764,-1.1045038049467961,-11.613487917929465,-3.767387169191681
780,-2.343179831215783,-1.0888087810950373,-12.656775851353107,-4.239207969172839
781,-2.338254874313755,-1.0150590808176103,-13.630620739697568,-4.7271963493580325
782,-2.2849227751500587,-0.8716711662945844,-14.560727627885788,-5.228383483744199
783,-2.1879267610800626,-0.6488859151669016,-15.462144453764889,-5.741552431455874
784,-2.0720956066050906,-0.3420371900508188,-16.32494481824125,-6.253302343604193
785,-1.9372710916809341,0.04553733008468305,-17.114169240434496,-6.7254181698046205
786,-1.7512337382282266,0.503518189609397,-17.77965606351823,-7.10596594852783
787,-1.4863691179603309,1.0170948656075307,-18.267546575763497,-7.355624811837589
788,-1.1483783407660801,1.5663519426304897,-18.533102325124602,-7.456075089985798
789,-0.7594168455173463,2.124031557093936,-18.55062975928349,-7.40126615146029
790,-0.32981277562720906,2.6597344913201826,-18.321718189182786,-7.192053403483234
791,0.1520416120332485,3.1509819431060544,-17.88235616856837,-6.839484899966231
792,0.6909807145856441,3.589150649204313,-17.300294651383012,-6.368975643994722
793,1.2534803500176095,3.9759988679994454,-16.663223318928825,-5.816862292403535
794,1.7815551774273366,4.318932213135423,-16.05016936230364,-5.221075600574791
795,2.236663113911812,4.628207629641803,-15.498727084002963,-4.613819831521487
796,2.6257819995636216,4.912025724666175,-15.002112713359496,-4.0187366452009625
797,2.9655037596606215,5.17109509769093,-14.529354769724437,-3.4460508721223198
798,3.247375971661813,5.398214691357812,-14.045449042588524,-2.8930769180692724
799,3.45421527280851,5.583687583801733,-13.525339176340589,-2.3521437514589283
800,3.596555699447239,5.720665622714923,-12.963941268821046,-1.8113068285078862
801,3.721637138775563,5.804617131793884,-12.374851066864487,-1.252547496309544
802,3.863570487947735,5.8320729441039205,-11.777090475798433,-0.6638522906191809
803,4.00455371735621,5.803637363452925,-11.189746212742808,-0.05581958165850237
804,4.0897128406210115,5.7239617119535895,-10.6370251574477,0.5379258210953884
805,4.0709796190782095,5.597232158978669,-10.145411589532282,1.0721114989845086
806,3.939238664436678,5.426955248783698,-9.735658665352306,1.5031295907882192
807,3.704082960011691,5.219802081071925,-9.421341101940296,1.7992895947750451
808,3.362247286064629,4.985187795133368,-9.200575486179378,1.9462576605271036
809,2.9021566298263757,4.727713465183373,-9.052897541458066,1.9515785849802605
810,2.344129223093784,4.442681617037835,-8.955919676131765,1.8439869831115243
811,1.7581581404720552,4.123305121686885,-8.897560710676581,1.6667002721221067
812,1.2293055187022226,3.770405461726834,-8.865800945150552,1.4698146748173204
813,0.8123384900073061,3.394873128096702,-8.824419716697534,1.2972771099037108
814,0.5076428339589911,3.0144115519908996,-8.715657092341463,1.1689029577314956
815,0.2985050292948742,2.6507617427591597,-8.48935979845904,1.081053262888188
816,0.19704966873856425,2.332131791396519,-8.11821433377307,1.0237269974744345
817,0.22266942733550837,2.0908051511616943,-7.601401716236723,0.985047435992875
818,0.35528514607230627,1.9495354188684246,-6.967451220394029,0.9463914841047215
819,0.5285671607010726,1.913873442944824,-6.268813300011052,0.8842671508714492
820,0.6849258959563733,1.977352524729186,-5.574522567697148,0.7911982568483974
821,0.8226523907132486,2.1386345641695996,-4.968708662577526,0.6958779889223163
822,0.971239756341064,2.4201629778669003,-4.534920227521842,0.6462516834813298
823,1.1399813708122677,2.857586109827118,-4.319458160565529,0.6811282947006865
824,1.3061298928092402,3.4704064193896986,-4.30303614025125,0.8172846337716766
825,1.4468025235858903,4.256196821182095,-4.415699553364213,1.0425614208815674
826,1.562148403031546,5.205251049455057,-4.57901927436556,1.3166875334690917
827,1.6711860542687742,6.307096814955757,-4.728773119691598,1.5833588845032862
828,1.7815418513646832,7.5437258315453475,-4.8171726700030675,1.788099135630108
829,1.865120193003553,8.88187199117248,-4.81501119425503,1.8911865035288256
830,1.8752600400786175,10.27145394507633,-4.721733448735129,1.8733831789920887
831,1.790335705618824,11.648884621497007,-4.561105473631861,1.7424948911417344
832,1.6421364438890196,12.942821809142927,-4.357443848492811,1.528837677212436
833,1.467245421909101,14.086727908224333,-4.131418748492528,1.2634935636073914
834,1.2582291013404647,15.039100866518679,-3.9153905406190943,0.9662111555904966
835,0.9903404478038403,15.794588703976572,-3.7441361429117124,0.646186910030389
836,0.6367250705761849,16.374412635386488,-3.6194252645634766,0.30120924856447995
837,0.15664025978366236,16.80516094447685,-3.5112610569612026,-0.08753758911095977
838,-0.4992790731539461,17.10503110066113,-3.396609393416286,-0.5631549991155699
839,-1.3732131712268805,17.279900951944104,-3.284511615106776,-1.1830035523712497
840,-2.489116597809166,17.33133582861105,-3.226202453283231,-1.998091611281526
841,-3.84241518017054,17.26538803648027,-3.28721494309299,-3.036244544478533
842,-5.376508297509236,17.073809738777694,-3.4889213425996797,-4.271169484616575
843,-7.0205250878173935,16.720420832873618,-3.783612861642938,-5.635540857646175
844,-8.775051583528255,16.164137042234007,-4.092925814679704,-7.089285911039656
845,-10.692623373830644,15.379873198604162,-4.37869404792479,-8.636276123619979
846,-12.779563762623475,14.356138664731285,-4.6494467983464665,-10.285967204984404
847,-14.969083391085517,13.088608037305464,-4.902620978267687,-12.022683939130895
848,-17.175894988281033,11.584366755596143,-5.102526710713312,-13.80422142368781
849,-19.348928232120713,9.868522992064802,-5.217481111766519,-15.579591008164192
850,-21.4738360467022,7.98054812406073,-5.2729266938889765,-17.30187316632769
851,-23.515901725763346,5.943411712191278,-5.328802961108715,-18.938042715674612
852,-25.384818761506622,3.7184990115393157,-5.387503128930441,-20.467203133492774
853,-26.98123140394989,1.2179443987699239,-5.397641505776401,-21.864867914128865
854,-28.257686372608315,-1.656527579799795,-5.347483817335145,-23.11086199637688
855,-29.248394771245078,-5.026729262681964,-5.29762530295198,-24.212526203534708
856,-30.04713161333396,-9.06702549003047,-5.327175184526087,-25.207158734971465
857,-30.747029388082904,-14.0289771700673,-5.464009802798741,-26.150743838752092
858,-31.428918474566814,-20.22698951837528,-5.659167422889951,-27.109146215443864
859,-32.18997888319176,-27.965469581019427,-5.833244369033802,-28.150913759990964
860,-33.112426073438755,-37.52535924855684,-5.939768498862332,-29.31964914771053
861,-34.18169622321765,-49.2236583104714,-5.948261608300454,-30.588482270323993
862,-35.30080302548433,-63.43035658417435,-5.777038459476279,-31.877104800187055
863,-36.40196648447282,-80.52323092927278,-5.278589782112813,-33.12293056631755
864,-37.483208696657286,-100.83265356176028,-4.32791858684287,-34.30287190830053
865,-38.561180782243746,-124.59788734386613,-2.9050773192322183,-35.4177417624092
866,-39.623945026220255,-151.92940062485363,-1.0620822765978257,-36.468862007187475
867,-40.601146506578374,-182.769814229677,1.1361093814376573,-37.427440089758804
868,-41.392542123545475,-216.85954604156638,3.6042033558387843,-38.239149250532336
869,-41.94938982130679,-253.72851390394584,6.175227961352722,-38.860632127699034
870,-42.29876500787899,-292.74382679565196,8.615923073359255,-39.27958691034972
871,-42.47635367352019,-333.1961240508217,10.764786110775193,-39.4940620723178
872,-42.4683018510455,-374.33939191177114,12.583429750251875,-39.47518572931368
873,-42.23448257692077,-415.40137726326384,14.054797456543266,-39.17159992818612
874,-41.762711797096564,-455.6359444706916,15.10313320340354,-38.543635111500436
875,-41.07111688770114,-494.3914747220745,15.638885474793609,-37.573585181461596
876,-40.16472306955179,-531.1756084641089,15.65139345439011,-36.26071794212913
877,-39.01334608177457,-565.6580733448524,15.24300495653286,-34.6237773939494
878,-37.57788002334458,-597.5910894629669,14.574031800496664,-32.705547924602016
879,-35.8346789432788,-626.7670083550372,13.752127682606428,-30.566451618039174
880,-33.77528565921161,-653.0301410294236,12.812418057127912,-28.263333379184193
881,-31.40525781589526,-676.2804410298093,11.816955011153933,-25.841401444229525
882,-28.749697993842613,-696.46802110706,10.891669301020006,-23.35156373950796
883,-25.864107238164998,-713.5872161910695,10.135585084559075,-20.847550273490015
884,-22.83426239868593,-727.6708941611963,9.539276375699819,-18.3617117953154
885,-19.748223994345363,-738.7850497536916,8.998804067508297,-15.89146650941945
886,-16.738179807722418,-747.5454102317993,8.390293162044376,-13.461564657980123
887,-13.647098772327343,-753.2637350687946,7.566943095141477,-10.894586457868632
888,-10.436277429850533,-755.7572415094355,6.488246527184955,-8.143702139066399
889,-7.177844622083932,-755.2449810439676,5.1816335301605845,-5.264424388446768
890,-4.003894596955426,-752.2397243316811,3.729506842802878,-2.3717079381314057
891,-1.037463027126884,-747.4402577181813,2.2505008728403086,0.3998710365408502
892,1.6255834267062865,-741.6286417988582,0.8564429590403778,2.9185453308098595
893,3.8960775842385926,-735.5766191271948,-0.36688415254360107,5.065075997908821
894,5.691457317901189,-729.9649898504383,-1.353291374604074,6.7499769019039775
895,6.961446383668323,-725.3194057933736,-2.0559773595756035,7.934169923855105
896,-0.6052060375058406,-12.69810160103576,0.2799356886006719,-0.24082337358529435
897,-1.2458538244275048,-28.01261532899823,-0.10650532717987748,-0.6103787690792756
898,-2.1552368197167144,-50.09466725484589,-0.838477935074284,-1.1447564455098846
899,-3.3214239307321636,-79.09982699051213,-1.9617665589014954,-1.857203444337119
900,-4.715045817963056,-114.58629999366214,-3.527909351189164,-2.750812825202464
901,-6.295517940947922,-155.54308373579897,-5.573517361446239,-3.811126490300904
902,-7.990215910560456,-200.50546672488395,-8.07324136251076,-4.991150532271896
903,-9.672194657577787,-247.76472277264065,-10.905529942231642,-6.209189292427844
904,-11.18697472177375,-295.676498794599,-13.872385804461427,-7.374031876662402
905,-12.424585721264533,-343.0702958803376,-16.7530144477822,-8.422280345457885
906,-13.386627702846477,-389.7605920336612,-19.35502681540479,-9.341434726375432
907,-14.09825607734903,-435.12655010253224,-21.559990000839047,-10.140501090378356
908,-14.577609243661724,-478.6264182826221,-23.339645693843682,-10.84239741072449
909,-14.83721171102041,-519.8124856328777,-24.72576022317032,-11.470676569267912
910,-14.919736950947176,-558.3241568721996,-25.766980253850605,-12.04768572633726
911,-14.90291520498175,-593.8808938340137,-26.508227968081737,-12.597695675588966
912,-14.860781538148945,-626.2751248763246,-27.0009514226768,-13.15064707807966
913,-14.819160145718392,-655.3652107218932,-27.33196667641959,-13.729642759457825
914,-14.765013493150017,-681.0685429999062,-27.607469385466043,-14.316080742082558
915,-14.685279115377039,-703.3548402411477,-27.8943442161674,-14.83523973270201
916,-14.577592446668065,-722.2396952911055,-28.190494652241732,-15.19379279046687
917,-14.43421415719406,-737.7784180824319,-28.4412894856886,-15.329501931786591
918,-14.236582196576608,-750.0602084692985,-28.593650684967777,-15.221877688448028
919,-13.973016367729118,-759.2026853789869,-28.644975068470256,-14.883388973013748
920,-13.657328236352166,-765.3467908778376,-28.644000653558308,-14.346371859846302
921,-13.318524943413516,-768.6520808675834,-28.644810665105755,-13.639698650200332
922,-12.95685318944034,-769.2924080046528,-28.652935727759623,-12.773847073765113
923,-12.519136448235631,-767.4519970432902,-28.622666505192566,-11.746121019698206
924,-11.921279100166927,-763.3219081119952,-28.482848129559063,-10.553007301697729
925,-11.114823625879376,-757.0968794063317,-28.153509951349484,-9.200262004813679
926,-10.13261936893474,-748.9725373808031,-27.55891757657175,-7.714952447650412
927,-9.036469690173188,-739.1429597070114,-26.64325042828684,-6.137670690362171
928,-7.861232228866763,-727.7985739920032,-25.388143369916666,-4.495210744384822
929,-6.63147284113097,-715.124373475849,-23.816841415387632,-2.7899636944703086
930,-5.389839653747136,-701.2984296072897,-21.9892921408445,-1.0146050302683922
931,-4.184887099634161,-686.4906804870961,-19.996261986934073,0.8142981833341566
932,-3.031961921115667,-670.8619736278988,-17.94815033865194,2.640039375375788
933,-1.9079854586606162,-654.5633412650516,-15.953604851662693,4.402033643963945
934,-0.7833333508144282,-637.7354865255678,-14.088543330481293,6.070502922584286
935,0.3560101411119896,-620.5084590830843,-12.383218249518507,7.632173461082008
936,1.5060780023394102,-603.0014994599643,-10.84002852319175,9.06165518569607
937,2.6533322608022845,-585.3230318490394,-9.464409985871887,10.319732882691095
938,3.780832280865206,-567.5707861854353,-8.273420744586133,11.369937124993395
939,4.866274078480649,-549.8320311741113,-7.279179186950007,12.185851101460411
940,5.880979278094488,-532.1839010442988,-6.483030407541902,12.747659566983774
941,6.788998244772336,-514.6937999335047,-5.874882807617601,13.040904459072191
942,7.553493698844798,-497.419868979109,-5.43284097065599,13.060732408913138
943,8.170489663037388,-480.411502395131,-5.133656466892735,12.824810163513954
944,8.67590333137029,-463.70983757178016,-4.964964516464919,12.375358729672516
945,9.089449283791591,-447.34838309558285,-4.930421033232543,11.746191374059315
946,9.385504922343742,-431.35331276704187,-5.050771408832054,10.939727275302703
947,9.507962681119148,-415.73216849291805,-5.359478765056684,9.94167735330874
948,9.38936385679302,-400.46122203542484,-5.888575774210494,8.740711017224896
949,8.98094794696513,-385.52043137172814,-6.654834372314363,7.3396025063824375
950,8.267261516371951,-370.9498700364967,-7.6602992190879595,5.752222090003124
951,7.252051005922442,-356.8600210344035,-8.896980761667757,3.9872874706086776
952,5.945077714515935,-343.39264766342563,-10.336595965538784,2.052165353637961
953,4.3750794488643905,-330.6118886408236,-11.917118563675842,-0.025338153617359638
954,2.614253283492973,-318.4238383909798,-13.54188679490429,-2.1899318456030445
955,0.7758801847942686,-306.62796141636613,-15.101426729716504,-4.367874093369226
956,-1.021612894547621,-294.87130356410074,-16.511739654080387,-6.4773661423460815
957,-2.6962135652373056,-282.4211092322903,-17.720928812333046,-8.434081196092956
958,-4.197204421830043,-268.0276811079372,-18.68677161067419,-10.156612993419897
959,-5.460546129838153,-249.99141642852248,-19.375284709088568,-11.574507710879505
960,-6.404272899633923,-226.3592867685115,-19.769301181962263,-12.640615469929445
961,-6.971211812379954,-195.18854417304973,-19.86369796694948,-13.346487526104346
962,-7.149621668871178,-154.82586250471405,-19.657579840737366,-13.715854235422883
963,-6.946983319299587,-104.15423558563884,-19.15014723536167,-13.775863760398384
964,-6.368908625920018,-42.76750298161399,-18.34014343566945,-13.54933023642232
965,-5.430316672162854,28.96105189534492,-17.22935734051279,-13.062043628478026
966,-4.182530241765733,109.94162825575032,-15.824277744298644,-12.336447147775948
967,-2.721397668792883,198.53295870552307,-14.134205825855899,-11.389692437950494
968,-1.1566225994643338,292.7245372882521,-12.168129282902223,-10.24324460076297
969,0.42656274572332153,390.3220522981871,-9.937231008950892,-8.92219167184816
970,1.986766247144736,489.1567388202359,-7.471542681616591,-7.447389453227927
971,3.5040050444061386,587.2935759419563,-4.836056259610536,-5.840176990962739
972,4.951554303554174,683.2232883195613,-2.12591214822116,-4.1286750232216
973,6.308987317320047,775.8890010568031,0.5552330077979216,-2.3418231909525304
974,7.583240735868923,864.4710082350598,3.1152257030873143,-0.5001914988813447
975,8.803158304027992,948.23071759578,5.487050539046331,1.3862993210032581
976,9.987597950194598,1026.545422634331,7.638885625328869,3.31037820360473
977,11.131008602095484,1098.9412890309563,9.57644535387924,5.259985497652023
978,12.22104555539879,1165.07757028312,11.332184581476744,7.2179234701784285
979,13.250889331023316,1224.7328543601518,12.948665585061619,9.160820087101513
980,14.211369190616239,1277.7929268909768,14.469602136527026,11.055415795220187
981,15.077085064341507,1324.238179002332,15.93100460058458,12.860831575212034
982,15.812190409095281,1364.1315312308361,17.344534270094886,14.538606980096553
983,16.391438070389714,1397.606949806866,18.690635626503898,16.05539180998831
984,16.815082788109073,1424.858614620837,19.929292230460064,17.37837462976016
985,17.099041572095455,1446.1307827042906,21.01386316533802,18.483160898229123
986,17.25127708894037,1461.7083770764677,21.905257138962362,19.362648298954948
987,17.25481017680222,1471.9083182929262,22.590496729085498,20.020230017056907
988,17.06677025540168,1477.0716049437463,23.097061858481936,20.467478231511105
989,16.66739390228767,1477.5561396309688,23.48788897644927,20.733557327968253
990,16.0988059091945,1473.730288545007,23.832374878451542,20.864273253221054
991,15.435893156448346,1465.9671555872894,24.17571842831216,20.90697143209079
992,14.744016397081017,1454.63954597531,24.530995911554633,20.897460383288987
993,14.061406495821878,1440.1155893367059,24.893184191094388,20.85916619865354
994,13.415707614894455,1422.7549883685024,25.25158769545153,20.810507880047048
995,12.845429863257532,1402.9058561228055,25.58262497709568,20.76307743071162
996,12.398263082763489,1380.9021027975077,25.850481617325578,20.712390674736504
997,12.112299951201045,1357.0613314773848,26.029055767219255,20.640363209677048
998,11.990104399253902,1331.6832015067457,26.1069253007117,20.529037614240305
999,12.004952490208396,1305.0482180013755,26.078186032739424,20.371481084923005
1000,12.135301805590936,1277.416906349951,25.939521167028964,20.172614889984107
1001,12.373517572257473,1249.0293313421134,25.684479404810606,19.945439871029542
1002,12.707070230827343,1220.104921724624,25.306667891528864,19.70434580319214
1003,13.100500760162447,1190.8425624655176,24.81056546661581,19.453636832457793
1004,13.511534396102478,1161.4209187403392,24.207554654663262,19.186362933281394
1005,13.932281964718594,1131.9989575905129,23.506472762763714,18.896714095704365
1006,14.387600588209837,1102.7166352922375,22.71728002820603,18.58838860812058
1007,14.881723824850715,1073.6957206704558,21.86521107371409,18.265182396629868
1008,15.372819410223912,1045.0407268561396,21.00308107070996,17.916104172547225
1009,15.810192916867134,1016.8399262807397,20.198449127015255,17.520243314918925
1010,16.173631948483862,989.1664259976401,19.50153459744817,17.06105827234105
1011,16.47478622833911,962.0792826895755,18.933865385997372,16.52870884216231
1012,16.72594851635748,935.6246389396426,18.493051184911064,15.917155679922214
1013,16.91781044622411,909.8366770252699,18.146594916086705,15.228198124543951
1014,17.05822614582018,885.5892670428562,17.80736140205044,14.503146132371143
1015,17.124371576616515,861.4720477625116,17.461108259344368,13.707308936091318
1016,17.11845418878902,837.0572133649323,17.11396941599152,12.839873042901106
1017,17.035787802279383,812.5905652256628,16.79457597411266,11.925259811115728
1018,16.866356446307897,788.7272104051839,16.52920981403306,11.004473416855703
1019,16.62408388314292,766.310472887643,16.33222721649256,10.12640971100068
1020,16.350282011999553,746.1926105190837,16.205514327590155,9.340698034402894
1021,16.08861333806529,729.0959673815184,16.14487993595075,8.688201728036512
1022,15.856969512851371,715.5132362701972,16.149724026203646,8.18932867004851
1023,15.651667822584923,705.6455574156356,16.21776059776946,7.840165488059562
1024,-0.08957001319073749,12.257569672326918,0.03227091688138772,0.06357207903556644
1025,0.07155816608556062,26.6393339449043,-0.043488942597870284,0.19754370754580902
1026,0.330176430318122,47.15979376955876,-0.18488922080521492,0.3965612033761223
1027,0.72909884889845,73.83617462127607,-0.4050977079027324,0.6740762688715717
1028,1.2820356371759503,106.11299448852812,-0.7125812572008143,1.0404733698647939
1029,1.9611789203773533,142.90122757633367,-1.1163445819890763,1.4918476179328692
1030,2.7200675077696324,182.70423792761272,-1.6297192679126176,2.009487230498128
1031,3.5231950429964103,223.82913650846865,-2.2631327162780104,2.5710286817370456
1032,4.350738057607472,264.6862313765245,-3.011922507799696,3.159897822061943
1033,5.182295737934694,304.1767905274482,-3.8487555220028007,3.7646151994194508
1034,5.989588280013259,342.1656386553583,-4.72752638770114,4.373525461474636
1035,6.773985499101733,378.1105880148791,-5.597793414662439,4.971815171699124
1036,7.568130775735721,411.54554518712405,-6.41432928049564,5.5459454484464565
1037,8.387259236216282,442.1092623837687,-7.13617110518546,6.079581433251487
1038,9.19985967544834,469.52864235376063,-7.728526626778958,6.554060304615258
1039,9.955807422020795,493.58964744323947,-8.17295688841678,6.954314128366431
1040,10.63390948958157,514.1337048253126,-8.476093044630215,7.276420982124896
1041,11.250509176210809,531.0666999460603,-8.668768869345442,7.528508869828405
1042,11.815544912797394,544.3589712611814,-8.795147354972856,7.720965717708918
1043,12.303289239066617,554.0416387536936,-8.906472377140803,7.8609059681447535
1044,12.664103892310509,560.2043083655371,-9.06124780927908,7.955685389656062
1045,12.870054233253807,562.9901919245883,-9.315974498931633,8.01809906795281
1046,12.938267613364452,562.5870101071655,-9.70573752561372,8.067970231473707
1047,12.908068309383104,559.2098044064617,-10.229772021480253,8.122056940046486
1048,12.810408240033562,553.0843193885094,-10.856545213087207,8.176645661900512
1049,12.64496022836579,544.4389705193383,-11.536600145323002,8.207530537981816
1050,12.402418467576599,533.4982939876268,-12.207052768817311,8.190112508956371
1051,12.09732913293954,520.475279983968,-12.806523733729954,8.113508150468586
1052,11.757577364062938,505.569323215599,-13.30095697424468,7.976317267087677
1053,11.394511713107642,488.97252664762334,-13.692054847260913,7.772350781304184
1054,10.989150766025201,470.87528017206046,-14.005760321814595,7.483545865368294
1055,10.519294692246369,451.4685121459505,-14.276818080915415,7.088331051410562
1056,9.985677410609156,430.9441158248751,-14.537246131550477,6.573891392995498
1057,9.402350572579037,409.4914055686767,-14.81192452038609,5.939138828182677
1058,8.769408728505828,387.29289355778417,-15.121669871163228,5.189477219024535
1059,8.058331151611116,364.52071086901094,-15.48329245370453,4.334627060572251
1060,7.239010460924229,341.336059078885,-15.899662332953206,3.391354100454213
1061,6.3178692238482315,317.8886496880755,-16.34640951664723,2.3816973656777956
1062,5.343378241144119,294.3191079298628,-16.776036078752774,1.3274422204257672
1063,4.364644018263098,270.76568905340974,-17.14086079431092,0.24844049513240454
1064,3.39358183260818,247.36321747372466,-17.40939507827246,-0.8362633018417872
1065,2.421150095130876,224.23708652622156,-17.573848690213566,-1.9082562343447038
1066,1.4590035303112168,201.50018850654493,-17.653524742601206,-2.9496736937020933
1067,0.5601657979777418,179.25459698879595,-17.685498607504563,-3.94321961172376
1068,-0.2256355483691635,157.5955863269288,-17.70476121099184,-4.873687121498351
1069,-0.8999474559813935,136.60833008478946,-17.72416054989408,-5.726384985133082
1070,-1.4919207326882928,116.3577670521771,-17.732565290941775,-6.48251896204872
1071,-2.013080464435778,96.8886704630754,-17.71136542788631,-7.117172006118367
1072,-2.4422651444791925,78.24127838925416,-17.645862620204078,-7.604168755051846
1073,-2.757535443028969,60.463230565820396,-17.521556864279553,-7.9249190608668245
1074,-2.9667445781661335,43.60626972262115,-17.312686422371968,-8.072391818399145
1075,-3.097173980120111,27.7183142411291,-16.982385026237022,-8.053610322525252
1076,-3.163719397907304,12.839330557605608,-16.496940332964467,-7.887526803177263
1077,-3.1423033170911805,-1.0004124261400635,-15.840555132315727,-7.595897094006922
1078,-3.0064085065391826,-13.786386347621045,-15.02149818930824,-7.197960476383787
1079,-2.779219618052855,-25.531314149845667,-14.06964757639326,-6.711737329066483
1080,-2.516584908339442,-36.28031240632902,-13.031579228624008,-6.160312385014774
1081,-2.251913441937485,-46.099447268684116,-11.96333512071435,-5.568740543095106
1082,-1.9751020758563298,-55.06115929016283,-10.91758858624312,-4.952121466677368
1083,-1.6668421249358436,-63.24515869859661,-9.928132730924819,-4.318843566957864
1084,-1.3371111674254337,-70.74187867914544,-9.00931982545494,-3.6831126605697433
1085,-1.0255018474149469,-77.64254897909993,-8.172570006800575,-3.0648591462053427
1086,-0.7542410292016662,-84.02338323351188,-7.432548709825676,-2.480997223756897
1087,-0.508174990952152,-89.93406770325771,-6.798228266995337,-1.940045808088532
1088,-0.27388984756732404,-95.39556279469608,-6.266949511697461,-1.440325247242548
1089,-0.06348908916102622,-100.40697659572713,-5.824722085979539,-0.9732180311810393
1090,0.08937391453684788,-104.95547397396193,-5.446941717525306,-0.5302211623542452
1091,0.16181890461763598,-109.02411342001453,-5.100594236546819,-0.10928274313063842
1092,0.1656191046737184,-112.59525850900533,-4.748239846575463,0.2818834309116118
1093,0.12300924742222101,-115.65269751284407,-4.351442667785187,0.625186937983286
1094,0.03181149444310888,-118.18835051983609,-3.884102088552733,0.8904978855884143
1095,-0.13947677825449556,-120.21060029162203,-3.349503157762188,1.0409946349526662
1096,-0.4009732430871007,-121.74872899129677,-2.779599672091326,1.0506087897366716
1097,-0.7156525798744691,-122.85364472939791,-2.2186405971620755,0.9188141712806279
1098,-1.036768085600889,-123.59452311203394,-1.7083372225962963,0.6654202451407106
1099,-1.3419433707192243,-124.05106009031546,-1.283104814705205,0.3088116650054632
1100,-1.6440205473940046,-124.30141337596623,-0.9670110006438056,-0.13972913256283376
1101,-1.9612632144121307,-124.4134438970227,-0.7639613395026592,-0.6605807034623861
1102,-2.2815143809824496,-124.44640761804172,-0.6484280349045421,-1.221050859502774
1103,-2.5672509440714144,-124.45529977493958,-0.5732660190685951,-1.784377876390955
1104,-2.7928538800927782,-124.49302801597608,-0.4887825214800799,-2.3182826109560746
1105,-2.9693736167209224,-124.60944132446456,-0.35399469281831064,-2.7996547661934974
1106,-3.1209488631501565,-124.84486151898679,-0.14203887040573063,-3.2100043646086256
1107,-3.2451108063020326,-125.22697236594513,0.15152291886179986,-3.526128106112725
1108,-3.3024862103918076,-125.77541667503998,0.5004402008236533,-3.7193737206523494
1109,-3.2611786561418743,-126.50733182097238,0.8560516913495209,-3.7597927199242323
1110,-3.1354292721996804,-127.44460261910032,1.1711816219820188,-3.6220930328767698
1111,-2.9609280259300768,-128.61751498893156,1.416758903725873,-3.292193801342035
1112,-2.7555753260838576,-130.05843381421062,1.5877123461434874,-2.7680007366011785
1113,-2.5121276609160343,-131.79546708213635,1.6976638249451703,-2.063734390186135
1114,-2.2355466133131143,-133.851447143807,1.7629354284369623,-1.2184485785877293
1115,-1.9717296320063609,-136.24785045988912,1.79230008585076,-0.2897485840676046
1116,-1.7747611303116009,-139.0082841024255,1.7851632318077975,0.6658076160569736
1117,-1.6599137789178244,-142.1552377031302,1.73424137894653,1.6029770045127505
1118,-1.599126995857167,-145.70314867215242,1.6295078910315512,2.483076863652733
1119,-1.5672828507237964,-149.6489465453895,1.4676649728375992,3.2698762356658486
1120,-1.5776419069186667,-153.96631826510563,1.2680914242389387,3.9345778463265817
1121,-1.6587098684390957,-158.60927605036647,1.0632123802016964,4.459888111030093
1122,-1.8086652621129908,-163.51893432216764,0.8674172992740503,4.840967514581803
1123,-1.981089442644821,-168.63188835629563,0.6742923586163257,5.088050803667357
1124,-2.1300060881940848,-173.8881214168313,0.47640898278744886,5.222773783920929
1125,-2.255489435203669,-179.23288808460455,0.27332180855120036,5.264953044629329
1126,-2.390473773593092,-184.61624817411183,0.064034255141615,5.222107070603814
1127,-2.5507873338137754,-189.99000763089668,-0.16545873131496552,5.093503077709827
1128,-2.7109522522919347,-195.3030491698255,-0.436820928802534,4.883395935365456
1129,-2.8404053766363857,-200.50469789910474,-0.7598351926597644,4.606976079900362
1130,-2.940161352729799,-205.55226106527195,-1.1248390795387544,4.2866537204085
1131,-3.038591489835506,-210.41196891058175,-1.505763459379645,3.9462700932941184
1132,-3.1531302002692194,-215.0535051690309,-1.8662954294455858,3.6071841183423783
1133,-3.2636785371870443,-219.44400519952214,-2.1697960291678435,3.2876545452891315
1134,-3.3455168687507713,-223.5482075634538,-2.3896874390465164,3.004530058709857
1135,-3.4012708668990586,-227.3364753734359,-2.5149919841484807,2.7701024083295964
1136,-3.4498807291053257,-230.79363332121278,-2.5518097552146655,2.5832086440897655
1137,-3.4955901512433676,-233.92029763369345,-2.5257578317111284,2.4282703865770188
1138,-3.518764644872102,-236.72405036123706,-2.4717323571201995,2.2816569794979005
1139,-3.5041063736523523,-239.21165644297383,-2.4101648164747558,2.1175244838129728
1140,-3.4595848957243525,-241.39078471629875,-2.345669387764377,1.911403155542346
1141,-3.40739222090588,-243.27181350779136,-2.2852159862182413,1.6456305584590716
1142,-3.3697031811441573,-244.87971052367087,-2.244489591184423,1.321927507941239
1143,-3.276432356903828,-246.20774541283092,-2.2248193109838224,0.9762356825219302
1144,-3.092229733067067,-247.25901149824765,-2.2150139785230047,0.6492291119923471
1145,-2.829332433661984,-248.0493071346547,-2.1982280796431195,0.36908555537742327
1146,-2.5261356356912943,-248.604645836287,-2.166955029893986,0.1486158577531537
1147,-2.20757026188924,-248.95773147778098,-2.12667191040301,-0.006859510009224376
1148,-1.876388962547185,-249.14578911362057,-2.0881626221672,-0.09538242201297335
1149,-1.5397955607272,-249.20929818160224,-2.061192118328796,-0.12188625299461515
1150,-1.2317571382041197,-249.19097286702245,-2.0493750914201616,-0.10340058049405439
1151,-0.9978505288234145,-249.13251617709133,-2.048451338215081,-0.06537139243923135
1152,0.010479747119381294,0.8738405608769397,-0.39194508295015174,-0.05291868152833963
1153,0.07227152737808686,1.8880941636550905,-0.8193417125507108,-0.10156543942049287
1154,0.17924680760067796,3.3359196138305567,-1.462033905795825,-0.165848513882724
1155,0.36481100164557967,5.220912125073996,-2.3556073975256737,-0.23597649472111543
1156,0.6350886515010085,7.503643551460742,-3.5050251432015394,-0.30929859602054155
1157,0.9618812288413241,10.102207159310987,-4.880255077000081,-0.39535058916773047
1158,1.3049023202363577,12.90177283809886,-6.415392054093615,-0.5106732841618852
1159,1.6399361213973436,15.7726565133952,-8.024479470015716,-0.6694094641792523
1160,1.9575184621553907,18.593355211517064,-9.634058922229839,-0.8816597181190345
1161,2.2366395836160984,21.27896882880922,-11.202169610438167,-1.1603281201607276
1162,2.441628405292789,23.81695995231705,-12.725057343654495,-1.5206104198764834
1163,2.553964506519663,26.171681587930536,-14.18603547903787,-1.9642253860622454
1164,2.599895851364459,28.317380874950153,-15.559153051785927,-2.4766623457689207
1165,2.622984755605819,30.237311726037323,-16.813688842662163,-3.034349725481325
1166,2.640147195178868,31.923198302243136,-17.926867243313698,-3.6170211362578293
1167,2.644603515733428,33.37612689661428,-18.888210105251424,-4.208479243619273
1168,2.635121616469391,34.60268147019481,-19.693426591861435,-4.788890348681432
1169,2.6306988175366888,35.60682752002313,-20.33261485322392,-5.33649610286329
1170,2.6378126569951226,36.3858513673407,-20.780624001627398,-5.837185551599296
1171,2.6214382888385503,36.93417956028528,-21.01108681784161,-6.292082084547303
1172,2.532438591982575,37.25223097042607,-21.029209016580275,-6.713471772010794
1173,2.353090898487653,37.35146044817624,-20.879383224499882,-7.108139766600325
1174,2.109889157631582,37.25180362703961,-20.630121301118592,-7.468444207767562
1175,1.8429469215656444,36.97545672919867,-20.359443963038288,-7.781399982357521
1176,1.5718076534248633,36.54064551110032,-20.13447484975064,-8.043628423031913
1177,1.288410458812165,35.95878494802889,-19.984217753286416,-8.2642370782663
1178,0.9902944353984182,35.235009082359326,-19.897804612937176,-8.450979061858192
1179,0.7036551310811678,34.37028452443738,-19.84979504118632,-8.601799806004037
1180,0.45627837711061586,33.364503876609746,-19.81165247419907,-8.71054106535246
1181,0.2462347329779049,32.221298051954115,-19.752316989920498,-8.768840965355668
1182,0.04121398027775594,30.95249309105388,-19.640311181843085,-8.76107983052456
1183,-0.17712333141935904,29.57746510280268,-19.44613192251544,-8.662246925817596
1184,-0.3869415886116253,28.120348923444677,-19.1473133749469,-8.443992042531974
1185,-0.5504468529848414,26.6101581055402,-18.727913158270635,-8.084110405224216
1186,-0.6435596467157352,25.079608207579742,-18.175575413230312,-7.570587035507636
1187,-0.6741467131421394,23.55798937977215,-17.4815072068945,-6.902547234064974
1188,-0.6559993102682821,22.063173486766082,-16.638427534516392,-6.090075696952208
1189,-0.5808295867368729,20.599270567262025,-15.644666360062963,-5.152043258466342
1190,-0.4315254255726652,19.161290029921265,-14.516153452936521,-4.115650821766877
1191,-0.20584735113901714,17.74224943231583,-13.291966122391635,-3.016752197650971
1192,0.06998742558148016,16.336478272636306,-12.028945216293515,-1.893440796392502
1193,0.3649064020074724,14.940443079756779,-10.794346281746577,-0.7722714888807272
1194,0.6782210035873772,13.553139242344608,-9.660835873119435,0.3355749726391072
1195,1.0397082681723588,12.179307408227922,-8.695720025137424,1.4212258731842116
1196,1.469569446853514,10.834620129396086,-7.945156530272986,2.4706276952262365
1197,1.9487176973938665,9.54023498574115,-7.430337929060442,3.471886092676574
1198,2.444464511744473,8.310931414771172,-7.148331506011792,4.419596805838887
1199,2.94755133938147,7.149571548704165,-7.065960903790153,5.309332985688199
1200,3.4711851944440766,6.049040468712967,-7.126249092241504,6.13619029079771
1201,4.0129520845495374,4.997466718830865,-7.266544477079786,6.901720945439182
1202,4.53419943632274,3.9809599800753084,-7.430614787821777,7.610306621313314
1203,4.980425317052263,2.9861275199116277,-7.577912283826039,8.257181486757066
1204,5.317055058851266,2.0042473124970455,-7.690069303598193,8.832232897004305
1205,5.5522076314483275,1.033425976191451,-7.767110431773154,9.329018141887694
1206,5.701417272170562,0.07743638463586708,-7.816084563957568,9.742425080054566
1207,5.748111525440022,-0.8588994630803763,-7.839541031616004,10.065917532858077
1208,5.666731759264352,-1.7721103706005277,-7.835502344734604,10.292522481122058
1209,5.470365835926058,-2.656872878368577,-7.800680336345931,10.41613427982805
1210,5.221179238630838,-3.504097458890045,-7.72469858450577,10.434542534180574
1211,4.977809261071278,-4.306966186168016,-7.588006951343629,10.352198124369425
1212,4.746105202076181,-5.074064324544499,-7.370339633805731,10.180062080300242
1213,4.491188084442298,-5.83542446133761,-7.064478603854921,9.929775976261292
1214,4.180944008087444,-6.628556287036553,-6.682434505927929,9.605746446535704
1215,3.805810961993833,-7.476818141193795,-6.2507862777040915,9.206931559769512
1216,3.350803190551938,-8.382170803637612,-5.805092437252502,8.734943150499744
1217,2.7768682874060997,-9.329112738201376,-5.382531651435091,8.194469862821142
1218,2.0473292841558415,-10.287642520099864,-5.014374704020654,7.587267845289459
1219,1.165797598316968,-11.214773453396615,-4.7204057067951055,6.917025379171019
1220,0.19123476654093782,-12.057362965342687,-4.4996716619701465,6.204556584791933
1221,-0.7963912423638233,-12.758742613760747,-4.3314643173585985,5.484326390373577
1222,-1.7456258606422643,-13.269410601126527,-4.191542422957454,4.784014770648372
1223,-2.6367200780296933,-13.558293038925143,-4.0637176406406805,4.118973787195932
1224,-3.439722550692997,-13.614926251379334,-3.9406473367988983,3.5057486304251024
1225,-4.101765579842873,-13.444159585176815,-3.823318727021649,2.9721454623408317
1226,-4.586894732985691,-13.065332174564478,-3.7247720752618663,2.548636221857478
1227,-4.906233542631838,-12.512054050019017,-3.673490949306585,2.251174258173312
1228,-5.1102331886357995,-11.824002693070666,-3.700220593563627,2.071039181296864
1229,-5.2493005276546425,-11.03448483241339,-3.8119793260649795,1.977022007557674
1230,-5.3491844658154735,-10.166487783584039,-3.984348605576498,1.9259605729230937
1231,-5.41883166913679,-9.239177093970142,-4.178186678822003,1.8754472476881123
1232,-5.467899564873068,-8.270201660646233,-4.36052370950036,1.7921949885939026
1233,-5.52240742498485,-7.2722055378770145,-4.512992958897254,1.6520084829363892
1234,-5.599737735296719,-6.253420606295128,-4.623599144629156,1.4383504108162408
1235,-5.680892733977886,-5.223124934630723,-4.672019902028239,1.1453502125615849
1236,-5.727869345251226,-4.195313212177237,-4.631750354682478,0.7767618359858011
1237,-5.7133545903770875,-3.1884854890811885,-4.4862689967628775,0.33742300890363197
1238,-5.634953888680229,-2.2246999618431578,-4.228493009450791,-0.16715567794151234
1239,-5.492698505495768,-1.328527944248683,-3.8510233345105322,-0.7233171123318579
1240,-5.270423652416836,-0.5256172113422279,-3.3546437274485523,-1.3101803109220063
1241,-4.949350343505271,0.1580848922285581,-2.758345148176832,-1.9095918249650254
1242,-4.534177821126233,0.695112114221006,-2.0933156368029713,-2.51275051508237
1243,-4.069734213256327,1.0570961719115575,-1.3921512589013088,-3.1117538325235405
1244,-3.6120053002034127,1.2228571630175327,-0.6868634744843254,-3.6866080807252755
1245,-3.177343691227391,1.1869607264902222,-0.017292833725145076,-4.201684141310956
1246,-2.7253686191194246,0.9592664746290106,0.5680811974475549,-4.608131625052379
1247,-2.2035433878237756,0.5599327912050456,1.0293986495605663,-4.855798713817573
1248,-1.5985110631145607,0.014405673295489418,1.356224608358408,-4.9144193552538
1249,-0.9302223092157963,-0.6512417757351796,1.5691301320965925,-4.791301272523459
1250,-0.2142118346592931,-1.4119792511436764,1.7076187052874199,-4.5217089269558866
1251,0.5535477231575915,-2.2448646583458736,1.821102782349322,-4.139749457378999
1252,1.3573905936180015,-3.132869359724425,1.9580614701956822,-3.671262762369989
1253,2.132405587192134,-4.067982555545226,2.154949307590688,-3.1431791318359448
1254,2.796176823938951,-5.051622581642173,2.431874309599105,-2.5831144527100975
1255,3.2967588415623923,-6.091346487569018,2.79196048043489,-2.014252913483349
1256,3.636063004464767,-7.192854616317756,3.230298798092425,-1.4541284043016525
1257,3.842181961383301,-8.351933134936628,3.7376978714397695,-0.9148122850412893
1258,3.935605766278071,-9.552020128911158,4.285505645078386,-0.4040168514986318
1259,3.9338177104806564,-10.767700182977094,4.820476274563014,0.07436709156930359
1260,3.8751294785919534,-11.967437431688914,5.28354163417895,0.5196505379493375
1261,3.82452066605501,-13.116664079294193,5.63436965725316,0.9323294837494416
1262,3.83090122587702,-14.1869895895066,5.8630526329462835,1.312843827922288
1263,3.8916609343967177,-15.161126360511973,5.9860434034273196,1.659107798432482
1264,3.9680489278413744,-16.030902898081425,6.035604885548319,1.9681674201614257
1265,4.031897609656917,-16.799371947831517,6.052941611994181,2.247416530510879
1266,4.090123697315141,-17.48453334053056,6.076606459948773,2.520774761734705
1267,4.152679300401398,-18.117042743248838,6.121145911378108,2.8146733367003876
1268,4.196477216297055,-18.731713144749527,6.1743106829696295,3.135111526956675
1269,4.170378360933505,-19.35709370612709,6.219990014009243,3.46804848794217
1270,4.048981314400802,-19.987577318275545,6.245297053692487,3.8058039742508107
1271,3.823312297401791,-20.663985355343005,6.24321505290971,4.133891537042877
1272,3.4985548558998523,-21.390048842282457,6.207339844877952,4.437563161919463
1273,3.072269901456271,-22.144732709080277,6.130432080557318,4.7002085973266
1274,2.551121165032541,-22.894546792842885,6.0115200253170915,4.907683986795147
1275,1.9765636195053358,-23.602423260281583,5.870666479502667,5.054571251996486
1276,1.416301638969838,-24.232541906471962,5.744414688402475,5.144621989735185
1277,0.928265871282552,-24.755813118640198,5.661904865455371,5.186510160603361
1278,0.5394920605845683,-25.156474075571953,5.631907311729083,5.191707558121612
1279,0.25342094640359825,-25.433738205889867,5.645245604277225,5.173204885435173
1280,0.09174617098757122,-0.0726051183276589,-0.052165494836487886,-0.09851478110037729
1281,0.20575407634438386,-0.17404654738577394,-0.2182583508468916,-0.2868284927838175
1282,0.3651707467596943,-0.3165192784882775,-0.5146617670956524,-0.579900586075258
1283,0.6019821803008913,-0.4940026603938967,-0.9908543371687865,-0.9847871263123692
1284,0.9224272621642416,-0.6957520193588982,-1.6870790196886754,-1.5023437766500098
1285,1.304220038608456,-0.9087283340368735,-2.6214932095636567,-2.124032357281714
1286,1.7248775058050616,-1.1193103201884576,-3.779963516182902,-2.824526439064776
1287,2.176934457280166,-1.3143833743031066,-5.108270824829472,-3.56241406168321
1288,2.6595394419233056,-1.4833130806380437,-6.5211719351863655,-4.290117559281696
1289,3.1581169857872453,-1.6196790668601633,-7.925460385867233,-4.966968111923494
1290,3.6465058055220867,-1.7229661039098654,-9.243906674538016,-5.56735262967882
1291,4.112324471098103,-1.7907799745161246,-10.417309293902496,-6.0658803923564495
1292,4.57243095612191,-1.8227593012352319,-11.409227584570186,-6.442076881536317
1293,5.048129915550145,-1.8209805578077163,-12.20417764895751,-6.679076341695578
1294,5.529240626798363,-1.790560683099107,-12.809814764060128,-6.766625998798671
1295,5.989118979361576,-1.738615554041593,-13.256963116729464,-6.706697948720423
1296,6.421194556012051,-1.6738144279019262,-13.5890995410485,-6.512653681385077
1297,6.844889404084847,-1.6068200809277429,-13.85022463499588,-6.20472997684483
1298,7.272202990923686,-1.5477218599134273,-14.07481280121579,-5.8036859028575405
1299,7.67137788243607,-1.5004293109541784,-14.273932819282958,-5.326185536956678
1300,7.98421384743034,-1.4578212034131761,-14.436234408839654,-4.784001652652306
1301,8.183983819195282,-1.4032907696575256,-14.551815439971012,-4.181464448210315
1302,8.299258519045129,-1.316538373716468,-14.620095364949778,-3.5173931126520293
1303,8.368420246369078,-1.1775690579638656,-14.635395512754526,-2.7939918371512547
1304,8.399867637287377,-0.9700559227775252,-14.58246260499427,-2.018807745264268
1305,8.383784675663266,-0.6863594355163687,-14.44191766202083,-1.1987178892179486
1306,8.32230421524856,-0.33205895610939634,-14.199573565086514,-0.3379261477962523
1307,8.245235153729997,0.07145107970037728,-13.859319744374476,0.5589345758801315
1308,8.178765808381133,0.4888038132274127,-13.442808392502759,1.4840317708645283
1309,8.10696266040084,0.8769777115818154,-12.979573892796216,2.4231752875974073
1310,7.9809531981004485,1.1914313690453522,-12.495112037593861,3.3528972305865445
1311,7.7666298385846595,1.3923743369043367,-11.996232096827312,4.240933425317324
1312,7.468092765176943,1.4512581766899437,-11.475388426290715,5.0533560787847085
1313,7.096086580960448,1.353495943743407,-10.932999644331565,5.7627316031800975
1314,6.645139561059492,1.097191874815718,-10.385710260154493,6.346043409441719
1315,6.101574100340925,0.6909433760251753,-9.852510498613631,6.777812908451147
1316,5.4735214279879125,0.15182370642568652,-9.337300526813744,7.03525911743077
1317,4.8096814745062435,-0.49944692689634756,-8.828877244390332,7.112855694234762
1318,4.1632002115368385,-1.2429205666399015,-8.316571897396301,7.023222314095294
1319,3.5491750615204367,-2.0575183619117636,-7.806198563362254,6.786660915625029
1320,2.94642931050291,-2.9198492028270424,-7.330130174765655,6.425968965849516
1321,2.340343001704105,-3.80804066594059,-6.940739802757283,5.964833928960237
1322,1.7449686075205837,-4.703345924334146,-6.679018361806545,5.4267791701979755
1323,1.178102693571143,-5.589244322275731,-6.541811782731308,4.8317871680847935
1324,0.6381764765768407,-6.451760845390638,-6.483996550843682,4.1906912033081145
1325,0.10727286118860876,-7.278548803015373,-6.451350438924347,3.503126323728851
1326,-0.4169859801119424,-8.059691011146759,-6.408192758617169,2.7662486441132503
1327,-0.9053357591480384,-8.790183763920814,-6.34328271541464,1.9918194008504522
1328,-1.3186523928366731,-9.4687332996587,-6.26625098258884,1.210033953345824
1329,-1.6430733078049695,-10.095128966150654,-6.197188177656869,0.4587561209246528
1330,-1.909148901337305,-10.670166341809677,-6.147938006175536,-0.22876879641804904
1331,-2.1594321414944266,-11.196614730476986,-6.119678682690409,-0.8314820167835327
1332,-2.4102540305589275,-11.676461114168667,-6.120298786345043,-1.336106990408486
1333,-2.6592237941880015,-12.108043826061007,-6.171706900697238,-1.738720696983617
1334,-2.919548678307759,-12.487296027243486,-6.295694170007313,-2.059122915998466
1335,-3.2283235436406974,-12.805897928913778,-6.492428944686327,-2.3336289145736187
1336,-3.6057732894874963,-13.048004502736282,-6.737108297199606,-2.590312942963924
1337,-4.019781052856601,-13.193906775374794,-6.999785477238838,-2.8398974976047273
1338,-4.392335959929246,-13.226018293512542,-7.263107799277934,-3.076164806235803
1339,-4.647546537142738,-13.133245708180022,-7.518619443478658,-3.2807671035870802
1340,-4.754754650433887,-12.91444341008874,-7.751912424284839,-3.434273621964513
1341,-4.721660534990439,-12.579523800173135,-7.939115642590314,-3.521093060801159
1342,-4.565053638992215,-12.14710659928293,-8.053301171680962,-3.5288692041977514
1343,-4.287300779924649,-11.63870259379782,-8.069903353544289,-3.44950912041973
1344,-3.8947513263680738,-11.072219930867558,-7.968788523447283,-3.2873821889246715
1345,-3.431155612703568,-10.459140818729864,-7.735800642597517,-3.067241150964477
1346,-2.962149881031698,-9.804018871926635,-7.36578302998832,-2.8253424887947216
1347,-2.5281686198822966,-9.103390652323352,-6.866884544966026,-2.5925814425427354
1348,-2.1203798857473455,-8.345888876650307,-6.263924357685274,-2.384482692753702
1349,-1.718963501711998,-7.516870036932257,-5.593146072829692,-2.20254996887136
1350,-1.3302446100581231,-6.605802658545044,-4.891000328356517,-2.041970821406459
1351,-0.9722056045286808,-5.609793878614636,-4.189650931428462,-1.8926811391497376
1352,-0.6471502854918522,-4.537156464525438,-3.5176873612996586,-1.741896200634818
1353,-0.3293144151419314,-3.413880563201009,-2.894591005824054,-1.583607373929854
1354,-0.0005306738687006051,-2.282741195524421,-2.3203604243565783,-1.4227248614541164
1355,0.3090778698254045,-1.1912982306155826,-1.7752572300085234,-1.2754374499493808
1356,0.5415498162446142,-0.1794647610115646,-1.235154013065938,-1.1651293415467854
1357,0.6645200213664052,0.7241750681847756,-0.6883181611381761,-1.1064504213020698
1358,0.6935646064317561,1.5003191822809612,-0.1376344466030892,-1.093436945239344
1359,0.655546637392784,2.1372301859023133,0.40970840010055476,-1.1056969307987046
1360,0.5518366753754523,2.62734560045275,0.9444221180787997,-1.1202962988814091
1361,0.37252846801219147,2.961385535248861,1.4500115879673683,-1.1155167120686327
1362,0.1330074787815143,3.1302957472894968,1.9070837047567275,-1.0667238073004557
1363,-0.13163033980456024,3.132588445218695,2.2986353274594875,-0.9492769517950105
1364,-0.40650251970865686,2.9757140688873753,2.6160840017203366,-0.7517084034967981
1365,-0.7078873626136004,2.6728406898146853,2.869584817806288,-0.4829762109783305
1366,-1.0567875346809523,2.239439071465772,3.0856229965386093,-0.16431487920039684
1367,-1.444533685055233,1.6929689448363896,3.2960530434817144,0.18433260494549192
1368,-1.8396040727914527,1.055627352459988,3.530119531380028,0.5471721841717152
1369,-2.224565211960491,0.357158349677801,3.807099222109643,0.9087195727574103
1370,-2.607713511247518,-0.3656953452144005,4.129882104629507,1.2544756134221644
1371,-3.0019036259355083,-1.0768613854454883,4.482740160812274,1.57543357681086
1372,-3.3921991831522638,-1.7519153029019223,4.832832465740891,1.8740823275306364
1373,-3.7410023555699277,-2.3832228226509224,5.1329614202989235,2.1653781688955656
1374,-4.01843943819131,-2.975680180517269,5.3295116624887555,2.4653904020574724
1375,-4.222537414512108,-3.538941536431593,5.3757549440196275,2.7764957901101615
1376,-4.387109619917472,-4.082553138623697,5.247897830470153,3.085879372928727
1377,-4.548367163401971,-4.61259535122627,4.953810945274982,3.3796867227399856
1378,-4.709311212115335,-5.12831237367401,4.527077286807194,3.6562110977619264
1379,-4.838657842461525,-5.622730294066409,4.021833802882025,3.9224123185486786
1380,-4.8917726097973855,-6.090644341367897,3.5052512529072293,4.182019954409445
1381,-4.847078180038748,-6.531997390789107,3.0351423307527927,4.435390296403473
1382,-4.711131301493383,-6.945033307185568,2.643013589286045,4.687394317043448
1383,-4.490691470047359,-7.321078025531944,2.3418884210480333,4.94814155807463
1384,-4.175169875567844,-7.64661280722176,2.139657509234421,5.2271802121187685
1385,-3.7484170051946655,-7.910041029875077,2.0349293003421702,5.528508368864339
1386,-3.2166645120542774,-8.106155370763368,2.0083433803813344,5.847957429463715
1387,-2.6139883299340476,-8.236354854888823,2.02608286247703,6.1698622706764334
1388,-1.9762137654565737,-8.305985897292675,2.047719940156048,6.468453584714735
1389,-1.31074153836618,-8.320352173736733,2.0309463633469282,6.716712472916555
1390,-0.6073744537411112,-8.284448204972032,1.943902615879458,6.889176490458557
1391,0.12329127966021902,-8.206111121191864,1.7799099593108783,6.960760454569274
1392,0.8483285066865848,-8.096376414759774,1.5588471053598891,6.912738468519689
1393,1.5443677611438347,-7.966488621173848,1.3187676030788045,6.739446907247092
1394,2.207632708901671,-7.82630239134437,1.0970864290451854,6.448896384718258
1395,2.8180389227009504,-7.685061646465714,0.9140831469201638,6.054883621064034
1396,3.3159369217994383,-7.550575404409067,0.7742373169574517,5.571459392476234
1397,3.636707090121647,-7.425109897596519,0.6730814461959751,5.018660038776459
1398,3.7601339947612518,-7.326667803226725,0.6071855752654465,4.453143129893641
1399,3.713337423907254,-7.199615714867939,0.5596942964034987,3.8378049448356935
1400,3.5279993973320147,-7.013539235727655,0.5103446722446886,3.161666572226025
1401,3.229900824344433,-6.761050469387091,0.43425510275364326,2.433042849494907
1402,2.8581867408094275,-6.451606632504194,0.31444789228428455,1.6754454982835676
1403,2.4754801267766364,-6.105415713169052,0.15064348058376692,0.9254492058707278
1404,2.14939291698585,-5.748530301229714,-0.0424580260098889,0.22568602794932205
1405,1.916447935343581,-5.407587538625227,-0.24223411871934053,-0.3866656426070775
1406,1.7695349956612398,-5.106225907753131,-0.42100756625332736,-0.8876549057740589
1407,1.682513776143165,-4.86351235223603,-0.551912498498372,-1.2661268187668502
1408,0.055758643415341175,-0.11584016049076648,-0.302421508663438,-0.06777912755387382
1409,0.13945788343746807,-0.23264982695357275,-0.8197540610407767,-0.11291481459954149
1410,0.25333979114138144,-0.4107977971171744,-1.6296713711838637,-0.17202155487327508
1411,0.4045060151415252,-0.6653494463963419,-2.745177733281182,-0.24681118070917435
1412,0.5793173484526167,-1.0095152383345076,-4.139049633169764,-0.3394506250803777
1413,0.7519160196701328,-1.45175774872639,-5.749934643665902,-0.44522047461712033
1414,0.9117903192836765,-1.9929743774671211,-7.497964525595871,-0.5528539369701314
1415,1.0698632967265673,-2.6264611528098314,-9.297024309795507,-0.6511023087227973
1416,1.2407100293206206,-3.339912341812654,-11.062683588311343,-0.7342552299695589
1417,1.4234715302754344,-4.119293570124158,-12.730368024359175,-0.8067145673081508
1418,1.6073141221816323,-4.955051469175945,-14.28467812210059,-0.8804189616612379
1419,1.7948152701888316,-5.828918527993819,-15.720570285093523,-0.9559178429102442
1420,1.9977834646069834,-6.720773573845252,-17.047372909764594,-1.0248080997994529
1421,2.210332209293337,-7.614630829716299,-18.281618851221538,-1.0811316093180523
1422,2.411577294219619,-8.502942673583572,-19.44020784770735,-1.1283902610510235
1423,2.595054003548281,-9.383768765545872,-20.52674152644713,-1.1737226903869837
1424,2.772164771208221,-10.256147735142727,-21.524463760165705,-1.2171353471669195
1425,2.950754450650358,-11.120117990834778,-22.405732153468875,-1.2505761184870219
1426,3.119707819508444,-11.978689166838048,-23.147777832879147,-1.2653814404340469
1427,3.257250191302142,-12.835598434688558,-23.74398907104616,-1.2571829209459608
1428,3.3536141728852846,-13.690810635057131,-24.20206254285065,-1.224498581238813
1429,3.416187614095442,-14.540509280675819,-24.53241335346729,-1.1671097774799406
1430,3.455739238623232,-15.379762615169149,-24.73678497690667,-1.089675216879953
1431,3.4640007186298574,-16.204580359516587,-24.803923938613515,-1.0010080429569892
1432,3.4089060398129916,-17.011921581109508,-24.717895476680592,-0.9092691106864579
1433,3.2610474073016853,-17.798861844608147,-24.470231497376375,-0.8231258813906169
1434,3.024791538666098,-18.563565575478606,-24.06343295321698,-0.7530415711175715
1435,2.7550740317236233,-19.30434062581082,-23.50824344885956,-0.7101579548531659
1436,2.519275521153665,-20.016383150911174,-22.826516097964994,-0.7108949601270494
1437,2.339715590687539,-20.69273084583381,-22.0597404153479,-0.7816197408303961
1438,2.194938900799324,-21.329214338946088,-21.261465982002758,-0.942295296678254
1439,2.057727325282784,-21.924776597566893,-20.476633363823773,-1.1807621214188653
1440,1.9308361915359886,-22.47894160911192,-19.73398296358957,-1.4608321969851306
1441,1.8378583560777664,-22.988311246695314,-19.048899085332053,-1.754904322259269
1442,1.7799161313455585,-23.440415555885924,-18.426092650782433,-2.048875074790253
1443,1.7267054703168068,-23.812082706683395,-17.86490266197514,-2.3235816134203775
1444,1.6443113655532307,-24.075570235701534,-17.36430608191528,-2.5530032814357613
1445,1.5270662531650143,-24.208645249585008,-16.92337070128704,-2.718033909861247
1446,1.3908367134653234,-24.19846761013231,-16.539450727731367,-2.8172773375383313
1447,1.2378063980096872,-24.039237206652434,-16.204719770887028,-2.8673360334612927
1448,1.0506544585267057,-23.734132992776736,-15.907781435819397,-2.893079398127678
1449,0.8207696296653936,-23.29809842630159,-15.640348935071167,-2.917279307443805
1450,0.5708138074444822,-22.757319955671512,-15.395145372881021,-2.9500628576465013
1451,0.32974032410462023,-22.14714491104907,-15.157504201858346,-2.981636425205718
1452,0.09481963669635884,-21.508093545664934,-14.902327925381284,-2.9879669179154718
1453,-0.1599730702631522,-20.880359357701163,-14.598001830550327,-2.9445998126915867
1454,-0.42929603882451484,-20.298119570960367,-14.217830040447497,-2.828004258948293
1455,-0.654572602673827,-19.785176309575874,-13.752569186439313,-2.6083648323434856
1456,-0.778911390281352,-19.354420951593177,-13.217960500946056,-2.272065546271703
1457,-0.7998804774088398,-19.007436497422972,-12.64876369409825,-1.8431390154439928
1458,-0.7688794855699278,-18.729786911822462,-12.085767964190932,-1.365168859264723
1459,-0.7394650923586684,-18.492488239253195,-11.575012884257122,-0.8909277144613051
1460,-0.7346866237819626,-18.262674709574714,-11.154061960478165,-0.48856266985936014
1461,-0.7723761511831813,-18.011429429287066,-10.825370304147123,-0.22863426785839763
1462,-0.8848735917583247,-17.71540048462655,-10.562506058993616,-0.16123990681506253
1463,-1.1091698249831785,-17.356104852827805,-10.337292419105037,-0.30690046969241347
1464,-1.454005320722459,-16.918004170847396,-10.131708117868847,-0.6570493461583939
1465,-1.8874047890337842,-16.385774861456433,-9.93276997751007,-1.1769753206180127
1466,-2.3620248748580805,-15.74314770039478,-9.72130197288832,-1.8107753671987024
1467,-2.8408507267362197,-14.97547739607794,-9.473513264615748,-2.4841593318543054
1468,-3.307201823026231,-14.075600673088962,-9.175529257755693,-3.124027648736108
1469,-3.7531558411378665,-13.049720048114105,-8.82925715778267,-3.6862335782340083
1470,-4.17244816076591,-11.917024744345413,-8.448097697186055,-4.156226252439578
1471,-4.5691098776467465,-10.70439068918824,-8.046526602537101,-4.540761487210604
1472,-4.970851453681518,-9.446155317896,-7.625625028180534,-4.870192041491721
1473,-5.420449333726241,-8.177853475101163,-7.174816139507472,-5.188139323534533
1474,-5.932630553799112,-6.9232494344315985,-6.69098543489671,-5.519648980587757
1475,-6.472680402871918,-5.699308680201674,-6.188436515168185,-5.857986106904412
1476,-6.977799654589872,-4.524657839628712,-5.683366465440016,-6.184650504463224
1477,-7.405936793089385,-3.4149256856743335,-5.180535833143098,-6.485982409826445
1478,-7.769313416661849,-2.383183542791942,-4.68898816762732,-6.754518226134172
1479,-8.1077016017656,-1.4448142800844872,-4.221750699746905,-6.986980895854839
1480,-8.437129634487714,-0.6146835022570802,-3.773823128325146,-7.177926650902451
1481,-8.728955203715818,0.08810529833490639,-3.3291983759999666,-7.31387576005312
1482,-8.950116456360634,0.6226254139252456,-2.8788143926905914,-7.386106209306684
1483,-9.112233208641353,0.9322734157752103,-2.4210134791783267,-7.410372517228642
1484,-9.264143230747448,0.9717149890255158,-1.9480135300847217,-7.428635886597595
1485,-9.450852291623182,0.7145721247557768,-1.431479554033065,-7.488181406703172
1486,-9.68079625044048,0.1550284290628171,-0.8354634224012568,-7.620086877532908
1487,-9.94437318830618,-0.6843083804634987,-0.14518353642040965,-7.852994707711063
1488,-10.260548372159894,-1.7591202423503476,0.6216867608222971,-8.22311936102432
1489,-10.675047796467975,-3.033215690557629,1.4095542555439937,-8.747436238268891
