,TP9,AF7,AF8,TP10
0,0.12501155138149073,-0.499404710821947,-0.2624781374398757,0.04141181824027927
1,0.24205740522351038,-1.0543825260614206,-0.5810010430579722,0.03878049759797788
2,0.4139193380950099,-1.838699863024893,-1.0328002410000028,0.017297753554986348
3,0.638550539484483,-2.856400448024794,-1.6101597305149826,-0.030813342933004445
4,0.883031945874659,-4.087839593350254,-2.290645829186494,-0.11886121805334741
5,1.1075397796480528,-5.4905839848561735,-3.0405492647270793,-0.2610942066647391
6,1.296145779565037,-7.007110481755871,-3.8187769403812832,-0.4653611437281781
7,1.4533829962853608,-8.57366779135801,-4.582621395764548,-0.7294200020597564
8,1.5735757582775003,-10.131070367264721,-5.29416408011189,-1.042850265108493
9,1.6315258119027716,-11.63897561118843,-5.926426835266917,-1.3918360872723912
10,1.605563787234531,-13.093869437064,-6.474774405118458,-1.7611536990640002
11,1.5059588214312836,-14.474893507526263,-6.930745345961759,-2.134201100567264
12,1.3576968957603615,-15.763801655228956,-7.293961509428796,-2.4972664319630242
13,1.1626477812173295,-16.94775249069056,-7.5731690868256925,-2.8446120117583735
14,0.9056188406551404,-18.019883375818363,-7.782008636310124,-3.176847166324168
15,0.5943931001129719,-18.978298433877434,-7.930721583238897,-3.4938019651020977
16,0.2731854690268636,-19.82523803649538,-8.025533439516934,-3.7931098340566356
17,-0.01998745500053914,-20.565112268490328,-8.074518604918064,-4.07758797704391
18,-0.28510509600262834,-21.19941941160873,-8.091540662306022,-4.358191213065383
19,-0.5413719147847352,-21.723619077545795,-8.096295795347517,-4.646117106252797
20,-0.7913656337907412,-22.1310650482639,-8.110600113419132,-4.940616607361216
21,-1.0079877724268371,-22.41706658529771,-8.15535423068288,-5.225012532674373
22,-1.1671631866163694,-22.576329399824505,-8.249297686865447,-5.4764975934565685
23,-1.2817332417452467,-22.60043028497383,-8.407596516921027,-5.6776382406643275
24,-1.3927921483738461,-22.481640563031654,-8.64055967041872,-5.820564032054939
25,-1.528120512681799,-22.218790618940687,-8.952552152595507,-5.906060979226143
26,-1.6824321709804408,-21.81767292430098,-9.342397487597612,-5.942206094590177
27,-1.8446728336003695,-21.28693128131795,-9.803850473898741,-5.9440749691175245
28,-2.0308525245190787,-20.637720399560664,-10.324907884190075,-5.935366712248093
29,-2.2841493762639824,-19.886674073899403,-10.88844683666941,-5.947609072608088
30,-2.6309136161745355,-19.055827572452163,-11.474458792032253,-6.011715264183573
31,-3.056249160146067,-18.16961670254693,-12.065957374912136,-6.1494209935515824
32,-3.5287664006078567,-17.2529209051173,-12.656265141401017,-6.370156678136451
33,-4.024784393032773,-16.329877816799826,-13.246525928065163,-6.672281721390941
34,-4.532457525115748,-15.422081885195654,-13.835238132696233,-7.044375081938284
35,-5.0312854872318935,-14.54745927519848,-14.411085653115885,-7.464105825538814
36,-5.480833231154926,-13.720630095901381,-14.951504249175336,-7.900726074263654
37,-5.835559362005343,-12.953022561556427,-15.427820100846992,-8.32202508953423
38,-6.072542147430632,-12.253027159100954,-15.81333390046208,-8.69934767892599
39,-6.212091734327303,-11.627183445996605,-16.085946914136894,-9.009142543937253
40,-6.294127618593649,-11.080255268854925,-16.227915652797016,-9.234902321137014
41,-6.346533128723333,-10.615157805591895,-16.22901994330826,-9.369924859293713
42,-6.3787961324013835,-10.234462212854876,-16.090488808322675,-9.417158526251923
43,-6.400792848039837,-9.941224397774961,-15.82562786312009,-9.38661840122614
44,-6.443820642301047,-9.739358687463746,-15.456762789436818,-9.293259985547587
45,-6.54062809436337,-9.630717610420831,-15.010128716462384,-9.15534421619843
46,-6.692610640452901,-9.607352931788062,-14.511453185216995,-8.989357128901121
47,-6.86508278471922,-9.649738282701001,-13.982627436195301,-8.803988642459972
48,-7.023180227223964,-9.734642864246023,-13.437884206873312,-8.603650946862668
49,-7.1657163657445935,-9.842755243097551,-12.881714663273891,-8.39601482579136
50,-7.311746166712207,-9.959522855580218,-12.312421599503493,-8.189322081067806
51,-7.47349874624613,-10.072797211680987,-11.728395673671123,-7.984125109086909
52,-7.642149096784187,-10.174538400046485,-11.131417512025878,-7.770993071104628
53,-7.808907917244212,-10.264926040994403,-10.528044859242597,-7.535020151554356
54,-7.996199548161651,-10.350480154442758,-9.928901345639641,-7.2623756025352
55,-8.238671845829568,-10.438828512687076,-9.344149085531898,-6.945179845829301
56,-8.53261967189983,-10.53559712404902,-8.78119169077698,-6.581498522770333
57,-8.81851234690535,-10.642104945383345,-8.246262100417407,-6.170691281699266
58,-9.02645425639547,-10.751117068753533,-7.744742331339698,-5.711186466193968
59,-9.122243288064197,-10.842541937593644,-7.277387389990924,-5.207160975958536
60,-9.10434380132785,-10.888813497211745,-6.836089828726324,-4.678047389287684
61,-8.969194876730887,-10.866915947234002,-6.408195055853126,-4.155356985071455
62,-8.692576107329797,-10.764707209911498,-5.985359929104469,-3.6690831804914286
63,-8.265702489070017,-10.581184168933778,-5.566219459325436,-3.2439192223749584
64,-7.7284751748610905,-10.323762252223682,-5.1557449914155455,-2.904838492126614
65,-7.147801280689526,-10.002778044538513,-4.764433207842796,-2.672486242549605
66,-6.570472392324557,-9.626629638988613,-4.405253645456832,-2.550445487879979
67,-6.006055746521312,-9.202906836722315,-4.090480267184136,-2.524928466222722
68,-5.459676661409332,-8.74155148216908,-3.8296843422073463,-2.577699054708538
69,-4.959958968851625,-8.252332857652348,-3.626929850250998,-2.6938592489116333
70,-4.5458721788855145,-7.739550302043585,-3.478006352511407,-2.860524192465159
71,-4.228954782244211,-7.200924295479142,-3.3707013675461206,-3.0634286860736086
72,-3.981071253902627,-6.630585976018164,-3.286599492716212,-3.2847949930180524
73,-3.7750936046263908,-6.021742654417142,-3.2017837302866012,-3.505680356929514
74,-3.618780651951282,-5.369265183353693,-3.0925659299575896,-3.7112635408603056
75,-3.5393362644152964,-4.672986110346194,-2.9450976694948703,-3.8936783749951958
76,-3.539846768731329,-3.939412714377733,-2.7596191305884177,-4.047808504230644
77,-3.5816809821106506,-3.1783891828602706,-2.5485597504106052,-4.164370600661184
78,-3.6131900034533753,-2.396440173562045,-2.3279686339180885,-4.2340137959269
79,-3.6087795103714795,-1.597059560548621,-2.1092572870389543,-4.2573046009107705
80,-3.5813961356780486,-0.7873613931887584,-1.9002865161665077,-4.241774342485095
81,-3.548260234344814,0.01929148611101622,-1.7098099020576458,-4.192969880827573
82,-3.50587928409779,0.8057769328434063,-1.54541291146741,-4.116293847636929
83,-3.4416134624506025,1.5542727309988593,-1.4092297644390386,-4.023055402249708
84,-3.3541032789104164,2.2477537425440675,-1.2980336764812177,-3.9287483722017806
85,-3.2702760492444747,2.8705339852097578,-1.208067089963658,-3.8506636663556226
86,-3.220887427651917,3.410480787070852,-1.1451018493018155,-3.809833579828794
87,-3.2055385713976365,3.8645070023110555,-1.1268640502702187,-3.824064991519368
88,-3.1932102907252227,4.24083283046738,-1.173851882550561,-3.8950724845101115
89,-3.1464808682529286,4.553796834427249,-1.2990349025842753,-4.008212572850758
90,-3.0436692972196306,4.818098830018195,-1.5013809545553018,-4.140640309341961
91,-2.867695420841522,5.046492282691941,-1.763699209853537,-4.266570344883224
92,-2.593224672053009,5.248171742881409,-2.052731656922071,-4.361200131156334
93,-2.1973703406499543,5.425745034020582,-2.325622613158456,-4.40467725316286
94,-1.6859090987122938,5.572866277983806,-2.5411001130188646,-4.388403880533513
95,-1.1122834304427323,5.675494730379182,-2.666062606125544,-4.320673024568535
96,-0.5511224383384282,5.715433238039505,-2.675237870267246,-4.219900697979345
97,-0.05692768376448116,5.674038453323829,-2.550640450218625,-4.102445793298499
98,0.34999633386508683,5.535829679962074,-2.2860777642746455,-3.9779480208696
99,0.6566200872666497,5.291254277527388,-1.8916868215247336,-3.8489221071885424
100,0.8307727164534316,4.939104010830129,-1.394097516517936,-3.711510209453122
101,0.8455060634438348,4.487970209343164,-0.8295235414895781,-3.5542467013792756
102,0.723785228493317,3.957645717113818,-0.23292830045613083,-3.353645094883523
103,0.5453743450963521,3.3790010021267367,0.3703917170577971,-3.076194220390957
104,0.3900703993102801,2.78466479804861,0.9653611961285852,-2.6927128221669823
105,0.28932456745224805,2.1963304137304327,1.537491319439393,-2.1952525707562933
106,0.24016147750136482,1.6218842363554993,2.067838325690771,-1.5978390162740128
107,0.24175241589302693,1.0603682977236228,2.537365797578035,-0.924701145799922
108,0.3110804182332665,0.5067960076748081,2.930776589710787,-0.20487638672240194
109,0.4565955199785825,-0.044458007087958676,3.238804582337689,0.5282805769095011
110,0.6547232262442017,-0.5950873794644278,3.4574794222560534,1.2398708824786737
111,0.86423033858508,-1.1371811953621374,3.5849514253868624,1.8999128041505877
112,1.0607848836311025,-1.6514718674792128,3.6211791154243795,2.4915159444520865
113,1.25623602811873,-2.1100055935462882,3.568184420039874,3.0104952797389366
114,1.4648249595416862,-2.48050443821519,3.4298910834916296,3.455306464887258
115,1.6649981138560463,-2.7321541911578158,3.213256495915603,3.8256784571781637
116,1.8093369927522855,-2.8411806857428146,2.927411913801173,4.128249828945985
117,1.867945494669358,-2.7952841314204937,2.58239761315102,4.376790217871354
118,1.8641190939197056,-2.6101303966468548,2.1932340094540788,4.587414670499456
119,1.7867151850087366,-2.2851703458604207,1.7602074492216735,4.768556109106969
120,1.61551466046768,-1.8533408067682173,1.2991308017424692,4.9237776079381375
121,1.343925060784473,-1.3665174317824538,0.8350010855935925,5.0542385258755
122,1.0029288013447777,-0.8759793689353358,0.39453461510428706,5.1601375668736225
123,0.6489305954150013,-0.42088528825374066,0.0001520193210775983,5.240790823705396
124,0.3273083635092026,-0.027567195448911494,-0.33377515189374757,5.2957888721212925
125,0.05651490938886952,0.2886051518526956,-0.6004698134779476,5.3259877162949225
126,-0.16028479632681597,0.5231377488983187,-0.7973083832241378,5.334527108085417
127,-0.31293429704574055,0.6813144152310073,-0.9257423546355593,5.328655174242109
128,0.015840754931369397,-0.4061736791382881,-0.3059900765478068,-0.18821989163362832
129,-0.1329886919753052,-0.9171786309399772,-0.7314486578736711,-0.5253546941157431
130,-0.3444173244307121,-1.654596424168578,-1.3482569357595549,-1.0298592666360342
131,-0.6176514061875918,-2.62045629210066,-2.1560144295339136,-1.6968738611587426
132,-0.9646350826738961,-3.7954482918778663,-3.1368804556563,-2.505112757370213
133,-1.3847507724822927,-5.141838709869554,-4.25148092473176,-3.4217582244172844
134,-1.8543637183685653,-6.609763831469831,-5.44604641185574,-4.404524704539173
135,-2.339872655115401,-8.144308584691812,-6.669574417669181,-5.404167785877479
136,-2.8243902414881297,-9.693841232222344,-7.8889509164562455,-6.371456163146871
137,-3.308258611227961,-11.222507805370526,-9.099401041389024,-7.266828786818657
138,-3.7881606484313495,-12.728263126840387,-10.329089777669052,-8.070373636362797
139,-4.253504297325146,-14.197508919641141,-11.592723537951919,-8.765880427176137
140,-4.694549770446136,-15.614965541489187,-12.89264170118615,-9.360196956479157
141,-5.1042305006494715,-16.957460336566363,-14.222839045653396,-9.874698243772134
142,-5.468044903887482,-18.196978499476824,-15.568339672223006,-10.323324912724248
143,-5.749409390668977,-19.307131457841173,-16.90233142190149,-10.701559693416002
144,-5.8924926181579735,-20.265594914247988,-18.18160136322406,-10.992125621260687
145,-5.862380705014648,-21.060016693001675,-19.333160995507505,-11.182708432130841
146,-5.685261957206366,-21.692352102465826,-20.268534285968304,-11.275400954070317
147,-5.435637045142676,-22.17383725284815,-20.926888905543958,-11.281552918206033
148,-5.184423750491907,-22.520789161407944,-21.296206231114127,-11.218390625747283
149,-4.974470464499875,-22.756448397507324,-21.39881120506031,-11.11110552234122
150,-4.860953738070998,-22.913135406478293,-21.268551774533705,-10.999755421543728
151,-4.944785986906384,-23.03222657731701,-20.930820484652536,-10.947217355134883
152,-5.34960906113966,-23.1616404902732,-20.39576061894419,-11.038208125976425
153,-6.1756263369639655,-23.35007744742077,-19.674962178802986,-11.366642383640713
154,-7.468494130006519,-23.6405420254807,-18.784305819251827,-12.016431402510339
155,-9.238659190252768,-24.065380778551265,-17.73523533641099,-13.046917148051289
156,-11.490847199722532,-24.64785459289108,-16.526883321054918,-14.490827512124925
157,-14.226094654472067,-25.41140918943384,-15.120834868737461,-16.353742618920624
158,-17.42572489629455,-26.378605385141796,-13.450789853992198,-18.610810191198347
159,-21.02486105309052,-27.55554310220799,-11.480653577229235,-21.211080266985476
160,-24.92685277776264,-28.92555859528731,-9.238092514354292,-24.076621489003067
161,-29.049898492603255,-30.460930989092287,-6.800746243339474,-27.100556320906485
162,-33.3280657876675,-32.13255592217985,-4.266404884708662,-30.16203582513609
163,-37.67218175653789,-33.90866081450841,-1.7189731706162013,-33.14480761887007
164,-41.959792382993,-35.75810743442297,0.8078815800450425,-35.95068928278124
165,-46.07424955994143,-37.65441251878478,3.3311668089963806,-38.50097770329055
166,-49.94286470545838,-39.568283099508704,5.872267189672713,-40.73075507817832
167,-53.526254176059794,-41.460616893206115,8.414791585480865,-42.592375972843854
168,-56.77106718867028,-43.2834113825062,10.903776699963576,-44.05643455950646
169,-59.592546043084894,-44.98473065533514,13.26811522053095,-45.106340320492556
170,-61.911219095592436,-46.51489185170799,15.437456283204085,-45.73951604183456
171,-63.6906155017438,-47.82905038269769,17.342409043057,-45.97290773273581
172,-64.93183196512005,-48.88702857148979,18.917766884572938,-45.83621537549309
173,-65.63039904923302,-49.65860763290921,20.128911334631983,-45.35080563066127
174,-65.75525616930118,-50.12920100519156,20.972775019935728,-44.516267911058534
175,-65.27811101108617,-50.2996303915897,21.464738616556158,-43.32130729786154
176,-64.21020973795403,-50.185716148313254,21.650778473520695,-41.76309922080365
177,-62.601431239921546,-49.80998695969907,21.5919348738492,-39.853828519427026
178,-60.49759048075349,-49.18582003200927,21.33126901043787,-37.61372435258831
179,-57.91983531553224,-48.31311188668465,20.89353492169493,-35.058317297587415
180,-54.89097338859145,-47.18616449015034,20.29436800004239,-32.20019461457906
181,-51.46766023156914,-45.79958464106727,19.541407173255248,-29.067612060441622
182,-47.748906150099636,-44.14948638777399,18.639725879037545,-25.71488182414926
183,-43.84142510911293,-42.23799199184227,17.608457760400565,-22.215739991741362
184,-39.82019580511681,-40.077551178402345,16.49026232490544,-18.64529877964871
185,-35.72697314840655,-37.6894043533272,15.337895289172154,-15.066816551860704
186,-31.60074078559508,-35.103499450042335,14.200452615499803,-11.53556156554428
187,-27.49956526428025,-32.360529479593495,13.122191973557907,-8.101893991835254
188,-23.475707928612223,-29.509857648866806,12.129027205568011,-4.8028708423935385
189,-19.547548589017794,-26.602543172257803,11.20029781036869,-1.6590262386937065
190,-15.70610263561794,-23.682064021202702,10.262643609084483,1.3156133842380635
191,-11.943949521038794,-20.779090125550585,9.22226283725622,4.105945764976098
192,-8.277875900618039,-17.91590208961762,8.009525504526298,6.696615108899344
193,-4.7408364505023215,-15.111493835517617,6.60048076495383,9.075669080816871
194,-1.3612297445532366,-12.383973836331885,5.018859122794602,11.234650337928088
195,1.8527643560203357,-9.754964041887762,3.3268608797642063,13.162136036669144
196,4.893551148001444,-7.248903855143217,1.601495684997036,14.84017256734825
197,7.723180341720733,-4.887790998094197,-0.08231235796034603,16.251313506303042
198,10.293724380624814,-2.68774361595259,-1.6581650742372178,17.392880895489487
199,12.592220860154955,-0.6568883967655237,-3.0820796192522897,18.28380248894902
200,14.654665472923721,1.2055192417932181,-4.346690255269755,18.957805370219614
201,16.52802697793135,2.9067849435498463,-5.47059795898758,19.452997888478336
202,18.231497734619392,4.45820097908009,-6.469583538896945,19.803315487809254
203,19.762444545775388,5.875219815699727,-7.3434041688201726,20.035391082656965
204,21.13069731298378,7.177433819246472,-8.081457704602267,20.172032372378894
205,22.375928298859705,8.386923703689387,-8.669583062514931,20.232031323279497
206,23.533084292195745,9.525892434657829,-9.09347773884593,20.227810689101698
207,24.60256270988211,10.614528610257958,-9.349890336559172,20.168618886118416
208,25.564899415825987,11.66966545485071,-9.457300934595585,20.062610038933723
209,26.41391282000543,12.703699247350297,-9.4449787382441,19.919895996656727
210,27.174645625951904,13.722320928663834,-9.337624394049751,19.760152488496956
211,27.87456105169358,14.723759662315054,-9.153832149177877,19.611104132301538
212,28.503951931510912,15.703709893253217,-8.912806076165715,19.50084536730156
213,29.01827111688218,16.653083856647765,-8.638274954802872,19.449396786427652
214,29.388730053904883,17.54778704377087,-8.355449620984281,19.46273797636237
215,29.63525175353603,18.35204184243037,-8.087728187641739,19.536257759887302
216,29.783977827129004,19.030074418407384,-7.849380479160809,19.65433781120578
217,29.823177774958534,19.553319242526104,-7.638257081016336,19.787726427792663
218,29.720158446946414,19.906085285634806,-7.442469724299967,19.898443043945818
219,29.467927844916577,20.08843470891139,-7.2578478608957395,19.94656306625953
220,29.1039796081227,20.11337533401288,-7.097100079300729,19.896970566480743
221,28.684649639656065,20.002901080916576,-6.984393590164696,19.72421374223267
222,28.243903283731385,19.78467999723895,-6.942796948217128,19.41338235865039
223,27.773174303852215,19.486290783757276,-6.980570395647985,18.959594471236663
224,27.256203453136457,19.130783501271488,-7.087471170994926,18.367915383803364
225,26.703822915420417,18.735937042651333,-7.238151962551941,17.65356186165717
226,26.1429723966355,18.31364731142282,-7.398875628368686,16.83910671160493
227,25.591203504375777,17.871087122282802,-7.548586813262994,15.947154954917142
228,25.04606747392007,17.41446084269671,-7.7029706363945625,15.000146267961332
229,24.51665229996655,16.95137034888678,-7.91197270175458,14.027931188348006
230,24.04681121877221,16.492534449007,-8.2288923955523,13.067099517827081
231,23.68311909912493,16.053370495696935,-8.679899606635146,12.153560432035762
232,23.436685023521083,15.649710862436036,-9.25687452491393,11.312746609181003
233,23.291087242575742,15.288450565317765,-9.925134783215473,10.555292794552336
234,23.239860230628725,14.96424450239832,-10.631138934880312,9.88317067577245
235,23.285700432944655,14.662993575891392,-11.312346232846181,9.293090837116418
236,23.410956588306394,14.366256252878603,-11.908395275858533,8.777744677126897
237,23.57178169310949,14.057239658350468,-12.375608812394182,8.329473878579403
238,23.71776607866109,13.726698075566935,-12.702578392541403,7.941837433110819
239,23.821044539528984,13.374589484924932,-12.912130747403513,7.607995907062486
240,23.889136712090064,13.008851282391616,-13.042625583194782,7.320191279157295
241,23.943256576099653,12.643867636399449,-13.124200424344485,7.071189264843454
242,23.98229428008301,12.297186105816543,-13.172717312019135,6.85442546870874
243,23.98367299039953,11.985656580739242,-13.198434806107883,6.663939016077823
244,23.931619026603848,11.723016797862762,-13.211775933167324,6.498638360906906
245,23.83493854950107,11.518387151460907,-13.206730569965142,6.36833192505247
246,23.76352256604024,11.35279722166323,-13.1572951058456,6.281380410788499
247,23.681284030334762,11.26438839659849,-12.990450518487831,6.262606020174856
248,23.55604835011035,11.267574500434723,-12.675961990829933,6.318795773755671
249,23.37639320904854,11.359389984010049,-12.220855416881498,6.44375048238661
250,23.1496702811602,11.525296429834059,-11.660076501345412,6.624679732273262
251,22.890518308720917,11.744465766660742,-11.053235772422827,6.844660857844138
252,22.61694254721051,11.9939366397657,-10.47320737363095,7.082098083086065
253,22.348517515692965,12.249729009986838,-9.981898750370771,7.312372167361258
254,22.10383387717765,12.488347273259714,-9.613506534327001,7.51162317613961
255,21.898391010390462,12.689610320709937,-9.369498351125083,7.661687764312893
256,0.13579761168829882,-0.235412469367468,-0.6916590890255047,-0.07371093212370604
257,0.2505888222905463,-0.553446195047333,-1.507871045110124,-0.1743567285941809
258,0.38655105524589184,-1.0297098194431233,-2.5453495855340007,-0.3405637725315373
259,0.5072875785435665,-1.67896284600753,-3.7257878243699127,-0.5986711894715214
260,0.5674704806028423,-2.5070778624205903,-4.9533706541545985,-0.9715810884430981
261,0.5381499545267077,-3.5086396882713333,-6.132271733237934,-1.465345049817181
262,0.41258266240663244,-4.659502105585806,-7.194702462075149,-2.0671048443773237
263,0.1876304477001093,-5.921739903571416,-8.111603877076613,-2.7539802258655763
264,-0.1507014471432624,-7.261590990691606,-8.874584829336468,-3.4982517992731124
265,-0.6131597556035953,-8.661026637497807,-9.49389460883685,-4.2681177187465185
266,-1.1772684294792288,-10.124936306544543,-10.036695848801374,-5.029685338519605
267,-1.7927494272530504,-11.650464577020957,-10.602339991776418,-5.741440362111952
268,-2.4206798527218267,-13.225408072135124,-11.323221716815791,-6.365078538708593
269,-3.042238408129382,-14.811903859905211,-12.315299728133077,-6.870631372320179
270,-3.6369037227710104,-16.352322109963545,-13.608964172272147,-7.239119768469388
271,-4.172320972719327,-17.800210962706867,-15.159316336640906,-7.468646977359027
272,-4.60582813826288,-19.12040618780273,-16.949111103465775,-7.568094297199686
273,-4.902665453601602,-20.259117686309438,-19.05079798262926,-7.532662179565173
274,-5.048450075626398,-21.149965963416328,-21.577475589262583,-7.345946572858785
275,-5.04076080272755,-21.74780974600587,-24.58847515674883,-7.012736973064583
276,-4.880719566160865,-22.03843480152649,-28.04077285386001,-6.5610437359385365
277,-4.559788289767382,-22.026599037811515,-31.804477673052652,-6.011411716920225
278,-4.077137210416274,-21.73186373081766,-35.6918864593405,-5.3659693999696
279,-3.4726359529935267,-21.206072485609962,-39.454551200468266,-4.62884515950476
280,-2.827202336446398,-20.542910602844326,-42.75441902299913,-3.839310507779966
281,-2.2341333337584155,-19.844530424532657,-45.24546987610058,-3.0672695751887837
282,-1.7573512517248293,-19.183655467127537,-46.73673886751555,-2.3715235642823886
283,-1.449116395909317,-18.592237812803333,-47.17464679519017,-1.7934357795992741
284,-1.3971748286757228,-18.065545744294404,-46.50426438161829,-1.3801733458396548
285,-1.7129571854645662,-17.57678802563579,-44.630959690325405,-1.1939262935181212
286,-2.493182574339812,-17.088792236950763,-41.484444441070735,-1.3063275226103774
287,-3.7899774686033556,-16.543856858306775,-37.1169571211625,-1.7864399113078202
288,-5.611651814560453,-15.840288987761124,-31.711583596376087,-2.688256546974957
289,-7.9525770621588325,-14.849356228140097,-25.44439822766413,-4.042600722362746
290,-10.788327619346399,-13.47177343239218,-18.399152814918025,-5.852766516921866
291,-14.032158341217428,-11.651141241431118,-10.635259421716004,-8.081950346591999
292,-17.528094144665072,-9.351201051321322,-2.2639323471167625,-10.639558476484753
293,-21.10282228902701,-6.574625709841637,6.568961335733722,-13.409245753575894
294,-24.631042918463443,-3.3947823097751026,15.748446675378963,-16.300134927561263
295,-28.039936826549877,0.05768454578386484,25.223263555488657,-19.249233286588687
296,-31.258334367920064,3.629454258495361,34.98935866422873,-22.188078429857285
297,-34.21848645295279,7.168818206151066,45.06316532235873,-25.040093392900246
298,-36.91499087475128,10.528363196933723,55.50128703166382,-27.762940908692407
299,-39.45185538682822,13.557537192871418,66.46098715492195,-30.38847677090872
300,-41.99144593427659,16.11621972544979,78.12740012389128,-32.99091571717578
301,-44.62822619360526,18.1034834144515,90.5215875651293,-35.60773327607387
302,-47.35681268272316,19.467689924951785,103.46315745243253,-38.229452973354945
303,-50.13537911525787,20.20649068722784,116.68849003590469,-40.84534880427695
304,-52.932233881043004,20.3720999684303,129.95535152685105,-43.4528177457867
305,-55.72283260705011,20.04111860427367,143.074458995712,-46.03472206517958
306,-58.44988496067717,19.267514603994087,155.87962263177104,-48.54226106051082
307,-61.00105256776932,18.073197389007774,168.1834449419814,-50.90031778394641
308,-63.250859641858504,16.455517714995132,179.76260122056777,-53.02126170608579
309,-65.12932632369413,14.389755103934169,190.40917861140846,-54.82003757560296
310,-66.64235351535164,11.835703963393426,200.01021957531833,-56.236456860186955
311,-67.83859307555457,8.74838545681287,208.58105440087837,-57.253415470712945
312,-68.75516414793707,5.093922097586425,216.15334590596558,-57.88329171157145
313,-69.36982440065721,0.8707083334594503,222.5841330173112,-58.12005543093238
314,-69.6058857105241,-3.8828350012307555,227.5826734040552,-57.92100750614111
315,-69.36832584567604,-9.09933497182331,230.90302612625229,-57.23125961665755
316,-68.57089060751964,-14.6903235672085,232.46552973294618,-56.026286653705064
317,-67.16749729167051,-20.54499529254994,232.3847821414035,-54.35294909698878
318,-65.19651838152525,-26.541570710996865,230.93898756934823,-52.32711696516481
319,-62.79344510423243,-32.57216396562701,228.51145934720472,-50.09118867466162
320,-60.13110489327076,-38.55965152004363,225.4782425379503,-47.756672065509
321,-57.34114262479289,-44.46178472006532,222.0811213606617,-45.38596441015412
322,-54.49580854841999,-50.24667167529961,218.4042796133961,-43.031018649888146
323,-51.657000688638604,-55.864225546056474,214.4840477080218,-40.75823250403322
324,-48.92441649069679,-61.27403907492201,210.4425663003933,-38.63709538483979
325,-46.410436799258996,-66.46301432553543,206.47276275115087,-36.72107846803629
326,-44.17273777275344,-71.40996418116711,202.70854784997255,-35.03061459672223
327,-42.18073548000882,-76.07302839419253,199.10214174624036,-33.54169407004288
328,-40.341682078471145,-80.41359854178627,195.40655393772448,-32.200587054097454
329,-38.58280374058043,-84.41704096565687,191.3622789308312,-30.962951312660298
330,-36.92191976200058,-88.09609168173229,186.94751511418914,-29.83285911759948
331,-35.44143775152518,-91.4861872235182,182.3717176493959,-28.84865054067343
332,-34.22394437412276,-94.6432249968307,177.8378920915499,-28.04699371567921
333,-33.35183915822753,-97.63557804655234,173.44696573678323,-27.48649786376503
334,-32.908023768380744,-100.53700418600238,169.2152385859918,-27.234543996864872
335,-32.9323816914502,-103.42581798547762,165.0482224698366,-27.30204060392991
336,-33.399410718572746,-106.36903980519801,160.7789302350774,-27.636184145457243
337,-34.234655021509795,-109.4263801131889,156.28179627390608,-28.156204304054153
338,-35.34290150237179,-112.67640478696077,151.56967367129698,-28.78350838886506
339,-36.634587326212646,-116.21992025680717,146.7629584983628,-29.458123447934614
340,-38.034754963794704,-120.16305121666045,141.96558062700876,-30.14472385219826
341,-39.47539317366356,-124.59389822499803,137.1785664791423,-30.83912778501647
342,-40.90736183412981,-129.5864461145991,132.32672493722882,-31.580484473403878
343,-42.32582409202783,-135.2284249477713,127.35291963004681,-32.449194776199725
344,-43.77488403456786,-141.6094557936973,122.22727954655572,-33.546267531853736
345,-45.34228916869872,-148.77287542395882,116.93655523401618,-34.967393534874
346,-47.126478065758555,-156.69478544146315,111.48627735507682,-36.779110845805356
347,-49.17337164170619,-165.29566467012532,105.82238183506847,-38.99430357991784
348,-51.45352380088624,-174.44873759397214,99.78421098516392,-41.55869447956045
349,-53.88978562226222,-183.98433719735078,93.2085753946665,-44.35786114852066
350,-56.37908242083875,-193.71778878990946,86.0901187101905,-47.211922140384246
351,-58.8062765867487,-203.47034239122218,78.59300392608085,-49.903508138302854
352,-61.06018473866258,-213.0544283944779,70.95331156823825,-52.260307452864915
353,-63.016452310755824,-222.28488911499863,63.401284252488594,-54.17526063860267
354,-64.54557534259203,-231.0268579749598,56.104334687346324,-55.57454031507384
355,-65.5731220510262,-239.2176819305627,49.161150567505146,-56.423396702074434
356,-66.08438499384079,-246.8565792047499,42.59654371337126,-56.72141149605692
357,-66.06263115380186,-253.97742694412017,36.33614300453402,-56.467570774936455
358,-65.46651757411456,-260.61457137662404,30.229446729876212,-55.6506566684868
359,-64.254532242298,-266.78990482596004,24.11484910539725,-54.25841006676599
360,-62.404477335034585,-272.5028820012426,17.882109851111142,-52.28529950287769
361,-59.933619433076714,-277.7069066980185,11.504445897773287,-49.748192027727264
362,-56.90526388350319,-282.31336353552126,5.026048346512677,-46.695034421987046
363,-53.41187326232142,-286.2404839109092,-1.4657251704243661,-43.19083057791081
364,-49.5518299061994,-289.4395741463233,-7.866203322277806,-39.297676836499704
365,-45.41181123023349,-291.868156400613,-14.09079382425624,-35.0687181375198
366,-41.05382855229638,-293.49993781994635,-20.11197525182185,-30.550052379396934
367,-36.5012033498294,-294.3751429568239,-25.99348083010216,-25.78739402096187
368,-31.74826722495303,-294.6128839355017,-31.842429901509252,-20.8434549600825
369,-26.807856520865876,-294.40556902622035,-37.684574022883766,-15.80697361523418
370,-21.752083585508377,-294.0068368790213,-43.471249858956476,-10.775920810910323
371,-16.688028791370396,-293.69208548690665,-49.195220074273266,-5.829445459664148
372,-11.682251251232694,-293.7298937263943,-54.930580024780156,-1.0053795249665913
373,-6.732225140258314,-294.3838626218037,-60.762950685135536,3.699784171375452
374,-1.9338357364862262,-295.36856481950093,-66.49297226103312,8.188296020681204
375,2.9691526072632883,-297.83493369575956,-72.34369540843579,12.665409989293682
376,8.015658152611561,-302.2777121399858,-78.30740793584094,17.17728931431233
377,13.113914046212482,-308.6774008271949,-84.23794169229778,21.67032002754144
378,18.11109631522063,-316.6528699949957,-89.92630221562615,26.03218835629089
379,22.83389574091304,-325.59607750576396,-95.16727028936508,30.120390684438675
380,27.1047829300659,-334.7717649937681,-99.79601653160356,33.782299808390064
381,30.75754393343605,-343.4244700929434,-103.68962737588203,36.87556512262788
382,33.665196588739626,-350.90825395083573,-106.74945591382914,39.29506796945938
383,35.76789324002487,-356.7732651964485,-108.92143515259485,41.00119961919853
384,-0.0266412539044443,-12.462711286105689,0.41087739872471846,0.09207536080040775
385,-0.2014726324920545,-27.63658691326586,0.6467703147614625,0.15164172210166244
386,-0.49608037160225044,-49.54104135608436,1.0223515023887897,0.15890034472720563
387,-0.991579046059478,-78.35985853010503,1.584804349498703,0.052023415516741806
388,-1.767067779611994,-113.70078346448426,2.352106215352198,-0.22570527946437083
389,-2.848161692969919,-154.60115569263547,3.296661763200002,-0.7072965775643971
390,-4.201069653046622,-199.61159259541446,4.329561336053756,-1.3897981192749311
391,-5.768133418895362,-246.98615042613886,5.320076576074736,-2.2411798480140486
392,-7.494662297652647,-294.99141766809464,6.149355967632169,-3.2197357434651175
393,-9.32629974793371,-342.31082783376684,6.729931063089623,-4.280210612244485
394,-11.188867903462741,-388.551807268028,6.994594932781739,-5.367769223965781
395,-12.996393895037812,-432.87466432533716,6.840084962385716,-6.425835963397409
396,-14.686108795639711,-474.5104510402099,6.179761995646149,-7.416632606853234
397,-16.235931338106788,-512.7910193700395,4.991932862593995,-8.330397928969836
398,-17.64522511172648,-547.1594313359338,3.337657044240502,-9.181598636627626
399,-18.912090877024152,-577.1846716410321,1.3302107611060943,-9.99547835616915
400,-20.04369837154721,-602.5841219926585,-0.9225830711697762,-10.788255144745637
401,-21.075444597352558,-623.22546509901,-3.355648029746214,-11.564152753402265
402,-22.057615808886197,-639.0998467238715,-5.944654275921969,-12.325322687123258
403,-23.00083466605671,-650.2893077225775,-8.675772038965558,-13.070629491223958
404,-23.850839318121814,-656.9281065793596,-11.529280546648764,-13.791870504912302
405,-24.534267327880762,-659.1676866913542,-14.476791808410233,-14.482458422686307
406,-25.009060102415297,-657.1608588740594,-17.483547915149956,-15.148428559406957
407,-25.26742368904082,-651.0587479385741,-20.529598059789333,-15.805745123419879
408,-25.29619073854807,-640.9981957082958,-23.612654226616865,-16.459804000734742
409,-25.060504134573154,-627.0455570671921,-26.73286301863822,-17.08937178907543
410,-24.52513125758099,-609.1375618726981,-29.873781627634763,-17.6561018343568
411,-23.68364602350282,-587.069876556518,-32.982286922795375,-18.119751821436317
412,-22.57298174414664,-560.5099551494852,-35.98003685169475,-18.43159199738515
413,-21.23104674379149,-529.0473098089343,-38.78658647830012,-18.519061221789592
414,-19.656707502812804,-492.28848462124853,-41.31322887695334,-18.294183262078377
415,-17.831376351399467,-449.9504604610033,-43.45575428581777,-17.681513326177956
416,-15.760438184602014,-401.9417045542776,-45.10806417634588,-16.63863986196592
417,-13.484999428345695,-348.4199243759535,-46.18178904749584,-15.158894702961321
418,-11.048293460771792,-289.7913647354435,-46.62622914518931,-13.26002819676484
419,-8.459920395754217,-226.66255706062012,-46.44440685506816,-10.966027120314262
420,-5.701916501942077,-159.7754561697181,-45.6973853280307,-8.302632883505085
421,-2.7711671634480783,-89.93597140311374,-44.490942591852715,-5.311314262205735
422,0.2968527589230596,-17.950573598226576,-42.95396554171857,-2.0532229669068593
423,3.4526548068774137,55.43012409886214,-41.21539250167689,1.4017916961384522
424,6.660074657749813,129.5645517822524,-39.36983160762172,4.980458067997809
425,9.89961509490473,203.94624473514293,-37.47211117957109,8.60189529570489
426,13.143582360713916,278.1619167090878,-35.569261075948354,12.17982953670744
427,16.328733920204705,351.78424061460566,-33.71326256399044,15.63391119602346
428,19.369626517166544,424.28877591412333,-31.957194789199946,18.893216928626245
429,22.203904262112413,495.0315811687037,-30.353917750516953,21.892918409126565
430,24.813567937360606,563.2690888310078,-28.94374059432106,24.576556310588536
431,27.183344169574667,628.2237449142681,-27.734411932378862,26.901566478789256
432,29.266683566509613,689.1614659470058,-26.710310835362083,28.84235634883133
433,31.01627557491474,745.4584892134736,-25.86217507891311,30.39351465894734
434,32.4255163165602,796.6485438018531,-25.19664141641147,31.571044031639854
435,33.53237142464,842.4207549169637,-24.72920517014174,32.403791626955034
436,34.37154957924422,882.5839678769693,-24.471003214235928,32.91859519549515
437,34.92564780227761,917.0411676835768,-24.40802643315581,33.12534665951747
438,35.13645455245415,945.7745163251581,-24.491406973891277,33.015335731288936
439,34.95722090991397,968.8230058515077,-24.656838349152636,32.57516651382361
440,34.3905746771006,986.2628869647405,-24.857414540105406,31.800399555601516
441,33.463942494910484,998.1923895397085,-25.080200193520792,30.703261507850513
442,32.18812636395936,1004.7158752727953,-25.328939568522742,29.310835434009253
443,30.567706657735105,1005.947067017448,-25.60540597160903,27.658850203763883
444,28.64348268690922,1002.0447482918747,-25.920206322846933,25.794718434382915
445,26.508430768534705,993.2508230341915,-26.294567462393214,23.78389535644467
446,24.26675274676604,979.891047854881,-26.75507705568136,21.70451625538427
447,21.987057290502193,962.349760680617,-27.339117209508863,19.635795054543653
448,19.704456686940883,941.0366701347609,-28.07799909079526,17.650486393779033
449,17.462395721016577,916.359439930338,-28.958678376511706,15.813649251899436
450,15.328961939914265,888.7149629974268,-29.898491433020734,14.18035656991618
451,13.359559585497855,858.4845133772259,-30.76893778854961,12.783326563537127
452,11.56864341002622,826.0287584523572,-31.446425039778184,11.624810102255987
453,9.943866810381888,791.6875420974385,-31.838868129101414,10.683155421346378
454,8.492405765093427,755.7856201316321,-31.89977099194176,9.924323091074838
455,7.261224177325328,718.6427662766534,-31.634339092431333,9.309138592338389
456,6.301876452012618,680.5763136609411,-31.080963813250907,8.792481241077843
457,5.6301633079444615,641.8950809872576,-30.2933218138545,8.323378337204897
458,5.214313124432892,602.8959974411038,-29.344150832741068,7.854700417081315
459,5.016556351301305,563.8624053781576,-28.332276437536002,7.357267301537374
460,5.027581913985506,525.0612120960342,-27.360848748070655,6.826775588928879
461,5.2486474243059265,486.7426883473467,-26.491386868421294,6.27556448316094
462,5.660694335386484,449.13484987871726,-25.732864523173184,5.718785716534953
463,6.206489790981514,412.42957032991484,-25.071344073613364,5.1701468595891535
464,6.822106872002878,376.7769818401399,-24.498108533932793,4.645607938142911
465,7.475219396045777,342.293140857973,-24.032369922739083,4.163664677434611
466,8.157004863335148,309.0649880844556,-23.707790221890455,3.7389114635936833
467,8.847208744425517,277.1457047806491,-23.52581385933726,3.371237896644289
468,9.495110208901403,246.55187804843462,-23.429917635506694,3.042840365404568
469,10.047169754468534,217.2721385417543,-23.314564933027885,2.7291651322000896
470,10.477178475152341,189.2821869753645,-23.06158956753649,2.4089815961362646
471,10.782376323359085,162.55512149477678,-22.57771642474054,2.0668215217264927
472,10.953181010500616,137.0650247295662,-21.818159328954277,1.6910182690954931
473,10.956886558604378,112.78982057187264,-20.80138756493529,1.2724579496097677
474,10.7668073656074,89.71460584065196,-19.603601423722484,0.8063032523032643
475,10.400192496458804,67.83468092300838,-18.330357007265693,0.29376033791560485
476,9.92204138267928,47.15756467341696,-17.08788459488046,-0.25730773439869176
477,9.394417953661659,27.6948609173182,-15.970927701361605,-0.8339352748270425
478,8.835977040996845,9.446608964435871,-15.050049112131918,-1.423566686647861
479,8.244329136639188,-7.6044721279834695,-14.347327157611383,-2.0182578058150327
480,7.635535772027766,-23.48759577554843,-13.828590944842842,-2.610499586709868
481,7.057673246400201,-38.24083032356235,-13.41781044404221,-3.1872316576863344
482,6.550426692381003,-51.913252237072825,-13.015554630525992,-3.7314561394531545
483,6.106531639897302,-64.56040771022732,-12.529706525649718,-4.226023459551787
484,5.697010467495243,-76.23372120314255,-11.91705495012152,-4.652351599322839
485,5.316872902438417,-86.97372077704932,-11.194735887609733,-4.98970825419877
486,4.99329784441559,-96.80820606515748,-10.420188536304584,-5.216401497141099
487,4.754697390926809,-105.7597467718542,-9.666488439894922,-5.309418607703134
488,4.6097941736971,-113.85709128784423,-8.992752022684586,-5.248999020123181
489,4.550695826006776,-121.1356309899004,-8.419566246391,-5.027551597033023
490,4.575725502022572,-127.6342738916162,-7.923078046124281,-4.653971118221652
491,4.70650889412028,-133.40352318568114,-7.449947637630027,-4.1504870814950685
492,4.958870638339559,-138.5123265254676,-6.944386686890439,-3.5454831418994344
493,5.3127714512962445,-143.04285233859719,-6.36728057410854,-2.870324705017254
494,5.72250860375774,-147.0799687868451,-5.700542865695818,-2.1597047323589824
495,6.156150934742136,-150.70111623609412,-4.950468621633267,-1.4441759579133264
496,6.6152074429398064,-153.9701548672166,-4.15649686482187,-0.7399393639559148
497,7.107568256181095,-156.93459808373376,-3.3824102354218213,-0.05373039534691716
498,7.615788735459961,-159.62944662977588,-2.6836899950696793,0.6048056098194442
499,8.093458027819967,-162.0846013851462,-2.0851712557490267,1.219056234409999
500,8.503440884385856,-164.32876075278443,-1.5794733750255958,1.7674899145281113
501,8.841350822037542,-166.38818796710945,-1.1421476466174263,2.2299254101954284
502,9.125385134120345,-168.23952353484964,-0.7530893068806042,2.61263688659092
503,9.349005065368313,-169.96184929405624,-0.4131093726643334,2.883368056945812
504,9.506406181506152,-171.58509359175744,-0.1171691613432929,3.024523915980358
505,9.61036334411436,-173.105842633991,0.13951034073632576,3.033255277258393
506,9.690663072808185,-174.50311226331743,0.3524891824426442,2.9268534208109416
507,9.772764117454846,-175.75371688140424,0.5079274925072443,2.73962646044025
508,9.856531524423549,-176.8367257211032,0.5955123279481604,2.5113001169771696
509,9.924746716105522,-177.73176972295394,0.6170396178727007,2.2772305825719124
510,9.973173408164435,-178.42387878995405,0.5854854138819856,2.0657119081862008
511,10.015060995031133,-178.911073726402,0.5202392371657982,1.8997328326767517
512,0.48772213875302145,0.7068753539785616,-0.7128204680583934,0.08719828291237666
513,0.9162376432591353,1.4984991597456543,-1.657244892691206,0.18278223006198493
514,1.5371783818370703,2.6348551179442694,-3.120371671422375,0.3338905615515691
515,2.340647142832964,4.126598849475451,-5.169817622895952,0.5422821465778496
516,3.2998719844861264,5.950921381601431,-7.810352294420153,0.8011437016183982
517,4.390965807770438,8.052248581971035,-10.970481147720845,1.0976422911678079
518,5.587284869068809,10.348078631770568,-14.514665189954068,1.414996485511638
519,6.836380411535883,12.740222020568437,-18.277978391030757,1.7353626428189242
520,8.065600209158994,15.133008360984597,-22.09884144371086,2.0441605627955197
521,9.220755378302247,17.458742683233226,-25.847376837650053,2.334790022175881
522,10.307405738966022,19.704712889991473,-29.457425233272033,2.612138076741907
523,11.318599080872799,21.82986544715324,-32.84052303072243,2.8798291082944427
524,12.227371528003866,23.793868434880302,-35.92418679596552,3.1403462766731036
525,13.000241344835738,25.565516314755634,-38.66906753486792,3.3959716028107874
526,13.633448177013499,27.12885496825842,-41.082716823664924,3.655704284285064
527,14.166265674734277,28.48339499629309,-43.21216439891889,3.9347961692376496
528,14.637560036175264,29.637271180292196,-45.10727956920813,4.242373761786822
529,15.036932484055272,30.59725604712343,-46.77466027186305,4.5699018929852295
530,15.318524444056427,31.363658048979875,-48.17110789780108,4.895164814050507
531,15.450231293712902,31.933134619972172,-49.24055124703379,5.1980185013983675
532,15.435429611557963,32.30327723100883,-49.94480907546675,5.465991357037437
533,15.279163387228326,32.47069851172705,-50.27121802229753,5.68941678708479
534,14.952394885944209,32.427807573735535,-50.23566518164998,5.859721971546539
535,14.409121455689638,32.168489467880896,-49.87899292370562,5.971402999385281
536,13.632623445005853,31.69685063520911,-49.25109100874248,6.020958281074685
537,12.652358781064638,31.029105254583776,-48.403171553381526,6.009574758830564
538,11.515683264639975,30.190160427938565,-47.390765739554354,5.953173452229751
539,10.264221962278599,29.212746590542366,-46.274200578853495,5.877841631327011
540,8.935264978348664,28.14044701282821,-45.114762353602316,5.8024557416358995
541,7.583984931954071,27.025258354440023,-43.96256853549017,5.733639091404895
542,6.293181375519652,25.917889539018336,-42.838945479919396,5.67264110510528
543,5.131785809854975,24.85680625059369,-41.73138178076306,5.613075127944961
544,4.109641217167448,23.86147013905654,-40.61242538093637,5.53152774360585
545,3.1829463472359607,22.933659615872408,-39.4586586513727,5.391028986247615
546,2.3058217518103095,22.06289205144902,-38.2450878182921,5.156247178539569
547,1.4618625020295577,21.231284469239327,-36.950904100677754,4.80579933560209
548,0.6410645686796603,20.41632079900999,-35.587553013126254,4.334308643957069
549,-0.18370798085855106,19.591740879127993,-34.197176404469296,3.7497441044811004
550,-1.045350054879385,18.73196568717941,-32.828931055000005,3.0712133831476223
551,-1.9408444568666186,17.81919248343094,-31.525082836010185,2.329003928660695
552,-2.814746170215228,16.846077040043546,-30.31289467594261,1.5662318997651468
553,-3.59331438262038,15.815299657996306,-29.202631927128902,0.8347699892842402
554,-4.21950657781613,14.739081369804099,-28.19479895944811,0.18030591909117386
555,-4.668060031471187,13.638342269798274,-27.290545695144843,-0.37686241846253965
556,-4.932232601105843,12.539490068133503,-26.489248648957012,-0.8412294244829946
557,-5.002075710124202,11.466449444445809,-25.774675448525134,-1.2236690346307024
558,-4.866650484040066,10.433483924255142,-25.111370342566417,-1.5385130755700966
559,-4.539031418656501,9.445579436153558,-24.458372642330787,-1.8120029932106787
560,-4.064742143926569,8.502138352654347,-23.78779167883862,-2.076660503627657
561,-3.4866200312304167,7.598740157484348,-23.095916095685713,-2.355413179030548
562,-2.820299005580043,6.7276467208502035,-22.399934374023204,-2.6570933186063868
563,-2.0690956109856393,5.879035513731422,-21.725280047282997,-2.9835900696468496
564,-1.2581493977114124,5.042818020443127,-21.09004836136198,-3.335099091086395
565,-0.45135597642577796,4.212802338168196,-20.484941403530552,-3.7109533092343576
566,0.2787955817452516,3.3940916365946334,-19.88686868027852,-4.104769726446849
567,0.8888241309000705,2.6043868393736602,-19.300043115533768,-4.499487658127107
568,1.375505567047905,1.863580943306534,-18.753838967532865,-4.869587972487124
569,1.7489770863658818,1.1816983814727118,-18.27663777663787,-5.192568761408981
570,2.001590239302172,0.5548033169296109,-17.88230536489204,-5.460470928182228
571,2.120239136761283,-0.03155468560593075,-17.557712362579753,-5.677259462751941
572,2.1162511355802436,-0.5956049769139361,-17.261000741167564,-5.847207254192175
573,2.037109593708922,-1.1554690199462736,-16.940546964341756,-5.968151652298685
574,1.93227235938281,-1.7276001226974997,-16.555575640459104,-6.038440300689532
575,1.813322072547184,-2.323977846459146,-16.07382093346455,-6.067514814568013
576,1.660353230616194,-2.951328362440252,-15.47244920942907,-6.071084091281775
577,1.4521595135481071,-3.6113081161322675,-14.759331079976421,-6.058344506596661
578,1.1900064161276804,-4.298441325766291,-13.971881844655048,-6.028410703605412
579,0.8796939790088848,-5.000991698955923,-13.152940135227544,-5.974926119132791
580,0.5039221994666158,-5.706467020439039,-12.348435228270104,-5.891711261079994
581,0.03801613450825517,-6.404879969921499,-11.615653594663153,-5.774080106862929
582,-0.5115675101042967,-7.088130178415912,-11.011617856986229,-5.615533086826954
583,-1.0952988265186976,-7.750866756184527,-10.57236696499715,-5.408028339736623
584,-1.6612214566499464,-8.391357750723127,-10.294987622388875,-5.146179868980921
585,-2.196130083385319,-9.010299035144707,-10.137386331162581,-4.835932183054607
586,-2.7197205480376954,-9.611181183767277,-10.035102337191129,-4.503536714439983
587,-3.240931367378096,-10.20081262308997,-9.91829026862861,-4.185918456460284
588,-3.7356083910813553,-10.78795141837169,-9.725933509636615,-3.9143119459879907
589,-4.179824482186483,-11.381930255406695,-9.40923168230721,-3.7141334125851664
590,-4.582069270402462,-11.993384553093684,-8.932816996851926,-3.6109631793657746
591,-4.975115535174597,-12.634731274712665,-8.288795101342634,-3.623605208797119
592,-5.375272714159858,-13.315108030238479,-7.5090794937889935,-3.7483133048198307
593,-5.76246556687264,-14.034040644524747,-6.649124500839157,-3.959801955633515
594,-6.109561924329671,-14.781592150446329,-5.7498159546492476,-4.228502165700355
595,-6.414475167607129,-15.542758319149197,-4.835031229133837,-4.528521772487526
596,-6.699751857180084,-16.300286251506606,-3.9457777946233006,-4.835739091418272
597,-6.97526309457332,-17.036169260411082,-3.1378830453397693,-5.128768765084111
598,-7.217925080883782,-17.73624954296772,-2.443943590477343,-5.391282208587448
599,-7.401269578694704,-18.395548841350706,-1.8548617999187753,-5.612903663042118
600,-7.527357482564476,-19.017470593065127,-1.328274552771985,-5.793409116878582
601,-7.623859208678374,-19.60774126062256,-0.8069533250142428,-5.946301313295561
602,-7.706011191430221,-20.168444503871555,-0.2355545598988772,-6.089157319075828
603,-7.752658973717518,-20.6947370756256,0.42740205729494274,-6.225445212992448
604,-7.724862403923435,-21.177347436111035,1.2016666067649004,-6.34556995701707
605,-7.601478443715013,-21.60924656810666,2.079059476227539,-6.444740317992177
606,-7.3948822808467405,-21.985734357674556,3.0179089133140806,-6.5233691979741275
607,-7.125793089406278,-22.29886645166909,3.956098358757067,-6.57507278936445
608,-6.795344286661224,-22.537728879621984,4.837744939243452,-6.586012593493064
609,-6.382279737814538,-22.69498965481192,5.62315211486787,-6.542827633893959
610,-5.873878249606001,-22.774424058243905,6.283139597507884,-6.435602256612301
611,-5.298351903468875,-22.792191921686996,6.800507411760628,-6.255945883791323
612,-4.704183198262446,-22.770698576275553,7.184166890064472,-5.997338783460345
613,-4.12575614546128,-22.73199257818779,7.478753936536776,-5.655154280841446
614,-3.578411730274683,-22.694334135926855,7.7523131112362895,-5.227183779431241
615,-3.077871960640855,-22.671382535130075,8.07266184113436,-4.7196023031801895
616,-2.651917714456098,-22.66956222223901,8.481687791121447,-4.147229063303409
617,-2.318982956659367,-22.685749760623146,8.971147692725378,-3.522634290789531
618,-2.067204839207709,-22.709632804460476,9.494127039407392,-2.8505050841798893
619,-1.8583189615258213,-22.727670533273912,9.999038801493247,-2.1358269967920815
620,-1.6588561155584087,-22.725118712254442,10.449792452481397,-1.3935215655061535
621,-1.4693948228987066,-22.68750932101477,10.83901528580408,-0.6508260781134815
622,-1.3189042192421732,-22.604993041299036,11.192594601266785,0.052884920012242494
623,-1.2327207711880974,-22.474053242024667,11.559972369237132,0.6742168575925578
624,-1.203355087678187,-22.29489423312868,11.984302536928066,1.1794606317204073
625,-1.2149875730631148,-22.069779336491152,12.474676945907472,1.5511970443923913
626,-1.288843454489201,-21.801931774584748,13.012063827919269,1.7857011386208352
627,-1.476819984877686,-21.494743658915954,13.566220686453875,1.8866672585408422
628,-1.8055946938597098,-21.152658076715337,14.107031713001087,1.8693510376508955
629,-2.244411072205961,-20.783912129375455,14.612867368653674,1.7700846619209876
630,-2.7498815945639055,-20.412334179733687,15.044382763313939,1.6324421182799558
631,-3.252267013658911,-20.034966099496415,15.46197528486021,1.5221363951994975
632,-3.696868921700292,-19.656866232349174,15.898521523986611,1.4825687503026754
633,-4.031670100509992,-19.2877187552982,16.373060800521063,1.5340274617217058
634,-4.2175771410896665,-18.942103295685442,16.90455266532984,1.6704348735627939
635,-4.252076353689211,-18.636402460792414,17.508054101139578,1.8642282357413034
636,-4.172266702299764,-18.38301852452497,18.171240474694326,2.0814004239174957
637,-4.02873062357502,-18.187879686557064,18.849099772091662,2.290858268510737
638,-3.8536370069540973,-18.04994070241686,19.477008360699212,2.4694205516124765
639,-3.6603078937204727,-17.960870460133847,19.98645123175704,2.6074186686625827
640,0.40307948834196,-0.11613052103747536,-0.6943667267950634,-0.091993076482982
641,0.8142772755672988,-0.25488417247969886,-1.680342578592795,-0.13452673822813377
642,1.390865053537023,-0.4518977505234093,-3.1425777387610334,-0.1695371317489028
643,2.1011182301580162,-0.7159067978813525,-5.077636503864108,-0.20420363450083676
644,2.9062368383709765,-1.0561893756485419,-7.424435040652899,-0.25294869421877914
645,3.771046827707764,-1.4797015305647305,-10.075706527261103,-0.33104585691374727
646,4.656174037403062,-1.9882012488195955,-12.893161841391413,-0.45021087723431963
647,5.503972707249987,-2.5768894738025905,-15.727508683669027,-0.6173496797548101
648,6.253204274672958,-3.233889208465443,-18.443043731622296,-0.8339285821829703
649,6.878417028159769,-3.942537865356247,-20.95127048957204,-1.0950059782861898
650,7.408831686670647,-4.687586688691613,-23.255443891622903,-1.3904070905008694
651,7.854757187032928,-5.446915726230161,-25.37091340081744,-1.70220329777752
652,8.211394841494904,-6.195252254175313,-27.33742210452686,-2.007678828716696
653,8.475401440434629,-6.90886229195174,-29.198921545816724,-2.284552207592885
654,8.658586315046962,-7.5701996398876465,-30.982174189747457,-2.5185321533839518
655,8.788210183751364,-8.16973697370213,-32.68522044798762,-2.710641133278131
656,8.884972729346286,-8.706835804051144,-34.28228147859227,-2.8760189307308823
657,8.938712493016522,-9.187941886695244,-35.73289461869348,-3.032531478043333
658,8.929294339175604,-9.623356294231915,-36.99133849468781,-3.1915807497793547
659,8.854141890460097,-10.023695107467441,-38.0185170851899,-3.355309091215248
660,8.72714662033855,-10.397490070273648,-38.790226523844495,-3.5167796732516505
661,8.551453686738624,-10.75050352597734,-39.29742089195574,-3.663792617642289
662,8.298047526493281,-11.086302052153174,-39.544622249146,-3.78501494703764
663,7.9252322836021225,-11.40844862544152,-39.553347234605965,-3.873689947680493
664,7.4137037775992285,-11.718299907612327,-39.36138813846882,-3.926121412302226
665,6.782085188888717,-12.00981121733258,-39.01215724224418,-3.939143222964426
666,6.0558246560977,-12.271320974528486,-38.54303919056898,-3.9135739144375505
667,5.238026656154453,-12.49056002371632,-37.980985588391775,-3.862452651245906
668,4.326104716579075,-12.656745238558473,-37.34881315539262,-3.8129576224602153
669,3.3383083037294217,-12.762068351207619,-36.67102466371599,-3.7959761251937807
670,2.3275433146706006,-12.805226476660055,-35.96701784401652,-3.8321192644280755
671,1.3490190996182327,-12.795829149594528,-35.244096593180814,-3.927179956565434
672,0.4088780955332266,-12.752165345871047,-34.49622349680959,-4.075089976676962
673,-0.5276936455396708,-12.690981094142714,-33.70473805887944,-4.258992104127579
674,-1.4819188399349676,-12.622457976546048,-32.84710655562919,-4.454302320961759
675,-2.4364720443534114,-12.552500888328852,-31.907010549612536,-4.633640674076499
676,-3.37205352516715,-12.48215137991223,-30.879938192501545,-4.773212032918213
677,-4.303001543770546,-12.405674559184156,-29.784513422763105,-4.861379805526879
678,-5.260776403423093,-12.311210427479457,-28.668893867029556,-4.900954381906923
679,-6.250738519746271,-12.183085322981647,-27.595228869662872,-4.90500296659874
680,-7.2337880718352245,-12.005750956418414,-26.615031478055826,-4.891472686272429
681,-8.162976587382522,-11.768948777769372,-25.75541448650984,-4.882115274616364
682,-9.026150803739464,-11.473360968387565,-25.019087348775685,-4.902891175787125
683,-9.83978390939268,-11.131020386445305,-24.386454166266645,-4.975722514750454
684,-10.607542013347533,-10.75915805266613,-23.810180807642883,-5.105465759752013
685,-11.303559054796768,-10.37583145959584,-23.21231276899469,-5.275408798925345
686,-11.901880640847544,-9.996302605045939,-22.5092583772876,-5.456810289915134
687,-12.404773191714867,-9.627278250294765,-21.659747188762307,-5.622586943909
688,-12.835373101029504,-9.26453842924906,-20.687191675190288,-5.753416344836245
689,-13.194993556323562,-8.897818778809949,-19.658805946979975,-5.83709551253028
690,-13.446927745059709,-8.518115262654547,-18.64955944167122,-5.8675193528997385
691,-13.553305678661358,-8.118451782764481,-17.715530962563733,-5.844335652452522
692,-13.50775069115727,-7.691080909763425,-16.88708779619466,-5.771941343314854
693,-13.334793940363875,-7.228967815162465,-16.172537251745364,-5.658498103934602
694,-13.053648082502697,-6.728831693471797,-15.558686911382365,-5.511817963999911
695,-12.65804108369006,-6.191873984820678,-15.010764320092816,-5.335943247452286
696,-12.137642851790217,-5.6239994405840745,-14.484643264897713,-5.13173738912493
697,-11.502825631264972,-5.036714481194446,-13.943009852192521,-4.898856042777102
698,-10.792791648905059,-4.447155656563486,-13.358608358515982,-4.639317104669745
699,-10.043077824986836,-3.875831167062725,-12.710995929887098,-4.355274318846847
700,-9.258119897156215,-3.341973512802807,-11.989298749141712,-4.044026188083421
701,-8.427786793434514,-2.8600565198612045,-11.202356215861986,-3.7011555989809444
702,-7.551768343507825,-2.4418242954654743,-10.378416941021435,-3.327254064299303
703,-6.648481659910356,-2.101742647361402,-9.539760541176655,-2.9272264420026914
704,-5.737387089807685,-1.8578728674544747,-8.672984876315159,-2.5039669955542547
705,-4.818745197683519,-1.7260254634064003,-7.7336642877951265,-2.0581298621453463
706,-3.874099796016168,-1.7123354977461667,-6.686064817821319,-1.5914408258493442
707,-2.8951678652869943,-1.8082855965107132,-5.534691691060273,-1.1102278051996697
708,-1.9098138336381174,-1.991448246641073,-4.326004281875377,-0.6306757766812215
709,-0.9619417629606694,-2.231571213802201,-3.126986956430888,-0.1788844745971892
710,-0.07617254328613482,-2.49624993972467,-1.9947240524349812,0.21847466929248208
711,0.755939951807357,-2.7564338757802487,-0.9650513794400826,0.5438253031077285
712,1.544961686959933,-2.991145551117546,-0.06413104081254484,0.7891350004391272
713,2.2696589171871846,-3.1858577301195066,0.685878371698062,0.9525527942677222
714,2.891739487660754,-3.3289485931290357,1.2765537682161003,1.040580193675844
715,3.3933067263168804,-3.4098574415914538,1.717304346872965,1.0734274695485737
716,3.7986729848370344,-3.4164863640973975,2.0300006220529623,1.0796100450927617
717,4.1399198488824505,-3.3336677222113633,2.2441439003743873,1.0822898666758558
718,4.415253221572983,-3.1465333887838236,2.397242150635751,1.094814123600886
719,4.600833253025144,-2.845258093260308,2.5367766195177497,1.12337026359382
720,4.685981629618039,-2.4253871121734596,2.7024092844016954,1.1646947352413262
721,4.693369668117194,-1.8857044691710643,2.894904378248946,1.2032180698466128
722,4.651851070254337,-1.230384048849401,3.0702282132043965,1.217688173110984
723,4.559364458326803,-0.4752430870757699,3.1684113020630074,1.1884671637669793
724,4.390840867932992,0.34936704455603007,3.1474540895255476,1.0985383396675343
725,4.138500799098615,1.2027321194083034,2.99645360261197,0.9379537227144412
726,3.8320978233796814,2.0421406404712084,2.7298206946340855,0.7072862262275822
727,3.5022541746756795,2.8285008228203607,2.376107771797705,0.41260850624610573
728,3.1395936897279477,3.5282479190142535,1.9737322586552999,0.057494661480440884
729,2.7068501337008923,4.116533544546218,1.5718151559695557,-0.3580195208069977
730,2.189690957038659,4.579087627044567,1.2237571137012373,-0.831846880939853
731,1.617424465770085,4.909224768010318,0.978637489359568,-1.3588283271685901
732,1.0311148846811835,5.104978089524203,0.8701300066215076,-1.9311949486637097
733,0.4527004609984558,5.167700629671159,0.9001348270139125,-2.535640638651988
734,-0.11411484717149267,5.10122606523284,1.0357217538833403,-3.1488896493613994
735,-0.648265918259857,4.912966598651937,1.2194175443187463,-3.7383351359700803
736,-1.1022425121196135,4.6148295524243395,1.3811360926160894,-4.268031866574172
737,-1.4409168086441326,4.220837217421243,1.4633383347902056,-4.70144918900849
738,-1.6667864417779323,3.743090382688349,1.4581514648105482,-5.0105802545151175
739,-1.8137644573392886,3.190190701981647,1.4109537062439825,-5.1908621987992705
740,-1.9107096665539667,2.5703543345560598,1.377705837657091,-5.260283932393566
741,-1.9603739704057128,1.8959872080045814,1.3934742534908546,-5.243044266224031
742,-1.9589432203598671,1.1850876626964912,1.4790277880206195,-5.156985764074572
743,-1.920786218243146,0.4608012062063278,1.6544273226549369,-5.0162842814783835
744,-1.88267596058533,-0.2504824906359985,1.9406712028153725,-4.839241130598715
745,-1.869683937149155,-0.9215265003973314,2.352677661302926,-4.646857907836537
746,-1.8746691301248495,-1.528285220073731,2.8897269792407534,-4.455658857614177
747,-1.87973322989924,-2.0557422099277907,3.529730737132499,-4.27662652150175
748,-1.8816414698427553,-2.500108597452734,4.229990170585519,-4.118598936229767
749,-1.8985752256652046,-2.8659001740223093,4.940657526590302,-3.9874357167537013
750,-1.9474371040046392,-3.1615285049177144,5.628509208035991,-3.883038684063053
751,-2.0170421453159557,-3.3965243257257933,6.280827811271238,-3.7966955013758255
752,-2.0633057057805346,-3.5788852740383863,6.893104495740477,-3.712966309868747
753,-2.0415415163365216,-3.712269122256145,7.470000267448334,-3.6130932212716336
754,-1.9409809040282615,-3.795797274187787,8.022558380204865,-3.478179406747604
755,-1.7774794921516597,-3.8280397631631415,8.555283626569729,-3.2939249258565737
756,-1.5637291072740849,-3.8087371258659553,9.066388910113083,-3.04258553140521
757,-1.2878677083802288,-3.735886031508525,9.556841954794873,-2.69635711757941
758,-0.9259995158561766,-3.6056456652587587,10.016077691478344,-2.268531143189912
759,-0.5228960467690966,-3.4281214632071295,10.41366460566029,-1.6905296443112623
760,-0.1226559658714283,-3.2217613125604756,10.720403283114258,-0.9558853849245889
761,0.24791438011714836,-3.009132990805637,10.918959133138243,-0.0941831927340652
762,0.5748976129812581,-2.811361017631167,11.005367430865057,0.8442672663078113
763,0.8408487099849419,-2.6444828543355885,10.987716150362536,1.7963928021956774
764,1.0279029023566555,-2.516837909607809,10.888141675231346,2.698910640460795
765,1.135605773612436,-2.4290562219920355,10.740756155628748,3.4995649827716786
766,1.1860327669977446,-2.3775165265655316,10.583612963462588,4.160543109824072
767,1.2097707251986096,-2.3562987666392425,10.449993136304244,4.658275065497326
768,-0.06106531323798145,-0.24324336299129667,-0.38352498378776145,-0.05405148593814568
769,-0.2540589365801062,-0.5576018456659337,-1.01534575119888,-0.19202857370248166
770,-0.5477834504169393,-1.0291044319734903,-1.9696850633163674,-0.3914592385326169
771,-0.9675661295025106,-1.6732390388241656,-3.2583142935546974,-0.6531759877315351
772,-1.5018270839870784,-2.4869679603042742,-4.861380048931095,-0.9729093805365079
773,-2.106584252516889,-3.4485108421676123,-6.729250610745903,-1.3432554805555188
774,-2.749395594416169,-4.525177218593828,-8.782800289349963,-1.7590043975609448
775,-3.425528013995332,-5.678453289724375,-10.927133836684908,-2.216713809549687
776,-4.136943555433908,-6.866633368926269,-13.081907355466088,-2.7102857984454443
777,-4.862230784760106,-8.052342273161395,-15.197288251984492,-3.229050798516956
778,-5.561550739962916,-9.215744954801481,-17.25764853439068,-3.760252060470295
779,-6.21091353146805,-10.329505232427353,-19.23851291101032,-4.289054411283119
780,-6.808846534984548,-11.373359629427986,-21.116531487250956,-4.792033474245364
781,-7.339669490389675,-12.335347524072189,-22.87293897347969,-5.234672314623609
782,-7.751200662174327,-13.210755088815104,-24.4937252304539,-5.5780912396682005
783,-7.98839922521741,-14.002101147342252,-25.957036265273626,-5.790272626434082
784,-8.038819325212943,-14.71651137452939,-27.224623553290755,-5.856221288469184
785,-7.939151683101133,-15.360288562708805,-28.258063428727173,-5.784382519590924
786,-7.730967659572857,-15.935103222932637,-29.04595329026355,-5.600850402267846
787,-7.426278306740536,-16.435987515617075,-29.610452758097622,-5.3346479334564965
788,-7.0274398464444845,-16.851790533471814,-29.99293516447315,-5.014123213604923
789,-6.556800117607658,-17.171594371428345,-30.236139043606226,-4.67207659988283
790,-6.052001666924884,-17.390081393640106,-30.377212978104787,-4.340176785985183
791,-5.521774431612884,-17.504711808434976,-30.44814698338007,-4.034390600610303
792,-4.932522654045208,-17.515327398849344,-30.475210951223612,-3.7521436081238906
793,-4.2489139010981,-17.429298337696178,-30.474714778467547,-3.483280977711093
794,-3.4691164212171546,-17.26005092317498,-30.451857010004915,-3.2183665535906214
795,-2.6297620949462774,-17.019743213244197,-30.4078249070122,-2.951759998358503
796,-1.7750094185289744,-16.71617816570156,-30.337148489040256,-2.6837624018476083
797,-0.9315189850617002,-16.35423793391645,-30.220829522336235,-2.4210794795195496
798,-0.11263157806383238,-15.938447327653071,-30.032658555482605,-2.177648632116749
799,0.658501527139355,-15.473352452304502,-29.749504470186203,-1.9754891693973582
800,1.3341595489192402,-14.960475031397785,-29.3626800167719,-1.841122957611778
801,1.8772937409438342,-14.398395608270226,-28.884654494670652,-1.7956710397594275
802,2.297366421896073,-13.787118531113496,-28.336344611539175,-1.8431784858921296
803,2.640286293920139,-13.132119708252963,-27.72896801441712,-1.9696453850609088
804,2.945590860586957,-12.445897286064035,-27.058144555195565,-2.1550298270106847
805,3.2177099999750456,-11.745343398795216,-26.326020021139215,-2.379592830365942
806,3.446808152693159,-11.04698986851721,-25.577702174967385,-2.6203922439598184
807,3.630176425215055,-10.363725603317501,-24.888856332506265,-2.8549079620322484
808,3.7655215256006294,-9.706210942074682,-24.319640670161036,-3.0720885487956204
809,3.8389518385634283,-9.087053736332113,-23.891767839096268,-3.2758240481846492
810,3.8311950303684825,-8.523182090570447,-23.58682239658162,-3.4786762109118254
811,3.738637117608492,-8.032872275389726,-23.35518363612812,-3.694326523354366
812,3.581740841215119,-7.628854582730483,-23.128096712783382,-3.931527863625908
813,3.3918623506759142,-7.314242698513142,-22.829342021014483,-4.190932873208626
814,3.1878774361807722,-7.083315072454863,-22.392036207958984,-4.466237832508343
815,2.9720127016027247,-6.927547354565049,-21.777586709223055,-4.747417538893836
816,2.749052381425397,-6.84154631305867,-20.985690044346295,-5.0254016444720735
817,2.5441882346247295,-6.824269458603019,-20.042753459158426,-5.299223233083245
818,2.3898860136031486,-6.877076829476403,-18.97668945085463,-5.575590276175844
819,2.289303920994942,-6.998951797450573,-17.817761041863175,-5.858809195509348
820,2.2119273338269125,-7.182882549062585,-16.62034792889911,-6.146841354980964
821,2.122664413192597,-7.416850096506136,-15.45486776979129,-6.42760497846624
822,2.0148143021510387,-7.685400667987267,-14.370861317450252,-6.6726016097051675
823,1.9204840968505952,-7.9675927978093135,-13.373544346131988,-6.845750523460021
824,1.8765831975339171,-8.235765543834207,-12.444321369586508,-6.919410349654947
825,1.8864234794088144,-8.462762145991896,-11.58273894730483,-6.880546312875119
826,1.9095877708806734,-8.631735364724834,-10.801796875868282,-6.733787556981
827,1.882031626735214,-8.736726281948899,-10.08738514735554,-6.506371097524418
828,1.7510011740049534,-8.77817992056093,-9.408136745158277,-6.245031782322658
829,1.4940310228020943,-8.762392810365768,-8.76778077900685,-6.004369618596271
830,1.1117312820903387,-8.699551219150095,-8.199847374415894,-5.836296735375765
831,0.6038002506905978,-8.597500252813523,-7.714477041694809,-5.780668277359597
832,-0.027657821758855616,-8.45572563922247,-7.283929872143685,-5.853508107584994
833,-0.7495553478958366,-8.261998904201436,-6.861170057290965,-6.037774471987231
834,-1.4947458055971217,-7.997850291912649,-6.403225800813213,-6.283902814665047
835,-2.188762507032613,-7.646315539399467,-5.8913730786680585,-6.527807013756602
836,-2.7835592653611108,-7.198353471363477,-5.328929706850509,-6.719959648587163
837,-3.2614809722841356,-6.664045573418602,-4.718925271763512,-6.832042849702337
838,-3.6121496383658576,-6.070145248323843,-4.064890783967892,-6.8431785128272
839,-3.8225087512042104,-5.442359078095778,-3.3965844674732013,-6.740118294061111
840,-3.8985769045465983,-4.802707222694118,-2.760125649578848,-6.523485357777331
841,-3.884396414926951,-4.17754726196108,-2.1784890468056144,-6.205276878280773
842,-3.8284724470817535,-3.594898454268786,-1.6390887399965222,-5.805173627366807
843,-3.747960231141082,-3.074227584522852,-1.1103052668323312,-5.344854927034334
844,-3.636915247546821,-2.6217665563286086,-0.5598159190886043,-4.840333701175142
845,-3.497859848729756,-2.237051965369642,0.04796291077989023,-4.305214736386487
846,-3.36085878304389,-1.918858492197361,0.7700208372346411,-3.760702674966175
847,-3.26043824761419,-1.6645913722904908,1.657662034474701,-3.230289065966207
848,-3.1987189447573448,-1.4695558000136444,2.7036660814508306,-2.725723446723905
849,-3.140293434680407,-1.3280146093857896,3.851258363929751,-2.2450665368198846
850,-3.0518625801963046,-1.2353811304788844,5.0322369559828415,-1.7813369775127919
851,-2.9297945944183708,-1.18738200652925,6.180143511751556,-1.3296161218641154
852,-2.777639614206016,-1.1747477352856264,7.240271433890406,-0.8835268717775369
853,-2.5736885659569846,-1.181140878927541,8.17316647809581,-0.4253205306349338
854,-2.2652843697640197,-1.184352266839101,8.945383510143964,0.07153358840924992
855,-1.81737998865977,-1.162221521010071,9.5321375602581,0.6255950085748525
856,-1.2575107716077325,-1.1066323239587141,9.934382697751488,1.2384781493392476
857,-0.652136823418318,-1.0235727935536483,10.173321304743355,1.8978761750190674
858,-0.056322329121016326,-0.9173636461877778,10.263210277803239,2.5824702715668044
859,0.5092501175153233,-0.7881142950260351,10.212267973816973,3.262158369535544
860,1.025908367986527,-0.6421701374836751,10.030571761505142,3.896057831657589
861,1.4433089368065144,-0.4983598059240559,9.720646893798717,4.43837045535627
862,1.6997047010404276,-0.3821196696476245,9.282130706733064,4.847786933805605
863,1.7685047257868711,-0.3131330316314301,8.728156580776323,5.097586383413633
864,1.6809576493473681,-0.2999772436478041,8.090429334977053,5.183220916685336
865,1.4896888106827955,-0.3396038489218832,7.4028536175101065,5.121003753750076
866,1.2271572445082357,-0.4212485798960235,6.691340001357673,4.943480618193636
867,0.9096091174084135,-0.5354235537521685,5.993152376218505,4.693005976438451
868,0.566324598480186,-0.6761649865113958,5.354379867591934,4.417440327877039
869,0.2534740039162836,-0.8382712680882722,4.798530040738942,4.16615066914228
870,0.017068552268429075,-1.0180834375768544,4.322459537906524,3.9779529122498034
871,-0.1482380209370312,-1.2144683901280717,3.9141950885029337,3.870697862370239
872,-0.2847415688437205,-1.4270886058347696,3.561398351108382,3.841400548577041
873,-0.41811323723530736,-1.65550690283121,3.2485518442034658,3.8721760010443753
874,-0.5374499443146837,-1.9000458796351545,2.960122048452354,3.9359678042843034
875,-0.6267439179434087,-2.1610384879601767,2.692290768239068,4.0041259754971845
876,-0.6872961540381787,-2.4357760185203285,2.452926419466201,4.056966377346327
877,-0.7320909022956333,-2.7158336701266794,2.259355390613121,4.090890320821015
878,-0.7539579094096068,-2.9862152888140394,2.143357453276319,4.117449734471131
879,-0.712827021089781,-3.227942219526559,2.1486602478476606,4.157502025034416
880,-0.5732694927656488,-3.423425535950618,2.3259934557890722,4.232096742646112
881,-0.342905264278689,-3.5593949390326793,2.720300127607543,4.352285958264176
882,-0.07309940739837036,-3.6267556196417012,3.3436413347959197,4.516987526463188
883,0.18370130926261555,-3.6182730363197955,4.156312268218143,4.714059158465257
884,0.40929561739566434,-3.5249332646572404,5.063441378922908,4.929739891382286
885,0.6164165208640657,-3.3381455175657635,5.950313715869367,5.163334829156236
886,0.8153121378335167,-3.0885434451623093,6.750254024350476,5.417488826034097
887,1.028198229735323,-2.7377908895006664,7.445576620610872,5.700321139249141
888,1.2768929681507941,-2.2832044164046423,8.025086910628717,6.0059626704305575
889,1.5906712419096738,-1.7471135083115965,8.488249713965894,6.325678655643216
890,1.9815250522452912,-1.16628475178726,8.84962286749053,6.651700300354012
891,2.4289898128074108,-0.5805154727777284,9.131575159130191,6.976388596676706
892,2.8914775758057685,-0.025772127830844753,9.353486553291253,7.290291043344892
893,3.3305601927310056,0.46671339513009097,9.529976195991908,7.578264371663705
894,3.7195997062507145,0.8723053339173052,9.676147142063497,7.820961348363195
895,4.035926247852472,1.1763940748729496,9.804024370663369,8.002742694306734
896,0.04602538371144366,-0.07224394285556174,-0.5097121336412168,-0.10008987981450007
897,0.12978071745534123,-0.23073183426374824,-1.1917370719963913,-0.2411543234160482
898,0.22564987667162384,-0.4899940377163672,-2.1332503267155363,-0.46066946508727535
899,0.29903341027318653,-0.8629037390592357,-3.308571921166737,-0.77040002231805
900,0.34188194920877146,-1.3539938015891246,-4.667780498627129,-1.172180912560087
901,0.3681662776230397,-1.9581569608520342,-6.139212237503415,-1.6588435844969287
902,0.3781903077214924,-2.661670215691044,-7.643562793030613,-2.2116236120139794
903,0.3506277085590635,-3.443316781495246,-9.118093601943562,-2.7951459015563604
904,0.2685512930705416,-4.27510463441441,-10.529293153896754,-3.3616155835862953
905,0.15104245396787117,-5.128073884727604,-11.87577320588022,-3.8621057342297154
906,0.04741442259938922,-5.98276153657247,-13.197771059451014,-4.25836146090235
907,-0.006893395293473728,-6.820005874828067,-14.521428403886562,-4.516916255427461
908,-0.0002522434265298315,-7.628498989822312,-15.85541137932874,-4.622422771077175
909,0.0716203245834333,-8.404297208641518,-17.169822380030656,-4.5762274538706995
910,0.220374918228724,-9.1449108891142,-18.407739466358635,-4.384675908245622
911,0.4445630881373208,-9.845215928278959,-19.517121193927494,-4.0580868741412655
912,0.7075519110376539,-10.499119003936064,-20.462270046232103,-3.6185646887980574
913,0.9555339810585541,-11.102209927812183,-21.224298670287055,-3.096582495741511
914,1.1570578721955833,-11.651291001742406,-21.80703603838175,-2.5177990820898475
915,1.3201319456705738,-12.143710992016,-22.237375384719318,-1.8981484852158539
916,1.462812278965448,-12.578785003904251,-22.56085442380004,-1.2480060765646126
917,1.5803460640179885,-12.957882341192157,-22.83782006933055,-0.576772441708825
918,1.6469046149839592,-13.280762086615217,-23.12878348848557,0.1030194653978677
919,1.6561155714154392,-13.54391235271073,-23.471590543887316,0.7714739882897281
920,1.6457662119553278,-13.74466712618013,-23.862862323497303,1.398248993239517
921,1.655488887835449,-13.888456774463346,-24.255840294147816,1.9461443091459825
922,1.6804312850472378,-13.991688215476504,-24.57399240312317,2.3786117022057955
923,1.6802729018792215,-14.075769824140073,-24.725002392425374,2.6637146366751874
924,1.626015081199147,-14.161323544476238,-24.621549709650242,2.7773739686211116
925,1.5243531523412663,-14.267081460685715,-24.205500870634015,2.7092156003454897
926,1.3937747459922023,-14.40896552021145,-23.458225132459276,2.4648003704842902
927,1.2346776231794971,-14.596907690882446,-22.39696848308402,2.0595029350855536
928,1.0287884076818106,-14.828368921702394,-21.072603132403586,1.5171030921473023
929,0.7706321563106204,-15.083257502998034,-19.571501806066777,0.8748356126555303
930,0.48562972243341634,-15.329750765790429,-18.00831489934498,0.1783167027855172
931,0.2063473060335006,-15.53706249842939,-16.49956568735429,-0.5318859633579152
932,-0.06013304253865755,-15.681918912145516,-15.126992069271902,-1.2280476697560745
933,-0.33984756185124804,-15.748279099833422,-13.93012878923779,-1.8947984880214228
934,-0.6591465968755323,-15.729564891655235,-12.927339001825946,-2.524390810437602
935,-1.0157179996199335,-15.634102081101071,-12.129862793293631,-3.111255486865614
936,-1.3899180928079056,-15.484757369083944,-11.54280946142374,-3.653030871816176
937,-1.7748329737587138,-15.306803434617338,-11.162118938771039,-4.153421960681296
938,-2.1825073948659792,-15.112989677922988,-10.980789373402054,-4.618585333776213
939,-2.6125079000957423,-14.902117989212469,-10.988274492553398,-5.052370290330501
940,-3.0415349946262467,-14.668677940134893,-11.154649820417902,-5.455585744254148
941,-3.438479168287708,-14.40856949961416,-11.427362488427896,-5.826301879874834
942,-3.7866667642523852,-14.118409964574447,-11.73821948710112,-6.1663770675180105
943,-4.107794641066246,-13.79568040805087,-12.010728445919343,-6.495890714876002
944,-4.4359354980964065,-13.442182739186949,-12.173600219675278,-6.844421929203354
945,-4.7749219877448015,-13.067549356896405,-12.179321017562643,-7.223185471770858
946,-5.09286833140749,-12.68798653523305,-12.017283329387812,-7.618790979448482
947,-5.351839807952246,-12.319120394917624,-11.716956177528665,-8.009004156388945
948,-5.535380793708509,-11.968867185825212,-11.343232929559361,-8.377978831986415
949,-5.637851672183555,-11.636700063002095,-10.977390979551835,-8.715633650864353
950,-5.64124502521953,-11.315486646565894,-10.683966599335074,-9.009625985430588
951,-5.505177580398207,-10.990378303102668,-10.482370344639618,-9.243201287204906
952,-5.195594346914566,-10.639012779025238,-10.35111106837104,-9.396602208186705
953,-4.718164768705279,-10.236858981925604,-10.25194743214998,-9.449764382115935
954,-4.107650307256841,-9.765336184370783,-10.142467215617778,-9.387163673804377
955,-3.400341360691699,-9.218712709001217,-9.983151577214693,-9.203417918964572
956,-2.618678979551531,-8.600685049521617,-9.749373233594467,-8.90394765742291
957,-1.7883579255722775,-7.912820480736576,-9.44493407106278,-8.500169711216085
958,-0.9623958594775878,-7.155707561106066,-9.098858093656306,-8.005603311067006
959,-0.20992155788992645,-6.340249293301312,-8.747377226074226,-7.435320702071852
960,0.428373460596017,-5.492479602528906,-8.42859797499562,-6.798859148721586
961,0.9629205336656605,-4.646339437895683,-8.177889173909177,-6.097011712337908
962,1.4119244839686806,-3.830914288091409,-8.013471289933747,-5.33758066775749
963,1.7682284982997303,-3.0673723663824255,-7.932615281183388,-4.537581117251602
964,2.0204254930634464,-2.3727991325253153,-7.919183370318174,-3.7060674403906964
965,2.1861275535999054,-1.7607503806663163,-7.954601022122281,-2.839425104219939
966,2.320298269650491,-1.2385672974797688,-8.03342316686293,-1.9334843870501142
967,2.47692067977833,-0.8098612832482925,-8.159878131957564,-0.9989794140728183
968,2.66431322350203,-0.4811645030966865,-8.314921619134466,-0.06380964517881527
969,2.846813484787532,-0.25914296660922664,-8.450609654266636,0.8347284359370927
970,2.9938234202188614,-0.14156309856591814,-8.526569564002843,1.6604545272832425
971,3.111463131053014,-0.1140431059548571,-8.533463889461329,2.3898787231496925
972,3.2175697716873937,-0.15374065209168558,-8.482622978374073,3.01300004204994
973,3.310391088093306,-0.23646396062520783,-8.386668179404781,3.5251754772645394
974,3.370295595120731,-0.3398097532806567,-8.25407553056575,3.925333348371823
975,3.393360906812025,-0.4373133703416899,-8.096110006738341,4.220308705046111
976,3.4084913189369663,-0.49705167735480515,-7.924536372368745,4.425596188770401
977,3.450301006326902,-0.4923753318617982,-7.734640446557586,4.558665646403587
978,3.527137026889451,-0.41258088471869403,-7.496789879364152,4.6288724427269985
979,3.6167732103467554,-0.2691015831657449,-7.167992364546703,4.639110399696743
980,3.697081612259023,-0.09129946956569032,-6.711759587706301,4.597167991668092
981,3.767556931855407,0.08910662066955993,-6.111930812848279,4.5186289245695885
982,3.8429675313315976,0.24786261320568634,-5.380980276985037,4.422156954993097
983,3.931205463924792,0.3686859394850117,-4.56282367563876,4.325160904607344
984,4.013498602682639,0.44342225546377473,-3.7249361717682175,4.24143811367998
985,4.070126006556653,0.47496342017922816,-2.9439039248837253,4.178359432469151
986,4.104380161824613,0.4766914045016533,-2.287812620795551,4.1373343514416066
987,4.1216655750082785,0.467171470312982,-1.7966472583341309,4.119008318664013
988,4.107531926846654,0.46688684291795707,-1.4717278027920877,4.120421620979037
989,4.038498211602256,0.49566341385736423,-1.2792452679668482,4.128463526768947
990,3.913100475434429,0.5659091425966326,-1.1614869260673408,4.123524879650107
991,3.755688688207232,0.6749351962700798,-1.0471128960757354,4.084796989437867
992,3.59160475212191,0.8044921134037905,-0.8614072730806589,3.989608204564652
993,3.427891706171462,0.9296034164213158,-0.5474901759829229,3.815581293669228
994,3.2583247009443315,1.0303324665930849,-0.09496617177993878,3.548824991390111
995,3.082549808676184,1.0966017170741185,0.45188706907123666,3.191402282908085
996,2.9117413020915186,1.1277154418089055,1.0189550664891704,2.7605733842037226
997,2.7563982340589717,1.1329654105671818,1.5378974233929577,2.28332785406182
998,2.6085580615070945,1.1292809454214938,1.9692691751527491,1.7940312571413723
999,2.441503473054893,1.1363494008564547,2.3025383659867,1.3287904195487499
1000,2.227277862263396,1.1757133665947992,2.547224761595598,0.9152214982637952
1001,1.9639052142219526,1.2696176456567065,2.734845917267168,0.5681664030244766
1002,1.6898470948382454,1.4337470109907478,2.928778992551266,0.28817645297523525
1003,1.4452353836185958,1.6697089048034075,3.204958140749862,0.0587661199032304
1004,1.2307535617814884,1.9642446290487272,3.610131231567305,-0.15183336673201547
1005,1.0193606964098778,2.2962031981518187,4.143749865197326,-0.3767477123818197
1006,0.7867480950109305,2.645705835924785,4.760538512086931,-0.632938258756238
1007,0.5323325195398222,2.9988986446733503,5.3919079342129175,-0.9193322016177145
1008,0.2746091409258993,3.3502908420694997,5.969176699573563,-1.2221646842350884
1009,0.027705913230093013,3.702438511591536,6.428809864701614,-1.5150231309444477
1010,-0.21073769632531408,4.061051702899809,6.720538180180436,-1.76099779178411
1011,-0.4485044020849013,4.43087718387306,6.826123291991242,-1.9207808322797033
1012,-0.6755918884022848,4.813392002128663,6.767353544008167,-1.9613084710753952
1013,-0.8661852431320181,5.204574612405613,6.592326499657067,-1.8631945296523111
1014,-1.000837842312215,5.584350679626339,6.32343794866546,-1.6439793564794096
1015,-1.0758490922137967,5.959959111781771,6.065007252007098,-1.2827007879350887
1016,-1.0927998688395175,6.327562156609767,5.888160898839038,-0.7937244425452273
1017,-1.0581836268801803,6.675900016425923,5.832261551501877,-0.21147376100154058
1018,-0.9866945238934075,6.991586952602911,5.897745153691224,0.41980325622368303
1019,-0.9084275175383429,7.265598357231376,6.043648946502225,1.0510338308585927
1020,-0.855942661586047,7.49564943837796,6.216677747655343,1.6360061775145758
1021,-0.8313831868027066,7.6827587709997065,6.396575794663045,2.1373647847471946
1022,-0.8119926608408292,7.827581759318127,6.591515163350049,2.5289076358121707
1023,-0.7889335307799707,7.931131466575122,6.793906412553698,2.79927783752292
1024,-0.13895610150578824,-0.08908422345561474,-0.377075283145381,0.12317300740328371
1025,-0.2044480255882094,-0.21809236861654926,-0.7509664120290391,0.21415373870677282
1026,-0.2739323017648872,-0.4184869632392743,-1.2767482928095988,0.32144609813214364
1027,-0.34802055456928294,-0.7034745268360868,-1.9710278358100717,0.440926279192862
1028,-0.3978166579670997,-1.0737186051503798,-2.8482197878655144,0.5701581361769378
1029,-0.38165845109689184,-1.5176024031455178,-3.9145856030224304,0.7022219914384098
1030,-0.2855044555566779,-2.022109010244652,-5.158796576462074,0.8176609493468846
1031,-0.13070545920207238,-2.577718271871395,-6.541002706606595,0.8858826581860916
1032,0.050461654082104665,-3.1777740816263167,-7.98751107869125,0.8742242356730053
1033,0.23760294267004956,-3.8154961293096537,-9.416194619748493,0.7585496865270202
1034,0.41493942847576976,-4.480583305244414,-10.792001819225398,0.5348520313376083
1035,0.5486899076687655,-5.150402471481643,-12.111259430207685,0.20700538848296832
1036,0.6032337684951146,-5.798037325268861,-13.396660165393495,-0.21264088023607175
1037,0.5725405837666264,-6.394224857808274,-14.663883757510005,-0.7032321517170529
1038,0.4749118432480642,-6.913955860283118,-15.907326282022503,-1.2428218908010193
1039,0.3209327653777734,-7.34795151100067,-17.104325026639266,-1.821791025096416
1040,0.10328725168785008,-7.701167522519197,-18.22663514086525,-2.4402574626736033
1041,-0.17652792135786083,-7.980268542343174,-19.25424071304704,-3.0976470503428497
1042,-0.48661750332883297,-8.189271051099771,-20.16968416883977,-3.793854043362706
1043,-0.7716987861528113,-8.333998393486159,-20.93980475782956,-4.53480757461744
1044,-0.9906760668934479,-8.423829421212792,-21.520801817488547,-5.326204610943656
1045,-1.1477644539923095,-8.46802435199807,-21.883257019225827,-6.156906879427804
1046,-1.2720239524023618,-8.471447150891349,-22.029179530750266,-6.993567722997926
1047,-1.3767486457222102,-8.430066410493176,-21.998905704092053,-7.788669754030839
1048,-1.4577650028003435,-8.33322672426195,-21.861985325285907,-8.490117463424872
1049,-1.523093852453386,-8.173207023035351,-21.68925695826416,-9.051864352954937
1050,-1.5980156755508765,-7.950903199789823,-21.522013996013786,-9.4444650712839
1051,-1.701332074545048,-7.678077085759433,-21.34384409359578,-9.663449689420366
1052,-1.8231850506977405,-7.376084952785514,-21.08331890425655,-9.729948708671047
1053,-1.934427803843015,-7.0669340183900395,-20.67069003234171,-9.681840432777365
1054,-2.018896939210705,-6.76342970522668,-20.09681451991358,-9.56257091061662
1055,-2.075929764227803,-6.46601312257378,-19.41136754181653,-9.41170954848636
1056,-2.1008201386870473,-6.164471631947292,-18.679060306223555,-9.258987010225335
1057,-2.07832787784482,-5.84646033855254,-17.94379994690362,-9.127415406416894
1058,-1.9946290011647456,-5.511246330367172,-17.216935262141526,-9.0331197250219
1059,-1.8564398392010442,-5.17077521740101,-16.491343209698577,-8.972500926365555
1060,-1.690384709700028,-4.839448405089115,-15.769257390067141,-8.927396519970308
1061,-1.5253781222710296,-4.53474231281756,-15.058107117323305,-8.889261900352047
1062,-1.3706956375459625,-4.2859078337412,-14.335148596344252,-8.87172682401406
1063,-1.2108227439111943,-4.1297751346082645,-13.551678818635832,-8.898960183435223
1064,-1.0277981736591046,-4.095750145914039,-12.674143550658153,-8.982332846402361
1065,-0.82186336302011,-4.1989864904369485,-11.705069304013929,-9.118635079179581
1066,-0.6227764132726732,-4.4412756334116725,-10.68747021712946,-9.305820409587518
1067,-0.48061622098127477,-4.809642118116301,-9.689307296761827,-9.5473608332626
1068,-0.44055086636761986,-5.278630791382318,-8.763877207058533,-9.845697843893793
1069,-0.5324071038887563,-5.819343353907802,-7.945619888958471,-10.198062568776173
1070,-0.7808062944959095,-6.406589512110968,-7.272810883876388,-10.594985284180444
1071,-1.2212030699793401,-7.02473454447629,-6.774489496376987,-11.021383843942491
1072,-1.886343329228868,-7.6664619920171875,-6.453461574480183,-11.461732951737604
1073,-2.772725151360672,-8.32112449275034,-6.295739620219278,-11.902538408521238
1074,-3.831305947583475,-8.970427821445861,-6.277552180122914,-12.329768078245442
1075,-4.990478068747437,-9.595500741841652,-6.363840243369465,-12.72940595720083
1076,-6.192743987453087,-10.184948811721744,-6.504423640475034,-13.095055202690338
1077,-7.401989044766399,-10.737840020474069,-6.6344673316665626,-13.425406232176876
1078,-8.578378496004403,-11.257497735985364,-6.694441863851509,-13.709604584366506
1079,-9.664628735470272,-11.740426491072888,-6.647426409239113,-13.928325611667159
1080,-10.608534704483896,-12.175328290502394,-6.460050243695805,-14.069301417020593
1081,-11.390732254033336,-12.55112606504947,-6.09705926171937,-14.136191992236228
1082,-12.01312763382659,-12.861053415320319,-5.559508733994721,-14.142374839739896
1083,-12.474707410086932,-13.102842250963171,-4.900509638128717,-14.096949239194085
1084,-12.768413662336997,-13.278534155060784,-4.20550994575937,-14.001418979047541
1085,-12.90511191154865,-13.391370730008582,-3.5777819837936513,-13.855022426053369
1086,-12.9336159977314,-13.441910336656447,-3.1050211753246018,-13.661869657272266
1087,-12.916124097547746,-13.43092126685578,-2.7967626675689967,-13.438521631182079
1088,-12.885048958608563,-13.363433365633716,-2.6006985236027633,-13.20593513489554
1089,-12.826883256124924,-13.248751779596862,-2.491684866571341,-12.97023213947149
1090,-12.71851746308759,-13.100470458647507,-2.4922378192078662,-12.718059723759474
1091,-12.56427080806377,-12.93288522269455,-2.623064426944183,-12.430726159945719
1092,-12.385187273653122,-12.752590011838965,-2.856544097946961,-12.10286096001378
1093,-12.185843288712599,-12.5545185869279,-3.132280351180575,-11.739462780373492
1094,-11.935991015069485,-12.323524911803391,-3.424269955728632,-11.336632841330877
1095,-11.605036621237392,-12.037778028763256,-3.772622964914209,-10.879798158411127
1096,-11.198474184349365,-11.676844118385013,-4.251116997708744,-10.35544086553337
1097,-10.739818997516052,-11.23021199452472,-4.916299215705705,-9.756025342814006
1098,-10.231572249752785,-10.699705283485661,-5.777689652173088,-9.078561271753383
1099,-9.642013451849285,-10.100081924319937,-6.773108432445475,-8.324547947041344
1100,-8.947020668402205,-9.46137745282266,-7.774425993700418,-7.506648944746597
1101,-8.175233796192146,-8.827547147595805,-8.639318477620419,-6.65657169887287
1102,-7.3940724867752685,-8.2479491407543,-9.252217321684585,-5.81748408525267
1103,-6.663641932968592,-7.765098370011838,-9.557947885099143,-5.026489361794514
1104,-6.0147565332940145,-7.402739724970924,-9.591674017636988,-4.304339292168002
1105,-5.476498521272381,-7.164931208589848,-9.4455326706067,-3.6615998493013517
1106,-5.101289882414453,-7.046315306776971,-9.189077791276496,-3.107445449163676
1107,-4.933301391956171,-7.036348025894322,-8.85654521400699,-2.6368582095124884
1108,-4.951910917164801,-7.114454414259268,-8.501085225641855,-2.220555371930044
1109,-5.065624962448767,-7.245181018168208,-8.204886590139493,-1.8148838613254659
1110,-5.168805797335078,-7.38530112526927,-8.018343368144677,-1.38165887044933
1111,-5.195793365666615,-7.499296121319399,-7.910595255028731,-0.9145206494789322
1112,-5.130667897349769,-7.566662717609363,-7.802270216250392,-0.43492313286829026
1113,-4.968269314045238,-7.5782631147682435,-7.630912014840632,0.0397387024770786
1114,-4.676438502338308,-7.5283567903127535,-7.381400196673958,0.5034391963604554
1115,-4.2337984269442845,-7.4098054117794225,-7.076553270198581,0.9493780097513906
1116,-3.6936826977525428,-7.217199956653291,-6.756380148419024,1.3641211943508182
1117,-3.1714978261956235,-6.955131321774758,-6.471351344704451,1.729957439508235
1118,-2.7710497116591664,-6.635571506244797,-6.2566180347861255,2.0342951047486393
1119,-2.540571591449948,-6.267451436749824,-6.108432514134024,2.271446775933716
1120,-2.4833727109250536,-5.858787220842205,-5.998538308627083,2.432593206422578
1121,-2.577228655536151,-5.423568881028343,-5.884510969704257,2.5098030872087023
1122,-2.777841931876251,-4.9781248120307025,-5.717282242497837,2.51053762213346
1123,-3.011042229739293,-4.528609607967698,-5.456748846111396,2.4555168906478775
1124,-3.187871437036219,-4.071269294852708,-5.082915378394008,2.3563010526160837
1125,-3.2415835086228464,-3.6138111365508623,-4.585390679845525,2.2009165326163815
1126,-3.1495047489823307,-3.186617412983022,-3.9345426117600395,1.9734787378299077
1127,-2.945090927694536,-2.8319281368580382,-3.1103162543723326,1.664491520153867
1128,-2.684881547863466,-2.565670739220028,-2.1614275342813873,1.2868253619697114
1129,-2.3885105996446416,-2.3388034736656484,-1.1951752572441532,0.9135796893393413
1130,-2.0353823082422506,-2.057431536118937,-0.3213543914739214,0.6565637575220404
1131,-1.6333983917305466,-1.6469664209072405,0.41280788410996694,0.5957906766591233
1132,-1.2847906641399647,-1.1070402888413675,1.016373893257885,0.7235266441327802
1133,-1.109553304599323,-0.4933835693751921,1.4623081479810578,0.960468076778798
1134,-1.1345289188382999,0.14399817887281474,1.686722906911268,1.2243632077634392
1135,-1.3149125519888862,0.7808341431323799,1.6817877871639302,1.4580027229453314
1136,-1.6078500687092905,1.4113222858699375,1.516868111985855,1.6163246376912919
1137,-2.0179976101136714,2.0271217799065497,1.2905733478081058,1.6546218538515824
1138,-2.58936598767464,2.5930948966681964,1.0830566038003921,1.5256187649980177
1139,-3.3670575980899167,3.039134682751799,0.9303446745156738,1.1729900888105715
1140,-4.375008076678437,3.2637066328391384,0.8337644377106269,0.5320428779910453
1141,-5.624722019314331,3.151622219283997,0.7830720089497564,-0.44674770132846886
1142,-7.038133791366878,2.819590788277531,0.6830828517169779,-1.6406279632354681
1143,-8.841785842164661,1.820389748705726,0.6762312199809334,-3.280944160563925
1144,-11.072480037592754,-0.024569567581191776,0.8270488628768674,-5.417988607877808
1145,-13.652256990654292,-2.71066485939001,1.194368657768445,-7.995111354498377
1146,-16.477959283049213,-6.117552971619789,1.8343053978120762,-10.91297144186294
1147,-19.442731232614697,-10.030672958311756,2.736408507206757,-14.044952416171482
1148,-22.386569739819574,-14.13198840169924,3.79820874036785,-17.199040550603065
1149,-25.078030829787853,-18.036033709218945,4.8781986379339815,-20.121203064270908
1150,-27.284201855862644,-21.3827936829484,5.890492505610928,-22.566477628110547
1151,-28.891051711632596,-23.936556990241147,6.798261204101581,-24.387982767669115
1152,-1.4103902734612341,-2.0040456935297386,-0.2657715691000073,-1.1784328714541568
1153,-3.0098733106321296,-4.596298349177276,-0.24122601636171237,-2.581755080297957
1154,-5.2855527702872696,-8.413905035189694,-0.12399836202201298,-4.591451857264287
1155,-8.19946947487663,-13.495340846712446,-0.05517389052382682,-7.173922307514802
1156,-11.608421631641454,-19.7628038029233,-0.2689322902010633,-10.217379311384867
1157,-15.35380010261101,-27.054004607514088,-0.9395167939946223,-13.58794369369226
1158,-19.32041804485929,-35.14926366206513,-2.114320226515531,-17.170274245761778
1159,-23.432651813306197,-43.80850345139259,-3.704099043010101,-20.87219057388385
1160,-27.621793043045596,-52.82109715599279,-5.4703305415978924,-24.628912838114722
1161,-31.80784126486897,-62.05694335447277,-7.10003617153493,-28.404918980982853
1162,-35.93554476246068,-71.53441751643672,-8.345393183543862,-32.19172236340608
1163,-39.87854390596477,-81.20415824272962,-9.05412866492172,-35.888744280880715
1164,-43.55983180997401,-91.054182127033,-9.123586265341167,-39.41140292877754
1165,-46.950532306338914,-101.09793680174623,-8.521857903140756,-42.729650086907405
1166,-50.031208706347826,-111.34572132837472,-7.366245321912807,-45.84530995797236
1167,-52.80586367154028,-121.79061539299863,-5.988102526233469,-48.73789623457008
1168,-55.304130864775644,-132.40519806990721,-4.845248300739097,-51.35281398613785
1169,-57.54709758905187,-143.13520101747642,-4.330035352381799,-53.62768572924881
1170,-59.54496122330051,-153.89179425988578,-4.647514903831084,-55.530525551126644
1171,-61.32211567549952,-164.577715694557,-5.760655011098023,-57.08802807881893
1172,-62.94515615190358,-175.10863005601607,-7.388644549323456,-58.377523608879024
1173,-64.50748927402402,-185.3768300804929,-9.114170103822486,-59.49173227544965
1174,-66.04533816330535,-195.23838207478227,-10.578673835820483,-60.48897397191542
1175,-67.50037419491447,-204.56111392757248,-11.556915414732538,-61.38204470944563
1176,-68.77023486517403,-213.26628742995368,-11.937561012257467,-62.164468043065874
1177,-69.77889707423702,-221.35395143886333,-11.781810080114717,-62.82023137844136
1178,-70.52097511948612,-228.91555870873336,-11.332267369275328,-63.32923145011187
1179,-71.04318814944891,-236.1192772797384,-10.873163001646267,-63.69115515626193
1180,-71.38028626403604,-243.16530424592744,-10.619093722814004,-63.92927908674111
1181,-71.51397868882998,-250.22943114378782,-10.710574197830073,-64.0496739312138
1182,-71.40438926971729,-257.44760199253943,-11.197842397478395,-64.02631606162606
1183,-71.05056028958236,-264.90855133480363,-12.004503205853215,-63.83526967105771
1184,-70.48351475286408,-272.6142817000216,-12.918038618977452,-63.48696801931258
1185,-69.72369154951772,-280.4780126803301,-13.646163509047712,-63.01855844324076
1186,-68.77501597438605,-288.3862156577219,-13.94177820485325,-62.457479565773674
1187,-67.63970141307102,-296.2828622752309,-13.682535000699128,-61.80171949951676
1188,-66.32711380552536,-304.228101480641,-12.88057667395931,-61.01519716939609
1189,-64.84307837752154,-312.415312385738,-11.648540203668794,-60.03635858495843
1190,-63.16399928979675,-321.1701454684987,-10.124926192261006,-58.795515512585176
1191,-61.233098351877835,-330.89783276623746,-8.439635869409287,-57.226679825206155
1192,-58.99751971665712,-341.97976701139214,-6.71773127814747,-55.281882729633686
1193,-56.44806391818345,-354.7020209354751,-5.048396474931798,-52.94840574868497
1194,-53.621422542468046,-369.20999889430675,-3.417430479213743,-50.261385814935856
1195,-50.56783744614604,-385.46961015924086,-1.6913314321472428,-47.29409544626764
1196,-47.33337439968834,-403.26551753655286,0.2950419856890695,-44.128288207640985
1197,-43.963875854572215,-422.2246184746308,2.6355550783255595,-40.828036728255036
1198,-40.498771358776786,-441.8589113628618,5.334645834332847,-37.428629457869114
1199,-36.96202504943109,-461.63174498833314,8.35829428864874,-33.94840399691812
1200,-33.36386398257861,-481.0302497268084,11.648619950076787,-30.402991888627984
1201,-29.704352851782293,-499.6383228211602,15.079284755328896,-26.799234181012686
1202,-25.973930094463086,-517.1623860256864,18.439945035933288,-23.124931530668174
1203,-22.170713432193654,-533.3932044440064,21.500168268602025,-19.357638309781585
1204,-18.32579205927548,-548.1679878672752,24.120319491595936,-15.491528780724307
1205,-14.481169205134135,-561.3553092557758,26.30950187850883,-11.546448830025088
1206,-10.645996021341452,-572.8539625798458,28.15928244030546,-7.545520917993034
1207,-6.796702062779737,-582.5956773270401,29.736552636572995,-3.493646171391774
1208,-2.9137732980031217,-590.5431100413258,31.067127041452135,0.6101129193835862
1209,0.9863609420680124,-596.6864523597839,32.1739416674534,4.741866193084856
1210,4.863472755551605,-601.039962938617,33.081623988630334,8.849574236624598
1211,8.684798569947644,-603.6384151010925,33.80318403015824,12.871454150428008
1212,12.437075606515405,-604.533304344549,34.34185499317249,16.752227412062812
1213,16.1170829601844,-603.7835008442297,34.687445759379436,20.455255290378258
1214,19.71838392309653,-601.4584135635615,34.78590328517982,23.96656763109536
1215,23.229712252772664,-597.6605187653587,34.55402616035145,27.28611327521233
1216,26.63728054367776,-592.5194503545363,33.9422922071076,30.41238343363189
1217,29.923775025432313,-586.1601715553281,32.96440178128489,33.34376558303347
1218,33.06520454241639,-578.6904517879412,31.700522055073172,36.095074731470795
1219,36.03845829127892,-570.1956808303056,30.271459256891195,38.69501967055487
1220,38.840350209367486,-560.7219686782564,28.794775815529466,41.16562857345804
1221,41.49242055300691,-550.2709897179511,27.37189294735583,43.50915899264546
1222,44.01009669997841,-538.8050664710955,26.058065220555573,45.70303105157372
1223,46.36121118450933,-526.245678687912,24.82888250212021,47.69610763152348
1224,48.47733809942765,-512.481923156202,23.612758998174197,49.42335356240846
1225,50.30640307202334,-497.39201615133584,22.32696402406837,50.83735820906196
1226,51.841439675056826,-480.86755546791255,20.8931777997052,51.930213236555254
1227,53.10923143317746,-462.8321770556929,19.259093981210075,52.72806590942578
1228,54.13905824519106,-443.25301621233314,17.39849907388214,53.269036167230574
1229,54.94080924649699,-422.1430157818865,15.311368830833315,53.591968375212524
1230,55.49777801012439,-399.5449269357124,13.033384312520363,53.72686554930554
1231,55.79658318997107,-375.5173124165802,10.630397125243096,53.69742569913151
1232,55.87424703282138,-350.12922646036435,8.17591299336878,53.53993739797186
1233,55.80136779082409,-323.4620466001179,5.71338296873961,53.30244960335168
1234,55.6314568408207,-295.6233429011454,3.263063211041865,53.02568390747939
1235,55.39092060159722,-266.74551839503533,0.8590110802775696,52.72444970879625
1236,55.10175528874091,-236.97371644884183,-1.463023912765872,52.394832102911124
1237,54.80709446127099,-206.46879527709683,-3.692042631204462,52.043941600582
1238,54.56060374546762,-175.40886387889597,-5.834429199974874,51.69431587837455
1239,54.38917944937917,-143.97199366625532,-7.8804394269781,51.362771736548865
1240,54.28113357385129,-112.3202160403521,-9.771032208030242,51.04622927489736
1241,54.205385025172674,-80.59864168069649,-11.423606287142459,50.72159284733614
1242,54.14140731051859,-48.94740141093697,-12.800429374152893,50.354991055386584
1243,54.07822005330037,-17.516850182143177,-13.930750239857735,49.91335240064363
1244,53.98716029715807,13.53109514103453,-14.889004954915375,49.36826743906085
1245,53.82123931313487,44.03696630384671,-15.75827999143537,48.696346083550715
1246,53.55110335211483,73.89136789550695,-16.59675120471552,47.8843498886389
1247,53.19754184748071,103.10477625733259,-17.426655946344574,46.936404380869114
1248,52.805255387675004,131.84591827203673,-18.23837808431622,45.86903438781883
1249,52.3758523187644,160.42706027734212,-19.013891865055545,44.68925950391961
1250,51.853223880371246,189.2630366906756,-19.750298313779542,43.38980485773567
1251,51.1875246886633,218.87091797285532,-20.45687186557213,41.969401910301194
1252,50.373774665891105,249.90242195843288,-21.13962653221828,40.44275519205607
1253,49.41529330661757,283.12670629269473,-21.787609596472134,38.83197179398219
1254,48.28981945401121,319.34046957334635,-22.380679433039557,37.1545964027088
1255,46.96314442738502,359.245235496913,-22.92445747269621,35.42577949030357
1256,45.43340335116243,403.33128235320544,-23.462012184888103,33.67141900827499
1257,43.749152641828736,451.7897703441657,-24.04266990233164,31.929183322280466
1258,41.97839218750244,504.4785871816588,-24.692162668780647,30.236952559213258
1259,40.17209869797114,560.9504018339609,-25.402688022888043,28.62080866344674
1260,38.35463799804333,620.5092809554934,-26.14088927566063,27.087757559898908
1261,36.553330464437224,682.2654609503871,-26.86758597474254,25.627999797049394
1262,34.81300794109174,745.1944334505347,-27.556464947660395,24.22747104102991
1263,33.16641302170635,808.2012657301531,-28.20456052041454,22.876187497173074
1264,31.608462542334763,870.1867654812607,-28.81742111789902,21.566919766113706
1265,30.10333038018781,930.1401307708359,-29.387979708066464,20.294132670185615
1266,28.628264081315095,987.2422480569153,-29.89440512341289,19.06018244787811
1267,27.2091776551302,1040.9083219927843,-30.309111856882655,17.88436449933028
1268,25.909778897395544,1090.7356495953604,-30.60758804929708,16.8003940601452
1269,24.783715262318776,1136.417866797939,-30.769250692176602,15.842588089295475
1270,23.82906657151687,1177.7128927174247,-30.820126005507245,15.017393001293797
1271,23.068254961658567,1214.6119813299072,-30.669226284090236,14.38356081051436
1272,22.524812331778122,1246.9144259161492,-30.27319868234455,13.971271993747388
1273,22.19712722057335,1274.4117798812613,-29.61826974074793,13.77730985496918
1274,22.046388832255253,1297.008449793906,-28.728976018572475,13.770247012262391
1275,22.011601018227164,1314.7887261588735,-27.673737978877835,13.903662850690141
1276,22.041374234351057,1328.0396053165334,-26.552098348101463,14.126544246756513
1277,22.107839310466744,1337.2387440488978,-25.47584066937335,14.388979269366757
1278,22.192896736075273,1343.0164697703347,-24.549806964805438,14.6464327690476
1279,22.269445293156235,1346.1003597741703,-23.849673193793027,14.863740436366086
1280,-0.09856233174326648,12.440936658118108,-0.1069024247972189,-0.002964884347132199
1281,-0.08297326980853138,27.41637160031118,-0.41871054287135734,0.012241028706439158
1282,-0.05200065204721117,48.82667206566386,-0.856968397538949,0.00284406081180507
1283,0.01218737187782721,76.66642528862081,-1.3994290228131168,-0.048754775419190446
1284,0.13855385485819652,110.31562057003809,-2.019609518603798,-0.15201385743952778
1285,0.33306976846058145,148.57801982899645,-2.6934170284632484,-0.316157410475156
1286,0.5676830787956073,189.8091529153524,-3.4008453638443323,-0.5501875834911929
1287,0.8002705746180225,232.13689127067835,-4.1279754323373545,-0.8545870016394468
1288,1.0077680817483643,273.78343455121507,-4.878100066501573,-1.2142166004198498
1289,1.1884316196071167,313.485748673483,-5.68283526059484,-1.599023901048219
1290,1.3334969047969945,351.0008472341159,-6.593556829877682,-1.9716286710122555
1291,1.4191890412095458,385.72608533293567,-7.654776096376682,-2.292315844303143
1292,1.436303137044407,417.1794358558473,-8.883612938149428,-2.527671995679659
1293,1.4134728837399513,444.99242735159623,-10.249250202727882,-2.659789255213515
1294,1.3836045489572228,468.88900494577393,-11.675345399354619,-2.6936042093863133
1295,1.3498433898378197,488.68575586382735,-13.0602226313136,-2.653488216986083
1296,1.304127824569535,504.2970026256947,-14.301766593156792,-2.5720334140339487
1297,1.2612197802547298,515.734120225544,-15.321266881339563,-2.480435972006731
1298,1.2609145890744862,523.0972914273091,-16.082999201698414,-2.396637262201517
1299,1.3341705688976173,526.5461927562,-16.60765668712664,-2.3175871142652404
1300,1.483763957518129,526.2678054490017,-16.964235685394062,-2.229423322063998
1301,1.6951530102322863,522.4650780762465,-17.236540528300218,-2.117764206622983
1302,1.96369706244804,515.3572063985813,-17.49011284411263,-1.9648673940865429
1303,2.3056098420271165,505.17452252785574,-17.76488067666631,-1.7536396658140392
1304,2.7297999414716583,492.1513776731908,-18.075281588515967,-1.4835920813907884
1305,3.205738323947298,476.52300394573007,-18.400181964745205,-1.1789936902397713
1306,3.6638664270315093,458.5225883858395,-18.680704202804336,-0.8804302154512145
1307,4.042085520854282,438.3849438362752,-18.851259966880807,-0.630538275152145
1308,4.319879137971875,416.3587741894921,-18.886160649805962,-0.46587906136407997
1309,4.503336737042074,392.7131869466443,-18.811306582024667,-0.410134733405027
1310,4.595926459143856,367.735101666693,-18.676600121304197,-0.4649553586680323
1311,4.587189809721018,341.7244932546708,-18.526265556998784,-0.6100600344105003
1312,4.482718921240509,314.98680015651126,-18.401908947500665,-0.8131689870261235
1313,4.322405161342298,287.8188645239213,-18.350956135329636,-1.033903918028645
1314,4.159230273798811,260.4917691825502,-18.405781662051133,-1.227001205167375
1315,4.032423567637479,233.24263588470586,-18.568353423153585,-1.3563299673733804
1316,3.9475880647834227,206.28289428144657,-18.815982129122283,-1.4077934431618992
1317,3.8880107880639962,179.80590093839496,-19.110871716713472,-1.3866473792803162
1318,3.843392823763931,153.9760879880813,-19.408692781163502,-1.304937812093468
1319,3.8222550641941546,128.91940644172237,-19.67208624509702,-1.1783130785393432
1320,3.8314612832482338,104.73033610512483,-19.8781454094743,-1.0258045381402319
1321,3.8539964844229084,81.48162695922161,-20.015405997005473,-0.8621393465207053
1322,3.868091428719306,59.22715932090471,-20.085734530251962,-0.6927084402235247
1323,3.880494982572503,38.0043773676475,-20.109293308248173,-0.5135737261101845
1324,3.9342453707316216,17.840729028518894,-20.123659106601515,-0.31180335136620996
1325,4.070135605577011,-1.2450902120783107,-20.160270386053778,-0.06969180280874365
1326,4.289424410800003,-19.24823763555465,-20.222503737725937,0.2250104535942261
1327,4.562843503170047,-36.180361262331395,-20.29489694706032,0.5706667714024329
1328,4.858384223897096,-52.06584217642181,-20.36372741859992,0.9540400752422744
1329,5.159525928524066,-66.93032163772624,-20.42044716478369,1.3597271686661183
1330,5.442644859173274,-80.7931245678023,-20.44107006128286,1.7717204501960078
1331,5.652776673734705,-93.6730227051618,-20.379460643000634,2.1667676329517045
1332,5.727145784529988,-105.59491563311947,-20.181662428557434,2.5151401371940665
1333,5.636942682455612,-116.5874953362166,-19.79658283560697,2.790166420906339
1334,5.4058923948547735,-126.67701311859278,-19.187804289670034,2.975690797804367
1335,5.076519524507349,-135.88636900683014,-18.34947042370249,3.0687377445525286
1336,4.673089611045154,-144.23918367789798,-17.308133682525952,3.078982318160201
1337,4.20988576308377,-151.76345752333816,-16.112210837899283,3.025916952878536
1338,3.721704612544242,-158.4933248938552,-14.826624593775415,2.9345916423131277
1339,3.273308913411572,-164.4698929472312,-13.521138448545859,2.8317129205828535
1340,2.9179082552093654,-169.7418949696092,-12.253971796295637,2.7405139617616454
1341,2.6526861146617366,-174.3643392515907,-11.062060914539092,2.6728549472642964
1342,2.4297978169885717,-178.3947338606829,-9.961392147250653,2.6277089632760986
1343,2.210590808378586,-181.89002335284604,-8.957376422299138,2.597231125692656
1344,1.9965043661785093,-184.9021407005764,-8.044869065033057,2.5729143369453293
1345,1.80339459215999,-187.4732676140142,-7.203386698914847,2.5508282610653907
1346,1.6297424768912878,-189.6403822176289,-6.401975609313432,2.53115764701864
1347,1.4611641985449797,-191.44116538950155,-5.611059856425951,2.5149522469186687
1348,1.305648639064665,-192.90972568329443,-4.814353253404541,2.5041134210478257
1349,1.204603488496486,-194.07116762836634,-4.007996103709575,2.5017491852171276
1350,1.1987584878978073,-194.9441847930397,-3.196474424142043,2.5102981237906468
1351,1.2981624016988549,-195.54730961139796,-2.3984241895273937,2.52911320345789
1352,1.4808206014712086,-195.902419159283,-1.645567816002519,2.553385201999814
1353,1.724916521486048,-196.03634999048938,-0.9659844123703931,2.5721904444312043
1354,2.0280591828582217,-195.98068489112796,-0.37471607943279456,2.568879032318024
1355,2.3869603424876,-195.7689394687814,0.12162116454481359,2.5274086804784046
1356,2.7768471999650397,-195.4349511151879,0.5224781069564635,2.4394286777719234
1357,3.1509849839605453,-195.00849089514116,0.8376352921169878,2.3049534400930325
1358,3.4748582661129834,-194.5085843754998,1.0869223803278236,2.12883977305696
1359,3.7489814220307776,-193.94144099065602,1.284705913233116,1.9206278451562409
1360,3.9843233333082253,-193.3011683882176,1.4267939930923215,1.6964393696330051
1361,4.176525026152556,-192.57681329764335,1.4996834391926581,1.4714718037030894
1362,4.312441362800423,-191.76240319343455,1.4993429677978771,1.2459003822454495
1363,4.394009856198019,-190.85715418169238,1.4412528525017403,1.0051590656554323
1364,4.436392442836285,-189.8625816741956,1.356547929771352,0.7337093857648016
1365,4.445570292072205,-188.78708063153667,1.2775934814326557,0.4235866043833627
1366,4.407793062253618,-187.65072505331239,1.225860313452057,0.07459510823441405
1367,4.299587924649783,-186.48296848221167,1.2104987803060094,-0.3078122787039964
1368,4.109659457940937,-185.31569495856604,1.2330272556671649,-0.7130834252643001
1369,3.84600435964214,-184.1765740421656,1.2857736018596533,-1.1249367620848139
1370,3.524509621294989,-183.08387997404083,1.3434345077470777,-1.5227426945820097
1371,3.147138817631253,-182.04395307766686,1.3689298900717113,-1.8871049464392948
1372,2.6936510103455062,-181.05176485575566,1.334432237417331,-2.2071487198094157
1373,2.1447033421685244,-180.09230505002824,1.2231243884789562,-2.481985326780814
1374,1.5137794238339657,-179.14531227475723,1.0128473821918471,-2.7152749082932246
1375,0.8580734688458186,-178.1948656104581,0.6824588214210481,-2.9107821533469527
1376,0.2411541381693531,-177.2331406542197,0.238971335571917,-3.076001534999237
1377,-0.3084165582215248,-176.25738564907564,-0.2742854174969606,-3.2271998169709604
1378,-0.7966069299534804,-175.26905898139498,-0.7999212797408694,-3.3837930072431606
1379,-1.245228028096081,-174.27242363168168,-1.288721864057732,-3.5559228459925483
1380,-1.6665502824729397,-173.2726578808427,-1.7060634228986555,-3.743559713421313
1381,-2.062074121573813,-172.2720149237011,-2.0295455270441805,-3.9478776440135617
1382,-2.4483858211836784,-171.26355407786002,-2.236567931538635,-4.173187696736608
1383,-2.8591568159374283,-170.23009152124635,-2.3096893823502165,-4.415644073420737
1384,-3.3186122588100777,-169.1479960164663,-2.2660068575760355,-4.656121880731412
1385,-3.8171311085625925,-167.99420744424543,-2.157802168161388,-4.866950818831706
1386,-4.321537629020245,-166.75573494296174,-2.0419613732906643,-5.025326603564779
1387,-4.806897925984116,-165.43279867266844,-1.951891132196201,-5.121346481275604
1388,-5.267044881360039,-164.03402162142527,-1.8878338394904295,-5.157563155029676
1389,-5.696207158665377,-162.5718840226759,-1.8256115736347696,-5.14548841268673
1390,-6.069471110570223,-161.06082603292103,-1.7272104374112351,-5.101298398116629
1391,-6.369800600641301,-159.51721311329896,-1.5452708864256657,-5.044318096853282
1392,-6.626066603857243,-157.96100153069997,-1.2296510955508744,-4.999777898816408
1393,-6.894482787656149,-156.41093698452835,-0.7572733135896154,-4.990721083584688
1394,-7.204452850628071,-154.87290168778674,-0.1645628860932981,-5.022695049013057
1395,-7.5322206873723045,-153.3363243974545,0.4710396023003097,-5.08224705620504
1396,-7.835815438092358,-151.78253390665924,1.073847415900426,-5.148441662867161
1397,-8.103033913292528,-150.19858649039998,1.5878961589889349,-5.204426574072094
1398,-8.37168365408704,-148.64570378220543,1.94743580793702,-5.24516021754539
1399,-8.619727238096102,-147.0462394785638,2.2057560279479165,-5.259443873278052
1400,-8.814416542794362,-145.3920589006963,2.405268834983848,-5.247127575041725
1401,-8.94639578924419,-143.72097511197887,2.6028225063037143,-5.220870585126518
1402,-9.036582483506665,-142.09424966062136,2.862753246337994,-5.196151533636748
1403,-9.11076755779835,-140.57770074442845,3.2202610176009956,-5.182496109058313
1404,-9.171593018170181,-139.23112265066544,3.6679988531245202,-5.181844672405491
1405,-9.203719991165983,-138.10442702805133,4.167806219739318,-5.191875137830079
1406,-9.202547404995833,-137.23076975008,4.6669595384362,-5.209932271096243
1407,-9.18620581092222,-136.61809518353405,5.111476512509795,-5.233410111034294
1408,-0.286196073168115,0.3451918417968125,-0.48727672168917163,-0.26315508285568856
1409,-0.4141740930470402,0.7926974393369739,-1.1871090061806193,-0.4971291955463898
1410,-0.5596152274931172,1.4321693352369171,-2.1546195706529554,-0.816019439902292
1411,-0.6920162976453895,2.2642719934169784,-3.361467035010298,-1.2175670090587563
1412,-0.7726338375508088,3.2757952572961933,-4.7735135878469945,-1.6881053130254813
1413,-0.7846060754607446,4.435951028222835,-6.351459424065765,-2.2049527568748175
1414,-0.7403485405360177,5.69656371323878,-8.0394351702697,-2.739479215966749
1415,-0.6624397510224315,6.996218470573045,-9.760715625064488,-3.2622485939713513
1416,-0.5607744148237241,8.271640940149492,-11.431330354018934,-3.7486921326751492
1417,-0.4410740961454843,9.474291859369188,-12.9858459444952,-4.182985836551593
1418,-0.336992210065962,10.587552021713144,-14.40644768724945,-4.56737313430288
1419,-0.28554888775320586,11.590732574113781,-15.683152403281914,-4.898941854886585
1420,-0.30997589825422883,12.476429723230101,-16.818307911792655,-5.180380833877494
1421,-0.3969638773088211,13.251867455598203,-17.8017163262793,-5.419460633233666
1422,-0.5197043872822658,13.92976605208855,-18.618863718137906,-5.624469341687239
1423,-0.6694527717547093,14.517454931538705,-19.27527180620566,-5.803354381062404
1424,-0.8469854641412493,15.016031743567195,-19.789494102408497,-5.965657490558508
1425,-1.0400766096993583,15.423262505439158,-20.185948328762194,-6.118252847941537
1426,-1.215047758265933,15.735829567547786,-20.503695964318197,-6.2591572376604
1427,-1.350918766855817,15.949473074139007,-20.78944825678847,-6.383034636751962
1428,-1.4706261694563045,16.05372974595425,-21.07279409652276,-6.496738490453646
1429,-1.622248081268053,16.03295130426772,-21.351733754844,-6.622841376403657
1430,-1.8412828285958904,15.875514047707075,-21.605991877063847,-6.7879537772506735
1431,-2.127620852785993,15.576991178089974,-21.820214695319788,-7.009937900720525
1432,-2.4713863749699914,15.140827014965396,-21.992076186884876,-7.291977951142827
1433,-2.890901730243179,14.577706228060439,-22.128375277187672,-7.62330824684414
1434,-3.4224527566472602,13.90133934200114,-22.23532862770708,-7.985647861442607
1435,-4.074350960167163,13.127655980170186,-22.3098112382061,-8.360575022133292
1436,-4.804140527748192,12.276157663571112,-22.34703054433991,-8.727019176329783
1437,-5.555216764984907,11.370636077386237,-22.354679988610066,-9.05852947597684
1438,-6.30359376178035,10.437264496151313,-22.35443515035734,-9.332501413730766
1439,-7.052626450308172,9.503483813818251,-22.374713512281552,-9.54172621639003
1440,-7.786314567028973,8.597787291503476,-22.444386872249105,-9.693317644934966
1441,-8.453049590159479,7.7444130456568,-22.589610821433308,-9.797141181868895
1442,-8.999544636108343,6.956885733865093,-22.82086816543274,-9.863817168159937
1443,-9.405736595187545,6.235135783131352,-23.12330176583503,-9.91037412619611
1444,-9.687031960474336,5.566108910495018,-23.471137507163316,-9.955954998897086
1445,-9.85647717436174,4.928696827431523,-23.84362230978467,-10.00935248074764
1446,-9.901978116497334,4.29900332443201,-24.221996702434513,-10.064878335498769
1447,-9.808142351394912,3.65251629168143,-24.57609697618934,-10.112407190985714
1448,-9.582177448449347,2.968982175859784,-24.865452806000807,-10.147780098863217
1449,-9.257923071464356,2.236720588131731,-25.05677854535488,-10.171254044176038
1450,-8.857691884725854,1.451331589420151,-25.1321423949395,-10.178673551430357
1451,-8.366091997244963,0.6170806097025912,-25.085481190455358,-10.156036826732187
1452,-7.75677348787678,-0.25245405501638807,-24.923155566742594,-10.07706556162587
1453,-7.026447270472083,-1.1388821023199087,-24.663917473765398,-9.911569698715033
1454,-6.205835287793178,-2.0229060268557753,-24.330585472006355,-9.644904285062927
1455,-5.3297848071692115,-2.885620585332884,-23.94110974313666,-9.278487725781373
1456,-4.4134381522115325,-3.7068908570838626,-23.500877946226392,-8.813990697594178
1457,-3.464117847738606,-4.465371153927815,-23.00195990966063,-8.251807984966781
1458,-2.5006335689243695,-5.142974480722453,-22.43468837863634,-7.601341288155542
1459,-1.5637314476278592,-5.731575436927974,-21.79666330070107,-6.882945175729942
1460,-0.6916502154679269,-6.231606192565775,-21.090675564419634,-6.118871917871712
1461,0.11192842008173226,-6.6434013619227255,-20.31780956559671,-5.325838149649994
1462,0.8799503084485683,-6.965788673302337,-19.474339090708824,-4.513203378845987
1463,1.6447999014004164,-7.199461872346992,-18.555339093054467,-3.684716197833109
1464,2.4015100886338656,-7.347830669319031,-17.562419412544042,-2.8420674255057867
1465,3.1231118867426373,-7.41575228263064,-16.507331592928182,-1.9859289473796253
1466,3.798128544561021,-7.40831484232959,-15.40783083703561,-1.1184560898388998
1467,4.449714542562921,-7.329202988635063,-14.285007796140082,-0.24807216190054598
1468,5.103640710381273,-7.181164619420454,-13.160685376805693,0.6099391593673957
1469,5.75247318429422,-6.970372080691246,-12.050305588031364,1.4343612352635615
1470,6.371403329971843,-6.707806907849359,-10.959789778176635,2.2051530481466854
1471,6.950931441773327,-6.405099997863023,-9.889558656412996,2.918235759994146
1472,7.51670313313356,-6.067834754904251,-8.840487088154712,3.5869459198379308
1473,8.099106746061452,-5.693969791904882,-7.812948149026391,4.224197543544839
1474,8.694527999681693,-5.278551154714014,-6.794827747735331,4.83216126315067
1475,9.278385986570552,-4.816206330536508,-5.7590644460176215,5.410312021539669
1476,9.839043326768639,-4.301232272707404,-4.678750708435597,5.96124448361154
1477,10.38879281669541,-3.729431541079336,-3.534932811795223,6.489046917232794
1478,10.934576879853775,-3.101244532770122,-2.312279072207998,6.998578735893646
1479,11.458742365917054,-2.4206650817432016,-1.005169720527201,7.495232659874053
1480,11.940297555671071,-1.6923981825615173,0.3649963307193912,7.983638873535074
1481,12.383687153723246,-0.9245406061102439,1.753878404131533,8.46647429224349
1482,12.807526632745464,-0.13206762996085797,3.117346042992055,8.943383737755065
1483,13.203154353275938,0.6640101166678352,4.4224032005127585,9.411113015458817
1484,13.525605200697104,1.4392113745337747,5.644418334597606,9.865676202787728
1485,13.724429314143944,2.1669041955029407,6.761432473491644,10.301374192703737
