timestamps,TP9,AF7,AF8,TP10,Right AUX
1727576219.288,-46.387,-37.109,-48.340,-35.645,0.000
1727576219.292,-32.715,-41.504,-49.316,-49.316,0.000
1727576219.296,-9.277,-34.668,-51.758,-58.594,0.000
1727576219.300,-22.461,-41.504,-54.688,-56.641,0.000
1727576219.304,-58.105,-41.016,-41.016,-46.387,0.000
1727576219.308,-35.156,-29.297,-30.273,-2.930,0.000
1727576219.311,-5.371,-26.367,-37.109,-6.836,0.000
1727576219.315,-2.930,-18.066,-43.945,-32.227,0.000
1727576219.319,-31.738,-22.949,-41.504,-41.016,0.000
1727576219.323,-52.246,-47.852,-42.969,-52.246,0.000
1727576219.327,-33.203,-45.898,-37.109,-33.691,0.000
1727576219.331,-23.926,-30.273,-34.668,-25.879,0.000
1727576219.335,-5.859,-31.250,-40.527,-31.250,0.000
1727576219.339,-12.207,-36.621,-40.527,-46.875,0.000
1727576219.343,-50.293,-31.250,-35.156,-54.688,0.000
1727576219.347,-48.340,-24.414,-31.250,-32.227,0.000
1727576219.351,-37.109,-45.898,-38.086,-24.414,0.000
1727576219.355,-12.207,-61.523,-38.086,-28.809,0.000
1727576219.359,-13.672,-53.711,-28.809,-44.922,0.000
1727576219.363,-60.059,-45.898,-34.668,-63.477,0.000
1727576219.367,-51.270,-23.438,-36.133,-30.762,0.000
1727576219.371,-24.414,-17.578,-32.227,-10.742,0.000
1727576219.374,-15.625,-24.902,-39.062,-33.691,0.000
1727576219.378,-18.555,-33.691,-39.062,-42.969,0.000
1727576219.383,-58.105,-43.945,-40.039,-45.898,0.000
1727576219.387,-49.805,-36.621,-38.574,-18.066,0.000
1727576219.390,-27.832,-33.691,-32.227,-7.324,0.000
1727576219.394,-19.043,-46.875,-30.273,-23.438,0.000
1727576219.398,0.977,-47.852,-39.551,-28.320,0.000
1727576219.402,-33.691,-47.852,-45.898,-48.340,0.000
1727576219.406,-54.199,-26.367,-31.738,-35.645,0.000
1727576219.410,-31.250,-4.395,-23.926,-4.395,0.000
1727576219.414,-15.137,-26.367,-25.879,-11.719,0.000
1727576219.418,-7.812,-43.945,-30.273,-26.855,0.000
1727576219.422,-45.410,-41.504,-37.598,-42.480,0.000
1727576219.426,-58.594,-31.250,-40.527,-28.320,0.000
1727576219.430,-33.691,-37.598,-28.320,-1.953,0.000
1727576219.434,-21.973,-43.457,-26.367,-17.578,0.000
1727576219.438,-10.254,-42.969,-37.109,-41.016,0.000
1727576219.441,-44.922,-68.359,-42.969,-60.059,0.000
1727576219.445,-63.965,-60.547,-44.922,-48.340,0.000
1727576219.449,-40.039,-30.273,-37.598,-8.789,0.000
1727576219.453,-40.527,-26.367,-34.180,-23.438,0.000
1727576219.457,-31.250,-38.086,-35.645,-41.016,0.000
1727576219.461,-44.922,-68.848,-40.039,-44.922,0.000
1727576219.465,-64.941,-61.035,-27.832,-52.246,0.000
1727576219.469,-37.598,-33.691,-18.555,-25.391,0.000
1727576219.473,-23.438,-38.086,-30.762,-25.879,0.000
1727576219.477,-8.789,-41.016,-32.227,-34.180,0.000
1727576219.481,-31.250,-42.480,-26.367,-45.898,0.000
1727576219.485,-62.988,-49.805,-27.832,-47.363,0.000
1727576219.488,-37.109,-42.480,-34.180,-22.949,0.000
1727576219.492,-25.391,-32.715,-33.203,-27.344,0.000
1727576219.496,-12.695,-36.133,-32.227,-27.344,0.000
1727576219.500,-25.879,-43.457,-36.133,-34.668,0.000
1727576219.504,-62.012,-46.387,-34.668,-36.133,0.000
1727576219.508,-47.363,-56.152,-30.762,0.000,0.000
1727576219.512,-39.551,-49.805,-25.391,-9.766,0.000
1727576219.516,-17.578,-39.551,-24.902,-26.855,0.000
1727576219.520,-24.414,-43.945,-38.574,-44.434,0.000
1727576219.524,-71.777,-38.574,-40.039,-60.059,0.000
1727576219.527,-56.152,-24.414,-39.062,-24.414,0.000
1727576219.531,-31.250,-27.344,-42.969,-17.090,0.000
1727576219.535,-14.648,-33.203,-45.898,-24.414,0.000
1727576219.539,-20.020,-29.297,-48.340,-26.367,0.000
1727576219.543,-66.406,-37.598,-47.363,-52.734,0.000
1727576219.547,-46.387,-38.574,-42.969,-35.156,0.000
1727576219.551,-18.555,-41.504,-37.109,-6.836,0.000
1727576219.555,-11.719,-30.273,-33.203,-23.438,0.000
1727576219.559,-10.742,-22.461,-40.039,-40.039,0.000
1727576219.563,-46.387,-41.016,-41.504,-57.129,0.000
1727576219.566,-28.809,-31.250,-36.621,-38.086,0.000
1727576219.570,-14.160,-19.531,-36.133,-11.719,0.000
1727576219.574,-18.066,-24.902,-33.203,-18.555,0.000
1727576219.578,-6.836,-44.922,-41.504,-27.344,0.000
1727576219.582,-46.875,-65.918,-38.086,-46.387,0.000
1727576219.586,-52.246,-58.594,-27.344,-23.926,0.000
1727576219.590,-27.832,-50.293,-29.785,-6.348,0.000
1727576219.594,-15.625,-55.664,-33.691,-38.086,0.000
1727576219.597,-5.371,-74.219,-36.133,-42.969,0.000
1727576219.601,-49.316,-65.918,-36.133,-54.688,0.000
1727576219.605,-61.523,-43.457,-39.062,-41.016,0.000
1727576219.609,-38.086,-41.992,-39.062,-8.789,0.000
1727576219.613,-16.602,-35.156,-29.297,-19.531,0.000
1727576219.617,2.930,-23.926,-30.762,-39.062,0.000
1727576219.621,-27.832,-31.250,-41.504,-57.129,0.000
1727576219.624,-52.246,-35.645,-41.992,-48.340,0.000
1727576219.628,-34.180,-24.414,-36.133,-18.066,0.000
1727576219.632,-21.973,-23.438,-34.668,-29.297,0.000
1727576219.636,2.930,-37.598,-41.992,-37.598,0.000
1727576219.640,-14.648,-55.176,-42.969,-39.062,0.000
1727576219.644,-53.711,-50.293,-31.250,-31.250,0.000
1727576219.648,-42.480,-41.504,-34.180,-8.301,0.000
1727576219.652,-32.227,-30.762,-46.387,-21.973,0.000
1727576219.656,-14.648,-20.996,-50.781,-31.738,0.000
1727576219.660,-26.855,-27.344,-52.734,-36.133,0.000
1727576219.663,-57.129,-32.715,-45.410,-31.738,0.000
1727576219.667,-42.480,-38.574,-38.574,-6.836,0.000
1727576219.671,-29.297,-37.598,-38.574,-12.695,0.000
1727576219.675,1.465,-22.461,-41.504,-31.250,0.000
1727576219.679,-11.719,-31.250,-42.480,-43.457,0.000
1727576219.683,-58.105,-37.598,-32.715,-36.621,0.000
1727576219.686,-45.410,-24.414,-30.273,-6.348,0.000
1727576219.690,-29.785,-27.344,-33.203,0.977,0.000
1727576219.694,-6.348,-25.879,-27.344,-6.348,0.000
1727576219.698,-6.836,-32.227,-31.738,-22.949,0.000
1727576219.702,-52.734,-42.480,-23.438,-35.156,0.000
1727576219.706,-38.086,-31.738,-12.207,-7.324,0.000
1727576219.710,-11.719,-28.809,-23.438,-11.719,0.000
1727576219.714,-12.207,-33.691,-24.902,-27.832,0.000
1727576219.718,-19.531,-32.227,-24.902,-29.297,0.000
1727576219.722,-51.270,-44.922,-22.949,-39.062,0.000
1727576219.726,-41.504,-49.805,-18.555,-19.043,0.000
1727576219.730,-23.438,-51.758,-22.461,-7.324,0.000
1727576219.734,-13.184,-48.828,-24.414,-15.137,0.000
1727576219.738,-9.766,-41.504,-37.598,-34.180,0.000
1727576219.742,-45.898,-39.551,-46.875,-53.223,0.000
1727576219.746,-43.457,-30.273,-41.992,-27.832,0.000
1727576219.750,-24.902,-9.277,-38.086,-27.344,0.000
1727576219.753,-17.578,-6.348,-39.551,-39.551,0.000
1727576219.758,-3.906,-17.090,-45.410,-35.645,0.000
1727576219.762,-28.809,-27.832,-42.969,-52.734,0.000
1727576219.766,-49.316,-31.250,-38.086,-38.574,0.000
1727576219.769,-24.902,-27.344,-40.039,-21.973,0.000
1727576219.773,3.906,-26.855,-39.062,-27.832,0.000
1727576219.777,1.465,-30.273,-45.898,-30.273,0.000
1727576219.781,-37.109,-34.668,-55.176,-47.363,0.000
1727576219.785,-45.410,-27.832,-46.387,-35.156,0.000
1727576219.789,-21.484,-24.902,-39.551,-7.324,0.000
1727576219.793,-13.672,-24.414,-35.156,-10.254,0.000
1727576219.797,-12.207,-26.367,-30.762,-20.020,0.000
1727576219.801,-35.156,-32.227,-27.832,-29.785,0.000
1727576219.805,-50.293,-30.762,0.000,-24.902,0.000
1727576219.809,-27.832,-24.902,0.000,-9.766,0.000
1727576219.813,-17.090,-34.180,0.000,-35.156,0.000
1727576219.816,-8.301,-44.922,0.000,-47.363,0.000
1727576219.820,-37.109,-62.988,0.000,-56.641,0.000
1727576219.824,-76.660,-71.289,0.000,-63.965,0.000
1727576219.828,-63.965,-55.176,0.000,-52.734,0.000
1727576219.832,-33.691,-61.523,0.000,-58.594,0.000
1727576219.836,-3.906,-65.430,0.000,-45.898,0.000
1727576219.840,-34.180,-46.875,0.000,-50.293,0.000
1727576219.844,-76.172,-41.504,0.000,-57.617,0.000
1727576219.848,-48.340,-39.551,0.000,-21.973,0.000
1727576219.852,-25.391,-31.250,-50.781,-23.438,0.000
1727576219.856,-13.184,-29.785,-45.898,-46.387,0.000
1727576219.860,-31.250,-37.109,-50.293,-65.918,0.000
1727576219.863,-60.059,-41.992,-47.852,-62.500,0.000
1727576219.867,-41.016,-32.227,-39.551,-33.691,0.000
1727576219.871,-30.273,-26.367,-43.945,-30.273,0.000
1727576219.875,-16.602,-24.902,-41.992,-41.504,0.000
1727576219.879,-25.391,-36.133,-45.898,-43.945,0.000
1727576219.883,-57.617,-32.715,-51.270,-43.945,0.000
1727576219.887,-44.922,-11.719,-50.781,-23.438,0.000
1727576219.891,-33.203,-16.113,-44.434,-19.043,0.000
1727576219.895,-20.020,-20.508,-40.039,-29.297,0.000
1727576219.899,0.000,-19.531,-41.504,-41.992,0.000
1727576219.902,0.000,-30.273,-39.551,-53.223,0.000
1727576219.906,0.000,-34.668,-43.457,-31.250,0.000
1727576219.910,0.000,-45.898,-45.410,-24.902,0.000
1727576219.914,0.000,-58.594,-43.457,-32.715,0.000
1727576219.918,0.000,-57.129,-49.805,-40.039,0.000
1727576219.922,0.000,-59.082,-49.316,-56.641,0.000
1727576219.926,0.000,-53.711,-41.992,-34.668,0.000
1727576219.930,0.000,-33.203,-39.551,-26.367,0.000
1727576219.934,0.000,-32.227,-39.062,-42.969,0.000
1727576219.938,0.000,-42.969,-35.645,-57.129,0.000
1727576219.942,0.000,-46.875,-38.086,-67.871,0.000
1727576219.945,-54.688,-29.297,-38.086,-40.039,0.000
1727576219.949,-31.738,-22.461,-42.969,-21.973,0.000
1727576219.953,-21.484,-35.645,-47.852,-32.715,0.000
1727576219.957,-14.648,-35.645,-40.527,-25.391,0.000
1727576219.961,-49.316,-40.039,-31.250,-33.691,0.000
1727576219.965,-56.152,-42.480,-21.484,-29.297,0.000
1727576219.969,-23.926,-35.645,-21.484,-5.859,0.000
1727576219.972,-22.461,-38.574,-26.367,-17.578,0.000
1727576219.976,-21.973,-37.598,-31.738,-29.297,0.000
1727576219.980,-44.922,-54.199,-37.109,-45.898,0.000
1727576219.984,-61.035,-64.453,-36.133,-35.645,0.000
1727576219.988,-34.180,-34.180,-27.832,-6.836,0.000
1727576219.992,-20.996,-23.926,-30.273,-17.578,0.000
1727576219.995,-11.719,-40.039,-42.480,-36.621,0.000
1727576219.999,-31.738,-46.875,-51.270,-49.316,0.000
1727576220.003,-66.406,-29.297,-42.969,-32.227,0.000
1727576220.007,-39.062,-20.508,-37.598,-5.859,0.000
1727576220.011,-15.137,-34.180,-41.016,-17.090,0.000
1727576220.015,-5.859,-47.363,-43.945,-15.625,0.000
1727576220.019,-22.461,-50.781,-41.992,-27.832,0.000
1727576220.023,-57.129,-36.621,-46.875,-41.992,0.000
1727576220.027,-39.062,-30.273,-52.734,-24.414,0.000
1727576220.031,-21.484,-23.926,-50.293,-22.949,0.000
1727576220.035,-7.812,-16.602,-53.711,-33.691,0.000
1727576220.038,-19.043,-27.344,-61.035,-44.922,0.000
1727576220.042,-37.109,-35.156,-46.387,-31.250,0.000
1727576220.046,-20.508,-26.367,-27.832,2.441,0.000
1727576220.050,-19.531,-28.809,-33.203,-10.742,0.000
1727576220.054,-3.418,-36.621,-43.457,-23.438,0.000
1727576220.058,-0.488,-59.082,-45.898,-29.785,0.000
1727576220.061,-48.828,-69.336,-41.016,-38.086,0.000
1727576220.065,-45.898,-41.016,-29.785,-10.742,0.000
1727576220.069,-32.227,-36.621,-34.668,-9.277,0.000
1727576220.073,-30.273,-52.246,-39.551,-23.926,0.000
1727576220.077,-31.738,-51.270,-32.227,-37.598,0.000
1727576220.081,-62.988,-46.875,-31.738,-50.781,0.000
1727576220.085,-56.641,-43.457,-30.273,-28.809,0.000
1727576220.089,-34.180,-48.828,-39.551,-20.020,0.000
1727576220.093,-15.625,-52.734,-44.434,-35.645,0.000
1727576220.097,-19.531,-62.500,-41.992,-52.734,0.000
1727576220.101,-52.246,-57.129,-46.875,-61.523,0.000
1727576220.105,-41.504,-35.645,-42.480,-29.297,0.000
1727576220.109,-26.367,-29.297,-33.691,-15.625,0.000
1727576220.113,-16.113,-18.555,-35.156,-37.598,0.000
1727576220.117,-2.930,-25.879,-47.363,-53.223,0.000
1727576220.121,-47.852,-55.176,-54.199,-51.270,0.000
1727576220.124,-60.547,-30.762,-45.898,-36.133,0.000
1727576220.128,-32.227,-9.766,-45.898,-21.484,0.000
1727576220.133,-20.996,-23.926,-50.781,-27.832,0.000
1727576220.137,-12.207,-25.391,-49.316,-35.156,0.000
1727576220.140,-43.457,-12.695,-54.688,-48.340,0.000
1727576220.144,-57.129,-5.859,-50.781,-30.762,0.000
1727576220.148,-29.785,-10.254,-46.875,-9.766,0.000
1727576220.152,-9.277,-28.320,-50.293,-21.484,0.000
1727576220.156,-2.441,-35.156,-43.945,-33.691,0.000
1727576220.160,-31.738,-26.367,-40.039,-50.293,0.000
1727576220.164,-59.082,-31.250,-37.109,-36.621,0.000
1727576220.168,-44.922,-29.297,-35.156,-10.254,0.000
1727576220.172,-23.438,-23.438,-33.691,-18.066,0.000
1727576220.176,-4.395,-40.039,-34.180,-35.645,0.000
1727576220.180,-33.691,-54.199,-41.504,-56.152,0.000
1727576220.184,-63.965,-41.992,-37.598,-42.969,0.000
1727576220.188,-37.598,-30.273,-27.832,-8.789,0.000
1727576220.191,-24.414,-35.156,-28.809,-24.414,0.000
1727576220.195,-13.184,-41.992,-35.645,-38.574,0.000
1727576220.199,-30.762,-49.316,-42.480,-52.246,0.000
1727576220.203,-57.617,-40.039,-38.086,-54.199,0.000
1727576220.207,-40.039,-35.156,-36.133,-31.250,0.000
1727576220.211,-29.297,-57.617,-44.434,-34.668,0.000
1727576220.215,2.441,-48.340,-40.527,-38.574,0.000
1727576220.219,-10.742,-54.199,-40.527,-50.293,0.000
1727576220.223,-67.871,-69.336,-50.781,-62.988,0.000
1727576220.227,0.000,-50.293,-51.270,-34.180,0.000
1727576220.231,0.000,-39.062,-43.945,-28.320,0.000
1727576220.235,0.000,-39.551,-42.969,-43.457,0.000
1727576220.238,0.000,-35.156,-42.480,-49.805,0.000
1727576220.242,0.000,-27.344,-36.621,-39.551,0.000
1727576220.246,0.000,-28.809,-36.621,-12.695,0.000
1727576220.250,0.000,-28.809,-48.828,-26.855,0.000
1727576220.254,0.000,-38.086,-55.664,-41.016,0.000
1727576220.258,0.000,-46.875,-54.688,-48.340,0.000
1727576220.262,0.000,-33.691,-54.199,-58.105,0.000
1727576220.266,0.000,-20.508,-46.875,-18.066,0.000
1727576220.270,0.000,-20.996,-41.992,-0.977,0.000
1727576220.273,-16.113,-30.273,-43.457,-16.113,0.000
1727576220.277,-18.066,-36.133,-42.480,-42.969,0.000
1727576220.281,-39.551,-35.645,-43.457,-62.500,0.000
1727576220.285,-47.363,-28.320,-47.363,-35.645,0.000
1727576220.289,-41.992,-23.438,-49.316,-28.809,0.000
1727576220.293,-28.320,-32.715,-45.410,-49.316,0.000
1727576220.297,-22.949,-41.016,-38.574,-56.152,0.000
1727576220.301,-55.664,-43.457,-39.062,-59.570,0.000
1727576220.305,-57.129,-34.668,-34.180,-41.992,0.000
1727576220.309,-34.668,-27.344,-31.738,-35.156,0.000
1727576220.313,-25.879,-30.273,-32.715,-48.828,0.000
1727576220.316,-22.461,-41.992,-35.156,-47.363,0.000
1727576220.320,-52.246,-40.039,-38.574,-62.500,0.000
1727576220.324,-58.594,-24.902,-31.250,-43.945,0.000
1727576220.328,-34.180,-24.902,-31.250,-8.789,0.000
1727576220.332,-15.625,-23.926,-38.086,-18.555,0.000
1727576220.336,-18.555,-21.973,-38.086,-30.273,0.000
1727576220.340,-51.270,-35.645,-43.945,-43.945,0.000
1727576220.344,-52.246,-44.434,-43.945,-20.508,0.000
1727576220.347,-33.203,-37.598,-29.785,15.137,0.000
1727576220.351,-29.785,-36.621,-31.738,-12.695,0.000
1727576220.355,-19.043,-43.945,-46.387,-40.527,0.000
1727576220.359,-46.387,-59.570,-56.641,-53.711,0.000
1727576220.363,-62.500,-51.758,-51.270,-34.180,0.000
1727576220.367,-35.156,-42.969,-49.805,-11.230,0.000
1727576220.371,-36.133,-41.992,-53.223,-31.250,0.000
1727576220.374,-27.344,-16.602,-54.199,-45.898,0.000
1727576220.378,-35.645,-2.930,-55.176,-45.410,0.000
1727576220.382,-54.199,-10.742,-53.223,-29.785,0.000
1727576220.386,-29.785,-22.461,-46.875,-13.184,0.000
1727576220.390,-7.812,-37.598,-53.223,-27.832,0.000
1727576220.394,6.836,-24.414,-63.477,-44.922,0.000
1727576220.398,-15.625,-37.109,-66.895,-61.523,0.000
1727576220.402,-63.477,-62.500,-59.082,-66.895,0.000
1727576220.406,-34.668,-37.109,-39.551,-20.508,0.000
1727576220.410,3.418,-46.875,-29.297,-0.488,0.000
1727576220.413,2.930,-73.242,-44.922,-23.438,0.000
1727576220.417,-11.719,-48.828,-44.922,-37.598,0.000
1727576220.421,-38.574,-39.062,-20.020,-30.273,0.000
1727576220.425,-21.484,-27.344,-6.836,2.441,0.000
1727576220.429,-16.113,-9.766,-32.715,-5.859,0.000
1727576220.433,-21.484,-30.273,-42.969,-41.016,0.000
1727576220.436,-16.113,-30.273,-11.230,-39.551,0.000
1727576220.440,-54.199,-52.734,-13.184,-48.828,0.000
1727576220.444,-63.965,-129.395,-41.016,-41.992,0.000
1727576220.448,11.719,-127.441,-29.785,20.996,0.000
1727576220.452,45.898,-55.176,-56.152,46.387,0.000
1727576220.456,25.879,-42.969,-81.055,21.484,0.000
1727576220.461,14.160,-185.547,-60.547,17.578,0.000
1727576220.464,148.926,-302.734,-52.246,185.547,0.000
1727576220.468,189.941,-36.133,41.992,224.609,0.000
1727576220.472,-53.711,111.328,14.648,-51.758,0.000
1727576220.476,7.324,-155.273,-83.496,-18.066,0.000
1727576220.480,170.898,-266.113,8.301,170.898,0.000
1727576220.484,61.523,-215.332,35.645,102.051,0.000
1727576220.488,154.785,-132.812,-69.824,193.848,0.000
1727576220.492,107.422,-93.262,-46.875,136.230,0.000
1727576220.496,26.367,-55.176,-186.523,8.789,0.000
1727576220.500,85.449,-16.113,-300.293,60.547,0.000
1727576220.503,-150.391,83.984,33.691,-120.117,0.000
1727576220.508,-258.301,-9.277,138.672,-283.203,0.000
1727576220.512,-28.809,-117.676,32.715,-84.473,0.000
1727576220.516,10.254,132.812,65.918,20.020,0.000
1727576220.519,-68.359,439.453,88.379,-62.012,0.000
1727576220.523,-75.684,582.031,27.832,-55.176,0.000
1727576220.527,-57.129,686.035,17.578,-16.602,0.000
1727576220.531,-58.594,758.789,107.422,-53.223,0.000
1727576220.535,-50.293,809.082,157.227,-64.941,0.000
1727576220.539,-19.531,903.320,228.027,-10.742,0.000
1727576220.543,0.977,957.520,381.836,43.457,0.000
1727576220.547,50.293,967.285,502.441,86.914,0.000
1727576220.551,93.750,965.332,567.871,102.539,0.000
1727576220.556,116.211,966.797,620.117,111.816,0.000
1727576220.560,99.121,966.797,675.293,105.957,0.000
1727576220.564,75.195,966.797,735.840,115.723,0.000
1727576220.568,100.098,966.797,787.109,154.785,0.000
1727576220.572,118.652,966.797,841.309,154.785,0.000
1727576220.575,134.766,966.797,906.738,150.879,0.000
1727576220.579,114.258,966.797,956.543,148.926,0.000
1727576220.583,83.496,966.797,965.820,149.414,0.000
1727576220.587,107.910,966.797,966.797,186.035,0.000
1727576220.591,121.094,966.797,963.379,186.523,0.000
1727576220.595,131.836,967.285,969.727,170.410,0.000
1727576220.599,113.281,966.797,954.590,151.367,0.000
1727576220.603,77.637,964.844,871.582,118.164,0.000
1727576220.607,81.543,968.262,802.734,123.535,0.000
1727576220.611,93.750,931.641,743.164,120.117,0.000
1727576220.614,106.934,845.703,677.246,100.098,0.000
1727576220.618,81.543,778.809,606.934,74.219,0.000
1727576220.622,29.297,730.957,546.387,40.039,0.000
1727576220.626,33.203,671.875,498.047,55.176,0.000
1727576220.630,30.762,589.355,421.875,52.246,0.000
1727576220.634,27.832,523.926,353.516,7.324,0.000
1727576220.638,19.043,469.727,279.785,-24.414,0.000
1727576220.642,-41.504,391.113,200.195,-49.805,0.000
1727576220.646,-45.410,302.246,162.109,-40.039,0.000
1727576220.649,-39.062,232.422,117.188,-32.227,0.000
1727576220.653,-42.969,167.480,38.574,-52.246,0.000
1727576220.657,-50.781,46.387,-22.461,-82.520,0.000
1727576220.661,-96.680,-88.379,-73.242,-108.398,0.000
1727576220.665,-89.844,-165.527,-121.582,-89.844,0.000
1727576220.669,-65.430,-241.211,-157.227,-79.102,0.000
1727576220.673,-69.336,-315.430,-176.270,-105.957,0.000
1727576220.677,-65.918,-379.395,-193.848,-111.816,0.000
1727576220.681,-98.633,-432.129,-224.121,-112.793,0.000
1727576220.685,-117.188,-463.867,-241.699,-97.656,0.000
1727576220.688,-104.980,-487.305,-250.488,-85.938,0.000
1727576220.692,-100.098,-501.465,-252.930,-113.770,0.000
1727576220.696,-85.938,-530.273,-242.188,-135.742,0.000
1727576220.700,-124.512,-563.965,-250.488,-144.531,0.000
1727576220.704,-145.508,-575.195,-266.113,-124.023,0.000
1727576220.708,-119.141,-573.242,-272.461,-97.656,0.000
1727576220.712,-104.004,-580.078,-273.438,-108.398,0.000
1727576220.715,-80.078,-571.289,-284.668,-117.676,0.000
1727576220.719,-97.168,-569.824,-310.547,-132.812,0.000
1727576220.723,-126.465,-572.266,-310.059,-135.742,0.000
1727576220.727,-114.258,-551.758,-304.199,-118.164,0.000
1727576220.731,-93.262,-563.477,-302.246,-131.348,0.000
1727576220.735,-86.426,-585.938,-291.504,-132.324,0.000
1727576220.739,-113.770,-565.430,-295.898,-134.766,0.000
1727576220.742,-132.812,-541.992,-294.434,-128.906,0.000
1727576220.746,-103.027,-541.016,-284.180,-94.727,0.000
1727576220.750,-81.543,-534.180,-278.809,-96.680,0.000
1727576220.754,-65.918,-500.000,-263.184,-104.980,0.000
1727576220.758,-95.215,-504.395,-272.949,-117.188,0.000
1727576220.762,-138.184,-509.766,-287.598,-127.930,0.000
1727576220.766,-106.934,-493.164,-271.973,-100.098,0.000
1727576220.770,-89.844,-481.445,-259.277,-99.609,0.000
1727576220.774,-89.844,-476.074,-253.418,-105.469,0.000
1727576220.778,-88.867,-486.816,-259.277,-105.469,0.000
1727576220.781,-103.516,-477.539,-253.906,-104.980,0.000
1727576220.785,-101.074,-470.703,-238.281,-73.730,0.000
1727576220.789,-88.379,-482.910,-245.117,-82.031,0.000
1727576220.793,-54.688,-474.609,-258.301,-90.820,0.000
1727576220.797,-77.148,-461.914,-264.160,-105.469,0.000
1727576220.800,-116.699,-446.777,-264.160,-125.977,0.000
1727576220.804,-91.309,-424.805,-252.930,-96.680,0.000
1727576220.808,-76.172,-426.270,-244.141,-87.891,0.000
1727576220.812,-58.594,-408.691,-242.188,-95.703,0.000
1727576220.816,-61.523,-397.949,-233.887,-103.027,0.000
1727576220.820,-97.168,-427.246,-218.262,-108.887,0.000
1727576220.824,-84.961,-431.152,-205.566,-71.289,0.000
1727576220.828,-70.312,-428.223,-198.242,-65.430,0.000
1727576220.832,-63.965,-427.734,-183.594,-84.961,0.000
1727576220.836,-60.547,-416.504,0.000,-89.355,0.000
1727576220.840,-90.332,-392.578,0.000,-92.285,0.000
1727576220.844,-76.172,-354.492,0.000,-46.387,0.000
1727576220.848,-56.152,-316.895,0.000,-31.250,0.000
1727576220.852,-60.547,-295.410,0.000,-62.500,0.000
1727576220.856,-36.133,-295.898,0.000,-72.754,0.000
1727576220.860,-72.266,-294.922,0.000,-94.727,0.000
1727576220.864,-93.262,-286.133,0.000,-77.148,0.000
1727576220.867,-58.594,-284.668,0.000,-55.664,0.000
1727576220.871,-47.363,-275.879,0.000,-69.824,0.000
1727576220.875,-35.156,-258.789,0.000,-75.684,0.000
1727576220.879,-49.805,-249.023,0.000,-82.031,0.000
1727576220.883,-64.941,-245.117,-166.504,-61.523,0.000
1727576220.887,-56.152,-247.070,-169.434,-31.738,0.000
1727576220.891,-41.992,-229.004,-163.574,-44.434,0.000
1727576220.895,-27.832,-210.449,-161.621,-59.082,0.000
1727576220.899,-53.711,-210.449,-152.344,-74.219,0.000
1727576220.903,-66.406,-199.707,-145.020,-58.594,0.000
1727576220.907,-48.828,-172.852,-125.488,-30.273,0.000
1727576220.911,-33.691,-146.484,-106.934,-39.551,0.000
1727576220.915,-5.859,-142.578,-103.516,-45.898,0.000
1727576220.918,-41.992,-172.852,-113.281,-66.406,0.000
1727576220.922,-71.777,-180.664,-111.328,-70.312,0.000
1727576220.926,-44.434,-177.734,-113.281,-39.062,0.000
1727576220.930,-35.645,-178.711,-119.141,-45.898,0.000
1727576220.934,-15.625,-155.273,-106.445,-58.105,0.000
1727576220.938,-45.898,-144.043,-105.957,-72.266,0.000
1727576220.942,-80.566,-132.812,-105.469,-59.082,0.000
1727576220.946,-53.711,-117.188,-98.633,-20.508,0.000
1727576220.950,-32.227,-114.258,-101.074,-15.625,0.000
1727576220.954,-8.789,-111.328,-96.680,-20.508,0.000
1727576220.958,-21.973,-125.000,-91.797,-50.293,0.000
1727576220.962,-54.199,-145.020,-88.379,-53.711,0.000
1727576220.966,-46.875,-133.789,-82.031,-25.879,0.000
1727576220.969,-27.832,-139.648,-83.008,-29.785,0.000
1727576220.973,-6.836,-148.926,-83.008,-37.109,0.000
1727576220.977,-30.273,-159.180,-86.914,-52.734,0.000
1727576220.981,-75.195,-171.387,-84.473,-53.711,0.000
1727576220.985,-46.387,-171.387,-83.008,-22.461,0.000
1727576220.989,-15.625,-171.387,-78.613,-12.207,0.000
1727576220.993,-4.395,-156.738,-76.660,-25.879,0.000
1727576220.997,-15.625,-166.992,-85.938,-50.293,0.000
1727576221.001,-60.059,-173.340,-81.055,-66.406,0.000
1727576221.005,-56.152,-153.320,-71.289,-30.762,0.000
1727576221.008,-49.805,-158.203,-76.172,-27.832,0.000
1727576221.012,-33.691,-157.715,-69.336,-50.781,0.000
1727576221.016,-12.695,-162.109,-62.012,-44.434,0.000
1727576221.020,-40.039,-162.109,-59.570,-37.109,0.000
1727576221.024,-35.645,-129.883,-49.316,-6.836,0.000
1727576221.028,-21.973,-94.727,-53.223,-7.324,0.000
1727576221.032,-22.949,-83.496,-65.430,-34.180,0.000
1727576221.036,-37.109,-101.074,-78.125,-48.828,0.000
1727576221.040,-64.453,-108.887,-76.172,-54.688,0.000
1727576221.043,-36.621,-95.215,-67.871,-30.273,0.000
1727576221.047,-16.113,-101.074,-65.918,-14.648,0.000
1727576221.051,-18.555,-124.512,-68.359,-20.020,0.000
1727576221.055,-16.113,-110.840,-73.730,-28.809,0.000
1727576221.059,-50.781,-102.051,-80.078,-51.758,0.000
1727576221.063,-64.453,-98.145,-74.219,-41.016,0.000
1727576221.067,-37.598,-80.078,-66.406,-19.043,0.000
1727576221.072,-29.785,-76.660,-64.941,-17.090,0.000
1727576221.076,-19.531,-79.102,-59.082,-18.066,0.000
1727576221.079,-39.062,-80.078,-60.059,-38.574,0.000
1727576221.083,-46.387,-78.613,-62.012,-28.320,0.000
1727576221.087,-17.578,-78.613,-59.082,-1.465,0.000
1727576221.091,-18.066,-86.914,-64.941,-13.672,0.000
1727576221.095,-2.441,-105.469,-69.824,-25.391,0.000
1727576221.099,-19.531,-108.887,-60.059,-25.391,0.000
1727576221.103,-62.012,-68.359,-54.199,-19.531,0.000
1727576221.107,-48.340,-48.340,-57.617,-21.484,0.000
1727576221.111,-27.344,-62.500,-59.570,-37.109,0.000
1727576221.115,-8.789,-69.824,-55.176,-20.996,0.000
1727576221.118,-32.227,-65.918,-62.988,-30.273,0.000
1727576221.122,-61.523,-68.359,-66.895,-43.945,0.000
1727576221.126,-34.668,-66.406,-62.988,-24.902,0.000
1727576221.130,-19.531,-40.039,-63.477,-30.762,0.000
1727576221.134,-7.324,-25.879,-62.500,-31.250,0.000
1727576221.137,-21.973,-49.316,-61.523,-38.086,0.000
1727576221.141,-47.852,-58.594,-62.012,-50.293,0.000
1727576221.145,-31.738,-30.273,-51.758,-22.461,0.000
1727576221.149,-22.461,-36.133,-46.875,-23.438,0.000
1727576221.153,0.488,-52.734,-44.434,-26.367,0.000
1727576221.157,-6.348,-59.570,-45.410,-18.555,0.000
1727576221.161,-52.246,-41.504,-49.316,-32.227,0.000
1727576221.164,-49.805,-13.184,-40.527,-9.766,0.000
1727576221.168,-34.180,-21.484,-42.969,-4.883,0.000
1727576221.172,-9.277,-38.086,-45.898,-28.809,0.000
1727576221.176,-15.137,-47.852,-39.551,-40.039,0.000
1727576221.180,-54.688,-59.082,-37.598,-40.527,0.000
1727576221.184,-44.922,-58.594,-37.109,-12.207,0.000
1727576221.188,-22.461,-41.016,-34.668,0.977,0.000
1727576221.192,-18.066,-35.156,-47.852,-27.832,0.000
1727576221.195,-18.555,-52.246,-53.223,-50.781,0.000
1727576221.199,-42.480,-63.477,-45.410,-60.059,0.000
1727576221.203,-38.086,-49.316,-40.527,-24.414,0.000
1727576221.207,-27.344,-53.223,-32.227,1.465,0.000
1727576221.212,-18.555,-42.969,0.000,-17.090,0.000
1727576221.215,-19.043,-32.227,0.000,-32.715,0.000
1727576221.219,-59.082,-29.785,0.000,-41.504,0.000
1727576221.223,-61.035,-25.391,0.000,-14.648,0.000
1727576221.227,-33.691,-31.738,0.000,1.953,0.000
1727576221.231,-23.438,-35.645,0.000,-21.484,0.000
1727576221.235,-9.277,-33.691,0.000,-37.598,0.000
1727576221.239,-28.809,-46.387,0.000,-55.664,0.000
1727576221.243,-47.852,-55.664,0.000,-38.574,0.000
1727576221.247,-32.227,-60.547,0.000,-13.672,0.000
1727576221.251,-22.461,-47.363,0.000,-27.832,0.000
1727576221.255,-8.301,-53.711,0.000,-39.551,0.000
1727576221.259,-20.508,-73.242,-46.387,-49.805,0.000
1727576221.263,-41.992,-49.316,-36.133,-35.156,0.000
1727576221.266,-44.434,-30.762,-34.180,-12.695,0.000
1727576221.270,-30.273,-44.922,-44.922,-23.926,0.000
1727576221.274,-19.043,-68.359,-44.434,-27.832,0.000
1727576221.278,-43.457,-97.656,-40.527,-42.969,0.000
1727576221.282,-45.898,-97.168,-39.062,-39.062,0.000
1727576221.286,-32.227,-71.289,-28.320,-0.977,0.000
1727576221.290,-33.203,-77.637,-33.203,-14.648,0.000
1727576221.294,-18.555,-87.402,-40.527,-35.156,0.000
1727576221.298,-41.504,-78.125,-42.969,-49.316,0.000
1727576221.302,-67.383,-79.590,-43.457,-49.805,0.000
1727576221.306,-47.363,-84.961,-43.457,-11.719,0.000
1727576221.310,-29.785,-75.684,-41.016,-4.883,0.000
1727576221.314,-12.207,-63.965,-39.551,-20.996,0.000
1727576221.317,-27.832,-69.824,-47.363,-28.320,0.000
1727576221.321,-47.363,-78.613,-32.227,-22.949,0.000
1727576221.325,-25.879,-51.758,-32.227,-9.766,0.000
1727576221.329,-34.180,-20.020,-52.734,-26.367,0.000
1727576221.333,-30.273,1.465,-44.922,-51.270,0.000
1727576221.337,-28.320,-11.230,-34.668,-64.453,0.000
1727576221.341,-64.941,-22.949,-33.691,-69.336,0.000
1727576221.345,-55.664,7.324,-23.438,-36.621,0.000
1727576221.349,-31.250,12.695,-19.043,-17.090,0.000
1727576221.353,0.000,-9.277,-23.926,-29.785,0.000
1727576221.356,0.000,-16.113,-29.785,-43.457,0.000
1727576221.360,0.000,1.465,-32.715,-45.410,0.000
1727576221.364,0.000,14.648,-30.762,-16.113,0.000
1727576221.368,0.000,0.488,-26.367,-19.531,0.000
1727576221.372,0.000,-6.348,-28.320,-41.016,0.000
1727576221.376,0.000,7.812,-36.621,-51.758,0.000
1727576221.380,0.000,5.371,-40.039,-64.453,0.000
1727576221.384,0.000,10.742,-34.668,-35.645,0.000
1727576221.388,0.000,14.648,-27.344,-18.555,0.000
1727576221.392,0.000,-5.371,-30.762,-30.762,0.000
1727576221.396,0.000,-27.832,-38.086,-40.527,0.000
1727576221.396,-6.348,-33.203,-36.621,-55.176,0.000
1727576221.400,-17.090,-15.137,-27.344,-23.926,0.000
1727576221.404,-57.129,-17.090,-29.785,13.184,0.000
1727576221.408,-40.527,-42.969,-41.016,-9.766,0.000
1727576221.412,-30.762,-47.363,-49.805,-50.781,0.000
1727576221.416,-15.625,-45.410,-49.316,-63.965,0.000
1727576221.419,-13.184,-35.645,-33.691,-42.480,0.000
1727576221.423,-51.758,-28.809,-32.227,-19.531,0.000
1727576221.427,-51.270,-27.832,-36.621,-31.738,0.000
1727576221.431,-19.531,-36.621,-32.227,-40.039,0.000
1727576221.435,-8.301,-48.828,-36.133,-48.828,0.000
1727576221.439,-12.207,-45.898,-31.738,-36.133,0.000
1727576221.443,-10.742,-36.621,-25.879,-5.371,0.000
1727576221.447,-27.832,-44.434,-49.805,-22.461,0.000
1727576221.451,-19.531,-40.039,-50.293,-34.668,0.000
1727576221.455,-41.016,-45.898,-34.180,-37.598,0.000
1727576221.458,-55.176,-49.805,-27.832,-23.438,0.000
1727576221.462,-34.180,-48.828,-31.250,-4.395,0.000
1727576221.466,-33.691,-51.758,-34.180,-19.531,0.000
1727576221.470,-16.113,-50.781,-29.297,-29.785,0.000
1727576221.474,-36.621,-57.129,-35.645,-46.875,0.000
1727576221.478,-66.406,-50.293,-44.922,-56.152,0.000
1727576221.482,-50.781,-53.223,-41.504,-36.133,0.000
1727576221.486,-42.969,-55.176,-38.574,-28.809,0.000
1727576221.489,-20.508,-58.105,-47.363,-35.645,0.000
1727576221.493,-24.902,-84.473,-62.988,-57.129,0.000
1727576221.497,-59.082,-88.867,-55.664,-62.500,0.000
1727576221.501,-50.781,-72.266,-37.109,-28.809,0.000
1727576221.505,-44.434,-66.406,-33.203,-26.367,0.000
1727576221.509,-26.855,-65.918,-37.598,-41.504,0.000
1727576221.513,-23.438,-78.613,-46.387,-55.664,0.000
1727576221.517,-63.477,-63.965,-46.875,-64.941,0.000
1727576221.521,-65.918,-51.758,-47.363,-39.551,0.000
1727576221.525,-45.898,-66.895,-48.340,-34.180,0.000
1727576221.529,-26.367,-62.988,-51.758,-51.270,0.000
1727576221.532,-21.973,-61.035,-48.340,-53.223,0.000
1727576221.536,-46.875,-59.082,-40.527,-43.457,0.000
1727576221.540,-43.457,-49.316,-42.480,-22.949,0.000
1727576221.544,-29.297,-48.340,-39.551,-18.066,0.000
1727576221.548,-18.555,-40.039,-29.297,-21.484,0.000
1727576221.552,-22.949,-50.781,-32.227,-38.086,0.000
1727576221.556,-53.223,-75.195,-39.062,-47.852,0.000
1727576221.559,-49.805,-55.664,-34.668,-23.926,0.000
1727576221.563,-39.551,-35.156,-36.621,-26.367,0.000
1727576221.567,-29.297,-35.645,-40.527,-38.086,0.000
1727576221.571,-26.367,-50.781,-41.016,-41.504,0.000
1727576221.575,-61.035,-62.500,-40.039,-57.129,0.000
1727576221.579,-57.129,-58.594,-37.109,-29.785,0.000
1727576221.584,-19.043,-46.387,-34.180,-5.859,0.000
1727576221.587,-8.789,-44.922,-37.598,-23.438,0.000
1727576221.591,-17.090,-47.852,-46.875,-48.340,0.000
1727576221.595,-41.504,-55.664,-38.574,-65.430,0.000
1727576221.599,-56.152,-49.805,-27.832,-38.574,0.000
1727576221.603,-35.645,-40.527,-30.762,-20.508,0.000
1727576221.607,-15.625,-43.457,-28.809,-30.762,0.000
1727576221.611,-6.348,-39.062,-29.785,-36.133,0.000
1727576221.615,-39.062,-53.223,-45.410,-48.340,0.000
1727576221.619,-33.691,-66.406,-47.852,-19.531,0.000
1727576221.623,-25.879,-52.734,-34.180,0.488,0.000
1727576221.626,-39.062,-58.594,-35.156,-28.320,0.000
1727576221.631,-21.484,-70.801,-40.527,-48.340,0.000
1727576221.635,-41.504,-70.312,-37.598,-57.129,0.000
1727576221.639,-56.641,-64.941,-37.598,-44.922,0.000
1727576221.643,-31.738,-53.223,-39.062,-15.625,0.000
1727576221.647,-17.578,-58.105,-48.340,-15.137,0.000
1727576221.650,0.488,-64.941,-47.852,-27.344,0.000
1727576221.654,-32.227,-65.430,-49.805,-38.086,0.000
1727576221.658,-58.594,-69.824,-58.594,-26.367,0.000
1727576221.662,-22.461,-81.055,-43.945,-7.324,0.000
1727576221.666,-19.531,-66.406,-41.992,-29.297,0.000
1727576221.670,-19.043,-42.480,-48.340,-54.199,0.000
1727576221.674,-31.250,-64.941,-52.246,-53.223,0.000
1727576221.678,-46.875,-68.848,-44.922,-32.715,0.000
1727576221.682,-27.344,-46.387,-31.738,0.977,0.000
1727576221.686,-15.625,-62.012,-34.668,-1.465,0.000
1727576221.690,2.930,-71.289,-33.203,-8.301,0.000
1727576221.694,-5.859,-59.082,-37.598,-13.672,0.000
1727576221.698,-43.457,-47.363,-42.480,-17.578,0.000
1727576221.702,-39.551,-39.551,-40.039,1.953,0.000
1727576221.706,-27.344,-34.180,-44.922,-9.766,0.000
1727576221.709,-10.254,-47.363,-49.805,-22.949,0.000
1727576221.713,-8.789,-44.434,-44.434,-25.879,0.000
1727576221.717,-32.715,-47.852,-41.016,-42.480,0.000
1727576221.721,-36.133,-49.316,-38.086,-24.902,0.000
1727576221.725,-26.367,-39.551,-35.645,-21.973,0.000
1727576221.729,-18.066,-38.086,-39.551,-38.574,0.000
1727576221.733,-30.762,-50.781,-47.852,-43.457,0.000
1727576221.737,-63.477,-61.035,-50.781,-47.852,0.000
1727576221.741,-48.828,-48.340,-38.086,-15.137,0.000
1727576221.745,-26.367,-40.039,-36.621,-16.113,0.000
1727576221.749,-12.695,-28.809,-43.457,-46.387,0.000
1727576221.753,-10.742,-36.621,-34.668,-49.316,0.000
1727576221.756,-52.734,-47.852,-36.621,-60.059,0.000
1727576221.760,-55.664,-23.438,-38.086,-48.340,0.000
1727576221.764,-34.180,-27.832,-37.109,-31.738,0.000
1727576221.768,-36.621,-37.598,-41.504,-41.992,0.000
1727576221.772,0.000,-21.484,-39.551,-53.223,0.000
1727576221.776,0.000,-14.648,-37.598,-66.895,0.000
1727576221.780,0.000,-3.906,-34.668,-43.457,0.000
1727576221.784,0.000,-8.301,-40.527,-21.484,0.000
1727576221.788,0.000,-25.391,-48.828,-42.969,0.000
1727576221.792,0.000,-29.297,-47.852,-47.363,0.000
1727576221.796,0.000,-32.227,-48.828,-52.246,0.000
1727576221.799,0.000,-42.480,-44.434,-31.738,0.000
1727576221.803,0.000,-33.203,-31.250,-4.395,0.000
1727576221.807,0.000,-20.508,-27.832,-17.578,0.000
1727576221.811,0.000,-25.391,-30.273,-21.484,0.000
1727576221.815,0.000,-23.926,-40.039,-35.156,0.000
1727576221.819,-68.848,-0.977,-41.504,-35.156,0.000
1727576221.823,-44.922,-7.324,-43.945,-20.508,0.000
1727576221.827,-24.414,-28.809,-51.758,-36.621,0.000
1727576221.831,-1.953,-22.949,-48.340,-46.387,0.000
1727576221.835,-25.391,-22.461,-45.410,-51.758,0.000
1727576221.838,-39.062,-14.648,-41.504,-38.574,0.000
1727576221.842,-28.320,-18.066,-34.180,-2.930,0.000
1727576221.846,-27.832,-35.645,-35.156,-17.578,0.000
1727576221.850,-13.184,-30.762,-34.668,-41.504,0.000
1727576221.854,-16.113,-32.227,-33.203,-44.922,0.000
1727576221.858,-36.133,-26.367,-38.086,-35.645,0.000
1727576221.862,-39.551,-17.578,-47.363,-11.230,0.000
1727576221.865,-42.480,-16.113,-56.152,-26.855,0.000
1727576221.869,-20.996,-21.484,-55.176,-41.016,0.000
1727576221.873,-19.531,-27.832,-55.176,-40.527,0.000
1727576221.877,-32.227,-30.762,-49.316,-33.203,0.000
1727576221.881,-29.785,-34.180,-30.762,0.000,0.000
1727576221.885,-32.715,-36.621,-26.855,-4.395,0.000
1727576221.889,-11.230,-45.898,-36.133,-7.324,0.000
1727576221.893,-12.695,-52.246,-45.898,-18.066,0.000
1727576221.897,-47.363,-41.992,-45.410,-44.434,0.000
1727576221.901,-27.832,-29.785,-32.227,-8.301,0.000
1727576221.905,-13.184,-26.855,-25.391,6.836,0.000
1727576221.908,-7.812,-20.020,-31.250,-10.742,0.000
1727576221.912,-2.930,-31.250,-41.016,-35.156,0.000
1727576221.916,-59.570,-44.434,-49.805,-54.688,0.000
1727576221.920,-60.547,-27.344,-43.457,-30.273,0.000
1727576221.924,-36.133,-37.109,-37.109,-29.785,0.000
1727576221.928,-25.879,-53.223,-40.527,-50.781,0.000
1727576221.932,-16.602,-51.270,-44.922,-49.316,0.000
1727576221.935,-57.129,-46.875,-39.551,-49.316,0.000
1727576221.939,-62.500,-25.879,-36.133,-35.645,0.000
1727576221.943,-31.738,-32.227,-43.945,-13.672,0.000
1727576221.947,-6.836,-48.828,-47.363,-7.812,0.000
1727576221.951,1.953,-51.270,-36.133,-13.184,0.000
1727576221.955,-33.691,-66.406,-43.457,-36.133,0.000
1727576221.960,-38.086,-49.316,-45.898,-25.391,0.000
1727576221.963,-20.508,-38.574,-31.738,-7.324,0.000
1727576221.967,-21.973,-49.316,-37.598,-26.367,0.000
1727576221.971,-14.648,-48.828,-39.551,-31.250,0.000
1727576221.975,-40.527,-55.176,-32.715,-37.598,0.000
1727576221.979,-41.992,-54.688,-28.320,-17.578,0.000
1727576221.983,-19.531,-37.109,-35.156,-3.418,0.000
1727576221.987,-12.207,-44.922,-47.852,-32.227,0.000
1727576221.991,0.488,-69.336,-48.828,-29.785,0.000
1727576221.995,-34.668,-85.449,-51.758,-33.691,0.000
1727576221.999,-55.176,-64.453,-52.246,-32.227,0.000
1727576222.002,-18.555,-34.180,-51.758,-9.766,0.000
1727576222.007,-19.043,-30.762,-57.617,-31.250,0.000
1727576222.011,-19.531,-40.039,-48.828,-50.781,0.000
1727576222.015,-52.246,-60.547,-43.457,-62.012,0.000
1727576222.019,-79.590,-68.848,-43.945,-52.734,0.000
1727576222.022,-41.992,-62.500,-31.738,-14.160,0.000
1727576222.026,-28.320,-77.148,-39.551,-21.484,0.000
1727576222.030,-16.602,-89.355,-49.316,-41.016,0.000
1727576222.034,-37.109,-76.660,-41.504,-37.598,0.000
1727576222.038,-68.848,-73.730,-41.992,-41.992,0.000
1727576222.042,-35.645,-72.754,-41.992,-24.902,0.000
1727576222.046,-13.184,-59.570,-32.227,-19.043,0.000
1727576222.050,2.930,-63.477,-34.668,-23.926,0.000
1727576222.054,0.000,-76.660,-43.457,-44.922,0.000
1727576222.058,0.000,-83.496,-33.203,-37.109,0.000
1727576222.062,0.000,-73.730,-32.227,-10.742,0.000
1727576222.066,0.000,-62.500,-40.527,-25.879,0.000
1727576222.070,0.000,-57.129,-34.668,-38.086,0.000
1727576222.074,0.000,-47.852,-34.180,-49.805,0.000
1727576222.077,0.000,-38.574,-35.156,-50.293,0.000
1727576222.081,0.000,-29.785,-28.320,-10.742,0.000
1727576222.085,0.000,-34.668,-27.832,-0.488,0.000
1727576222.089,0.000,-41.504,-33.203,-16.602,0.000
1727576222.093,0.000,-54.688,-41.504,-39.551,0.000
1727576222.097,0.000,-75.195,-41.992,-49.316,0.000
1727576222.101,-44.434,-52.246,-36.133,-15.137,0.000
1727576222.105,-30.273,-33.203,-36.133,-6.348,0.000
1727576222.109,-15.137,-41.016,-37.598,-29.785,0.000
1727576222.113,-23.438,-50.293,-45.410,-50.293,0.000
1727576222.117,-66.406,-43.945,-49.805,-59.570,0.000
1727576222.120,-54.199,-24.414,-43.945,-31.250,0.000
1727576222.124,-31.738,-18.066,-44.922,-19.531,0.000
1727576222.128,-15.137,-25.879,-51.758,-25.391,0.000
1727576222.132,-9.277,-39.551,-52.246,-20.508,0.000
1727576222.136,-42.969,-45.410,-47.363,-34.668,0.000
1727576222.140,-42.480,-30.273,-43.457,-14.160,0.000
1727576222.144,-30.273,-20.020,-48.340,0.488,0.000
1727576222.148,-20.996,-14.648,-48.340,-26.367,0.000
1727576222.152,-17.090,-16.602,-51.758,-44.922,0.000
1727576222.156,-45.410,-30.273,-54.199,-52.246,0.000
1727576222.160,-51.270,-28.320,-47.363,-25.879,0.000
1727576222.163,-25.391,-21.973,-47.852,-3.418,0.000
1727576222.167,-15.625,-32.227,-45.410,-12.207,0.000
1727576222.171,-6.836,-31.738,-43.457,-28.809,0.000
1727576222.175,-37.109,-34.180,-54.199,-45.898,0.000
1727576222.179,-46.387,-24.902,-40.039,-34.180,0.000
1727576222.183,-22.949,-17.578,-33.203,-23.438,0.000
1727576222.187,-23.926,-34.668,-45.410,-30.273,0.000
1727576222.191,1.953,-54.688,-42.480,-27.344,0.000
1727576222.194,-17.090,-60.547,-43.945,-41.016,0.000
1727576222.198,-48.828,-46.387,-53.711,-45.410,0.000
1727576222.202,-38.574,-42.480,-56.152,-33.691,0.000
1727576222.206,-23.438,-33.691,-46.387,-35.645,0.000
1727576222.210,2.930,-20.020,-38.574,-28.809,0.000
1727576222.214,-34.180,-31.738,-52.734,-41.016,0.000
1727576222.218,-57.129,-36.133,-46.875,-46.875,0.000
1727576222.222,-20.020,-23.926,-37.109,-10.254,0.000
1727576222.226,-19.043,-16.113,-42.480,-4.395,0.000
1727576222.230,-9.766,-31.250,-43.457,-18.555,0.000
1727576222.234,-22.461,-47.363,-45.410,-39.062,0.000
1727576222.237,-57.129,-39.062,-47.852,-45.410,0.000
1727576222.241,-40.039,-24.902,-44.922,-15.625,0.000
1727576222.245,-27.344,-32.715,-49.316,-26.855,0.000
1727576222.249,-11.230,-61.523,-57.617,-46.387,0.000
1727576222.253,-17.578,-65.430,-53.223,-47.852,0.000
1727576222.257,-49.316,-53.223,-47.363,-49.316,0.000
1727576222.261,-41.504,-48.340,-44.434,-32.227,0.000
1727576222.264,-31.250,-46.875,-47.363,-31.250,0.000
1727576222.268,-14.160,-37.109,-43.457,-33.691,0.000
1727576222.272,-7.324,-28.809,-37.598,-38.086,0.000
1727576222.276,-52.246,-33.691,-41.992,-50.293,0.000
1727576222.280,-42.969,-21.973,-41.992,-18.555,0.000
1727576222.284,-10.742,-31.250,-41.992,-5.371,0.000
1727576222.288,-3.906,-52.734,-51.758,-20.996,0.000
1727576222.291,-13.672,-61.035,-57.617,-36.621,0.000
1727576222.295,-41.992,-75.684,-48.828,-33.203,0.000
1727576222.299,-27.832,-47.363,-36.621,-0.977,0.000
1727576222.303,-22.461,-27.344,-38.574,-17.578,0.000
1727576222.307,-24.414,-38.086,-42.969,-35.156,0.000
1727576222.311,-25.391,-37.109,-51.758,-38.086,0.000
1727576222.315,-52.246,-21.484,-50.293,-50.781,0.000
1727576222.319,-42.969,-20.996,-39.062,-38.086,0.000
1727576222.323,-34.180,-38.086,-43.457,-18.066,0.000
1727576222.327,-23.926,-11.230,-40.039,-15.137,0.000
1727576222.330,-5.371,4.395,-41.016,-25.391,0.000
1727576222.335,-35.645,-17.090,-51.758,-42.969,0.000
1727576222.339,-46.875,-14.648,-47.852,-28.809,0.000
1727576222.343,-29.297,-17.578,-39.551,-17.090,0.000
1727576222.347,-11.230,-27.832,-31.250,-21.484,0.000
1727576222.351,5.859,-30.762,-32.227,-35.156,0.000
1727576222.355,-20.996,-39.551,-38.574,-43.457,0.000
1727576222.358,-45.898,-34.668,-36.133,-24.414,0.000
1727576222.362,-27.344,-15.625,-32.227,-17.090,0.000
1727576222.366,-18.555,-32.715,-37.109,-26.367,0.000
1727576222.370,-14.648,-54.199,-45.898,-21.973,0.000
1727576222.374,-46.875,-35.645,-51.270,-49.316,0.000
1727576222.378,-64.941,-17.578,-41.504,-53.223,0.000
1727576222.382,-35.645,-13.672,-30.273,-19.043,0.000
1727576222.386,-23.438,-28.320,-32.227,-32.715,0.000
1727576222.390,-17.090,-44.922,-39.062,-47.363,0.000
1727576222.394,-41.992,-53.223,-47.852,-57.129,0.000
1727576222.398,-57.617,-57.617,-50.781,-48.828,0.000
1727576222.402,-30.273,-49.805,-47.363,-14.160,0.000
1727576222.406,-22.461,-20.508,-36.621,-17.090,0.000
1727576222.410,-17.090,-11.719,-37.598,-38.574,0.000
1727576222.413,-29.785,-35.645,-48.340,-53.223,0.000
1727576222.417,-50.781,-49.316,-42.969,-46.875,0.000
1727576222.421,-33.203,-39.551,-35.156,-18.066,0.000
1727576222.425,-26.367,-39.551,-41.992,-16.113,0.000
1727576222.429,-19.531,-45.410,0.000,-33.691,0.000
1727576222.433,-31.250,-54.688,0.000,-49.805,0.000
1727576222.437,-63.477,-50.293,0.000,-53.223,0.000
1727576222.441,-39.062,-26.855,0.000,-15.625,0.000
1727576222.445,-11.230,-19.043,0.000,-7.812,0.000
1727576222.449,2.441,-27.344,0.000,-29.297,0.000
1727576222.453,-24.902,-45.410,0.000,-53.223,0.000
1727576222.457,-70.801,-44.922,0.000,-59.570,0.000
1727576222.461,-45.410,-32.227,0.000,-17.090,0.000
1727576222.465,-32.715,-28.809,0.000,-22.949,0.000
1727576222.468,-41.016,-38.574,0.000,-48.340,0.000
1727576222.472,-37.598,-47.852,0.000,-56.641,0.000
1727576222.476,-67.383,-41.504,-42.969,-62.500,0.000
1727576222.480,-72.266,-24.902,-33.203,-36.133,0.000
1727576222.484,-47.852,-19.531,-43.457,-23.926,0.000
1727576222.488,-23.926,-29.297,-41.016,-35.645,0.000
1727576222.492,-17.578,-42.969,-33.691,-41.504,0.000
1727576222.496,-54.688,-51.758,-38.086,-56.152,0.000
1727576222.500,-60.547,-35.645,-34.180,-34.668,0.000
1727576222.504,-36.621,-33.691,-29.785,-11.230,0.000
1727576222.508,-22.949,-43.457,-43.945,-32.715,0.000
1727576222.512,-19.043,-35.645,-54.199,-47.852,0.000
1727576222.515,-59.082,-35.156,-48.340,-52.246,0.000
1727576222.519,-52.246,-39.062,-42.969,-23.438,0.000
1727576222.523,0.000,-39.062,-37.598,-0.488,0.000
1727576222.527,0.000,-44.434,-30.762,-22.461,0.000
1727576222.531,0.000,-44.922,-35.156,-40.039,0.000
1727576222.535,0.000,-42.480,-43.945,-51.270,0.000
1727576222.539,0.000,-35.156,-37.598,-31.250,0.000
1727576222.543,0.000,-49.805,-31.250,-16.113,0.000
1727576222.547,0.000,-47.363,-26.367,-32.227,0.000
1727576222.551,0.000,-34.668,-35.645,-39.062,0.000
1727576222.554,0.000,-31.250,-49.805,-61.523,0.000
1727576222.558,0.000,-36.621,-44.922,-58.594,0.000
1727576222.562,0.000,-35.645,-34.180,-17.090,0.000
1727576222.566,0.000,-27.832,-29.297,-16.113,0.000
1727576222.570,-7.812,-30.273,-31.250,-23.926,0.000
1727576222.574,-38.086,-53.711,-35.156,-45.898,0.000
1727576222.578,-56.641,-62.500,-32.227,-45.410,0.000
1727576222.582,-20.020,-39.551,-20.996,-6.836,0.000
1727576222.585,-22.949,-29.297,-23.926,-14.648,0.000
1727576222.589,-20.020,-25.879,-33.691,-31.250,0.000
1727576222.593,-40.527,-43.945,-36.621,-53.711,0.000
1727576222.597,-77.637,-49.805,-29.297,-52.734,0.000
1727576222.601,-60.547,-32.715,-16.113,-18.555,0.000
1727576222.605,-40.039,-27.344,-18.555,-19.043,0.000
1727576222.609,-18.555,-33.691,-22.949,-28.809,0.000
1727576222.613,-29.785,-46.875,-19.043,-42.480,0.000
1727576222.616,-62.500,-38.574,-17.578,-52.246,0.000
1727576222.620,-44.922,-29.785,-23.438,-27.832,0.000
1727576222.624,-27.344,-45.898,-27.832,-23.926,0.000
1727576222.628,-13.672,-40.039,-24.414,-31.738,0.000
1727576222.632,-12.207,-36.621,-20.996,-31.250,0.000
1727576222.636,-38.574,-46.875,-17.578,-22.949,0.000
1727576222.640,-43.457,-56.152,-21.484,-4.395,0.000
1727576222.644,-33.691,-50.293,-24.902,-21.484,0.000
1727576222.648,-2.930,-22.949,-23.926,-28.320,0.000
1727576222.651,0.000,-32.715,-25.879,-34.180,0.000
1727576222.655,-45.898,-47.363,-28.809,-49.805,0.000
1727576222.659,-55.176,-33.691,-23.438,-22.949,0.000
1727576222.663,0.000,-38.574,-19.531,-13.672,0.000
1727576222.667,0.000,-48.340,-23.926,-29.785,0.000
1727576222.671,0.000,-58.105,-17.578,-38.574,0.000
1727576222.674,0.000,-61.035,-19.043,-41.016,0.000
1727576222.678,0.000,-55.176,-12.695,-28.809,0.000
1727576222.682,0.000,-55.176,-8.789,-23.438,0.000
1727576222.686,0.000,-61.035,-22.461,-39.551,0.000
1727576222.690,0.000,-56.152,-28.809,-51.270,0.000
1727576222.694,0.000,-48.340,-37.598,-59.082,0.000
1727576222.698,0.000,-53.223,-42.969,-41.992,0.000
1727576222.702,0.000,-50.781,-39.062,-14.648,0.000
1727576222.706,0.000,-43.457,-29.785,-27.832,0.000
1727576222.710,-14.160,-37.109,-27.344,-40.039,0.000
1727576222.714,-43.457,-44.434,-30.273,-44.922,0.000
1727576222.718,-47.363,-34.180,-23.926,-25.879,0.000
1727576222.722,-29.785,-18.555,-17.578,-3.418,0.000
1727576222.726,-22.949,-26.367,-26.367,-21.973,0.000
1727576222.730,0.488,-42.480,-35.156,-34.180,0.000
1727576222.734,-27.344,-49.805,-32.715,-40.039,0.000
1727576222.738,-52.246,-31.250,-33.691,-34.668,0.000
1727576222.741,-35.645,-25.391,-34.668,-14.160,0.000
1727576222.745,-24.414,-42.969,-39.062,-19.043,0.000
1727576222.749,-13.184,-40.527,-37.598,-40.039,0.000
1727576222.753,-37.598,-55.176,-38.574,-58.105,0.000
1727576222.757,-46.875,-64.941,-36.133,-34.180,0.000
1727576222.761,-29.297,-34.180,-33.691,5.371,0.000
1727576222.765,-24.414,-16.113,-31.738,-4.883,0.000
1727576222.769,-1.953,-16.113,-25.391,-18.066,0.000
1727576222.773,-22.949,-24.414,-34.668,-25.391,0.000
1727576222.777,-44.434,-29.297,-37.109,-31.738,0.000
1727576222.781,-28.320,-33.691,-35.645,-14.648,0.000
1727576222.785,-38.086,-34.180,-42.480,-29.785,0.000
1727576222.789,-21.973,-42.480,-41.504,-44.922,0.000
1727576222.793,-30.762,-54.199,-38.574,-44.922,0.000
1727576222.797,-62.012,-38.574,-25.879,-41.504,0.000
1727576222.800,-42.480,-29.297,-20.996,-8.789,0.000
1727576222.805,-33.691,-31.738,-33.691,-5.859,0.000
1727576222.809,-13.184,-26.367,-35.645,-24.414,0.000
1727576222.812,-20.508,-30.273,-37.109,-41.016,0.000
1727576222.816,-56.641,-39.551,-40.039,-41.992,0.000
1727576222.820,-33.203,-45.410,-31.738,-11.230,0.000
1727576222.824,-10.742,-48.828,-37.598,-20.996,0.000
1727576222.828,-4.883,-33.691,-43.457,-46.387,0.000
1727576222.832,-20.020,-20.996,-37.598,-44.922,0.000
1727576222.836,-48.828,-34.180,-35.156,-34.180,0.000
1727576222.840,-30.273,-23.926,-30.762,-9.766,0.000
1727576222.844,-11.719,-23.438,-30.762,-13.672,0.000
1727576222.848,-11.719,-35.156,-36.621,-31.250,0.000
1727576222.852,-17.578,-20.508,-36.133,-42.480,0.000
1727576222.855,-56.641,-17.578,-41.992,-62.500,0.000
1727576222.859,-42.480,-29.297,-46.875,-41.016,0.000
1727576222.863,-12.207,-31.738,-42.480,-26.367,0.000
1727576222.867,-2.441,-9.766,-33.691,-34.180,0.000
1727576222.871,5.371,-11.230,-34.180,-28.320,0.000
1727576222.875,-33.203,-28.320,-41.992,-46.387,0.000
1727576222.879,-42.480,-30.273,-37.598,-24.414,0.000
1727576222.883,-14.160,-27.344,-33.691,9.277,0.000
1727576222.887,-3.906,-17.090,-31.738,-10.254,0.000
1727576222.891,-3.418,-24.902,-37.109,-33.203,0.000
1727576222.895,-43.945,-30.273,-41.504,-56.152,0.000
1727576222.898,-52.734,-20.020,-31.738,-35.645,0.000
1727576222.902,-38.086,-31.738,-31.250,-18.555,0.000
1727576222.906,-33.691,-42.969,-48.340,-27.344,0.000
1727576222.910,-17.578,-40.039,-43.457,-28.320,0.000
1727576222.914,-48.828,-55.176,-31.250,-47.363,0.000
1727576222.918,-59.082,-50.781,-29.785,-31.250,0.000
1727576222.922,-35.645,-28.320,-36.133,-8.789,0.000
1727576222.926,-29.785,-36.621,-41.504,-25.879,0.000
1727576222.930,-18.066,-45.410,-41.992,-38.086,0.000
1727576222.934,-38.086,-33.203,-48.828,-52.734,0.000
1727576222.937,-46.387,-17.578,-49.805,-37.109,0.000
1727576222.941,-28.809,-23.926,-44.922,5.371,0.000
1727576222.945,-13.184,-39.551,-43.945,-8.789,0.000
1727576222.949,4.883,-42.480,-38.086,-34.180,0.000
1727576222.953,-29.785,-37.109,-39.551,-47.852,0.000
1727576222.957,-58.594,-21.484,-35.645,-47.852,0.000
1727576222.961,-41.992,-8.301,-29.297,-18.066,0.000
1727576222.965,-34.180,-22.949,-32.227,-21.973,0.000
1727576222.968,-7.324,-56.641,-31.250,-29.785,0.000
1727576222.972,-14.160,-61.035,-32.715,-36.133,0.000
1727576222.976,-48.340,-18.555,-29.297,-32.715,0.000
1727576222.980,-30.273,-7.324,-25.879,3.418,0.000
1727576222.984,-5.371,-19.043,-27.832,-7.812,0.000
1727576222.988,4.883,-7.324,-26.367,-25.879,0.000
1727576222.992,-22.461,-15.625,-32.715,-41.016,0.000
1727576222.995,-44.922,-19.043,-32.715,-39.551,0.000
1727576222.999,-29.785,-16.602,-27.832,-1.465,0.000
1727576223.003,-20.020,-13.184,-29.297,2.930,0.000
1727576223.007,1.953,0.000,-30.273,-11.230,0.000
1727576223.011,-10.254,-20.996,-37.109,-32.227,0.000
1727576223.015,-47.363,-36.621,-39.551,-44.922,0.000
1727576223.019,-38.086,-3.418,-28.809,-26.855,0.000
1727576223.023,-31.738,9.766,-29.297,-25.879,0.000
1727576223.027,-20.020,-11.719,-41.992,-34.668,0.000
1727576223.031,-20.996,-29.785,-39.551,-58.105,0.000
1727576223.035,-64.453,-27.832,-35.156,-67.871,0.000
1727576223.038,-59.082,-16.602,-31.250,-18.066,0.000
1727576223.042,-36.133,-27.832,-35.645,-3.906,0.000
1727576223.046,-25.879,-32.715,-42.480,-23.438,0.000
1727576223.050,-21.484,-23.438,-39.062,-31.738,0.000
1727576223.054,-46.387,-22.949,-41.992,-48.340,0.000
1727576223.057,-45.410,-24.414,-36.133,-21.484,0.000
1727576223.061,-31.250,-32.715,-32.715,3.418,0.000
1727576223.065,-19.531,-24.902,-44.434,-27.344,0.000
1727576223.069,-14.648,-29.297,-39.551,-41.016,0.000
1727576223.073,-52.734,-37.598,-35.645,-46.387,0.000
1727576223.077,-59.082,-27.832,-36.621,-36.133,0.000
1727576223.081,-34.668,-32.715,-40.039,-24.414,0.000
1727576223.085,-17.578,-46.387,-45.410,-30.273,0.000
1727576223.089,-11.719,-41.504,-44.434,-37.598,0.000
1727576223.093,-53.711,-28.320,-39.551,-50.293,0.000
1727576223.097,-58.594,-20.508,-33.691,-39.551,0.000
1727576223.101,-26.855,-20.020,-27.832,-19.531,0.000
1727576223.105,-19.043,-33.691,-27.344,-23.926,0.000
1727576223.109,-5.859,-36.621,-32.227,-34.180,0.000
1727576223.113,-38.574,-39.551,-40.527,-49.805,0.000
1727576223.117,-57.617,-44.434,-37.598,-35.156,0.000
1727576223.121,-21.973,-46.875,-29.297,7.812,0.000
1727576223.124,-13.672,-30.762,-27.832,-2.930,0.000
1727576223.128,0.977,-22.461,-28.809,-15.625,0.000
1727576223.133,-17.578,-32.715,-37.598,-24.902,0.000
1727576223.137,-40.039,-28.809,-23.926,-27.832,0.000
1727576223.140,-17.090,-22.949,-12.207,-3.906,0.000
1727576223.144,-5.371,-32.227,-25.879,-16.113,0.000
1727576223.148,0.000,-41.016,-39.062,-38.574,0.000
1727576223.152,-26.855,-35.645,-41.016,-52.246,0.000
1727576223.156,-68.848,-22.461,-40.039,-44.922,0.000
1727576223.160,-50.781,-18.066,-34.668,-15.137,0.000
1727576223.164,-29.785,-35.645,-39.062,-17.090,0.000
1727576223.168,-15.625,-51.270,-46.387,-19.531,0.000
1727576223.172,-29.785,-42.480,-46.875,-45.410,0.000
1727576223.176,-59.570,-31.738,-44.922,-58.594,0.000
1727576223.180,-45.898,-19.043,-41.504,-23.438,0.000
1727576223.184,-30.273,-27.344,-37.109,-30.273,0.000
1727576223.187,-7.324,-38.086,-35.156,-43.945,0.000
1727576223.191,-13.184,-28.809,-37.598,-39.062,0.000
1727576223.195,-56.152,-32.227,-40.527,-38.574,0.000
1727576223.199,-48.340,-28.809,-39.551,-11.230,0.000
1727576223.203,-21.973,-26.367,-34.180,-6.836,0.000
1727576223.207,-7.324,-34.668,-29.785,-21.484,0.000
1727576223.211,-17.090,-45.410,-28.320,-31.250,0.000
1727576223.215,-50.781,-29.785,-30.273,-39.062,0.000
1727576223.219,-51.270,-23.438,-29.785,-17.578,0.000
1727576223.223,-30.762,-36.621,-30.273,-13.672,0.000
1727576223.227,0.000,-33.691,-35.645,-25.391,0.000
1727576223.230,0.000,-36.621,-38.086,-43.457,0.000
1727576223.234,0.000,-48.340,-40.527,-50.781,0.000
1727576223.238,0.000,-37.598,-34.668,-17.578,0.000
1727576223.242,0.000,-38.574,-34.668,-13.672,0.000
1727576223.246,0.000,-37.598,-46.387,-35.645,0.000
1727576223.250,0.000,-29.785,-48.340,-45.898,0.000
1727576223.254,0.000,-41.504,-51.270,-53.223,0.000
1727576223.258,0.000,-44.922,-51.270,-19.531,0.000
1727576223.262,0.000,-28.809,-47.363,-8.301,0.000
1727576223.266,0.000,-22.949,-47.852,-31.250,0.000
1727576223.270,0.000,-29.785,-48.340,-35.645,0.000
1727576223.273,-49.805,-42.969,-54.688,-45.410,0.000
1727576223.277,-60.059,-36.133,-52.246,-27.832,0.000
1727576223.281,-36.133,-37.109,-46.875,-16.602,0.000
1727576223.285,-25.879,-59.570,-51.270,-48.828,0.000
1727576223.289,-17.090,-66.895,-54.199,-59.082,0.000
1727576223.293,-53.711,-67.383,-49.805,-63.965,0.000
1727576223.297,-65.918,-50.781,-47.363,-42.480,0.000
1727576223.301,-44.922,-37.598,-50.293,-8.789,0.000
1727576223.305,-41.504,-31.250,-50.293,-29.297,0.000
1727576223.309,-18.555,-36.621,-48.828,-44.922,0.000
1727576223.312,-40.527,-50.293,-50.781,-48.340,0.000
1727576223.316,-69.336,-41.504,-43.945,-35.156,0.000
1727576223.321,-34.180,-41.016,-33.203,-16.113,0.000
1727576223.325,-19.531,-51.270,-36.133,-37.109,0.000
1727576223.329,-24.902,-50.781,-41.504,-51.270,0.000
1727576223.333,-42.969,-39.062,-41.992,-50.293,0.000
1727576223.337,-54.199,-34.180,-38.574,-35.645,0.000
1727576223.341,-35.645,-42.480,-39.062,-20.508,0.000
1727576223.345,-18.066,-39.551,-43.945,-25.391,0.000
1727576223.349,-3.906,-34.180,-40.039,-24.902,0.000
1727576223.352,-33.691,-33.203,-41.504,-49.316,0.000
1727576223.356,-65.430,-33.691,-45.898,-61.035,0.000
1727576223.360,-50.781,-35.645,-51.270,-38.574,0.000
1727576223.364,-36.621,-24.902,-47.363,-35.156,0.000
1727576223.368,-31.738,-16.602,-40.527,-54.199,0.000
1727576223.372,-36.133,-28.809,-43.457,-62.012,0.000
1727576223.375,-63.477,-32.715,-44.434,-52.734,0.000
1727576223.379,-50.781,-27.344,-38.086,-15.625,0.000
1727576223.383,-23.438,-34.180,-38.574,-4.883,0.000
1727576223.387,-13.184,-32.227,-42.480,-13.184,0.000
1727576223.391,-15.625,-43.457,-43.945,-27.832,0.000
1727576223.395,-36.621,-35.645,-41.016,-49.316,0.000
1727576223.399,-33.691,-23.438,-39.551,-22.949,0.000
1727576223.403,-11.719,-36.133,-44.434,-18.555,0.000
1727576223.407,-5.859,-40.527,-52.246,-36.621,0.000
1727576223.411,-30.762,-42.969,-48.828,-42.480,0.000
1727576223.415,-56.152,-40.039,-43.945,-44.434,0.000
1727576223.419,-42.969,-30.762,-38.086,-21.973,0.000
1727576223.423,-21.484,-33.203,-27.832,-14.648,0.000
1727576223.427,-14.648,-25.391,-29.297,-28.320,0.000
1727576223.431,-24.414,-26.367,-36.621,-38.574,0.000
1727576223.435,-57.617,-51.758,-42.969,-41.504,0.000
1727576223.439,-51.758,-55.664,-44.922,-16.113,0.000
1727576223.442,-33.691,-34.668,-43.945,-9.277,0.000
1727576223.446,-20.508,-37.109,-43.945,-17.578,0.000
1727576223.450,-8.789,-34.668,-30.762,-20.020,0.000
1727576223.454,-42.480,-37.109,-31.738,-37.598,0.000
1727576223.458,-56.641,-36.133,-37.109,-20.996,0.000
1727576223.462,-34.180,-19.043,-36.133,-2.441,0.000
1727576223.466,-18.066,-25.879,-41.016,-17.090,0.000
1727576223.470,-3.906,-36.133,-40.527,-21.484,0.000
1727576223.474,-26.367,-33.203,-43.457,-45.410,0.000
1727576223.478,-41.504,-30.273,-43.945,-38.086,0.000
1727576223.482,-27.832,-29.297,-38.574,-12.207,0.000
1727576223.486,-13.672,-28.320,-41.992,-37.109,0.000
1727576223.490,-10.254,-35.156,-45.898,-45.410,0.000
1727576223.494,-36.133,-41.992,-41.016,-42.969,0.000
1727576223.498,-56.152,-40.527,-42.480,-30.762,0.000
1727576223.501,-46.875,-23.438,-41.016,-9.277,0.000
1727576223.505,-25.879,-12.695,-34.180,-21.973,0.000
1727576223.509,-13.184,-21.484,-26.367,-33.691,0.000
1727576223.513,-34.180,-45.410,-30.762,-47.852,0.000
1727576223.517,-59.570,-30.762,-29.785,-41.016,0.000
1727576223.521,-34.180,-14.160,-24.902,-9.766,0.000
1727576223.525,-7.812,-29.785,-27.344,-2.441,0.000
1727576223.529,6.348,-37.598,-33.203,-10.742,0.000
1727576223.533,-17.578,-32.715,-38.574,-34.180,0.000
1727576223.537,-34.180,-19.531,-32.227,-19.531,0.000
1727576223.541,-10.742,-20.996,-27.344,11.230,0.000
1727576223.545,-9.277,-22.949,-28.320,-0.977,0.000
1727576223.549,2.930,-10.742,-26.367,-14.648,0.000
1727576223.552,-8.789,-20.996,-29.785,-32.227,0.000
1727576223.556,-47.852,-38.574,-36.133,-42.480,0.000
1727576223.560,-28.809,-30.273,-30.762,-18.066,0.000
1727576223.564,-12.207,-31.738,-29.297,-12.695,0.000
1727576223.568,-11.719,-32.227,-42.969,-22.949,0.000
1727576223.572,-30.273,-45.898,-51.758,-39.062,0.000
1727576223.576,-69.824,-41.992,-46.387,-47.363,0.000
1727576223.580,-57.129,-17.090,-35.156,-31.738,0.000
1727576223.584,-35.645,-21.484,-34.668,-20.996,0.000
1727576223.588,-23.926,-43.457,-43.457,-6.836,0.000
1727576223.591,-38.574,-39.062,-41.504,-25.391,0.000
1727576223.595,-71.289,-32.227,-37.109,-54.199,0.000
1727576223.599,-50.293,-38.574,-38.086,-30.762,0.000
1727576223.603,-28.809,-33.203,-33.691,-12.207,0.000
1727576223.607,-16.602,-32.227,-29.785,-17.090,0.000
1727576223.611,-9.277,-37.109,-39.551,-27.832,0.000
1727576223.615,-39.551,-41.992,-43.457,-40.527,0.000
1727576223.619,-38.086,-33.203,-35.156,-21.484,0.000
1727576223.623,-20.508,-25.879,-38.086,-6.348,0.000
1727576223.627,1.465,-30.762,-34.668,-16.602,0.000
1727576223.630,8.789,-40.039,-38.086,-27.832,0.000
1727576223.634,-39.551,-50.781,-44.434,-45.898,0.000
1727576223.638,-51.270,-35.156,-28.809,-29.297,0.000
1727576223.642,-38.574,-28.809,-25.391,-6.348,0.000
1727576223.646,-30.762,-34.668,-29.297,-18.066,0.000
1727576223.650,-25.391,-34.180,-29.297,-44.922,0.000
1727576223.654,-60.059,-44.922,-39.551,-62.012,0.000
1727576223.657,-64.941,-39.551,-40.039,-37.109,0.000
1727576223.661,-45.898,-32.715,-37.109,-13.672,0.000
1727576223.665,-31.738,-30.762,-30.762,-20.508,0.000
1727576223.669,-16.602,-37.109,-32.715,-33.691,0.000
1727576223.673,-42.969,-63.965,-42.480,-58.105,0.000
1727576223.677,-52.246,-62.012,-41.992,-49.316,0.000
1727576223.681,-51.758,-24.902,-30.762,-17.578,0.000
1727576223.685,-45.898,-15.625,-29.785,-28.320,0.000
1727576223.689,-16.602,-23.926,-34.180,-35.156,0.000
1727576223.693,-35.645,-29.297,-39.062,-31.738,0.000
1727576223.696,-63.965,-23.926,-37.109,-23.438,0.000
1727576223.700,-52.246,-20.020,-35.156,-11.230,0.000
1727576223.704,-41.016,-32.227,-46.875,-22.949,0.000
1727576223.708,-24.414,-32.227,-50.781,-28.320,0.000
1727576223.712,-48.340,-36.133,-44.434,-45.898,0.000
1727576223.716,-66.406,-37.109,-35.156,-40.527,0.000
1727576223.720,-28.809,-32.227,-27.832,-0.488,0.000
1727576223.724,-20.508,-31.250,-26.855,-3.418,0.000
1727576223.727,-7.324,-24.414,-31.250,-28.809,0.000
1727576223.731,-13.672,-30.273,-33.691,-41.992,0.000
1727576223.735,-56.152,-44.922,-32.715,-35.645,0.000
1727576223.739,-49.316,-42.969,-38.086,-3.418,0.000
1727576223.743,-30.273,-34.180,-39.551,-17.578,0.000
1727576223.747,-5.859,-30.273,-37.109,-36.133,0.000
1727576223.750,-15.625,-48.828,-40.527,-37.109,0.000
1727576223.754,-50.781,-55.176,-35.645,-32.227,0.000
1727576223.758,-42.480,-25.879,-25.391,-0.488,0.000
1727576223.762,-22.461,-21.973,-20.996,-7.324,0.000
1727576223.766,-1.465,-35.645,-28.320,-39.551,0.000
1727576223.770,-15.625,-34.180,-37.598,-44.922,0.000
1727576223.774,-58.105,-31.250,-36.621,-43.457,0.000
1727576223.778,-51.270,-36.133,-37.109,-23.438,0.000
1727576223.782,-23.438,-45.898,-39.062,-21.973,0.000
1727576223.786,-20.020,-39.062,-30.273,-29.297,0.000
1727576223.789,-36.621,-32.715,-28.809,-38.574,0.000
1727576223.793,-69.824,-43.457,-35.645,-55.176,0.000
1727576223.797,-60.547,-37.109,-40.039,-31.738,0.000
1727576223.801,-36.133,-22.461,-37.109,-17.578,0.000
1727576223.805,-26.855,-22.949,-34.668,-24.902,0.000
1727576223.808,-15.625,-38.574,-36.621,-28.320,0.000
1727576223.812,-32.715,-54.688,-42.480,-35.645,0.000
1727576223.816,-31.738,-30.762,-31.738,-6.836,0.000
1727576223.820,-24.902,-25.879,-27.832,5.859,0.000
1727576223.824,-13.184,-48.340,-39.062,-17.578,0.000
1727576223.828,-0.977,-54.688,-46.875,-26.367,0.000
1727576223.832,-40.039,-58.105,-47.852,-38.086,0.000
1727576223.836,-55.664,-39.551,-41.016,-25.879,0.000
1727576223.840,-39.062,-22.949,-37.598,-11.719,0.000
1727576223.844,-27.344,-29.297,-37.109,-29.297,0.000
1727576223.848,-17.578,-40.039,-41.992,-50.293,0.000
1727576223.852,-48.340,-54.688,-43.457,-62.012,0.000
1727576223.856,-61.035,-57.617,-39.551,-44.922,0.000
1727576223.860,-44.922,-44.922,-35.645,-15.625,0.000
1727576223.864,-26.367,-37.598,-38.574,-21.973,0.000
1727576223.868,-13.184,-48.340,-48.828,-53.223,0.000
1727576223.871,-45.898,-69.336,-49.316,-64.941,0.000
1727576223.875,-63.965,-55.664,-34.668,-45.410,0.000
1727576223.879,-41.504,-37.598,-25.391,-18.555,0.000
1727576223.883,-35.645,-40.527,-29.785,-21.484,0.000
1727576223.887,-18.066,-42.969,-38.574,-24.902,0.000
1727576223.891,-40.527,-46.387,-44.434,-32.715,0.000
1727576223.895,-64.941,-39.551,-39.062,-31.738,0.000
1727576223.899,-34.668,-31.250,-29.785,0.488,0.000
1727576223.903,-19.531,-39.551,-28.320,6.348,0.000
1727576223.907,-7.812,-52.734,-38.086,-16.113,0.000
1727576223.911,-28.320,-68.848,-45.898,-47.852,0.000
1727576223.915,-52.734,-81.543,-42.480,-41.992,0.000
1727576223.919,-29.785,-47.852,-34.180,-12.695,0.000
1727576223.923,-24.902,-3.418,-30.762,-25.879,0.000
1727576223.926,-3.906,-14.160,-41.016,-37.109,0.000
1727576223.931,-18.066,-47.852,-49.316,-53.223,0.000
1727576223.934,-62.988,-44.434,-47.852,-56.152,0.000
1727576223.938,-41.992,-28.320,-39.551,-18.555,0.000
1727576223.942,-30.762,-32.227,-36.621,-18.555,0.000
1727576223.946,-11.230,-48.340,-44.434,-24.902,0.000
1727576223.950,-17.090,-65.918,-43.945,-25.879,0.000
1727576223.954,-64.941,-54.688,-39.551,-38.086,0.000
1727576223.958,-49.805,-35.156,-43.457,-14.160,0.000
1727576223.962,-20.020,-41.504,-44.922,-5.371,0.000
1727576223.966,-0.977,-45.410,-33.203,-18.066,0.000
1727576223.970,-4.395,-44.922,-35.156,-34.180,0.000
1727576223.973,-35.645,-43.457,-41.504,-52.246,0.000
1727576223.977,-38.574,-34.180,-35.645,-28.320,0.000
1727576223.981,-25.391,-40.527,-34.668,-11.719,0.000
1727576223.985,-3.418,-44.434,-29.785,-21.973,0.000
1727576223.989,-1.953,-53.711,-39.062,-34.180,0.000
1727576223.993,-33.203,-60.059,-47.363,-45.410,0.000
1727576223.997,-36.621,-47.852,-33.203,-24.902,0.000
1727576224.001,-24.902,-39.551,-30.762,-10.254,0.000
1727576224.005,-2.441,-40.039,-33.203,-11.230,0.000
1727576224.009,-8.301,-51.270,-39.062,-30.273,0.000
1727576224.013,-50.781,-60.059,-36.133,-46.875,0.000
1727576224.016,-48.340,-59.570,-29.297,-15.137,0.000
1727576224.020,-22.949,-52.734,-24.902,1.953,0.000
1727576224.024,-6.836,-37.598,-27.832,-22.949,0.000
1727576224.028,-0.977,-34.668,-31.738,-29.785,0.000
1727576224.032,-37.598,-52.734,-37.109,-40.527,0.000
1727576224.036,-48.828,-42.480,-38.086,-34.668,0.000
1727576224.040,-24.414,-19.531,-32.715,-10.742,0.000
1727576224.044,-1.465,-35.156,-38.086,-23.438,0.000
1727576224.048,2.930,-51.758,-42.969,-37.598,0.000
1727576224.051,-24.902,-62.988,-46.387,-44.434,0.000
1727576224.055,-44.434,-47.363,-45.410,-27.832,0.000
1727576224.059,-35.645,-35.645,-37.109,-2.930,0.000
1727576224.063,-17.090,-44.922,-44.922,-29.785,0.000
1727576224.067,-5.371,-34.668,-46.875,-48.340,0.000
1727576224.071,-34.668,-23.438,-39.551,-53.711,0.000
1727576224.075,-53.711,-27.832,-36.133,-36.621,0.000
1727576224.078,-33.691,-44.434,-41.016,-7.324,0.000
1727576224.082,-12.695,-47.852,-49.805,-20.996,0.000
1727576224.086,-6.348,-47.363,-41.504,-36.621,0.000
1727576224.090,-36.133,-59.082,-40.527,-45.898,0.000
1727576224.094,-54.688,-61.523,-44.922,-46.387,0.000
1727576224.098,-32.227,-54.688,-41.504,-19.043,0.000
1727576224.102,-17.578,-40.527,-39.551,-10.742,0.000
1727576224.106,-0.488,-28.320,-46.387,-28.809,0.000
1727576224.110,-26.367,-48.828,-58.105,-51.758,0.000
1727576224.114,-77.148,-56.641,-54.688,-45.410,0.000
1727576224.117,-57.129,-38.086,-43.945,-19.043,0.000
1727576224.121,-28.320,-41.992,-47.852,-20.020,0.000
1727576224.125,0.000,-42.969,-43.945,-32.715,0.000
1727576224.129,-3.906,-43.945,-38.574,-52.734,0.000
1727576224.133,-43.945,-51.758,-40.527,-52.246,0.000
1727576224.137,-44.434,-48.340,-44.434,-26.367,0.000
1727576224.141,-38.574,-43.945,-48.828,-19.043,0.000
1727576224.144,-15.625,-34.180,-43.457,-17.090,0.000
1727576224.148,-17.578,-31.738,-41.504,-33.203,0.000
1727576224.152,-67.871,-37.109,-45.898,-56.641,0.000
1727576224.156,-59.082,-27.832,-46.387,-28.320,0.000
1727576224.160,-29.785,-26.367,-48.828,-18.066,0.000
1727576224.163,-6.836,-39.551,-45.410,-35.645,0.000
1727576224.167,-4.395,-48.828,-44.922,-35.156,0.000
1727576224.171,-48.828,-51.758,-50.781,-41.992,0.000
1727576224.175,-52.734,-46.875,-45.410,-21.484,0.000
1727576224.179,-32.715,-44.434,-42.969,-2.930,0.000
1727576224.183,-11.230,-49.805,-43.457,-16.113,0.000
1727576224.187,-3.418,-43.945,-42.480,-25.391,0.000
1727576224.191,-40.527,-32.227,-38.086,-49.805,0.000
1727576224.195,-45.898,-24.414,-28.809,-24.414,0.000
1727576224.199,-21.484,-18.066,-36.621,-0.977,0.000
1727576224.203,0.000,-26.367,-46.875,-18.066,0.000
1727576224.206,-0.977,-29.297,-42.969,-18.555,0.000
1727576224.211,-50.293,-37.109,-44.434,-35.645,0.000
1727576224.215,-55.664,-41.016,-36.133,-22.461,0.000
1727576224.219,-33.203,-40.039,-35.156,-8.301,0.000
1727576224.223,-24.414,-32.227,-38.086,-31.738,0.000
1727576224.226,-16.113,-21.484,-40.039,-54.688,0.000
1727576224.230,-52.734,-36.133,-51.270,-76.660,0.000
1727576224.234,-55.664,-28.320,-43.945,-45.410,0.000
1727576224.238,-33.203,-20.020,-34.668,-9.277,0.000
1727576224.242,-32.715,-31.250,-45.410,-27.832,0.000
1727576224.246,-3.418,-33.203,-49.805,-29.297,0.000
1727576224.250,-19.531,-31.250,-41.016,-32.227,0.000
1727576224.254,-50.781,-31.738,-34.668,-31.250,0.000
1727576224.258,-31.738,-33.691,-33.691,-12.207,0.000
1727576224.262,-13.672,-27.832,-32.227,-17.578,0.000
1727576224.266,-0.488,-19.043,-31.738,-24.902,0.000
1727576224.270,-22.949,-29.785,-40.527,-42.969,0.000
1727576224.274,-34.668,-29.785,-36.621,-37.109,0.000
1727576224.278,-20.508,-25.391,-28.320,-16.113,0.000
1727576224.281,-17.090,-34.668,-31.738,-34.180,0.000
1727576224.285,-0.488,-30.273,-34.668,-32.227,0.000
1727576224.289,-13.672,-38.086,-32.715,-32.227,0.000
1727576224.293,-38.086,-54.688,-35.645,-39.551,0.000
1727576224.297,-40.039,-49.316,-37.598,-23.926,0.000
1727576224.301,-48.828,-51.270,-34.668,-26.367,0.000
1727576224.305,-33.203,-49.805,-39.551,-35.645,0.000
1727576224.309,-43.945,-43.945,-45.898,-48.828,0.000
1727576224.313,-78.613,-44.434,-41.016,-53.711,0.000
1727576224.317,-60.547,-36.133,-35.156,-27.344,0.000
1727576224.321,-34.668,-38.574,-36.133,-27.344,0.000
1727576224.325,-9.277,-46.875,-35.156,-35.645,0.000
1727576224.329,-8.301,-48.340,-35.156,-41.016,0.000
1727576224.332,-32.715,-43.945,-28.809,-41.504,0.000
1727576224.336,-8.789,-46.387,-23.438,-1.465,0.000
1727576224.340,-12.207,-33.203,-25.391,-2.930,0.000
1727576224.344,-16.602,-23.926,-33.691,-36.133,0.000
1727576224.348,-14.160,-43.457,-41.016,-41.504,0.000
1727576224.352,-52.734,-62.988,-35.156,-45.410,0.000
1727576224.356,-41.504,-58.105,-24.902,-14.648,0.000
1727576224.360,-18.066,-45.898,-24.902,-16.113,0.000
1727576224.364,-11.719,-42.480,-32.227,-36.133,0.000
1727576224.368,-14.160,-48.828,-38.086,-39.551,0.000
1727576224.372,-57.129,-53.223,-37.109,-50.293,0.000
1727576224.375,-68.848,-52.734,-36.133,-32.227,0.000
1727576224.379,-43.945,-49.805,-34.668,-17.578,0.000
1727576224.383,-15.625,-43.457,-31.250,-16.602,0.000
1727576224.387,-15.137,-28.809,-29.297,-27.344,0.000
1727576224.391,-47.852,-23.926,-31.738,-38.574,0.000
1727576224.395,-39.551,-28.809,-34.180,-20.508,0.000
1727576224.399,-31.250,-31.738,0.000,-11.719,0.000
1727576224.403,-28.809,-30.273,0.000,-25.391,0.000
1727576224.407,-15.625,-33.203,0.000,-42.969,0.000
1727576224.411,-48.828,-51.270,0.000,-63.477,0.000
1727576224.414,-55.664,-41.504,0.000,-41.992,0.000
1727576224.418,-35.645,-30.273,0.000,-10.742,0.000
1727576224.422,-26.855,-34.180,0.000,-18.555,0.000
1727576224.426,-16.602,-41.016,0.000,-31.250,0.000
1727576224.430,-49.805,-41.504,0.000,-50.781,0.000
1727576224.434,-59.570,-24.414,0.000,-38.574,0.000
1727576224.438,-26.367,-20.996,0.000,-6.836,0.000
1727576224.442,-11.719,-26.367,0.000,-17.578,0.000
1727576224.445,-0.977,-24.902,-30.762,-31.250,0.000
1727576224.449,-39.551,-41.016,-41.016,-41.992,0.000
1727576224.453,-66.406,-46.875,-44.434,-39.551,0.000
1727576224.457,-42.480,-38.574,-40.039,-13.672,0.000
1727576224.461,-26.367,-43.457,-36.133,-8.789,0.000
1727576224.465,-2.441,-42.480,-32.227,-9.277,0.000
1727576224.469,-18.555,-52.246,-34.180,-14.160,0.000
1727576224.473,-49.805,-54.688,-39.551,-11.719,0.000
1727576224.477,-28.320,-20.508,-31.738,7.324,0.000
1727576224.480,-18.066,-28.809,-30.762,-3.906,0.000
1727576224.484,-8.789,-46.387,-40.039,-15.625,0.000
1727576224.488,-21.484,-39.551,-42.480,-37.109,0.000
1727576224.492,-50.293,-33.691,-43.945,-51.270,0.000
1727576224.496,-30.762,-36.133,-39.062,-20.996,0.000
1727576224.500,-23.438,-56.641,-40.039,-22.949,0.000
1727576224.504,-18.066,-61.523,-46.387,-42.480,0.000
1727576224.507,-35.645,-56.152,-49.805,-58.105,0.000
1727576224.511,-48.340,-56.152,-47.852,-57.129,0.000
1727576224.515,-34.668,-57.129,-42.480,-17.090,0.000
1727576224.519,-36.621,-32.715,-43.945,-6.836,0.000
1727576224.523,-20.996,-25.879,-44.922,-26.855,0.000
1727576224.527,-20.996,-68.359,-41.016,-24.902,0.000
1727576224.531,-53.711,-72.754,-39.551,-16.602,0.000
1727576224.535,-43.945,-42.969,-40.527,1.953,0.000
1727576224.538,-23.438,-41.016,-46.875,0.977,0.000
1727576224.542,-4.395,-49.316,-50.781,-18.555,0.000
1727576224.546,-0.977,-87.402,-60.059,-35.156,0.000
1727576224.550,-15.625,-121.582,-49.805,-26.367,0.000
1727576224.554,-18.555,-43.457,-15.137,12.695,0.000
1727576224.558,-19.043,-4.395,-24.902,7.812,0.000
1727576224.562,20.020,-87.402,-62.988,13.672,0.000
1727576224.566,38.086,-83.008,-57.129,22.461,0.000
1727576224.570,-7.812,-78.125,-26.367,-15.137,0.000
1727576224.573,0.977,-157.227,-66.406,13.672,0.000
1727576224.577,38.086,-15.625,-53.711,65.918,0.000
1727576224.581,34.668,52.734,7.324,26.855,0.000
1727576224.586,87.402,-128.906,-25.879,60.059,0.000
1727576224.590,98.633,-41.504,41.504,104.492,0.000
1727576224.593,35.645,-167.969,-50.293,65.918,0.000
1727576224.597,107.422,-297.852,-73.242,142.578,0.000
1727576224.601,125.977,129.883,65.430,121.094,0.000
1727576224.605,-83.008,158.691,-65.918,-127.930,0.000
1727576224.609,-131.348,-13.672,-113.770,-149.902,0.000
1727576224.613,6.348,241.211,41.504,38.574,0.000
1727576224.617,-10.742,308.594,18.066,28.809,0.000
1727576224.621,-96.680,-32.715,-40.039,-78.125,0.000
1727576224.625,-63.477,79.590,-4.883,-74.707,0.000
1727576224.629,-8.789,218.262,-6.348,-24.414,0.000
1727576224.633,0.000,109.375,18.066,-37.598,0.000
1727576224.637,0.000,171.875,-68.359,-62.500,0.000
1727576224.641,0.000,285.156,-89.844,-59.570,0.000
1727576224.645,0.000,384.277,0.000,-56.152,0.000
1727576224.648,0.000,383.789,-9.277,-48.828,0.000
1727576224.652,0.000,438.477,-5.371,1.465,0.000
1727576224.656,0.000,493.164,-17.090,39.551,0.000
1727576224.660,0.000,538.574,-25.879,5.371,0.000
1727576224.664,0.000,597.656,-17.578,-5.859,0.000
1727576224.668,0.000,629.883,-1.465,-10.254,0.000
1727576224.672,0.000,662.598,18.066,-17.578,0.000
1727576224.676,0.000,684.082,25.391,27.344,0.000
1727576224.680,55.176,696.777,24.414,48.828,0.000
1727576224.684,75.684,717.773,28.320,31.250,0.000
1727576224.688,46.875,728.516,44.922,12.695,0.000
1727576224.692,11.719,726.562,64.941,13.184,0.000
1727576224.696,40.527,720.215,77.637,50.781,0.000
1727576224.699,64.941,708.008,78.613,49.316,0.000
1727576224.703,56.152,695.801,81.055,25.391,0.000
1727576224.707,37.109,666.016,84.473,0.000,0.000
1727576224.711,9.277,618.652,74.707,-13.184,0.000
1727576224.715,16.113,583.496,81.055,18.555,0.000
1727576224.719,27.832,556.641,92.773,26.367,0.000
1727576224.723,41.016,512.695,79.590,14.160,0.000
1727576224.727,28.320,454.102,67.383,1.953,0.000
1727576224.731,-14.160,411.621,66.406,-20.020,0.000
1727576224.735,-8.789,387.695,69.824,-10.254,0.000
1727576224.739,5.371,348.633,59.570,7.324,0.000
1727576224.742,14.160,307.129,35.156,-1.465,0.000
1727576224.746,10.742,268.066,15.137,-18.066,0.000
1727576224.750,-30.273,222.656,8.789,-41.016,0.000
1727576224.754,-34.668,169.434,-3.906,-25.391,0.000
1727576224.758,-28.809,108.398,-32.715,-14.648,0.000
1727576224.762,-15.625,70.312,-41.992,-33.691,0.000
1727576224.766,-11.230,43.457,-56.641,-49.316,0.000
1727576224.770,-52.734,16.113,-76.172,-65.430,0.000
1727576224.774,-61.035,-9.766,-65.430,-40.527,0.000
1727576224.778,-45.410,-48.340,-67.383,-27.832,0.000
1727576224.781,-40.039,-86.426,-81.543,-51.758,0.000
1727576224.785,-28.320,-119.141,-83.984,-49.805,0.000
1727576224.789,-65.918,-155.273,-87.891,-62.012,0.000
1727576224.793,-76.660,-185.547,-81.055,-51.758,0.000
1727576224.797,-55.176,-205.566,-73.730,-19.043,0.000
1727576224.801,-41.504,-221.680,-78.613,-16.602,0.000
1727576224.805,-32.715,-228.027,-74.707,-27.832,0.000
1727576224.809,-59.570,-250.977,-72.266,-41.992,0.000
1727576224.813,-63.477,-250.977,-71.777,-31.250,0.000
1727576224.817,-36.133,-258.301,-60.547,-15.625,0.000
1727576224.820,-32.227,-284.180,-60.059,-36.133,0.000
1727576224.824,-25.879,-299.316,-72.266,-41.992,0.000
1727576224.828,-44.434,-319.336,-72.266,-49.805,0.000
1727576224.832,-67.871,-323.730,-58.594,-45.898,0.000
1727576224.836,-57.129,-332.031,-52.734,-19.043,0.000
1727576224.840,-45.410,-356.934,-66.895,-28.809,0.000
1727576224.844,-35.156,-353.516,-64.941,-44.434,0.000
1727576224.848,-58.594,-354.492,-52.734,-61.035,0.000
1727576224.851,-90.332,-356.934,-45.410,-57.129,0.000
1727576224.855,-78.125,-353.516,-48.828,-26.367,0.000
1727576224.859,-51.270,-356.934,-52.246,-37.109,0.000
1727576224.863,-35.645,-369.141,-49.805,-50.781,0.000
1727576224.867,-57.617,-374.512,-50.293,-66.406,0.000
1727576224.871,-83.496,-358.887,-48.340,-68.359,0.000
1727576224.874,-69.336,-343.262,-35.156,-36.621,0.000
1727576224.878,-55.664,-328.125,-34.668,-41.016,0.000
1727576224.882,-24.902,-319.824,-31.250,-48.340,0.000
1727576224.886,-35.645,-350.586,-43.945,-58.105,0.000
1727576224.890,-84.961,-374.512,-55.664,-64.453,0.000
1727576224.894,-68.848,-351.562,-43.457,-32.715,0.000
1727576224.898,-42.480,-329.590,-46.387,-32.227,0.000
1727576224.902,-19.043,-329.102,-43.457,-31.250,0.000
1727576224.906,-29.785,-336.914,-45.410,-33.203,0.000
1727576224.910,-83.984,-356.934,-56.152,-57.129,0.000
1727576224.913,-74.707,-358.398,-51.270,-41.992,0.000
1727576224.917,-45.410,-322.266,-57.129,-31.738,0.000
1727576224.921,-40.039,-283.203,-51.270,-39.551,0.000
1727576224.925,-30.273,-264.648,-38.574,-44.922,0.000
1727576224.929,-60.059,-273.926,-44.922,-67.871,0.000
1727576224.933,-63.965,-291.504,-45.410,-44.922,0.000
1727576224.936,-48.828,-276.855,-46.875,-21.484,0.000
1727576224.940,-38.574,-243.652,-53.223,-45.898,0.000
1727576224.944,-35.156,-242.676,-51.270,-57.129,0.000
1727576224.948,-68.359,-255.371,-54.688,-63.965,0.000
1727576224.952,-71.289,-238.770,-51.758,-49.316,0.000
1727576224.956,-55.176,-214.844,-54.688,-38.086,0.000
1727576224.960,-52.246,-210.938,-56.152,-44.922,0.000
1727576224.964,-45.898,-216.797,-59.570,-53.223,0.000
1727576224.968,-80.566,-209.961,-65.918,-67.871,0.000
1727576224.972,-78.125,-183.105,-58.594,-45.410,0.000
1727576224.976,-45.898,-178.223,-52.246,-23.438,0.000
1727576224.980,-30.273,-199.707,-52.734,-31.738,0.000
1727576224.984,-8.789,-214.844,-55.176,-35.156,0.000
1727576224.988,-39.062,-227.051,-57.129,-57.129,0.000
1727576224.992,-46.387,-233.398,-55.664,-43.457,0.000
1727576224.996,-37.109,-227.539,-52.246,-1.465,0.000
1727576225.000,-40.039,-198.242,-51.758,-14.160,0.000
1727576225.003,-21.484,-180.664,-60.059,-42.480,0.000
1727576225.008,-52.246,-195.312,-66.406,-70.312,0.000
1727576225.012,-70.801,-181.152,-53.711,-68.359,0.000
1727576225.016,-45.898,-138.184,-41.504,-25.879,0.000
1727576225.019,-35.156,-116.699,-37.109,-19.531,0.000
1727576225.023,-21.484,-114.258,-42.480,-41.016,0.000
1727576225.027,-41.016,-116.211,-51.270,-58.594,0.000
1727576225.031,-68.359,-93.750,-42.969,-43.457,0.000
1727576225.035,-43.457,-65.918,-34.668,-2.930,0.000
1727576225.039,-21.973,-79.590,-42.969,-17.578,0.000
1727576225.043,-12.207,-75.684,-49.316,-47.363,0.000
1727576225.047,-33.691,-62.988,-52.246,-60.547,0.000
1727576225.051,-49.316,-62.500,-51.758,-46.875,0.000
1727576225.055,-32.715,-51.758,-49.316,-17.090,0.000
1727576225.059,-29.785,-35.645,-40.527,-12.695,0.000
1727576225.063,-4.883,-22.949,-36.621,-21.973,0.000
1727576225.066,-16.113,-55.664,-53.223,-45.898,0.000
1727576225.070,-66.895,-79.102,-62.988,-52.734,0.000
1727576225.074,-55.176,-57.617,-49.316,-14.648,0.000
1727576225.078,-37.598,-58.594,-41.992,-12.695,0.000
1727576225.082,-30.273,-71.777,-42.480,-33.203,0.000
1727576225.086,-32.227,-91.309,-50.293,-50.781,0.000
1727576225.090,-64.941,-86.426,-45.898,-62.012,0.000
1727576225.094,-61.035,-71.777,-38.086,-34.668,0.000
1727576225.098,-33.203,-78.613,-43.945,-26.855,0.000
1727576225.102,-3.906,-86.914,-37.598,-26.367,0.000
1727576225.106,-23.926,-97.168,-33.203,-34.668,0.000
1727576225.110,-80.078,-106.445,-43.457,-65.918,0.000
1727576225.113,-70.312,-101.562,-47.852,-47.852,0.000
1727576225.117,-46.875,-85.938,-49.316,-33.691,0.000
1727576225.121,-15.137,-63.477,-43.945,-42.480,0.000
1727576225.125,-18.066,-44.922,-36.133,-55.176,0.000
1727576225.129,-62.988,-45.410,-35.156,-68.359,0.000
1727576225.133,-43.457,-42.480,-27.344,-25.879,0.000
1727576225.137,-22.949,-35.645,-26.367,-16.602,0.000
1727576225.141,-13.672,-30.762,-33.203,-31.738,0.000
1727576225.145,-19.531,-18.555,-29.297,-38.086,0.000
1727576225.149,-67.871,-9.277,0.000,-57.129,0.000
1727576225.152,-71.777,7.812,0.000,-35.645,0.000
1727576225.156,-44.434,11.230,0.000,-9.277,0.000
1727576225.160,-32.715,1.465,0.000,-24.414,0.000
1727576225.164,-19.531,-7.324,0.000,-41.992,0.000
1727576225.168,-42.969,-15.137,0.000,-59.082,0.000
1727576225.172,-58.594,-9.277,0.000,-35.645,0.000
1727576225.176,-31.738,-9.277,0.000,0.000,0.000
1727576225.180,-13.184,-4.395,0.000,-16.113,0.000
1727576225.184,-8.789,4.883,0.000,-37.598,0.000
1727576225.188,-44.922,-8.301,0.000,-47.852,0.000
1727576225.191,-59.570,-15.137,0.000,-36.133,0.000
1727576225.195,-38.574,-15.137,-37.109,-15.625,0.000
1727576225.199,-25.879,-12.207,-27.344,-20.996,0.000
1727576225.203,-13.672,-19.043,-26.367,-23.926,0.000
1727576225.207,-40.039,-41.504,-32.227,-44.922,0.000
1727576225.211,-52.734,-50.293,-27.832,-44.922,0.000
1727576225.215,-30.273,-53.223,-25.879,-13.184,0.000
1727576225.219,-22.461,-62.012,-27.832,-19.531,0.000
1727576225.222,13.184,-60.059,-29.297,-18.066,0.000
1727576225.226,-17.578,-41.504,-32.227,-37.598,0.000
1727576225.230,-74.219,-55.664,-31.250,-57.129,0.000
1727576225.234,-44.922,-90.820,-26.855,-28.809,0.000
1727576225.238,-20.996,-78.125,-25.879,-31.250,0.000
1727576225.242,-10.254,-66.895,-32.227,-43.457,0.000
1727576225.246,-31.738,-74.707,-32.715,-45.410,0.000
1727576225.249,-58.594,-76.172,-25.879,-41.992,0.000
1727576225.253,-32.227,-63.965,-19.531,-8.789,0.000
1727576225.257,-18.555,-74.219,-22.461,-7.324,0.000
1727576225.261,-0.488,-89.844,-37.109,-27.344,0.000
1727576225.265,-10.742,-89.355,-46.387,-42.480,0.000
1727576225.269,-50.293,-92.285,-43.457,-49.316,0.000
1727576225.273,-42.480,-84.961,-32.227,-27.832,0.000
1727576225.277,-33.203,-80.566,-32.227,-17.090,0.000
1727576225.281,-15.137,-54.688,-41.992,-25.391,0.000
1727576225.285,-17.578,-33.691,-43.457,-34.668,0.000
1727576225.288,-55.664,-27.344,-33.691,-37.109,0.000
1727576225.292,-52.734,-7.324,-26.855,-20.508,0.000
1727576225.296,-33.691,2.441,-35.156,-26.855,0.000
1727576225.300,-15.137,3.906,-33.203,-35.156,0.000
1727576225.304,-21.484,-6.836,-34.668,-37.598,0.000
1727576225.308,-52.246,-22.461,-38.086,-43.945,0.000
1727576225.311,-37.109,-15.137,-34.668,-11.719,0.000
1727576225.315,-18.555,-20.996,-39.551,-7.812,0.000
1727576225.319,-12.695,-24.902,-43.457,-23.438,0.000
1727576225.323,-10.254,-16.113,-41.504,-32.715,0.000
1727576225.327,-43.945,-9.277,-37.598,-45.410,0.000
1727576225.331,-45.410,-4.883,-37.598,-18.066,0.000
1727576225.336,-34.668,-15.137,-45.410,-7.324,0.000
1727576225.339,-22.949,-23.926,-48.828,-20.508,0.000
1727576225.343,-7.324,-24.414,-45.898,-23.926,0.000
1727576225.347,-43.457,-28.809,-55.176,-47.363,0.000
1727576225.351,-50.293,-42.969,-52.246,-27.344,0.000
1727576225.355,-22.949,-50.293,-46.387,-13.672,0.000
1727576225.359,-15.137,-31.250,-52.246,-36.133,0.000
1727576225.363,-18.066,-16.602,-45.410,-28.809,0.000
1727576225.367,-55.176,-32.227,-46.875,-52.246,0.000
1727576225.371,-61.035,-36.621,-47.852,-41.504,0.000
1727576225.375,-36.133,-18.555,-39.551,-8.301,0.000
1727576225.378,-32.715,-17.578,-44.922,-31.250,0.000
1727576225.383,-27.344,-32.715,-52.734,-42.969,0.000
1727576225.387,-45.898,-46.387,-46.875,-45.410,0.000
1727576225.391,-51.270,-43.945,-27.832,-41.992,0.000
1727576225.394,-31.250,-40.527,-20.996,-10.254,0.000
1727576225.398,-25.391,-54.199,-40.527,-18.555,0.000
1727576225.402,-7.324,-69.824,-49.805,-32.227,0.000
1727576225.406,-23.438,-65.430,-42.480,-32.227,0.000
1727576225.410,-62.012,-48.340,-32.715,-38.086,0.000
1727576225.414,-47.363,-45.898,-27.832,-8.789,0.000
1727576225.418,-32.227,-60.059,-32.715,-5.371,0.000
1727576225.422,-24.902,-52.246,-37.109,-39.551,0.000
1727576225.426,-37.598,-54.199,-43.457,-63.965,0.000
1727576225.430,-59.570,-52.734,-43.457,-58.594,0.000
1727576225.434,-43.945,-49.316,-36.133,-12.207,0.000
1727576225.438,-23.926,-66.406,-34.180,-5.859,0.000
1727576225.441,15.625,-72.266,-28.809,-21.973,0.000
1727576225.445,3.906,-70.312,-31.250,-26.367,0.000
1727576225.449,-50.781,-68.848,-36.621,-33.203,0.000
1727576225.453,-42.969,-54.199,-32.715,-19.531,0.000
1727576225.457,-38.574,-30.762,-35.645,-26.855,0.000
1727576225.461,-19.531,-34.180,-39.062,-31.738,0.000
1727576225.465,-23.438,-41.504,-44.434,-38.086,0.000
1727576225.469,-63.477,-28.320,-39.062,-53.711,0.000
1727576225.473,-48.828,-18.555,-26.855,-20.508,0.000
1727576225.477,-25.879,-23.438,-32.715,-14.160,0.000
1727576225.481,-12.207,-25.879,-34.180,-27.344,0.000
1727576225.485,-17.578,-22.949,-36.133,-37.598,0.000
1727576225.488,-47.852,-19.043,-30.273,-45.410,0.000
1727576225.492,-33.203,-13.184,-18.066,-12.207,0.000
1727576225.496,-10.254,-21.973,-20.020,-4.883,0.000
1727576225.500,-10.254,-20.508,-24.902,-28.809,0.000
1727576225.504,-28.320,-18.066,-32.715,-33.203,0.000
1727576225.508,-55.176,-23.438,-38.086,-40.039,0.000
1727576225.512,-37.109,-2.441,-23.926,-24.414,0.000
1727576225.516,-14.160,5.859,-16.602,0.000,0.000
1727576225.520,1.953,-13.184,-12.207,1.465,0.000
1727576225.523,-4.883,-27.832,-18.066,-19.043,0.000
1727576225.527,-54.199,-29.297,-35.156,-52.734,0.000
1727576225.531,-54.199,-23.926,-41.016,-41.016,0.000
1727576225.535,-32.715,-21.484,-40.039,-23.438,0.000
1727576225.539,-18.066,-13.672,-31.738,-38.574,0.000
1727576225.543,-12.695,-14.160,-29.297,-45.410,0.000
1727576225.547,-42.480,-26.367,-35.645,-60.547,0.000
1727576225.551,-42.480,-29.785,-28.809,-30.273,0.000
1727576225.555,-33.691,-11.719,-24.414,-5.859,0.000
1727576225.559,-18.555,-1.953,-32.715,-35.645,0.000
1727576225.563,11.230,-10.254,-28.809,-34.180,0.000
1727576225.566,-34.668,-29.297,-30.762,-38.574,0.000
1727576225.570,-65.918,-26.367,-27.344,-36.133,0.000
1727576225.574,-39.062,-20.508,-24.902,-10.742,0.000
1727576225.578,-19.531,-41.992,-28.320,-18.066,0.000
1727576225.582,-6.348,-48.828,-29.785,-37.109,0.000
1727576225.586,-41.016,-38.086,-39.551,-54.199,0.000
1727576225.590,-59.570,-32.227,-36.621,-43.457,0.000
1727576225.594,-21.973,-29.785,-28.320,0.000,0.000
1727576225.597,-7.812,-27.832,-33.691,-1.953,0.000
1727576225.601,-7.812,-13.184,-38.086,-25.391,0.000
1727576225.605,-27.832,-28.320,-41.992,-40.039,0.000
1727576225.609,-46.387,-41.016,-34.668,-30.762,0.000
1727576225.613,-28.320,-29.297,-23.926,2.930,0.000
1727576225.617,0.000,-28.809,-28.320,-17.578,0.000
1727576225.621,0.000,-30.273,-41.504,-49.805,0.000
1727576225.624,0.000,-36.621,-48.828,-61.035,0.000
1727576225.628,0.000,-33.203,-38.574,-48.828,0.000
1727576225.632,0.000,-11.230,-36.621,-10.742,0.000
1727576225.636,0.000,-16.113,-42.969,-10.742,0.000
1727576225.640,0.000,-26.855,-40.527,-18.555,0.000
1727576225.644,0.000,-24.902,-42.969,-37.109,0.000
1727576225.648,0.000,-20.996,-40.527,-49.316,0.000
1727576225.652,0.000,-20.508,-33.691,-18.066,0.000
1727576225.656,0.000,-33.691,-32.227,-16.602,0.000
1727576225.660,0.000,-29.297,-30.762,-28.320,0.000
1727576225.663,-28.320,-36.621,-37.598,-41.016,0.000
1727576225.667,-59.570,-57.617,-41.504,-47.363,0.000
1727576225.671,-44.922,-43.457,-29.785,-18.555,0.000
1727576225.675,-23.926,-37.109,-17.090,-4.883,0.000
1727576225.679,-9.277,-32.715,-23.438,-18.555,0.000
1727576225.683,-6.836,-35.645,-42.480,-44.434,0.000
1727576225.686,-49.805,-52.734,-43.457,-61.523,0.000
1727576225.690,-62.500,-34.668,-42.969,-42.480,0.000
1727576225.694,-39.551,-27.344,-50.781,-30.273,0.000
1727576225.698,-14.160,-38.086,-38.086,-30.762,0.000
1727576225.702,-16.113,-38.574,-33.691,-34.668,0.000
1727576225.706,-65.918,-48.828,-41.016,-50.293,0.000
1727576225.710,-60.059,-38.086,-25.879,-30.762,0.000
1727576225.714,-24.414,-38.086,-19.531,-11.719,0.000
1727576225.718,-14.648,-55.664,-29.297,-26.367,0.000
1727576225.722,-4.883,-45.410,-34.668,-34.180,0.000
1727576225.726,-35.156,-37.109,-37.109,-48.340,0.000
1727576225.730,-45.410,-42.969,-42.480,-38.086,0.000
1727576225.734,-37.109,-36.621,-41.992,-21.484,0.000
1727576225.738,-35.156,-25.391,-39.551,-31.738,0.000
1727576225.742,-21.484,-26.855,-44.922,-36.621,0.000
1727576225.746,-43.945,-41.504,-48.340,-57.617,0.000
1727576225.749,-56.152,-31.250,-43.945,-51.758,0.000
1727576225.753,-35.645,-23.438,-41.504,-23.926,0.000
1727576225.758,-22.949,-28.320,-45.898,-41.504,0.000
1727576225.762,-3.418,-26.855,-45.898,-67.383,0.000
1727576225.765,-38.086,-41.016,-42.480,-75.195,0.000
1727576225.769,-55.664,-33.691,-29.785,-46.875,0.000
1727576225.773,-30.762,-20.020,-33.203,-24.414,0.000
1727576225.777,-26.855,-30.762,-43.457,-37.109,0.000
1727576225.781,-18.066,-34.180,-44.434,-34.180,0.000
1727576225.785,-52.246,-32.227,-50.293,-53.223,0.000
1727576225.789,-73.730,-35.645,-43.457,-59.082,0.000
1727576225.793,-39.551,-34.668,-39.551,-23.438,0.000
1727576225.797,-31.738,-28.320,-39.551,-36.621,0.000
1727576225.801,-25.391,-33.203,-36.621,-47.363,0.000
1727576225.805,0.000,-41.504,-46.875,-56.641,0.000
1727576225.809,0.000,-27.344,-46.875,-57.129,0.000
1727576225.813,0.000,-20.508,-34.180,-11.719,0.000
1727576225.816,0.000,-30.273,-32.227,-19.043,0.000
1727576225.820,0.000,-31.738,-40.039,-41.504,0.000
1727576225.824,0.000,-41.504,-46.875,-46.875,0.000
1727576225.828,0.000,-40.527,-42.969,-44.434,0.000
1727576225.832,0.000,-19.043,-42.969,-17.090,0.000
1727576225.836,0.000,-25.879,-42.480,-6.348,0.000
1727576225.840,0.000,-32.227,-31.738,-17.090,0.000
1727576225.844,0.000,-40.039,-34.668,-45.898,0.000
1727576225.848,0.000,-51.270,-41.504,-58.594,0.000
1727576225.852,-52.246,-29.297,-31.738,-25.879,0.000
1727576225.856,-39.551,-8.789,-35.156,-20.020,0.000
1727576225.859,-10.254,-22.949,-42.969,-21.484,0.000
1727576225.863,-3.906,-29.785,-41.992,-23.926,0.000
1727576225.867,-51.758,-16.602,-40.039,-38.086,0.000
1727576225.871,-45.410,-15.137,-32.227,-1.465,0.000
1727576225.875,-24.902,-13.672,-34.180,9.766,0.000
1727576225.879,-21.973,-20.996,-43.945,-11.719,0.000
1727576225.883,-17.090,-47.852,-48.828,-19.531,0.000
1727576225.887,-49.805,-33.691,-40.527,-39.062,0.000
1727576225.891,-46.875,-6.836,-30.762,-28.809,0.000
1727576225.895,-24.902,-20.996,-34.668,-11.719,0.000
1727576225.898,-7.324,-20.020,-38.086,-22.949,0.000
1727576225.902,-3.418,-8.789,-39.551,-40.039,0.000
1727576225.906,-42.969,-17.090,-43.945,-57.617,0.000
1727576225.910,-41.504,-16.113,-31.738,-18.066,0.000
1727576225.914,-18.066,-13.672,-25.879,7.324,0.000
1727576225.918,-8.789,-25.391,-35.156,-14.160,0.000
1727576225.922,2.930,-32.715,-49.805,-31.250,0.000
1727576225.926,-37.109,-44.434,-47.363,-41.016,0.000
1727576225.930,-55.664,-38.086,-28.809,-17.090,0.000
1727576225.934,-37.109,-28.809,-31.738,-4.395,0.000
1727576225.938,-19.043,-33.203,-36.621,-27.832,0.000
1727576225.941,-2.930,-31.738,-28.809,-30.762,0.000
1727576225.945,-35.156,-20.996,-31.738,-43.945,0.000
1727576225.949,-49.316,-15.625,-28.809,-36.133,0.000
1727576225.953,-29.785,-19.043,-25.391,-4.395,0.000
1727576225.957,-26.367,-26.367,-34.180,-20.996,0.000
1727576225.961,-6.348,-46.387,-27.344,-25.391,0.000
1727576225.965,-25.391,-68.848,-26.367,-34.668,0.000
1727576225.969,-53.711,-51.270,-32.227,-36.621,0.000
1727576225.972,-30.762,-31.250,-30.762,-3.418,0.000
1727576225.976,-18.066,-20.508,-33.691,-14.648,0.000
1727576225.980,-13.184,-22.461,-43.457,-33.691,0.000
1727576225.984,-33.691,-34.668,-46.875,-43.457,0.000
1727576225.988,-64.941,-40.527,-38.086,-43.457,0.000
1727576225.992,-46.875,-35.156,-39.551,-19.043,0.000
1727576225.995,-26.855,-36.133,-44.434,-27.344,0.000
1727576225.999,-9.277,-60.547,-38.086,-40.039,0.000
1727576226.003,-22.949,-67.871,-34.180,-45.898,0.000
1727576226.007,-50.293,-55.176,-37.598,-44.434,0.000
1727576226.011,-41.504,-38.574,-40.527,-20.508,0.000
1727576226.015,-30.762,-35.645,-47.852,-14.648,0.000
1727576226.019,-13.184,-29.297,-42.969,-28.809,0.000
1727576226.023,-19.531,-23.926,-35.156,-35.645,0.000
1727576226.027,-55.176,-29.297,-42.969,-45.410,0.000
1727576226.031,-42.480,-34.668,-44.434,-24.902,0.000
1727576226.034,-10.254,-38.086,-38.574,-19.531,0.000
1727576226.038,9.277,-25.391,-32.227,-27.344,0.000
1727576226.042,-14.160,-28.320,-34.668,-32.715,0.000
1727576226.046,-62.012,-42.969,-39.062,-42.969,0.000
1727576226.050,-56.641,-35.156,-41.016,-20.508,0.000
1727576226.054,-26.855,-16.113,-44.922,-12.695,0.000
1727576226.057,-9.277,-23.926,-47.852,-18.555,0.000
1727576226.061,-4.395,-42.480,-48.828,-30.273,0.000
1727576226.065,-39.062,-42.480,-43.457,-42.480,0.000
1727576226.069,-49.316,-35.156,-40.527,-18.555,0.000
1727576226.073,-30.762,-36.621,-41.992,-14.648,0.000
1727576226.077,-16.602,-30.762,-47.363,-31.738,0.000
1727576226.081,-15.137,-29.297,-50.781,-40.039,0.000
1727576226.085,0.000,-41.504,-45.410,-56.641,0.000
1727576226.089,0.000,-33.691,-39.062,-31.250,0.000
1727576226.093,0.000,-24.902,-38.574,-7.324,0.000
1727576226.097,0.000,-36.133,-33.203,-7.324,0.000
1727576226.101,0.000,-38.574,-32.227,-15.137,0.000
1727576226.105,0.000,-38.086,-39.551,-39.062,0.000
1727576226.109,0.000,-29.785,-37.598,-27.832,0.000
1727576226.113,0.000,-32.715,-40.527,-24.414,0.000
1727576226.117,0.000,-41.992,-41.992,-41.504,0.000
1727576226.121,0.000,-61.035,-47.852,-37.109,0.000
1727576226.124,0.000,-69.824,-48.340,-45.898,0.000
1727576226.128,0.000,-61.523,-42.969,-38.574,0.000
1727576226.133,-47.852,-53.223,-44.434,-26.367,0.000
1727576226.137,-30.273,-50.781,-55.176,-34.180,0.000
1727576226.140,-7.812,-48.828,-53.711,-30.762,0.000
1727576226.144,-30.273,-46.875,-41.016,-42.480,0.000
1727576226.148,-42.969,-44.922,-30.273,-27.832,0.000
1727576226.152,-32.715,-55.664,-33.691,-2.441,0.000
1727576226.156,-33.691,-52.246,-43.945,-21.484,0.000
1727576226.160,-21.484,-42.480,-50.781,-45.898,0.000
1727576226.164,-42.480,-53.711,-57.617,-52.734,0.000
1727576226.168,-67.383,-53.711,-54.199,-34.180,0.000
1727576226.172,-42.480,-33.203,-47.363,-20.996,0.000
1727576226.176,-25.879,-28.320,-50.781,-29.297,0.000
1727576226.180,-13.184,-37.109,-55.664,-22.461,0.000
1727576226.184,-29.785,-44.922,-53.223,-43.945,0.000
1727576226.188,-56.641,-42.969,-40.527,-50.781,0.000
1727576226.191,-25.391,-46.387,-34.668,-16.602,0.000
1727576226.195,-3.418,-34.668,-41.016,-16.602,0.000
1727576226.199,-4.883,-22.949,-49.316,-36.133,0.000
1727576226.203,-20.508,-30.273,-51.270,-46.875,0.000
1727576226.207,-53.711,-33.203,-44.434,-47.363,0.000
1727576226.211,-34.180,-40.039,-38.086,-7.812,0.000
1727576226.215,-21.484,-22.949,-34.668,-16.113,0.000
1727576226.219,-11.719,-5.859,-35.156,-41.992,0.000
1727576226.223,-18.066,-30.762,-38.574,-47.363,0.000
1727576226.227,-50.293,-42.480,-32.715,-50.781,0.000
1727576226.231,-47.363,-19.531,-24.902,-19.043,0.000
1727576226.234,-34.668,-16.602,-28.809,-20.508,0.000
1727576226.238,-0.977,-19.043,-33.691,-37.598,0.000
1727576226.242,-3.906,-15.625,-35.156,-50.781,0.000
1727576226.246,-60.059,-27.832,-38.574,-61.035,0.000
1727576226.250,-58.105,-25.879,-38.574,-21.973,0.000
1727576226.254,-34.180,-15.625,-40.527,-1.953,0.000
1727576226.258,-20.508,-13.184,-47.852,-31.738,0.000
1727576226.262,-19.043,-10.254,-44.434,-48.828,0.000
1727576226.266,-38.086,-18.555,-44.434,-49.805,0.000
1727576226.270,-20.508,-24.414,-38.574,-27.344,0.000
1727576226.273,-17.090,-27.832,-20.508,-11.230,0.000
1727576226.277,-18.066,-18.555,-23.926,-27.832,0.000
1727576226.281,-10.254,-22.461,-37.109,-41.504,0.000
1727576226.285,-40.527,-30.762,-38.086,-45.410,0.000
1727576226.289,-44.434,-11.719,-25.879,-19.043,0.000
1727576226.293,-24.902,-24.902,-30.762,-15.137,0.000
1727576226.297,-9.277,-36.133,-37.109,-41.504,0.000
1727576226.301,-17.578,-30.273,-44.922,-42.480,0.000
1727576226.305,-70.312,-34.668,-50.781,-56.152,0.000
1727576226.309,-65.430,-40.527,-41.992,-50.293,0.000
1727576226.313,-31.738,-31.738,-33.203,-27.344,0.000
1727576226.316,-29.785,-31.250,-33.691,-35.645,0.000
1727576226.320,-21.973,-33.691,-40.527,-37.109,0.000
1727576226.324,-50.781,-31.250,-42.969,-52.734,0.000
1727576226.328,-56.641,-31.738,-34.668,-36.621,0.000
1727576226.332,-41.016,-27.832,-29.785,-3.906,0.000
1727576226.336,-30.762,-29.785,-25.879,-17.090,0.000
1727576226.340,1.465,-33.691,-26.855,-19.531,0.000
1727576226.343,-24.414,-44.434,-31.250,-29.297,0.000
1727576226.347,-50.293,-44.434,-26.367,-27.344,0.000
1727576226.351,-25.879,-24.414,-24.902,-10.742,0.000
1727576226.355,-23.926,-18.555,-30.762,-37.598,0.000
1727576226.359,-10.742,-32.227,-41.016,-41.504,0.000
1727576226.363,-20.508,-40.527,-45.898,-40.039,0.000
1727576226.367,-51.758,-27.344,-35.156,-43.945,0.000
1727576226.370,-41.504,-19.531,-28.320,-22.461,0.000
1727576226.374,-24.414,-37.109,-32.227,-29.785,0.000
1727576226.378,-5.371,-31.250,-28.320,-35.645,0.000
1727576226.382,-20.996,-27.832,-33.203,-41.504,0.000
1727576226.386,-49.805,-34.668,-32.227,-26.367,0.000
1727576226.390,-28.809,-31.250,-23.438,8.789,0.000
1727576226.394,-10.742,-27.344,-27.832,-13.184,0.000
1727576226.398,0.000,-24.902,-36.621,-34.668,0.000
1727576226.402,-19.043,-34.668,-45.898,-46.387,0.000
1727576226.406,-48.828,-33.691,-41.016,-49.316,0.000
1727576226.410,-34.668,-23.438,-26.855,-17.578,0.000
1727576226.413,-17.578,-41.992,-22.949,-16.602,0.000
1727576226.417,-5.371,-62.012,-22.461,-27.832,0.000
1727576226.421,-26.855,-70.312,-28.809,-31.250,0.000
1727576226.425,-74.219,-54.688,-33.691,-42.480,0.000
1727576226.429,-62.012,-26.367,-29.785,-27.832,0.000
1727576226.433,-41.016,-27.832,-31.250,-16.113,0.000
1727576226.436,-20.020,-41.016,-36.621,-23.438,0.000
1727576226.440,-10.742,-35.156,-42.969,-38.086,0.000
1727576226.444,-58.594,-38.574,-43.945,-44.434,0.000
1727576226.448,-56.152,-36.621,-38.574,-17.578,0.000
1727576226.452,-27.832,-34.668,-33.203,-7.812,0.000
1727576226.456,-21.484,-42.969,-36.621,-34.180,0.000
1727576226.460,-28.809,-46.875,-47.363,-42.969,0.000
1727576226.464,-68.359,-56.641,-50.293,-42.480,0.000
1727576226.468,-59.082,-40.527,-43.945,-19.531,0.000
1727576226.472,-30.762,-20.020,-40.527,-16.602,0.000
1727576226.476,-14.160,-14.160,-35.156,-38.574,0.000
1727576226.480,-0.488,-28.809,-38.574,-39.551,0.000
1727576226.484,-40.039,-39.551,-41.992,-52.246,0.000
1727576226.488,-53.711,-28.809,-33.691,-37.598,0.000
1727576226.492,-37.109,-34.180,-31.738,-10.742,0.000
1727576226.496,-22.949,-51.270,-34.180,-20.508,0.000
1727576226.500,-1.465,-48.828,-30.762,-31.738,0.000
1727576226.503,-23.926,-50.293,-23.438,-38.086,0.000
1727576226.508,-46.387,-49.805,-26.855,-20.996,0.000
1727576226.512,-37.109,-46.875,-35.645,-12.695,0.000
1727576226.515,-17.578,-40.039,-36.133,-32.227,0.000
1727576226.519,-8.789,-22.949,-38.086,-37.598,0.000
1727576226.523,-45.410,-22.461,-36.621,-53.223,0.000
1727576226.527,-52.246,-29.297,-27.832,-33.691,0.000
1727576226.531,-26.855,-25.391,-19.043,4.395,0.000
1727576226.535,-19.043,-26.855,-23.438,-8.789,0.000
1727576226.539,7.812,-27.832,-30.273,-23.926,0.000
1727576226.543,-23.926,-30.273,-25.391,-33.203,0.000
1727576226.547,-56.152,-21.484,-22.949,-31.250,0.000
1727576226.551,-27.344,-19.043,-23.926,-1.953,0.000
1727576226.555,-11.719,-30.273,0.000,-2.441,0.000
1727576226.559,-1.953,-29.785,0.000,-21.484,0.000
1727576226.563,-28.320,-25.879,0.000,-36.621,0.000
1727576226.566,-56.152,-19.043,0.000,-32.715,0.000
1727576226.570,-34.180,-12.207,0.000,-9.277,0.000
1727576226.574,-24.414,-17.578,0.000,-15.137,0.000
1727576226.578,-12.695,-14.648,0.000,-32.227,0.000
1727576226.582,-28.809,-23.926,0.000,-44.922,0.000
1727576226.586,-61.035,-32.715,0.000,-37.598,0.000
1727576226.590,-50.293,-10.254,0.000,-19.043,0.000
1727576226.594,-33.203,-4.395,0.000,-27.832,0.000
1727576226.598,-8.301,-19.531,0.000,-27.344,0.000
1727576226.602,-21.484,-31.738,-35.156,-29.297,0.000
1727576226.606,-60.059,-21.484,-36.621,-39.551,0.000
1727576226.610,-43.457,-7.812,-30.762,-15.137,0.000
1727576226.613,-27.832,-12.695,-33.691,-19.043,0.000
1727576226.617,-19.531,-18.066,-33.203,-34.180,0.000
1727576226.621,-21.973,-32.715,-29.297,-42.480,0.000
1727576226.625,-53.711,-33.203,-31.250,-53.711,0.000
1727576226.629,-43.457,-19.043,-36.133,-28.320,0.000
1727576226.633,-21.484,-28.320,-46.875,-9.277,0.000
1727576226.637,-14.160,-19.043,-41.504,-20.020,0.000
1727576226.641,-25.391,-23.926,-42.480,-43.945,0.000
1727576226.645,-51.758,-38.574,-47.852,-55.176,0.000
1727576226.649,-53.711,-31.250,-40.527,-24.414,0.000
1727576226.652,-49.316,-23.438,-39.551,-15.625,0.000
1727576226.656,-26.855,-22.461,-43.945,-20.996,0.000
1727576226.660,-15.137,-36.621,-42.969,-18.066,0.000
1727576226.664,-58.105,-36.621,-41.504,-34.180,0.000
1727576226.668,-62.500,-21.484,-39.551,-17.578,0.000
1727576226.672,-37.598,-27.832,-42.969,-9.277,0.000
1727576226.676,-16.113,-28.320,-42.969,-28.809,0.000
1727576226.680,-15.625,-20.996,-35.645,-37.598,0.000
1727576226.684,-51.758,-25.879,-37.109,-51.758,0.000
1727576226.688,-37.109,-24.902,-33.691,-23.926,0.000
1727576226.691,-25.391,-30.762,-30.762,-4.883,0.000
1727576226.695,-40.527,-37.109,-33.691,-25.391,0.000
1727576226.699,-23.438,-32.715,-33.691,-34.668,0.000
1727576226.703,-51.758,-34.180,-39.062,-47.363,0.000
1727576226.707,-62.500,-20.020,-31.250,-34.180,0.000
1727576226.711,-38.574,-19.043,-24.414,-8.789,0.000
1727576226.715,-36.621,-25.879,-38.574,-20.020,0.000
1727576226.719,-20.996,-29.297,-39.551,-35.645,0.000
1727576226.722,-37.598,-45.410,-37.598,-46.875,0.000
1727576226.726,-50.293,-31.250,-38.574,-37.598,0.000
1727576226.730,-37.109,-32.715,-37.598,-14.648,0.000
1727576226.734,-32.715,-39.062,-36.133,-16.113,0.000
1727576226.738,-9.277,-20.996,-30.273,-13.184,0.000
1727576226.742,-28.320,-35.645,-33.691,-26.855,0.000
1727576226.746,-58.105,-36.621,-34.180,-13.184,0.000
1727576226.749,-43.945,-18.066,-26.855,20.508,0.000
1727576226.753,-37.109,-16.113,-28.320,6.836,0.000
1727576226.757,-21.484,-22.949,-29.297,-15.137,0.000
1727576226.761,-38.574,-40.039,-36.133,-35.156,0.000
1727576226.765,-68.848,-55.664,-42.480,-40.039,0.000
1727576226.769,-43.945,-45.898,-35.156,-14.648,0.000
1727576226.773,-21.973,-30.273,-38.086,-15.625,0.000
1727576226.777,-8.789,-30.762,-41.016,-27.832,0.000
1727576226.781,-30.762,-41.016,-44.922,-42.969,0.000
1727576226.785,-61.523,-48.828,-44.922,-42.480,0.000
1727576226.788,-28.320,-25.391,-25.879,-14.160,0.000
1727576226.792,-4.883,-17.578,-26.367,-23.926,0.000
1727576226.796,-7.324,-25.391,-33.203,-34.668,0.000
1727576226.800,-14.160,-28.320,-31.738,-42.969,0.000
1727576226.804,-56.641,-37.598,-36.621,-47.852,0.000
1727576226.808,-51.758,-35.156,-38.086,-9.766,0.000
1727576226.812,-25.879,-40.039,-34.668,6.348,0.000
1727576226.815,-13.184,-36.133,-32.227,-1.953,0.000
1727576226.819,-14.160,-25.391,-31.738,-4.395,0.000
1727576226.823,-42.480,-33.203,-30.273,-19.531,0.000
1727576226.827,-31.250,-29.785,-30.762,2.441,0.000
1727576226.831,-4.883,-19.531,-29.785,5.859,0.000
1727576226.834,15.137,-20.996,-25.879,-13.184,0.000
1727576226.838,9.766,-34.180,-32.227,-28.320,0.000
1727576226.842,-37.598,-45.898,-36.621,-39.062,0.000
1727576226.846,-36.621,-39.062,-29.785,-10.742,0.000
1727576226.850,-10.254,-42.480,-31.250,2.930,0.000
1727576226.854,0.977,-52.246,-45.898,-13.184,0.000
1727576226.858,6.836,-44.922,-43.457,-31.250,0.000
1727576226.862,-37.109,-33.203,-33.691,-48.340,0.000
1727576226.866,-51.270,-21.973,-30.273,-22.949,0.000
1727576226.870,-23.926,-37.109,-32.227,-6.836,0.000
1727576226.873,-24.902,-46.875,-31.738,-34.180,0.000
1727576226.877,-16.113,-33.691,-24.902,-45.410,0.000
1727576226.882,-37.109,-33.691,-28.809,-47.363,0.000
1727576226.886,-48.340,-34.668,-33.691,-39.062,0.000
1727576226.889,-32.715,-27.832,-30.762,-20.508,0.000
1727576226.893,-27.832,-30.762,-35.156,-23.438,0.000
1727576226.897,-8.789,-35.156,-40.527,-27.832,0.000
1727576226.901,-34.180,-41.992,-39.062,-40.039,0.000
1727576226.905,-45.898,-33.691,-29.297,-25.879,0.000
1727576226.909,-11.230,-16.113,-12.695,2.930,0.000
1727576226.913,-10.254,-29.785,-20.508,-11.719,0.000
1727576226.917,-2.441,-40.527,-35.156,-17.090,0.000
1727576226.921,-31.250,-37.109,-34.180,-35.645,0.000
1727576226.925,-55.176,-36.621,-36.621,-43.945,0.000
1727576226.929,-33.203,-30.762,-36.133,-13.672,0.000
1727576226.933,-31.250,-27.832,-33.203,-19.043,0.000
1727576226.937,-24.902,-21.973,-38.086,-33.203,0.000
1727576226.940,-32.227,-35.645,-50.293,-56.641,0.000
1727576226.944,-50.293,-51.758,-39.551,-56.641,0.000
1727576226.948,-45.410,-33.691,-31.250,-18.555,0.000
1727576226.952,-37.109,-28.809,-37.109,-19.043,0.000
1727576226.956,-22.949,-35.645,-36.133,-30.762,0.000
1727576226.960,-38.574,-43.945,-41.992,-45.410,0.000
1727576226.964,-59.082,-36.621,-41.504,-46.387,0.000
1727576226.968,-46.875,-16.602,-29.297,-26.855,0.000
1727576226.972,-34.180,-31.738,-33.203,-30.762,0.000
1727576226.976,-14.160,-44.434,-39.551,-30.762,0.000
1727576226.980,-32.715,-45.410,-41.504,-45.410,0.000
1727576226.984,-65.430,-44.434,-35.156,-48.340,0.000
1727576226.988,-32.227,-30.273,-27.832,-13.672,0.000
1727576226.991,-20.508,-25.391,-31.250,-14.648,0.000
1727576226.995,-20.508,-26.367,-31.250,-27.344,0.000
1727576226.999,-15.625,-31.738,-32.715,-35.645,0.000
1727576227.003,-44.434,-38.086,-33.203,-39.062,0.000
1727576227.007,-27.344,-39.551,-25.391,-8.301,0.000
1727576227.011,-10.254,-24.902,-19.043,-8.789,0.000
1727576227.015,0.000,-23.926,-31.738,-34.668,0.000
1727576227.019,7.812,-33.203,-41.504,-44.922,0.000
1727576227.023,-43.945,-29.785,0.000,-49.316,0.000
1727576227.027,-56.152,-21.973,0.000,-25.391,0.000
1727576227.030,-26.855,-21.484,0.000,-8.789,0.000
1727576227.034,-7.812,-33.203,0.000,-23.438,0.000
1727576227.038,-15.625,-34.180,0.000,-41.016,0.000
1727576227.042,-60.547,-39.551,0.000,-49.805,0.000
1727576227.046,-60.547,-43.945,0.000,-27.832,0.000
1727576227.050,-38.574,-43.457,0.000,-17.090,0.000
1727576227.054,-23.926,-31.250,0.000,-34.180,0.000
1727576227.058,-13.184,-30.762,0.000,-47.852,0.000
1727576227.062,-48.340,-43.457,0.000,-63.965,0.000
1727576227.066,-44.922,-34.180,0.000,-41.504,0.000
1727576227.069,-8.789,-35.645,-43.457,-25.391,0.000
1727576227.073,-26.855,-32.227,-45.410,-48.828,0.000
1727576227.077,-32.715,-41.016,-45.898,-49.805,0.000
1727576227.081,-51.270,-53.223,-48.340,-62.500,0.000
1727576227.085,-68.359,-36.621,-40.039,-47.852,0.000
1727576227.089,-45.898,-27.344,-34.668,-20.020,0.000
1727576227.093,-28.809,-18.555,-40.039,-29.297,0.000
1727576227.097,-19.043,-29.297,-46.875,-38.574,0.000
1727576227.101,-42.480,-45.898,-44.434,-60.547,0.000
1727576227.104,-57.617,-37.109,-38.574,-50.293,0.000
1727576227.108,-33.203,-29.785,-36.621,-25.391,0.000
1727576227.112,-15.625,-29.297,-34.180,-32.227,0.000
1727576227.116,4.395,-18.555,-38.086,-39.551,0.000
1727576227.120,-23.926,-19.043,-45.410,-46.875,0.000
1727576227.124,-62.500,-26.855,-41.504,-35.645,0.000
1727576227.128,-43.457,-28.809,-38.574,-9.277,0.000
1727576227.132,-25.391,-39.551,-41.992,-13.184,0.000
1727576227.135,-5.859,-43.457,-48.340,-34.668,0.000
1727576227.139,-26.367,-49.805,-58.594,-53.223,0.000
1727576227.143,-53.711,-35.645,-52.246,-52.734,0.000
1727576227.147,-42.969,-27.344,-40.527,-20.508,0.000
1727576227.151,-37.109,-44.434,-44.434,-11.230,0.000
1727576227.155,-15.625,-32.715,-48.828,-18.066,0.000
1727576227.159,-17.578,-24.902,-46.387,-39.062,0.000
1727576227.162,-56.152,-24.902,-38.086,-57.617,0.000
1727576227.166,-48.340,-31.250,-38.086,-26.855,0.000
1727576227.170,-26.855,-38.574,-39.062,-20.996,0.000
1727576227.174,-10.742,-30.762,-37.598,-34.668,0.000
1727576227.178,-27.832,-39.551,-45.410,-39.551,0.000
1727576227.182,-56.641,-50.293,-41.992,-36.133,0.000
1727576227.186,-34.180,-45.898,-30.273,-4.395,0.000
1727576227.190,-29.297,-39.551,-34.180,-14.160,0.000
1727576227.194,-25.391,-38.086,-45.898,-39.551,0.000
1727576227.198,-10.742,-40.527,-48.828,-48.340,0.000
1727576227.201,-37.109,-34.668,-37.598,-49.316,0.000
1727576227.205,-37.109,-22.461,-27.344,-15.625,0.000
1727576227.210,0.000,-34.668,-34.180,-5.859,0.000
1727576227.214,0.000,-44.434,-36.621,-17.578,0.000
1727576227.218,0.000,-41.504,-38.086,-25.391,0.000
1727576227.222,0.000,-35.156,-39.062,-43.945,0.000
1727576227.226,0.000,-28.809,-33.691,-27.344,0.000
1727576227.229,0.000,-37.109,-40.527,-3.418,0.000
1727576227.233,0.000,-37.598,-41.016,-12.207,0.000
1727576227.237,0.000,-28.809,-37.109,-31.250,0.000
1727576227.241,0.000,-38.574,-41.504,-44.434,0.000
1727576227.245,0.000,-33.691,-35.156,-15.625,0.000
1727576227.249,0.000,-28.809,-25.879,2.441,0.000
1727576227.253,0.000,-40.527,-22.461,-14.648,0.000
1727576227.257,-7.324,-56.152,-28.809,-22.949,0.000
1727576227.261,-41.016,-63.965,-40.039,-40.527,0.000
1727576227.265,-41.016,-32.715,-34.180,-27.832,0.000
1727576227.269,-23.926,-7.324,-28.320,-11.230,0.000
1727576227.273,-20.508,-24.902,-33.691,-30.273,0.000
1727576227.277,-12.207,-41.992,-43.457,-40.527,0.000
1727576227.281,-37.109,-45.410,-44.922,-42.969,0.000
1727576227.285,-43.945,-41.016,-43.457,-24.902,0.000
1727576227.288,-22.949,-35.645,-44.434,-7.324,0.000
1727576227.292,-20.020,-40.527,-36.133,-17.578,0.000
1727576227.296,-4.883,-32.227,-25.879,-26.367,0.000
1727576227.300,-27.832,-31.250,-27.832,-34.180,0.000
1727576227.304,0.000,-27.344,-31.250,-22.949,0.000
1727576227.308,0.000,-25.879,-33.691,-6.836,0.000
1727576227.312,0.000,-26.367,-32.227,-12.695,0.000
1727576227.316,0.000,-29.785,-37.109,-20.508,0.000
1727576227.320,0.000,-43.945,-52.246,-39.062,0.000
1727576227.324,0.000,-34.180,-47.852,-35.645,0.000
1727576227.328,0.000,-20.508,-36.621,-11.719,0.000
1727576227.332,0.000,-33.203,-34.668,-20.020,0.000
1727576227.336,0.000,-48.828,-40.527,-20.996,0.000
1727576227.339,0.000,-40.039,-49.316,-36.133,0.000
1727576227.343,0.000,-25.391,-48.340,-40.039,0.000
1727576227.347,0.000,-22.461,-40.039,-5.371,0.000
1727576227.351,-18.555,-33.691,-35.156,-6.836,0.000
1727576227.355,-0.488,-34.668,-41.016,-17.090,0.000
1727576227.359,-12.695,-39.062,-44.434,-25.391,0.000
1727576227.363,-44.434,-48.340,-41.992,-31.738,0.000
1727576227.367,-36.621,-39.062,-33.691,-11.719,0.000
1727576227.371,-25.391,-44.434,-35.645,-17.578,0.000
1727576227.375,-6.836,-47.852,-39.551,-30.762,0.000
1727576227.379,-11.230,-42.480,-37.109,-40.527,0.000
1727576227.383,-41.992,-45.410,-36.133,-39.062,0.000
1727576227.386,-40.527,-24.902,-23.926,-8.789,0.000
1727576227.390,-25.879,-22.461,-23.926,0.488,0.000
1727576227.394,-17.090,-37.109,-31.738,-15.137,0.000
1727576227.398,-27.344,-39.551,-33.691,-33.691,0.000
1727576227.402,-58.594,-39.551,-39.551,-50.781,0.000
1727576227.406,-49.316,-31.250,-36.133,-20.020,0.000
1727576227.410,-25.391,-32.715,-35.156,-8.789,0.000
1727576227.414,-14.648,-37.598,-34.668,-28.809,0.000
1727576227.418,-11.719,-41.992,-35.156,-40.039,0.000
1727576227.422,-45.898,-46.875,-41.992,-59.570,0.000
1727576227.425,-46.875,-47.363,-41.992,-27.832,0.000
1727576227.429,-22.461,-35.156,-37.109,-3.418,0.000
1727576227.433,-2.930,-23.438,-35.156,-17.090,0.000
1727576227.437,2.930,-26.367,-33.691,-24.902,0.000
1727576227.441,-35.645,-38.574,-39.062,-52.246,0.000
1727576227.445,-45.898,-36.621,-39.551,-36.621,0.000
1727576227.449,-32.715,-31.738,-41.504,-3.906,0.000
1727576227.453,-7.324,-39.062,-45.410,-20.020,0.000
1727576227.456,-2.930,-43.945,-46.387,-43.457,0.000
1727576227.460,-52.734,-42.480,-43.945,-61.035,0.000
1727576227.464,-52.734,-39.062,-34.668,-37.109,0.000
1727576227.468,-26.367,-40.527,-37.109,-8.789,0.000
1727576227.472,-28.809,-45.898,-50.781,-23.438,0.000
1727576227.476,-20.996,-45.898,-49.805,-40.039,0.000
1727576227.480,-41.016,-57.617,-43.457,-42.480,0.000
1727576227.484,-54.199,-42.969,-40.527,-36.621,0.000
1727576227.488,-32.715,-16.113,-38.574,-23.926,0.000
1727576227.491,-26.855,-28.809,-43.457,-26.367,0.000
1727576227.495,-10.742,-39.551,-43.457,-27.832,0.000
1727576227.499,-24.414,-48.828,-42.969,-47.363,0.000
1727576227.503,-49.805,-47.852,-40.039,-41.016,0.000
1727576227.507,-40.039,-41.504,-42.969,-6.836,0.000
1727576227.511,-25.879,-44.922,-51.758,-10.742,0.000
1727576227.515,-5.859,-44.922,-48.828,-16.113,0.000
1727576227.519,-29.785,-36.621,-43.945,-29.785,0.000
1727576227.523,-53.223,-30.762,-44.922,-38.086,0.000
1727576227.526,-37.598,-35.156,-41.504,-1.953,0.000
1727576227.530,-33.691,-34.180,-38.086,-6.836,0.000
1727576227.534,-2.930,-26.855,-37.109,-35.645,0.000
1727576227.538,-23.926,-30.762,-34.668,-51.270,0.000
1727576227.542,-59.082,-40.039,-35.645,-52.246,0.000
1727576227.546,-30.762,-35.156,-33.203,-17.578,0.000
1727576227.549,-30.273,-38.086,-32.715,-13.672,0.000
1727576227.553,-21.973,-40.039,-41.992,-21.973,0.000
1727576227.557,-31.738,-52.246,-55.176,-32.227,0.000
1727576227.561,-59.082,-61.523,-53.223,-34.180,0.000
1727576227.565,-40.527,-36.621,-37.109,-10.742,0.000
1727576227.569,-20.508,-33.691,-33.203,-13.184,0.000
1727576227.573,2.441,-40.039,-34.668,-21.973,0.000
1727576227.577,-5.859,-32.227,-37.109,-28.320,0.000
1727576227.581,-51.758,-30.273,-42.480,-35.645,0.000
1727576227.584,-41.504,-28.320,-41.504,-6.836,0.000
1727576227.588,-20.020,-45.410,-39.062,-2.930,0.000
1727576227.592,-2.441,-38.574,-35.156,-29.297,0.000
1727576227.596,-8.789,-22.949,-34.180,-44.434,0.000
1727576227.600,-51.758,-34.668,-36.621,-40.039,0.000
1727576227.604,-48.340,-46.875,-33.691,-0.488,0.000
1727576227.608,-33.203,-39.062,-29.297,-4.883,0.000
1727576227.611,-20.508,-29.785,-27.344,-36.133,0.000
1727576227.615,-16.602,-41.992,-36.133,-35.645,0.000
1727576227.619,-46.875,-65.918,-40.039,-43.945,0.000
1727576227.623,-42.480,-59.082,-27.344,-24.902,0.000
1727576227.627,-28.320,-41.504,-26.855,-14.160,0.000
1727576227.631,-20.020,-38.086,-36.133,-35.645,0.000
1727576227.635,-9.277,-40.527,-36.133,-43.457,0.000
1727576227.639,-52.246,-54.688,-37.598,-58.594,0.000
1727576227.643,-62.988,-47.852,-37.598,-30.762,0.000
1727576227.647,-32.715,-30.273,-36.621,-6.348,0.000
1727576227.651,-24.414,-44.434,-42.969,-22.461,0.000
1727576227.655,-13.672,-49.805,-45.898,-41.992,0.000
1727576227.659,-28.320,-52.734,-47.363,-75.195,0.000
1727576227.663,-38.574,-54.688,-41.504,-55.176,0.000
1727576227.667,-24.414,-36.133,-35.645,-20.996,0.000
1727576227.670,-7.812,-25.879,-30.762,-39.551,0.000
1727576227.674,13.184,-44.922,-37.598,-48.340,0.000
1727576227.679,-11.230,-48.828,-45.410,-45.410,0.000
1727576227.682,-45.898,-40.039,-36.621,-31.250,0.000
1727576227.686,-30.273,-50.293,-30.762,-11.230,0.000
1727576227.690,-30.762,-49.316,-35.645,-21.484,0.000
1727576227.694,-21.973,-36.621,-38.574,-28.320,0.000
1727576227.698,-32.227,-41.992,-32.227,-39.062,0.000
1727576227.702,-53.223,-47.852,-27.344,-37.598,0.000
1727576227.706,-39.551,-46.875,-26.367,-10.254,0.000
1727576227.710,-30.762,-60.059,-36.133,-19.531,0.000
1727576227.714,-18.555,-53.711,-38.574,-35.156,0.000
1727576227.718,-42.480,-56.641,-41.016,-58.594,0.000
1727576227.722,-73.242,-67.871,-41.504,-52.734,0.000
1727576227.726,-38.086,-48.340,-26.367,-19.531,0.000
1727576227.730,-29.297,-45.410,-29.297,-33.691,0.000
1727576227.733,-32.715,-57.129,-34.180,-39.062,0.000
1727576227.737,-41.992,-57.129,-34.668,-41.504,0.000
1727576227.741,-64.941,-47.852,-38.574,-41.016,0.000
1727576227.745,-33.691,-33.203,-25.391,-3.418,0.000
1727576227.749,-19.043,-33.691,-29.785,-12.695,0.000
1727576227.753,-16.113,-54.199,-38.574,-36.133,0.000
1727576227.757,-17.090,-72.266,-38.086,-45.410,0.000
1727576227.761,-51.270,-57.129,-39.551,-63.477,0.000
1727576227.765,-35.645,-34.668,-30.273,-34.668,0.000
1727576227.769,-29.785,-35.156,-32.227,-20.996,0.000
1727576227.772,-27.832,-36.133,-41.504,-32.715,0.000
1727576227.776,-22.461,-47.852,-43.457,-48.828,0.000
1727576227.780,-56.152,-62.500,-42.480,-54.199,0.000
1727576227.784,-49.805,-45.898,-40.039,-9.277,0.000
1727576227.788,-25.391,-27.832,-34.180,-8.301,0.000
1727576227.792,-17.090,-53.223,-35.156,-41.992,0.000
1727576227.796,-31.250,-61.523,-40.039,-44.922,0.000
1727576227.800,-59.082,-41.992,-37.109,-31.738,0.000
1727576227.804,-49.805,-22.949,-32.715,-8.789,0.000
1727576227.808,-37.109,-21.973,-30.273,-18.066,0.000
1727576227.812,-19.531,-30.762,-26.855,-26.855,0.000
1727576227.815,-7.812,-32.715,-25.391,-22.461,0.000
1727576227.820,-53.223,-41.016,-32.715,-27.344,0.000
1727576227.824,-60.059,-39.551,-33.691,-7.324,0.000
1727576227.828,-37.109,-35.156,-34.668,1.465,0.000
1727576227.832,-18.555,-34.180,-38.086,-25.391,0.000
1727576227.836,0.488,-36.621,-40.527,-49.316,0.000
1727576227.840,-41.504,-44.434,-49.316,-62.988,0.000
1727576227.844,-51.758,-31.250,-47.363,-39.551,0.000
1727576227.848,-22.949,-20.020,-38.574,-6.836,0.000
1727576227.852,-10.254,-10.254,-43.945,-23.926,0.000
1727576227.855,-7.324,-18.555,-52.246,-44.434,0.000
1727576227.859,-46.875,-31.738,-55.176,-62.012,0.000
1727576227.863,-56.641,-31.738,-43.457,-49.316,0.000
1727576227.867,-29.297,-23.926,-35.156,-26.855,0.000
1727576227.871,-18.555,-29.785,-46.875,-35.645,0.000
1727576227.875,-6.836,-43.945,-52.246,-35.645,0.000
1727576227.878,-26.367,-35.156,-43.945,-57.617,0.000
1727576227.882,-44.922,-20.020,-36.621,-49.316,0.000
1727576227.886,-36.133,-18.555,-39.062,-11.719,0.000
1727576227.890,-21.484,-26.367,-38.574,-22.461,0.000
1727576227.894,-5.859,-15.625,-37.109,-32.227,0.000
1727576227.898,-27.832,-18.555,-41.992,-46.387,0.000
1727576227.902,-50.781,-44.922,-42.480,-43.457,0.000
1727576227.906,-39.551,-47.363,-41.016,-12.207,0.000
1727576227.910,-26.855,-29.297,-41.016,-21.973,0.000
1727576227.913,-8.301,-25.391,-39.551,-40.039,0.000
1727576227.917,-37.109,-41.992,-40.527,-54.199,0.000
1727576227.921,-69.824,-43.457,-41.992,-43.457,0.000
1727576227.925,-38.574,-24.902,-36.133,-7.324,0.000
1727576227.929,-18.066,-25.391,-34.180,-6.836,0.000
1727576227.933,8.789,-41.016,-34.180,-11.230,0.000
1727576227.936,-2.930,-55.664,-35.645,-9.766,0.000
1727576227.940,-50.293,-45.410,-29.785,-25.879,0.000
1727576227.944,-43.945,-34.180,-34.180,-19.043,0.000
1727576227.948,-30.273,-39.062,-45.898,-28.320,0.000
1727576227.952,-18.555,-28.320,-33.691,-30.762,0.000
1727576227.956,-26.855,-28.320,-33.203,-33.691,0.000
1727576227.960,0.000,-36.133,-37.598,-44.434,0.000
1727576227.964,0.000,-29.297,-35.645,-25.391,0.000
1727576227.968,0.000,-25.391,-39.062,-23.438,0.000
1727576227.972,0.000,-27.832,-42.969,-41.992,0.000
1727576227.976,0.000,-39.062,-46.875,-54.688,0.000
1727576227.980,0.000,-49.805,-41.504,-58.594,0.000
1727576227.984,0.000,-41.504,-33.691,-27.832,0.000
1727576227.988,0.000,-22.949,-33.691,-17.090,0.000
1727576227.992,0.000,-23.926,-45.410,-35.645,0.000
1727576227.996,0.000,-43.457,-56.152,-47.363,0.000
1727576228.000,0.000,-42.969,-50.781,-54.688,0.000
1727576228.003,0.000,-31.250,-42.480,-26.367,0.000
1727576228.008,-39.062,-29.297,-42.969,-5.859,0.000
1727576228.012,-18.066,-29.785,-37.109,-18.555,0.000
1727576228.015,-8.301,-26.855,-40.039,-30.762,0.000
1727576228.019,-44.434,-34.180,-44.922,-46.387,0.000
1727576228.023,-46.875,-35.156,-38.574,-23.926,0.000
1727576228.027,-29.785,-38.574,-41.016,-16.113,0.000
1727576228.031,-16.113,-38.086,-50.293,-30.762,0.000
1727576228.035,2.930,-38.574,-47.852,-37.109,0.000
1727576228.039,-44.434,-55.176,-49.316,-54.688,0.000
1727576228.043,-55.176,-43.457,-40.039,-28.809,0.000
1727576228.047,-32.227,-23.438,-28.809,-9.277,0.000
1727576228.051,-20.508,-31.250,-35.645,-25.879,0.000
1727576228.055,1.465,-31.250,-39.551,-30.762,0.000
1727576228.059,-35.645,-35.645,-37.109,-42.969,0.000
1727576228.063,-58.105,-33.691,-30.273,-28.809,0.000
1727576228.067,-30.762,-25.879,-25.391,0.000,0.000
1727576228.070,-21.484,-30.762,-24.414,-11.230,0.000
1727576228.074,-12.207,-31.738,-31.738,-34.668,0.000
1727576228.078,-38.574,-37.598,-36.621,-49.316,0.000
1727576228.082,-47.852,-35.156,-27.344,-32.715,0.000
1727576228.086,-15.625,-32.715,-27.344,-10.742,0.000
1727576228.090,-25.391,-28.320,-39.062,-23.926,0.000
1727576228.094,-17.578,-17.090,-37.598,-38.574,0.000
1727576228.098,-33.691,-32.715,-37.598,-49.316,0.000
1727576228.102,-65.430,-40.039,-45.410,-45.410,0.000
1727576228.106,-42.969,-28.809,-40.039,-18.066,0.000
1727576228.110,-21.973,-27.832,-32.715,-15.137,0.000
1727576228.113,5.371,-32.227,-30.273,-20.508,0.000
1727576228.117,-22.949,-37.109,-33.691,-36.133,0.000
1727576228.121,-66.895,-42.480,-40.527,-49.805,0.000
1727576228.125,-45.410,-33.203,-37.598,-27.832,0.000
1727576228.129,-24.414,-42.480,-36.621,-20.508,0.000
1727576228.133,-7.812,-54.199,-37.598,-27.344,0.000
1727576228.137,-16.602,-36.133,-31.738,-43.945,0.000
1727576228.141,-53.711,-28.320,-39.062,-40.527,0.000
1727576228.145,-44.434,-25.391,-36.621,-3.906,0.000
1727576228.150,-26.855,-26.855,-31.738,-7.812,0.000
1727576228.154,-3.418,-28.809,-36.621,-22.461,0.000
1727576228.157,-20.020,-36.133,-42.969,-33.691,0.000
1727576228.161,-62.988,-40.527,-45.898,-41.016,0.000
1727576228.165,-46.387,-36.133,-40.527,-30.273,0.000
1727576228.169,-20.020,-35.645,-43.457,-28.320,0.000
1727576228.173,-9.277,-32.715,-43.945,-38.086,0.000
1727576228.177,-15.625,-41.016,-41.992,-44.434,0.000
1727576228.181,-45.410,-43.945,-35.156,-36.621,0.000
1727576228.185,-41.016,-33.203,-26.855,-22.949,0.000
1727576228.189,-29.297,-34.668,-38.086,-34.180,0.000
1727576228.193,-13.184,-34.668,-48.828,-44.922,0.000
1727576228.196,-18.066,-31.738,-45.410,-46.875,0.000
1727576228.200,-56.641,-33.203,-45.898,-60.547,0.000
1727576228.204,-47.363,-26.367,-37.598,-31.250,0.000
