,TP9,AF7,AF8,TP10
0,-16.581226500117555,-2.252221740002468,-8.410833379908187,-16.676433035427166
1,-17.03401621022259,-2.315217665605856,-8.65958668131908,-17.22162273621233
2,-17.407560546057862,-2.3613366552089627,-8.899494586049272,-17.72084574844255
3,-17.66071528447408,-2.4001859014715787,-9.123679918899624,-18.131652074423364
4,-17.78156897630077,-2.4394909035270738,-9.324193972679177,-18.434279953821488
5,-17.880814885684913,-2.479651436530099,-9.497214414804429,-18.687570678918092
6,-18.067682303547667,-2.515260902270807,-9.642941431046768,-18.96009836324542
7,-18.308237207876072,-2.5379771930995916,-9.76610341350972,-19.25226386819369
8,-18.53230131105504,-2.54085314989543,-9.874656375017182,-19.541119635720015
9,-18.71168212617133,-2.5238719121251822,-9.974143663998413,-19.808186788113733
10,-18.837436819870923,-2.494802259252306,-10.071088912935245,-20.03513431588103
11,-18.96055791882284,-2.466328837569485,-10.18084922240257,-20.22980341929664
12,-19.139848847654044,-2.455639050391669,-10.314052441920635,-20.405563285544453
13,-19.327405304640184,-2.4877430150471014,-10.461497820812676,-20.542453565149977
14,-19.47080722093095,-2.5787758374545495,-10.608415243151086,-20.623948348555228
15,-19.646912539606813,-2.7176368992657753,-10.747331307739355,-20.670486960534266
16,-19.92623475493113,-2.881371645994057,-10.874830378526218,-20.713994059359557
17,-20.251039989482123,-3.04932544801314,-10.992591413976356,-20.787296460636902
18,-20.53914630911545,-3.2048479682792133,-11.107079313614367,-20.91522627517128
19,-20.729735064968693,-3.34209980275908,-11.222622220150114,-21.087723570011132
20,-20.79583516741819,-3.4642033166623407,-11.342914822412267,-21.28314408333596
21,-20.83930811284644,-3.577440097365117,-11.478429205527764,-21.505983248783725
22,-20.96700422671283,-3.6898160015871433,-11.630525360675703,-21.758877277414598
23,-21.101228893842933,-3.8087755413298114,-11.775727997694057,-22.009790999707572
24,-21.146014939248467,-3.9385711962737417,-11.88539450559655,-22.229368070303796
25,-21.161022477225824,-4.0775340156754085,-11.937589865135449,-22.42539047900302
26,-21.22328582015977,-4.2207439859262985,-11.926220002567739,-22.612060810234453
27,-21.33990100776068,-4.365163807561697,-11.879590471405514,-22.790281184737005
28,-21.49277393167794,-4.50454388075504,-11.8336685859579,-22.955890920634996
29,-21.607524588999603,-4.627015447311248,-11.80355187466656,-23.087591308544887
30,-21.612143544183777,-4.720816501387897,-11.788770689753706,-23.16772196784053
31,-21.56470610738114,-4.771356158170426,-11.769376057299857,-23.222448672836663
32,-21.53703350023732,-4.776458097372272,-11.720951984614592,-23.278781360205873
33,-21.45911508388281,-4.767013282646307,-11.639561276928792,-23.31499728525097
34,-21.25995412505109,-4.778618910010181,-11.529802431237297,-23.299788397662784
35,-21.004601267317693,-4.827453130751635,-11.39431123239303,-23.224134515601484
36,-20.769297827720496,-4.911637783408817,-11.236460231263884,-23.0854396242765
37,-20.562511372909043,-5.001252163080511,-11.053545584987155,-22.88887694959614
38,-20.36672582871876,-5.061736556634148,-10.842843023246777,-22.64678525396251
39,-20.10944067207867,-5.086674689297107,-10.614802559943705,-22.35742641607026
40,-19.735275045315824,-5.084766356711591,-10.379690040690129,-22.027444780232194
41,-19.333466444232734,-5.06612632048015,-10.133986514843729,-21.706223314897816
42,-19.011284548862314,-5.045794709072497,-9.872600065945074,-21.440044070515643
43,-18.76370695899314,-5.042347908748935,-9.594354310897307,-21.22524278466519
44,-18.544387737318505,-5.064700240969782,-9.303465438769464,-21.034830878111016
45,-18.291541525526927,-5.103177685027274,-9.021398061992945,-20.840709423008267
46,-17.94413510020493,-5.137654825325349,-8.768588190359113,-20.60688838976186
47,-17.520904114391996,-5.143505194122414,-8.537260707940172,-20.293781678393387
48,-17.058654298427648,-5.1027149000030505,-8.313752999720808,-19.875185103643222
49,-16.50608469921595,-5.016729153659177,-8.102635585626148,-19.34470858890633
50,-15.825065482180628,-4.902099791104988,-7.9072466201947345,-18.719960196875782
51,-15.101583663337552,-4.785766631180277,-7.717374256075129,-18.048906681726105
52,-14.432767121735958,-4.6955108740302745,-7.5179102502252535,-17.385878361793758
53,-13.829804213124943,-4.647302868735387,-7.287998067943067,-16.768294306171455
54,-13.276716615801455,-4.64463968915966,-7.0098750227838735,-16.212208241777304
55,-12.751769671112852,-4.679940750684304,-6.684713312939042,-15.701030108119555
56,-12.224040916854475,-4.737007994571901,-6.321598294393226,-15.201208843158616
57,-11.705864570694997,-4.795153679514037,-5.923331421650234,-14.692420037120936
58,-11.2052127648849,-4.8370348233969915,-5.494727456272746,-14.15469026599308
59,-10.626725576726963,-4.856428578494572,-5.049418248716987,-13.54734755676649
60,-9.92518273041141,-4.874628231602799,-4.614745903988844,-12.873114524270504
61,-9.279746559547004,-4.918605450077408,-4.211167887549527,-12.179834035936995
62,-8.882343773040324,-5.023508106968175,-3.8612170043272274,-11.544726456396704
63,-8.694365187605115,-5.190442753613343,-3.5579869998621643,-10.99280462857924
64,-8.58948082621253,-5.3966305698439365,-3.2830955266326316,-10.520609945071136
65,-8.473801302354952,-5.6162796038465945,-3.037110222586489,-10.122664016760615
66,-8.283135985169787,-5.820474963043596,-2.8244792339838765,-9.782723814031435
67,-8.073859360603565,-5.979997284364986,-2.6426792570644713,-9.480264038637493
68,-7.779592113101604,-6.086911037583234,-2.453461563386574,-9.037654746580941
69,-7.515301516959765,-6.153104974875046,-2.3031810641877044,-8.611224107464245
70,-7.199224633918876,-6.208628599657653,-2.189925353950446,-8.188535625828562
71,-6.8886464928685385,-6.281321942804513,-2.10234976150018,-7.785843455333524
72,-6.661242639539175,-6.389267347645,-2.024028229629459,-7.424989214794477
73,-6.504073655577095,-6.529155295906661,-1.9387700614246777,-7.106374094065107
74,-6.380507785760221,-6.684413070250988,-1.8368182632961856,-6.8222778315633485
75,-6.245232210882149,-6.839680081620238,-1.7276392819609245,-6.563052675265606
76,-6.05930816529215,-6.980261130264948,-1.6257575306815268,-6.318391139425964
77,-5.883029771632525,-7.0939267590155035,-1.5281760951414536,-6.094084894236936
78,-5.786193124038533,-7.17581469562298,-1.4286143304866852,-5.896131237190855
79,-5.691200798039448,-7.225395984953921,-1.3304890386228168,-5.703410670609169
80,-5.497209105829987,-7.249852596549109,-1.240754941262217,-5.490223646705847
81,-5.227356170958429,-7.274266276417376,-1.1743463735766662,-5.249756161625022
82,-4.9403131364080295,-7.321361638988832,-1.1433695656282667,-4.986002114445176
83,-4.670738464405008,-7.386559039168308,-1.134455754181096,-4.714578980874318
84,-4.44611200401709,-7.450323612055205,-1.1268879126389308,-4.45715215105757
85,-4.239926932934152,-7.490261216834635,-1.1168435167265387,-4.218725056518169
86,-4.014063855802458,-7.485946497153296,-1.1060118009509903,-3.999286226665014
87,-3.8244613778652186,-7.429100599809542,-1.0924613334952304,-3.8230055533671803
88,-3.734013374101836,-7.326330999722247,-1.0752633299698537,-3.7034231886190807
89,-3.6899300799073904,-7.198613050466862,-1.0539675315367396,-3.60113711467508
90,-3.6169621850672704,-7.072544709017504,-1.0267750762045624,-3.4630775317937084
91,-3.50890275594229,-6.971709753468354,-0.9920099536969678,-3.2534334572850954
92,-3.3787552322888437,-6.908684940968133,-0.9495925294004888,-2.9597579911800174
93,-3.2531992249949946,-6.872470358271804,-0.8980179702718465,-2.6247332351380463
94,-3.1585887181475245,-6.8425152845817605,-0.839723232984301,-2.3095530686804278
95,-3.028294565987463,-6.808172027304607,-0.7941785007356982,-2.026444575020197
96,-2.7937288752106415,-6.765374552659984,-0.7798133198320686,-1.7689149220439278
97,-2.558692972541568,-6.716723033536165,-0.7890758183791102,-1.5591428148494064
98,-2.442022558636222,-6.668876303680649,-0.8056550752262956,-1.4072125921957404
99,-2.3718490645653,-6.621941660106827,-0.8209664782222819,-1.2679423193397052
100,-2.235804484384191,-6.572403510270438,-0.8312131451035926,-1.0912944888584721
101,-2.012834487374163,-6.521420620905494,-0.8439858070485109,-0.8659230178002498
102,-1.722491322747578,-6.467485058511201,-0.8706843334756863,-0.606749944488089
103,-1.4556645086719526,-6.395516812174828,-0.9088973266437003,-0.36300774271228925
104,-1.3112373802712216,-6.291316043589372,-0.9522838796343825,-0.18807049182395705
105,-1.233430882438933,-6.1590258338546136,-1.003095001373581,-0.08248519376442134
106,-1.1268594926300717,-6.010939162369896,-1.0640461983084843,-0.020899621220833248
107,-1.0354002983211417,-5.857587071184744,-1.1328736639557602,0.012020840162911162
108,-1.0175853269410442,-5.709558302755766,-1.2039243553804968,0.03611240819182068
109,-1.017112948266738,-5.57408205708604,-1.2688881440389725,0.0729529447954472
110,-0.9629680467660651,-5.454567767147469,-1.316723431580534,0.1396809214888685
111,-0.8222997277288916,-5.354424202262418,-1.3305233053747216,0.27124994134291613
112,-0.5909741630107482,-5.272648957664483,-1.298838234908752,0.4882994050822492
113,-0.36842478920404276,-5.201053365863574,-1.2320312973561665,0.7357500227780949
114,-0.2564481027798199,-5.126564790787255,-1.149654477791698,0.946767335612235
115,-0.16878245017371682,-5.029388146962536,-1.0643234303101872,1.1310007517880423
116,0.02233415602076963,-4.894099353082175,-0.9850777425722669,1.3229864815592753
117,0.28999075526709667,-4.7238729748413535,-0.9196152132439437,1.5222372643475026
118,0.5671586875697905,-4.53313142283066,-0.8694418737727724,1.7263413826091063
119,0.8554058166928185,-4.3409498432339335,-0.8270645306070112,1.9577331445775952
120,1.1532088021206173,-4.164793718150515,-0.783362194235768,2.2281898417753276
121,1.4271169842487097,-4.009226880844023,-0.7351735102322913,2.516077826257734
122,1.6449664895207847,-3.8698265362366,-0.6844547485095394,2.786663181079311
123,1.7517726814105554,-3.739307491387146,-0.6383966456125626,2.990014775566559
124,1.7159935225391694,-3.610941131373824,-0.6065735842932438,3.092840544726413
125,1.635624198840857,-3.484683125301424,-0.5955918561423178,3.1427002291734363
126,1.625278792404705,-3.36673923286403,-0.6085818699642866,3.2070249875490524
127,1.663484060992757,-3.2674916834164764,-0.6439919336803587,3.2910146447394046
128,-11.256262712687526,-10.159535277124043,-7.953741590402696,-10.706474744739676
129,-11.199908552010795,-10.190262000560317,-8.298580903074043,-10.80415894823644
130,-11.166190485733813,-10.166223913965013,-8.669039784472066,-10.885359643286533
131,-11.103360962074271,-10.098132922699827,-9.047398890313563,-10.95069153752503
132,-10.966573099954244,-9.988332673310685,-9.419028644229064,-10.998453488679434
133,-10.82680807920237,-9.837419990179477,-9.768929553327222,-11.038347283610433
134,-10.771563571854706,-9.66200924464558,-10.105204875212188,-11.084855802796849
135,-10.80429937302645,-9.4849824102824,-10.430052351553458,-11.151270708301674
136,-10.90015087402643,-9.325246433080762,-10.746573634545925,-11.253328508162825
137,-11.0329936823435,-9.189101457074564,-11.047949796117823,-11.411091152302443
138,-11.171275390419307,-9.066693991077399,-11.324650750685665,-11.638487256686297
139,-11.312144105627592,-8.949258285308044,-11.575497357615268,-11.937898645834807
140,-11.46995701943636,-8.833076556439254,-11.80104285235069,-12.302336230779492
141,-11.625485230437121,-8.730615359520566,-11.999263744690447,-12.707573073029188
142,-11.779786795214132,-8.663751808990106,-12.166692877953233,-13.134123741426366
143,-12.042403984242167,-8.657747163812145,-12.296282122529368,-13.59909120790815
144,-12.504832870297333,-8.731704198825078,-12.381334600603276,-14.122789947544794
145,-13.10185291544844,-8.884209386021261,-12.419203944515933,-14.697541524913596
146,-13.7349105556003,-9.104264917517927,-12.412118974131706,-15.303737454849331
147,-14.361910427037248,-9.383865760652943,-12.370120117914961,-15.90983171729453
148,-14.973904804842661,-9.715824667773813,-12.303468304163884,-16.488698825486857
149,-15.646252652289592,-10.096035746864866,-12.214803082592667,-17.053648170220992
150,-16.45307892082574,-10.521940123565939,-12.101895523944785,-17.627185158757563
151,-17.313578286550573,-10.986917443973367,-11.956703545946214,-18.197108608880505
152,-18.12847585295004,-11.483004456730828,-11.772350896382855,-18.75145767509016
153,-18.933875900729184,-12.004696716425656,-11.554853529026706,-19.311436818596952
154,-19.781704674317876,-12.546268928136485,-11.312689709481024,-19.895242142442754
155,-20.65777447579577,-13.098127957445937,-11.046506361227621,-20.500418943875438
156,-21.532785842895372,-13.652467806448149,-10.75468031214337,-21.110303805766044
157,-22.345968911889134,-14.210487729377878,-10.432638031956822,-21.671145574032362
158,-23.047255645133614,-14.77429641649617,-10.07784495492785,-22.139676179024487
159,-23.708309533310615,-15.337892198920915,-9.70220779041907,-22.557384930507396
160,-24.40638660545271,-15.89402083176669,-9.317958674410976,-22.97758341460223
161,-25.06199023367863,-16.440216109600588,-8.919979093435678,-23.384979868576547
162,-25.590511764436865,-16.974486611556323,-8.49975141849405,-23.749588655252573
163,-26.055982868874512,-17.493186588227132,-8.056662805629347,-24.064257011202628
164,-26.537879396487565,-17.993125822655628,-7.591069355345552,-24.323108125403813
165,-27.044289797166655,-18.470685646192393,-7.106588335606981,-24.52865355219943
166,-27.556024866753223,-18.92281468043917,-6.60554028059339,-24.685634699151272
167,-27.9950861185789,-19.351429490386007,-6.074193038661509,-24.768448032521707
168,-28.29303830513014,-19.75680926407871,-5.504196371730685,-24.757905533646163
169,-28.530816637178777,-20.128869298250464,-4.91629083065172,-24.693846919193206
170,-28.804001992926185,-20.45661421330939,-4.33928550456888,-24.618797485876964
171,-29.053650156708056,-20.73756515269728,-3.795412647686263,-24.52109649695593
172,-29.206504930500234,-20.97318161010842,-3.2961382930387217,-24.37784051392449
173,-29.299025750930202,-21.166255477650036,-2.8291240309558225,-24.179698381721646
174,-29.379010190172412,-21.323632409032943,-2.371839222927675,-23.924335988762305
175,-29.462456886849974,-21.444883825727246,-1.9080922350575527,-23.639810670308268
176,-29.54801368537365,-21.53467031663524,-1.4264984729020054,-23.352268979922712
177,-29.56266401799113,-21.604451390743765,-0.9265992956516246,-23.029487568729103
178,-29.44063633436513,-21.656052313760526,-0.4101270126914388,-22.635296942697646
179,-29.254463156086455,-21.682403062851087,0.13496796946961953,-22.189910053300064
180,-29.088085298622488,-21.678138339495902,0.7181379886315069,-21.7237029284351
181,-28.901560454912808,-21.63299593796681,1.336275223453993,-21.241403559290866
182,-28.633263097399503,-21.531795587218834,1.9763512601340198,-20.74232606527641
183,-28.26155709485799,-21.36936175402449,2.6018340207724644,-20.22267716067623
184,-27.782901658051205,-21.15447736337909,3.188111493538426,-19.673547055485788
185,-27.25695989959294,-20.8991911014777,3.7416617752939785,-19.097469759614306
186,-26.742956501561114,-20.608611339336612,4.293356735666581,-18.495172855853774
187,-26.175192566946805,-20.280918441947055,4.861227325877705,-17.836040269172965
188,-25.53242281005761,-19.942184449405175,5.409651939814258,-17.136652629604132
189,-24.982637574801416,-19.65220600044726,5.881617074555217,-16.484280218484148
190,-24.69719307175249,-19.428143583886836,6.244371910531864,-15.977163482036314
191,-24.55803014857349,-19.231734477466823,6.531097623297347,-15.557821508845569
192,-24.361856485651863,-19.037486144747422,6.774809245266452,-15.119910292430436
193,-24.03988762900366,-18.848952776391275,6.9960693176697095,-14.63878059673643
194,-23.58357780332814,-18.671191992053895,7.19273056954717,-14.120079654520476
195,-23.046964126809634,-18.49528566816362,7.359360500079132,-13.584808028776328
196,-22.195666536040385,-18.01509814384138,7.3747489232924295,-12.998126286685858
197,-21.35037255833172,-17.53644883733702,7.3827957604826215,-12.393504120736154
198,-20.45496990283729,-17.086202998439656,7.37028559688944,-11.724883096086568
199,-19.55182395043224,-16.671173513431924,7.339981827475124,-11.023300672586892
200,-18.695474912081593,-16.27016493888735,7.299768712113786,-10.3368879392887
201,-17.866667578181872,-15.860744297078533,7.250041645788652,-9.660618130375179
202,-17.035806635270017,-15.440166799072337,7.19105134199425,-8.981166779396958
203,-16.195506663322256,-15.021782482458576,7.125092961426998,-8.310641150983415
204,-15.349251056345324,-14.608460884977415,7.055279770000512,-7.664334812955139
205,-14.55498944526834,-14.19147335650989,6.992335997791111,-7.06114764240728
206,-13.86616886763874,-13.763127635603912,6.945823383264322,-6.512729422844238
207,-13.209812009545495,-13.338838114903618,6.906178499836807,-5.993401454658993
208,-12.491549746080883,-12.941878380612009,6.859955172272714,-5.465992539088551
209,-11.741532242161092,-12.579113849879176,6.811215360724895,-4.91510841508463
210,-11.015727831346052,-12.231662623138696,6.760037842464572,-4.33864722151546
211,-10.304512946492622,-11.867593261461506,6.712651228909249,-3.7446512097359337
212,-9.582571480226864,-11.469237234246814,6.650852472695374,-3.149096050466835
213,-8.806117633137937,-11.031732320253875,6.553935438288448,-2.5648823057113956
214,-7.939367067312072,-10.562011677382522,6.403422291137673,-1.9978961803597906
215,-7.050748173916804,-10.061903471378521,6.207677592163153,-1.446722631689395
216,-6.2250179158455285,-9.534278291804071,5.9882865683820325,-0.9034992443087179
217,-5.421483117076585,-8.984668046974372,5.760769739213471,-0.35025443844250637
218,-4.575523229847267,-8.421617852145722,5.538527640474707,0.22583777581402392
219,-3.71265804982147,-7.865827315667776,5.332836299515701,0.808665018464555
220,-2.8769311949151586,-7.336249019792527,5.147878538184313,1.3760442269359043
221,-2.092225044935258,-6.830495127898164,4.983036182112086,1.9217973969514148
222,-1.372684468625305,-6.334848073505856,4.831947558737822,2.4504907942727256
223,-0.6690842168320931,-5.836340786759533,4.676296246874628,2.9920424569005157
224,0.07441870613050755,-5.3215517206540515,4.497816165518015,3.573461400548417
225,0.7916360309885102,-4.776166516865038,4.297702162720995,4.162008544928962
226,1.4074191414626565,-4.194503302457084,4.083745404502557,4.711453430285339
227,1.999262891697934,-3.58947509209466,3.850472762008739,5.225528486479771
228,2.670370417237487,-2.981022966394983,3.597623265148316,5.720199268925396
229,3.42495462929302,-2.3826046942307744,3.3229987392990634,6.193292374145262
230,4.2341876385602575,-1.800851384287209,3.0423261496093703,6.641703354581869
231,5.037248649868732,-1.2335696889002987,2.7535102183668805,7.049504592341693
232,5.7779495238257,-0.6703057392770716,2.449664054284671,7.406241588160652
233,6.548128491413042,-0.0959559536173682,2.1159223148163715,7.760483491643406
234,7.4517035122403374,0.5040271765761852,1.738675740773357,8.162687279531664
235,8.376799978959564,1.1378381399739383,1.3229858666736822,8.586373202791146
236,9.178884235552411,1.8071759674109324,0.882611085407087,8.983251682864193
237,9.890380837674005,2.5067062366696633,0.4329012882964241,9.332499043989221
238,10.59752932644501,3.227555417765013,-0.012147302056221387,9.633584859321264
239,11.361802868592603,3.9646664548726265,-0.46138670529765335,9.9225185511997
240,12.22628689314428,4.712922348965076,-0.9151847189442944,10.247664068583076
241,13.143220795223083,5.462337902807959,-1.3625901211272196,10.633719449639592
242,14.024110202136434,6.2021084986697055,-1.7672996437083321,11.076881567075729
243,14.8528437767783,6.921008693743214,-2.1206430435523815,11.52525722280372
244,15.628146985040368,7.61284220284814,-2.455447551430109,11.91278584285391
245,16.28158789063772,8.272869887038931,-2.7985171047760273,12.21689294982837
246,16.756283113247346,8.902804698327175,-3.146954179262704,12.436448011975045
247,17.085685423941413,9.506054938575613,-3.482422863384914,12.56374455289877
248,17.3251638370019,10.071571433409026,-3.7937413669751394,12.597879682351888
249,17.504562903870912,10.573497706047535,-4.0721942801869,12.550796794666402
250,17.633308926154747,10.997113976429995,-4.299395726671987,12.432374132491036
251,17.654269500020977,11.343022475531985,-4.4865624491209655,12.237462761110613
252,17.508497290214528,11.603793192427823,-4.644104745543873,11.958118404584956
253,17.254087723350054,11.769749485668546,-4.785054323470952,11.598077429495135
254,16.978494886977366,11.847944285594656,-4.899814271392275,11.16757448442277
255,16.693224575526756,11.854422885933621,-4.98371593806276,10.677837625330312
256,-14.475788092056497,-11.033953011602858,41.93645501023294,-13.894082442147084
257,-15.367708368066065,-11.576661878356198,41.62205095703342,-14.752413864975075
258,-16.340313878336374,-12.106952608596425,40.310818322463454,-15.637007280178759
259,-17.293805145972343,-12.62239465943896,38.00973834360298,-16.548968194751527
260,-18.1373010901713,-13.126781562894188,34.93946242778698,-17.496672697293743
261,-18.922942435094356,-13.646044184822369,31.422380464210548,-18.452955270168758
262,-19.73221654827417,-14.204587247668497,27.72099702094052,-19.389192657346204
263,-20.545098607046818,-14.800900271932676,24.024110337747757,-20.29490623949566
264,-21.339298526220535,-15.414073930519416,20.40942534324789,-21.17361630186738
265,-22.16589817163586,-16.009572943958904,16.74504244719916,-22.052746781974882
266,-23.069489842737994,-16.547051338665028,12.766148093145386,-22.954405787848874
267,-24.069716130154287,-16.98383041508427,8.239793095877783,-23.885926456231555
268,-25.15192131597176,-17.298820612768147,3.0665149090864183,-24.831825973381118
269,-26.173992734674478,-17.523912148787375,-2.6754120559867065,-25.679307465089583
270,-27.01329660073675,-17.70246828050937,-8.804710146585489,-26.35440916583323
271,-27.789815062474226,-17.849134118604937,-15.185954465718957,-27.03111784108976
272,-28.64417275128545,-17.961579930230602,-21.72114331287115,-27.89245414510822
273,-29.49807240605764,-18.014340336809887,-28.343422770110347,-28.870558890702245
274,-30.240872203484138,-17.987111340313824,-35.05844861754346,-29.827450175419244
275,-30.849115118655146,-17.884217757921554,-41.96369356146818,-30.691342414735804
276,-31.33264331535168,-17.732114371451807,-49.17755792853998,-31.404242761088764
277,-31.801155556285806,-17.560361223327515,-56.76984786070517,-31.952886559004966
278,-32.3542374506957,-17.364619294666333,-64.77154234793134,-32.36511074100527
279,-32.86455854243483,-17.122149772833538,-73.17564363716366,-32.62934972308035
280,-33.20116774049142,-16.81070074668126,-81.9477626568991,-32.770656970482165
281,-33.480009598789174,-16.452831894882934,-91.05567962494405,-32.953256759184825
282,-33.8586150990653,-16.079675471471507,-100.46904102943746,-33.33044027486767
283,-34.38834315536029,-15.706742877794769,-110.1578936262364,-33.918878566286
284,-35.06002694403453,-15.322730403484073,-120.09683923778063,-34.64711176825609
285,-35.76480574778078,-14.871640206974893,-130.26262992081496,-35.354452349685545
286,-36.3615148211429,-14.28808618933415,-140.63303879476751,-35.87478896781031
287,-36.80395208099866,-13.558915409493908,-151.1863405797297,-36.17096069167676
288,-37.091941308822435,-12.717305607326052,-161.9009254069331,-36.276548755425694
289,-37.208363828962014,-11.89339217024007,-172.7554213151789,-36.22250191220994
290,-37.17324259958881,-11.280936108123171,-183.7286402977945,-36.06778873361207
291,-37.08031523253905,-10.916198531691151,-194.79950330991977,-35.910468965976214
292,-37.02252299151227,-10.660970332111114,-205.947410992711,-35.83434320565968
293,-37.04275687351975,-10.393128083810765,-217.15230374678885,-35.85892921230187
294,-37.145662112751744,-10.044891508979843,-228.39464906555028,-35.97437437547693
295,-37.2692446875825,-9.574725810992152,-239.6541942725045,-36.19622923916155
296,-37.350591687951535,-9.033904836178378,-250.90908648411352,-36.51552617930545
297,-37.445413972913286,-8.54879179485248,-262.14560224667315,-36.84022566130932
298,-37.62248219427276,-8.169238703614162,-273.3478636431199,-37.08624907995354
299,-37.818428357079235,-7.8417674220238,-284.4845016354025,-37.25307655522291
300,-37.96718137563376,-7.509109962765766,-295.5526592579273,-37.37936301430907
301,-38.13914331498968,-7.15279420629839,-306.5976014022435,-37.537199983473506
302,-38.39988370239503,-6.790984287173737,-317.7362006286876,-37.78050209136648
303,-38.69691159804608,-6.460399673500991,-329.15128830819083,-38.05187147031557
304,-38.95487068066069,-6.176462005437642,-341.0371046790394,-38.26717871279608
305,-39.09826006219881,-5.950838150834486,-353.5313712249907,-38.40550847483718
306,-39.08553501859076,-5.810112334326436,-366.61225578291226,-38.46908646867963
307,-39.045956768741114,-5.7221778972438875,-380.145558240607,-38.48267202022557
308,-39.105983064817664,-5.594770911294255,-393.9821993585539,-38.46999959197113
309,-39.13504381273296,-5.376235692475236,-407.99598945516846,-38.38602738701728
310,-38.99091521850227,-5.090879137924948,-422.0462287475893,-38.1862520666284
311,-38.75206585178583,-4.79919518337006,-435.98356323971524,-37.899301457156206
312,-38.536401430698206,-4.540297453655614,-449.6184871228283,-37.57380705893588
313,-38.44013089796023,-4.3177643667523125,-462.81654300851557,-37.26376368812104
314,-38.486342137283195,-4.107361960858042,-475.53744213624105,-36.9911271042318
315,-38.42610146617937,-3.8881438842791307,-487.7091954126869,-36.668499800924565
316,-38.02202537410614,-3.663814271009928,-499.28773469752167,-36.22410046558563
317,-37.43894113856455,-3.4767107596262368,-510.26003921924115,-35.69420899541902
318,-36.91316061434301,-3.3508520445338204,-520.5447829009423,-35.15929025179841
319,-36.444921168760935,-3.2818560660567053,-529.9861245395515,-34.6305869572641
320,-35.95316574585437,-3.236818808194464,-538.4101515048308,-34.084834939106706
321,-35.35933375895661,-3.1743587948037377,-545.7436334478903,-33.50172118738884
322,-34.60135556704731,-3.0778390503060127,-552.0119064252501,-32.86070418958395
323,-33.757295757497936,-2.952140995397461,-557.2487479056731,-32.16694463925144
324,-32.33590350511268,-2.7095961395853387,-552.0882826016925,-30.704855805698365
325,-30.93327952729507,-2.5039611944823092,-546.5143064445551,-29.246749945677006
326,-29.462234194645628,-2.3312014169118584,-540.515736204285,-27.76802530095725
327,-28.003115921091485,-2.183172068344763,-534.1048119304197,-26.323748772297705
328,-26.647426953309363,-2.0434132969125396,-527.3072567943043,-24.96525579949433
329,-25.30186597214545,-1.8733397001921426,-520.1686886215477,-23.641521832653954
330,-23.851763491988113,-1.6507084049139515,-512.7238438488416,-22.27534389419334
331,-22.30035227514499,-1.3867079849639041,-504.94996053196087,-20.817973909831213
332,-20.70037823092098,-1.1256025763371729,-496.79792761234563,-19.25260768401433
333,-19.17660016351981,-0.909065757352022,-488.22352620397953,-17.6487579266881
334,-17.838587814579896,-0.7391882099993408,-479.1979697746074,-16.09842668227647
335,-16.575859531691993,-0.6024007005239542,-469.7340459014748,-14.606621926677606
336,-15.225551479763794,-0.470365151245395,-459.8695184756294,-13.145204713027887
337,-13.810161497271208,-0.32991045379304457,-449.63952350737503,-11.712091427398224
338,-12.405076021344675,-0.17891411797016785,-439.0679327161916,-10.304529482346677
339,-11.023198850049258,-0.023311118866145775,-428.1566150056614,-8.921297670992393
340,-9.671424273379609,0.12791977901885213,-416.8862184255479,-7.5696723498488145
341,-8.337546395333986,0.27792945590163115,-405.21335894986265,-6.2325017061335775
342,-7.004534216881721,0.43202042443015204,-393.0994295227246,-4.900020886700228
343,-5.7292979740437255,0.5863702784040705,-380.55643737061314,-3.64607573081946
344,-4.579343617151847,0.7296151596727932,-367.61669278784603,-2.541197033856633
345,-3.5302680633993417,0.8383883318745798,-354.29248171030144,-1.5255551860032137
346,-2.537075596805267,0.8887844024762538,-340.59046895437945,-0.5097607987848398
347,-1.6207089323278536,0.8719621029311799,-326.51853833026524,0.5123131829826924
348,-0.8049268099956524,0.7924018686266212,-312.0798659427271,1.5178396349667995
349,-0.06312341807192179,0.6695239490026804,-297.27852307585766,2.482316124934739
350,0.641479265595533,0.5291939815812015,-282.1220327415965,3.376667785103656
351,1.3481074638794037,0.3839406553319787,-266.6121693333793,4.209492252795167
352,2.0842466335423353,0.24029311578279208,-250.7554326660549,5.004281411597443
353,2.7998931463470837,0.11238721180293135,-234.5942783197409,5.7396847349889555
354,3.434923976317677,0.0028087933800478304,-218.1525057250689,6.394901312165394
355,4.041611595602128,-0.10494679814126182,-201.46950263635375,7.021550141400935
356,4.6845301700739626,-0.24784108922935516,-184.54549094143218,7.675569919594403
357,5.320427460056237,-0.4747243773746769,-167.37013520420845,8.329603673519491
358,5.889860750891585,-0.820298322248042,-150.05515563356033,8.943523173015567
359,6.356361325915988,-1.2875732073081654,-132.82954695430044,9.52677628766617
360,6.716318835373941,-1.8011148482451769,-115.93467910793964,10.100292000941376
361,7.135789089792964,-2.2237382977270888,-99.49929651192946,10.713356033163096
362,7.768501138856736,-2.5007850833963503,-83.55576842291077,11.39042563445861
363,8.430731451903746,-2.7115853470363938,-68.07109454468014,12.00346968345943
364,8.879457978502213,-2.973922011028793,-53.08436242529271,12.41133510862557
365,9.15759070681128,-3.3317553267357938,-38.75944574297323,12.63928645916384
366,9.40238371982865,-3.7453497348597997,-25.266711286390652,12.788517752538269
367,9.69840545035848,-4.163069877567831,-12.570011197470086,12.959417545583198
368,10.107473925680388,-4.5440209976253,-0.5619533016479927,13.234513651980985
369,10.608988247089469,-4.83653627104031,10.771154369116124,13.639978238492303
370,11.120569807129968,-5.004918998423865,21.352016864148858,14.129857316109085
371,11.562291195279819,-5.07384865593097,31.1581670347649,14.533539452600635
372,11.877146237384355,-5.1097999126427025,40.30617471801655,14.693674839979984
373,12.067840728522178,-5.160832238044535,48.967842706286966,14.686473718914382
374,12.181749222020715,-5.231391979494272,57.23867627847743,14.66607538919058
375,12.271114582549501,-5.303348459816609,65.11494720739151,14.670960231342994
376,12.381500814615533,-5.3642228304985755,72.64984290299745,14.701310758388807
377,12.553493321165199,-5.4039403680170395,80.05902924703962,14.75264401219651
378,12.792453036058525,-5.420497680364053,87.58378460524904,14.801842991401708
379,13.006081116708076,-5.414080754326097,95.30863930430472,14.855870763337991
380,13.095136780866662,-5.378369548874442,103.09434308884107,14.93037416966803
381,13.099380714947934,-5.282138751579073,110.66138518448284,15.004526657129057
382,13.09855045098201,-5.090896841514006,117.74456987399279,15.051806036491048
383,13.076155493877108,-4.79325838175101,124.11449211008278,15.06067586529507
384,6.901011866863842,-4.056503228813958,365.7697364247731,5.055185912395037
385,6.95795843433642,-4.583289124825651,378.44237135158113,5.1380425845034745
386,6.943663425523254,-5.153905419017204,390.7712215742457,5.23653213861922
387,6.95430860608136,-5.735350579888574,402.6670827412035,5.354856297346975
388,7.076976577586555,-6.293845335705788,414.09473607651904,5.489105112047335
389,7.224641889365669,-6.8341958362892425,425.0489026171677,5.594827511444555
390,7.29156074717134,-7.373962360948266,435.54579584308095,5.632293579715057
391,7.326984070306681,-7.924053079245832,445.6197123942873,5.615191378625867
392,7.40163076607403,-8.494299028896629,455.28332842686456,5.575971674589192
393,7.500349655947942,-9.085517062362578,464.51897916823066,5.5347675054772525
394,7.5997169955327575,-9.692190258922357,473.28559286466566,5.512385014533972
395,7.6908215861531115,-10.318011520097235,481.49912422298706,5.529574865702576
396,7.763410622035247,-10.961186480205837,489.0621808123252,5.594008905782178
397,7.856894474668409,-11.592507821721187,495.925121171499,5.7089768023701
398,7.993784176592882,-12.184662396672701,502.086175740481,5.858744157874437
399,8.056858367279858,-12.74171515126711,507.56203423532355,5.97368225784578
400,7.937915129583741,-13.27575995727619,512.3604256438985,5.992685788148127
401,7.706466382292763,-13.792987974167469,516.465431543674,5.937349971153477
402,7.471057366025828,-14.29340485697544,519.8684036555447,5.854697743935181
403,7.267861802452403,-14.7559482131569,522.5712468286728,5.763972423439733
404,7.108721879472802,-15.159444296321887,524.5423895809929,5.677706447390989
405,6.967019189931989,-15.51145360101154,525.7312418290868,5.6034593376528745
406,6.804050104330157,-15.828762038389643,526.1230709979011,5.537607177094857
407,6.657468276235555,-16.12154431784084,525.7483197895104,5.477666097651559
408,6.5654603287867355,-16.39716307582053,524.6381126694927,5.417991794653511
409,6.457797554250079,-16.65454249335555,522.7847823881511,5.335054177599534
410,6.265376318691344,-16.88939401767114,520.1532307151351,5.208756918132314
411,6.029716273995923,-17.10530418249767,516.7128336748432,5.052287182885516
412,5.806807903435356,-17.30732335950353,512.4676599859355,4.879396651050271
413,5.604055199194978,-17.49578882100872,507.44211316333303,4.6699397454906375
414,5.410725861342277,-17.669490659773665,501.6298541825298,4.4014215095689275
415,5.169851019268966,-17.82815519778711,494.9972362448324,4.0677232558375644
416,4.835871618643263,-17.97027615320431,487.5201744904796,3.6768348551847816
417,4.484372138359298,-18.088250418815853,479.2050790750699,3.2681490843807106
418,4.19890404806795,-18.177712670922077,470.0860742868533,2.8807098401601956
419,3.9451708237638705,-18.250103785744418,460.1953265180101,2.5090531756683694
420,3.661071601024373,-18.316764424106726,449.5540522323912,2.1342263742859804
421,3.319170859824929,-18.37335712633298,438.19017648458185,1.7506155525315208
422,2.9073801209520678,-18.40812155910798,426.129351269737,1.3558687459180545
423,2.448929033703016,-18.406043479048023,413.3665774032933,0.9596024024466188
424,1.9820199574345243,-18.351703902466582,399.86813206031394,0.5726679804906631
425,1.5171349066884774,-18.237874712339334,385.5993264359943,0.17676925917559594
426,1.0536571532551924,-18.062462443859467,370.54622234366514,-0.2433253500497593
427,0.5979450726182484,-17.825212593420662,354.7145704509688,-0.6577342669514871
428,0.1515937109410958,-17.532326924970242,338.1258084375565,-1.0326359647153434
429,-0.2951936864977217,-17.190484407356642,320.8031292045358,-1.371391682066488
430,-0.7441435064672607,-16.81580913088314,302.77042202509205,-1.6865338531687737
431,-1.1816835193901922,-16.45570955684141,284.0568198123764,-1.981393916284392
432,-1.59001677133404,-16.149588449263536,264.69561334409923,-2.2646122599109724
433,-1.926813983171913,-15.883261627426483,244.70311938773656,-2.5439540049254865
434,-2.176606746778988,-15.623464461001388,224.0660298229294,-2.832429787738794
435,-2.4422214484396734,-15.34864006801506,202.76450317552795,-3.178801313718352
436,-2.8252671397717983,-15.039513352775266,180.78508548942693,-3.619023580732569
437,-3.287327327619638,-14.684244278926538,158.13569455337387,-4.111572068153725
438,-3.7559276368258905,-14.278717478416754,134.8412527528984,-4.603109332961834
439,-4.207712697553736,-13.811915718568661,110.92688831337726,-5.090105291498226
440,-4.632481478739213,-13.279707816638426,86.39028119422704,-5.583161596278258
441,-5.05824186949214,-12.705040205682977,61.20311511451753,-6.102824899300483
442,-5.518675815044717,-12.111686249055202,35.34869058332744,-6.664575577066639
443,-5.948778619955447,-11.500157266617206,8.838356557715873,-7.216573289730738
444,-6.323103374288969,-10.89267116058096,-18.051519307829476,-7.733865493157796
445,-6.802851561019118,-10.311251133905259,-44.67126470351753,-8.315073588195682
446,-7.535502799581829,-9.792142534058746,-70.40127485869998,-9.051283776812658
447,-8.365019866586698,-9.342882565632404,-94.93906296230867,-9.844113614655596
448,-9.056493735517165,-8.945860461529174,-118.31594806943689,-10.534255858360561
449,-9.51857162232452,-8.572844893906904,-140.6238778127932,-11.007266579137768
450,-9.74578164006655,-8.195055002952008,-161.5954209991625,-11.214336063655455
451,-9.837458514924274,-7.800179015432102,-180.8406840573944,-11.253016846294901
452,-10.206204733598579,-7.237455912132104,-202.67114811795585,-11.585681682868849
453,-10.50669896085162,-6.651750660576071,-222.7754235571881,-11.876473317986735
454,-10.674522298978577,-6.0308701494226185,-241.64371014475654,-12.106742242286058
455,-10.8106843046272,-5.377178873949274,-259.61844756690436,-12.303211481303142
456,-11.030775665451968,-4.6973159528539,-276.8689686757793,-12.49037416064037
457,-11.276935012451704,-3.9975173608108356,-293.4422477210314,-12.646720454261203
458,-11.447002884491564,-3.2801489917545883,-309.3256757974668,-12.74187633567877
459,-11.497426940335231,-2.534166468062092,-324.48458412142594,-12.759976482259399
460,-11.414891434472551,-1.7447612274530047,-338.8952116399654,-12.695635837840069
461,-11.268364332010615,-0.9029096755922267,-352.53927913263215,-12.575440528580545
462,-11.148237166576596,-0.010347412024558711,-365.4117969905495,-12.433598027615679
463,-11.011859536215043,0.9088175949753946,-377.51241579406326,-12.25520099993429
464,-10.795710054007285,1.8215514355271811,-388.84335028354735,-12.021630061887226
465,-10.587669079500806,2.706677537403583,-399.40767212976294,-11.777085399301635
466,-10.487749153176601,3.550774816228263,-409.2075854929931,-11.57282762208292
467,-10.45920730677072,4.343399767523731,-418.2449533846481,-11.413462117895456
468,-10.430857961608522,5.0819069719628995,-426.5211199636719,-11.285794404013265
469,-10.358454576362304,5.7741385468176345,-434.03730981057384,-11.159453897886872
470,-10.216701525403046,6.43036364448782,-440.7947842286767,-11.007558109582762
471,-10.072606317618927,7.053174747662547,-446.7948711520439,-10.871858188069126
472,-10.00397603480955,7.64271459749804,-452.0390506180872,-10.803306744296652
473,-9.936193537541818,8.203258728859089,-456.5290041594955,-10.766748112173406
474,-9.76677513564887,8.73848551764554,-460.26653136874825,-10.707134849138574
475,-9.529148084084401,9.24848341036032,-463.2533264118461,-10.62684915753681
476,-9.287561863830378,9.730331844260668,-465.49127470805837,-10.539776264083947
477,-9.047737568162333,10.178039122794837,-466.98272301034206,-10.438861488785033
478,-8.807062865494336,10.582706495351866,-467.7302522218715,-10.32098499508177
479,-8.545398431531583,10.932692116685898,-467.7367037556299,-10.180376445678908
480,-8.245467011596364,11.219164517695146,-467.0048459343175,-10.018965128087908
481,-7.988559136631846,11.441180985973357,-465.5354928714119,-9.893900650028364
482,-7.854146175621955,11.606327283295004,-463.3291451041477,-9.855513210532317
483,-7.7647889493367,11.730680267170323,-460.3896284581642,-9.86078508081106
484,-7.609413415336171,11.832181894857758,-456.7184929846617,-9.837120020971383
485,-7.369742594287901,11.927283142837698,-452.31974381185245,-9.73910985186342
486,-7.069571824658211,12.021262150479163,-447.1959313747651,-9.547306963193574
487,-6.777579126874016,12.091915981967785,-441.3527648247041,-9.305914384799408
488,-6.568281626407343,12.109813840121292,-434.81843467834017,-9.08057237018718
489,-6.4078104571421335,12.062851099301195,-427.7027022370932,-8.875482475208278
490,-6.228264895978865,11.951285651691265,-420.1854231227142,-8.67297941816759
491,-6.053170554938116,11.790003592100684,-412.41606295957473,-8.486956257182815
492,-5.915202621746765,11.599385249251922,-404.5003000947479,-8.326230755714144
493,-5.76112210072912,11.382397527197549,-396.47918076691303,-8.164224350412633
494,-5.537200672777696,11.136986332707432,-388.2867673890702,-7.972694250914417
495,-5.256744485607721,10.8745248741667,-379.84297872726626,-7.743877818756438
496,-4.957799835654383,10.60677102104527,-371.1234504852802,-7.481535768229448
497,-4.709505081106865,10.336074095517512,-362.13468449382873,-7.212344927542588
498,-4.567084105635722,10.060162187567865,-352.90587172614664,-6.961491501316221
499,-4.452999287735647,9.771762307742353,-343.48826723058863,-6.701882706872928
500,-4.265150661297672,9.46273663570799,-333.941880744661,-6.396719134255885
501,-4.048133361139481,9.13224790338943,-324.3004767732749,-6.057072510362449
502,-3.8740306887221103,8.785861524519627,-314.5481219970707,-5.709683370693631
503,-3.712542940066598,8.430443215722898,-304.68732141608905,-5.369014207649137
504,-3.515905372544801,8.074698583206402,-294.78439507678945,-5.048242901729876
505,-3.2552552145636153,7.737830162163932,-284.882637713704,-4.752677547520367
506,-2.9207692422348663,7.431412424639193,-274.946199278143,-4.479333065359235
507,-2.6055811872646344,7.128452130065422,-264.9283739884787,-4.237364969449229
508,-2.4093915967447685,6.79591898558632,-254.82886064533415,-4.028244996209917
509,-2.2588781943588034,6.436936785791619,-244.67630204362155,-3.8091322095851305
510,-2.046399839102692,6.069205597938793,-234.52417233310527,-3.53469170219877
511,-1.8142013226361977,5.706284078399896,-224.45104383322072,-3.210225787140903
512,-2.808177592402638,-7.279128525558144,-2.1942071389086157,-6.666119280032473
513,-2.693408196043857,-7.525962181008451,-2.3258895816350775,-6.655511438485927
514,-2.567788084965872,-7.760237905206724,-2.4914068656166073,-6.645637167296661
515,-2.366957907817332,-7.981425464411341,-2.6629581412305035,-6.599448973516495
516,-2.0328442368089354,-8.192199560646653,-2.8036251173702778,-6.49441719092083
517,-1.5965348476077927,-8.398648441783708,-2.9003410995408405,-6.371880499453342
518,-1.1180367141511147,-8.60747047432638,-2.9557065244033516,-6.278598572184372
519,-0.628009323778614,-8.823838621812525,-2.9984837162060725,-6.211312503904176
520,-0.14803251117464042,-9.050225514158255,-3.058559965440004,-6.14041228324529
521,0.3104147584279922,-9.283054775395243,-3.1210606999551946,-6.006891321295855
522,0.7491865238193692,-9.518528088157916,-3.1666094396935582,-5.762375203687477
523,1.1674277920383533,-9.76018063360259,-3.2134511766259464,-5.433530621388961
524,1.5655837578851337,-10.012396989707133,-3.285905912398514,-5.075553653217589
525,1.9544125203135576,-10.276111124174841,-3.401946026785835,-4.722026102310713
526,2.3372140869086726,-10.54961194066176,-3.5681598316127827,-4.396074881345315
527,2.6966571845101135,-10.823583607180957,-3.749242080264947,-4.110797365992817
528,3.0044783161834854,-11.089736023135833,-3.9075409025643606,-3.860566654159986
529,3.2250892656754755,-11.355061004342978,-4.062288272940503,-3.6187826329145194
530,3.330148720216852,-11.626330460960975,-4.243549352727256,-3.362093196570999
531,3.32222558093064,-11.903932040240747,-4.439421271402863,-3.094467809634546
532,3.224223816424488,-12.180336075125673,-4.641726406718199,-2.8320145290103893
533,3.0509004552109973,-12.450689405263695,-4.880566697828863,-2.593962247129605
534,2.827948638897494,-12.719134833918776,-5.187553516921358,-2.3916010077291254
535,2.639460075082475,-12.985046982954064,-5.58225911345118,-2.203752678957253
536,2.5503292150407155,-13.250202959782019,-6.062393343827743,-1.9970666535744315
537,2.4959799662707973,-13.519850714951094,-6.571963626541869,-1.758548993407285
538,2.4078112649673464,-13.797330056381911,-7.047183219638725,-1.4742013326519057
539,2.344799177992985,-14.079665143436907,-7.472386410436983,-1.1064825375359124
540,2.385857152204,-14.361075478954579,-7.851438205241207,-0.6281271766098987
541,2.5696410223550266,-14.63682708895562,-8.189317403891897,-0.0423228176711562
542,2.899313417677864,-14.902394283448904,-8.495090957872776,0.6293624456200194
543,3.2662050917510843,-15.151386849869176,-8.763783355823023,1.3323941841451978
544,3.5635940278451037,-15.380567241729306,-8.9914023581154,2.0223263175641057
545,3.8677422801209995,-15.596608129122416,-9.20127023170043,2.739993160382438
546,4.278588835735518,-15.806657784208511,-9.419812534716254,3.5331221553026193
547,4.745417691324177,-16.0087087603837,-9.65265202422737,4.362440040758653
548,5.200343970175373,-16.198432191643363,-9.898007561108072,5.177558750795944
549,5.6510252989988,-16.372880702604736,-10.156832048501999,5.976617486529125
550,6.118328419062655,-16.53242602065139,-10.425331854423618,6.770265192579798
551,6.6421036487975265,-16.68776681105258,-10.692172314934615,7.581518457381658
552,7.252154974196402,-16.85180439368032,-10.95043279523151,8.42751502158647
553,7.872699248750708,-17.036922474001,-11.20290523003289,9.269371524844548
554,8.423238344722428,-17.25097238664647,-11.462370227816674,10.060928819752567
555,8.964033329224598,-17.504437846176124,-11.762054430058173,10.808930603386258
556,9.56075701968995,-17.811538215109884,-12.133751461016919,11.530282379569343
557,10.145594907912075,-18.17136012397539,-12.568613541050137,12.221900090638101
558,10.63943727761708,-18.564638664682096,-13.050874920550653,12.877825157713884
559,11.03275814831568,-18.981409835671283,-13.606891268117183,13.481309034576967
560,11.345215370752493,-19.413663237960794,-14.249683784907278,14.022185049581825
561,11.655801654182016,-19.861672547085362,-14.927542024355757,14.534727838886795
562,12.040330041858386,-20.330121841218283,-15.574504309160867,15.059365506705504
563,12.433213421178962,-20.818748132698786,-16.14159457659531,15.594709067183462
564,12.761726719702557,-21.32729693666564,-16.608147568621142,16.131221966375826
565,13.125953370291635,-21.849358365305022,-17.008621510770556,16.68431619918832
566,13.625805135126516,-22.382492517281836,-17.4018537493301,17.26482905425209
567,14.197709427542836,-22.925600155266174,-17.84121557897494,17.85927846770136
568,14.74800442833769,-23.47075030924834,-18.355233642278982,18.452816608785348
569,15.227937279166346,-24.01325856669168,-18.91205346579841,19.035980696973528
570,15.617643921183458,-24.557726749574826,-19.459881309893913,19.610372627236575
571,15.991662524873961,-25.101215272871304,-19.977214557832696,20.213748196145392
572,16.390213205567417,-25.643321080519186,-20.44937882857097,20.843952550531466
573,16.68604097612713,-26.203081470750142,-20.880518856865205,21.42484312533301
574,16.738155393184076,-26.792665967730702,-21.278952611601046,21.861174181207193
575,16.70559626111465,-27.399872307820466,-21.671870461925643,22.195374413825082
576,16.79610123365682,-28.001433361568683,-22.084383638494636,22.50933335089288
577,16.9655007285845,-28.59153989393631,-22.49464905406586,22.793774835569035
578,17.113525977440318,-29.178043837869243,-22.871173581015206,23.026325873427734
579,17.215837914146768,-29.77228698225776,-23.22458571516746,23.227044837364613
580,17.619302438378885,-30.29175983699121,-23.82364103296015,23.67491658977916
581,18.02330618283161,-30.779158366074718,-24.42489395694572,24.12914263704024
582,18.527772408294595,-31.23450411361382,-25.03961495793233,24.622070292562327
583,19.040381956510696,-31.666710725560822,-25.63166855819091,25.12200926755907
584,19.436808669449103,-32.08626934779616,-26.15524250012442,25.581232407443938
585,19.761984479996816,-32.49647514564174,-26.62316099564942,25.996404533278877
586,20.101953211575378,-32.892637840513686,-27.067549045161027,26.37633461002888
587,20.47745238088264,-33.25567137207513,-27.486473304887916,26.721652625986078
588,20.887898551062275,-33.56517513822918,-27.88086546971768,27.03447130310697
589,21.3002029693401,-33.820728204687576,-28.2830024363763,27.293439332628637
590,21.665485745939456,-34.028904729437684,-28.720216909878907,27.48093533516277
591,21.97921078876719,-34.20072140480301,-29.211997898828805,27.65314016182075
592,22.256427452434885,-34.34218360764871,-29.746175235334363,27.868423477097497
593,22.497619484335296,-34.453676483043616,-30.204626666493265,28.080428427862945
594,22.703114539505123,-34.54072355074561,-30.466993135982584,28.221417847995173
595,22.877483159609735,-34.6103356376249,-30.556308930480807,28.294875648292916
596,23.021869435162035,-34.667814314895985,-30.553337899750694,28.324868088803036
597,23.13548486290476,-34.704181441797225,-30.51396211104928,28.329115062848622
598,23.22038372998331,-34.70711746176695,-30.480631186602302,28.32118901409994
599,23.27428514123636,-34.674640800393284,-30.44704099413724,28.276243011187933
600,23.299702697101893,-34.606023795784054,-30.38141070331578,28.1591344850375
601,23.338295610202668,-34.5107775710068,-30.289438228339094,27.976265232819028
602,23.42426169016969,-34.38935362199614,-30.18729094837047,27.749531084156207
603,23.507666039084146,-34.23732771051727,-30.06732346214266,27.487359298794022
604,23.52662048973105,-34.049680277933874,-29.92186841988099,27.20301653320323
605,23.48658109216066,-33.836854318832565,-29.761196847808606,26.918483035150466
606,23.4189886307543,-33.61228281327132,-29.591789720702213,26.655332133074342
607,23.37879145488813,-33.376224626135524,-29.404811949194062,26.449598650780214
608,23.410005290448495,-33.12362684270497,-29.184681815339307,26.322158851353464
609,23.4394183714316,-32.850687431119844,-28.897710098916217,26.222420415073255
610,23.37808782827778,-32.549756136372835,-28.524403049979238,26.08577718127387
611,23.281565427173703,-32.212967455033095,-28.110351502893394,25.909445724063904
612,23.2363140557499,-31.831046803942925,-27.716601854273332,25.713022468074463
613,23.236680571603422,-31.379066402227917,-27.37641810303236,25.504016044895213
614,23.250098378417643,-30.845340256465636,-27.089613685002963,25.28946950611971
615,23.24449498270089,-30.242311651851775,-26.781220284512024,25.064844672841758
616,23.186475072476444,-29.608452843475508,-26.36611208423355,24.81826913615633
617,23.097437708316395,-28.98253198211784,-25.847848752330787,24.55568693358504
618,23.012308795163452,-28.37358889949923,-25.27408064238722,24.283897753413463
619,22.887022434124173,-27.766071183993407,-24.692561253388135,23.97966944681568
620,22.673294918299707,-27.14393302731716,-24.150504240557108,23.619873638684588
621,22.42499635919989,-26.504185817944308,-23.664860249539792,23.2214106513367
622,22.20785109640404,-25.853836041431858,-23.22501058741327,22.80813264826684
623,22.006238305009425,-25.199458989825484,-22.81886709920508,22.37728328787064
624,21.78374548195755,-24.54654381516539,-22.422968313226626,21.917845725355953
625,21.506301234390143,-23.893803098739493,-21.98665541165041,21.41516037671647
626,21.155936662473874,-23.234257651566292,-21.467363863027355,20.858533181479935
627,20.81427856158321,-22.55748200431139,-20.866744645254634,20.271545166583184
628,20.572694732267465,-21.854481698325227,-20.211142270124117,19.68664121348828
629,20.375637205340546,-21.126264882172038,-19.53737288094575,19.098085665557303
630,20.13556873252631,-20.37939003947689,-18.878010572926254,18.49510859117939
631,19.871808563520677,-19.618581563027366,-18.23521852123402,17.90590298964073
632,19.623664928124118,-18.849397840240083,-17.592323331398312,17.358499158649586
633,19.39385428622894,-18.079940290996007,-16.92351895623572,16.847859698324402
634,19.167265557835265,-17.31710919760157,-16.211519072613083,16.355564203312237
635,18.874929836426325,-16.564687520206338,-15.481762020584396,15.845506545634558
636,18.443062640202484,-15.82327893313062,-14.77418167768885,15.290929139862056
637,17.883293166688638,-15.089521425016839,-14.109420835553632,14.730143506369684
638,17.242388144760458,-14.358489053589054,-13.493966166404794,14.214214213522336
639,16.544507593540725,-13.62582155083673,-12.906135912633523,13.748273997398517
640,31.226817247876756,-23.753788766451336,-25.996980483902547,29.264160638664556
641,32.13981980165296,-24.20420511698977,-26.599455651348627,30.0280293260915
642,32.97668233238146,-24.634873817343067,-27.195749954662336,30.738555450184176
643,33.80253069061487,-25.03072048408072,-27.76233844681851,31.416906365831977
644,34.667127746287306,-25.382349638207057,-28.291645253805015,32.079068942176
645,35.47622990284747,-25.68668203223873,-28.79325324186145,32.68657968649273
646,36.12786722901733,-25.954377357859737,-29.280039687376938,33.200781963092744
647,36.68841303584502,-26.209533927133666,-29.760531636046856,33.65476643172612
648,37.25034764301012,-26.47342368809687,-30.23570643603835,34.09328417658766
649,37.80111667977784,-26.745342224291132,-30.690096335227736,34.5119244797067
650,38.31525776918571,-27.01280984769496,-31.101060829277174,34.901973876028514
651,38.79966250632081,-27.263461403384284,-31.437171038840855,35.28206560790148
652,39.263239293161625,-27.488870564739965,-31.663947310109087,35.66808625755788
653,39.74286879438289,-27.684088294315462,-31.787323537810657,36.06213363530744
654,40.26836953145339,-27.847721963951702,-31.869524444044544,36.45624460659124
655,40.77899868339325,-27.97544585561244,-31.985554531019833,36.821759032496956
656,41.211535579357616,-28.06372235784723,-32.16861664509677,37.129573372013354
657,41.62011299095187,-28.112665619274356,-32.399693851956556,37.37551483649524
658,42.06101234842476,-28.124126782351325,-32.63606363324716,37.56742857053758
659,42.4797113655812,-28.099153446747046,-32.83504854006185,37.718720613494185
660,42.8111991137429,-28.038585049532646,-32.965386971440715,37.84329049179217
661,43.0338645118225,-27.937104331717876,-33.01234564405112,37.93525177223818
662,43.15697129735176,-27.784987241995957,-32.966678402598866,37.98758225823664
663,43.2790852868471,-27.576604545183674,-32.818095123648476,38.02212948425342
664,43.48755702712823,-27.30807329558498,-32.57511916198319,38.058085547836484
665,43.702138684137,-26.976938657207395,-32.27494081943083,38.081067100207264
666,43.81515190473133,-26.58389606865127,-31.96921859252327,38.068531659865386
667,43.839698197100056,-26.13334032719646,-31.687004296963043,38.005727885466385
668,43.81268911529324,-25.630678966076324,-31.42015232833186,37.88495618768293
669,43.740354672854885,-25.079378803283255,-31.139135888368624,37.71687887524172
670,43.62798847481299,-24.48138310383639,-30.806511509450534,37.51866630522047
671,43.44310973397293,-23.83893718969303,-30.402906341350647,37.291684480035485
672,43.15876654733054,-23.15159542613258,-29.926885970758594,37.032226389346775
673,42.8573804380293,-22.416907737509227,-29.383134932879692,36.75001245765377
674,42.61433935856381,-21.631207753674154,-28.776485028779046,36.445301526861385
675,42.34842824617364,-20.796171938941196,-28.116165988617798,36.08217562143791
676,41.96739407493989,-19.91915405539818,-27.41801903141312,35.62601748064352
677,41.50216438173028,-19.00145435341511,-26.694925858168972,35.078031067294134
678,41.01120252092739,-18.03503725005212,-25.952035714301207,34.45560946519593
679,40.53941235288635,-17.012185393830062,-25.18207251171128,33.7839810315209
680,40.11113314414264,-15.927666886880628,-24.36730911774255,33.08701304913587
681,39.65349374942373,-14.787990976634065,-23.488124352339913,32.363680754791396
682,39.08130114107706,-13.607763619468045,-22.53407565658786,31.603931903215813
683,38.43371066076829,-12.40666504434365,-21.505877266561367,30.811070364033686
684,37.761935288938545,-11.205057470243874,-20.410528527439123,29.988620324642607
685,37.003588613573136,-10.003465231499845,-19.25601793266712,29.12936512369497
686,36.09871482656265,-8.783000173675836,-18.04831167404536,28.226557653351772
687,35.07740780925759,-7.526466055904123,-16.794885283116162,27.280097343228935
688,33.988050866835266,-6.223867261028829,-15.506548252529113,26.28713907446778
689,32.887005250817346,-4.869938243640328,-14.188068161455197,25.245383633086504
690,31.806814729658026,-3.4698031446908786,-12.838682495776455,24.147666011225887
691,30.647889537669748,-2.036822860514483,-11.449134107846184,22.95292593179542
692,29.311566315191616,-0.5800181596771827,-10.006535325246771,21.634744082845728
693,27.88969292869654,0.8994005219569281,-8.49731535482734,20.253618457606414
694,26.491800437514318,2.400783414878095,-6.91602310531593,18.87699493822502
695,25.069610056963885,3.917436291941372,-5.269881244308019,17.49103373560617
696,23.55118480821827,5.4414353032412395,-3.5759025006767104,16.064877674412095
697,21.921528583509772,6.977567510598432,-1.8468766750490742,14.59652265235554
698,20.182851210026723,8.54163103849868,-0.08747651517594293,13.08697989532488
699,18.395651657548836,10.14870234967928,1.7010786060235017,11.553484483592626
700,16.685518504436526,11.735493242554256,3.4457825985161,10.081696915067894
701,15.075732554506981,13.15261058747487,5.000432022637793,8.774036125864386
702,13.605382320765118,14.323380147652351,6.305798734261411,7.6289857772499
703,12.356609066322667,15.287372436705185,7.411713447267315,6.673714496204353
704,11.351179935216907,16.11752545873576,8.363608893365,5.869966595830934
705,10.478795802364424,16.867674661866797,9.17070425999334,5.164342874657486
706,9.60794788301704,17.55614505775578,9.854563264614727,4.510141779109178
707,8.67654734421816,18.19233303317729,10.484447143711948,3.8538549560018187
708,7.331659343968553,19.08844461664513,11.477038763158664,2.6669887123233615
709,5.975677664254406,19.92449848600666,12.51476524753811,1.4953761130502
710,4.666244676509269,20.70725875132494,13.560697567459703,0.3674504213533061
711,3.3497043107247193,21.447889606944596,14.587439537460659,-0.7279637987067002
712,1.9582735159799647,22.145762425368638,15.593242123813948,-1.8080950261013125
713,0.5680580824733535,22.78705715133476,16.57545818510485,-2.833627008195087
714,-0.7273587653768303,23.363336537055925,17.51007272171952,-3.7716455909940687
715,-1.9575423410996216,23.880712158197884,18.359355688863687,-4.678128028616354
716,-3.1776319142534812,24.3485664231519,19.098735778827145,-5.620944122872936
717,-4.412100575448979,24.77465048461659,19.73409480482042,-6.60893142381321
718,-5.6629866773673205,25.159208229783104,20.286129925480928,-7.618287171282401
719,-6.830772935149776,25.505656488889088,20.775116463920014,-8.57762098156704
720,-7.813445899524453,25.828936894820664,21.212941462363943,-9.417191515822557
721,-8.698180039593,26.13790101426248,21.610762005155944,-10.172346741657941
722,-9.610807914507507,26.42606236816449,21.98322633628317,-10.909497199753766
723,-10.517096926378246,26.6837015822126,22.337851524329746,-11.627851021187068
724,-11.34729583336301,26.906707130588888,22.671588548563737,-12.30599980409431
725,-12.10042340097019,27.094298726212024,22.97556966349283,-12.929592886672785
726,-12.787458910796776,27.246464441788678,23.241922215276517,-13.482710037336558
727,-13.4484595064572,27.365943793930455,23.46649069885193,-13.975620927560325
728,-14.120538763315938,27.45977910832001,23.649659356451032,-14.42743075844128
729,-14.715307867285254,27.537561465121815,23.80280727646862,-14.821013027993134
730,-15.138666571411141,27.60627655464398,23.945324079836148,-15.139073330014757
731,-15.479017624757034,27.670870091314857,24.088124862442545,-15.410971855449326
732,-15.861583750892887,27.734653556836147,24.2266464810095,-15.673969156198597
733,-16.288345164259134,27.786963987505494,24.347300280231178,-15.94056801190185
734,-16.72350405524845,27.804797885435523,24.434594202379728,-16.209520388065577
735,-17.1278735277784,27.77381950170538,24.474463134382752,-16.45524324749661
736,-17.464590501574587,27.69456699001794,24.465590391254146,-16.6491394961286
737,-17.79239512319697,27.574113351382724,24.418483042262892,-16.808889942052843
738,-18.181403965137683,27.423797283056665,24.336592281411455,-16.964035162613534
739,-18.55574922436448,27.259201866640325,24.2115710585731,-17.103138965980122
740,-18.815237754018124,27.09148160152595,24.039854894824156,-17.210426506043316
741,-18.985953909712464,26.925576273040093,23.835628320696447,-17.30219966084162
742,-19.123536677146703,26.758574073838105,23.62799915175297,-17.397165733716708
743,-19.236870547419656,26.58167098052939,23.440455501664502,-17.505791186610395
744,-19.327068201982534,26.388876230357464,23.271989907573758,-17.626902743860217
745,-19.36675619782483,26.1812727195855,23.104163568729952,-17.711099700123057
746,-19.329883964400803,25.956903645463644,22.915054095940317,-17.709470328764574
747,-19.29364414038556,25.705169629759048,22.68747958866638,-17.657144109046772
748,-19.340052593796727,25.406031082405278,22.421623043663864,-17.61077218835586
749,-19.404394552944286,25.0400725701823,22.13101148279963,-17.568056394618864
750,-19.392688881443064,24.602713749787053,21.833259176283484,-17.512369750657758
751,-19.30876784615115,24.10478068699027,21.533757918352194,-17.45156727644204
752,-19.187562663059815,23.563993452565146,21.227268331256585,-17.392028182590764
753,-19.0703727513637,22.992323124582526,20.890207854334136,-17.33008857831688
754,-18.99791093551346,22.39424410033335,20.5001687980651,-17.26260288234756
755,-18.929183893262433,21.774921214495976,20.05194780211508,-17.1788316064031
756,-18.809067498758534,21.144091129339017,19.552997396886187,-17.07123650626788
757,-18.706276057528033,20.505307158356086,19.010447321278466,-16.966491530538352
758,-18.697056866908458,19.861876715148053,18.438756170300046,-16.89093130799575
759,-18.710884247286845,19.22268686028402,17.863534818963117,-16.81902408420686
760,-18.65158894875512,18.591609678750455,17.307794845628006,-16.713845962601486
761,-18.506690926246904,17.96499478794822,16.774647642011672,-16.567783750603247
762,-18.294915757430346,17.33348799039733,16.248976777437722,-16.384251438806796
763,-18.079860854906286,16.68330971428349,15.710212172326115,-16.183092146392546
764,-17.91964480962483,16.004315480815666,15.151272664529065,-15.982094685083723
765,-17.725258728994792,15.291499272838918,14.582438815421195,-15.742809758501679
766,-17.383379088039582,14.55405983341801,14.019282974010354,-15.419902227768528
767,-16.944972537784448,13.817505191008,13.475102570823662,-15.038738899875472
768,4.433608448436834,3.9302670326365465,-3.3627725893493627,0.7606162655619974
769,4.415003698307705,4.159697617685632,-3.377124819065057,0.6194947508352474
770,4.466744126222959,4.3881452915518855,-3.362851422399602,0.48618037975156003
771,4.606507297774831,4.608615198737068,-3.3151877785677746,0.3689969124330962
772,4.816769977785226,4.815431114999318,-3.234413140101847,0.23952099496028895
773,4.9607997003980895,5.019339835709518,-3.136047970325907,0.09499968174442339
774,4.921178629355644,5.232343623043694,-3.037644009422469,-0.06819093037482767
775,4.800128510045992,5.447050286928605,-2.94790627545114,-0.2411190800729418
776,4.73377315566401,5.655208147649084,-2.8708411518885453,-0.4099102975805612
777,4.692136340980889,5.863771340544567,-2.8024589249344163,-0.5778371087638297
778,4.618566076253449,6.081124247319399,-2.7386063504471485,-0.7469374273344045
779,4.523483626904946,6.312376467239832,-2.691747467963267,-0.9005348651478682
780,4.420028808774145,6.554544927718633,-2.672271730038018,-1.0225639205237467
781,4.338140370432062,6.784297437940433,-2.6673849769449633,-1.0997888609927295
782,4.297206165600854,6.975049018153752,-2.658514783934729,-1.1364246517635541
783,4.2054648926439695,7.114686285946663,-2.6323843743849915,-1.188201272833577
784,3.9809226612552884,7.202959416454687,-2.5797098734382873,-1.3093962071220664
785,3.7146257972149552,7.253529493668834,-2.5074428930556203,-1.4925720904913047
786,3.5167996847709126,7.285144339446601,-2.423990467258047,-1.7054811583266276
787,3.366523715786937,7.307900537024494,-2.3126548861456655,-1.9185052912238785
788,3.2154179208960922,7.324661435041593,-2.162062182966268,-2.1049426027636393
789,3.0407623709366804,7.332151059509827,-1.9941368752068724,-2.260147164198455
790,2.8253967782665925,7.3215678565998905,-1.8423542539882516,-2.3954019266708797
791,2.613247682248,7.283949575075517,-1.7449868030359006,-2.515826695034994
792,2.4424090393650486,7.211535509509652,-1.7277331848936905,-2.6316308569178504
793,2.2151079867885883,7.0950470825535525,-1.769823301108446,-2.781195006778025
794,1.8368814010913836,6.93210160320276,-1.8373975863302534,-2.985590096679821
795,1.3782527205097912,6.7368112574884425,-1.9226751216821607,-3.2408969802363816
796,0.9339005164784691,6.52566303728725,-2.024730890545157,-3.514456307930338
797,0.5081823632657121,6.305646621688882,-2.141362117311935,-3.801186348981502
798,0.08091543128442596,6.07510414148702,-2.2709443218622787,-4.133616733943616
799,-0.39059887238753505,5.820561281873854,-2.398081007458937,-4.5198865415621485
800,-0.9443243146066672,5.52710625695444,-2.5093688925370445,-4.913613406635936
801,-1.516766744477256,5.189091383485321,-2.6172999646118504,-5.25435718094555
802,-2.0396590481092214,4.810965938897153,-2.739424145935954,-5.539287999233776
803,-2.5784919309220173,4.413284997767812,-2.8772205630366217,-5.80244043096862
804,-3.2053507307536497,4.0169395443619536,-3.028400108896304,-6.095557645985335
805,-3.8725970521679844,3.6222084243432273,-3.195526780539282,-6.422911963035833
806,-4.517434436994218,3.219983608517822,-3.3780672344108713,-6.77333002098233
807,-5.124486360217704,2.8038823867258285,-3.5683984932008435,-7.149004004936136
808,-5.6955737782735,2.367232613059974,-3.7585414854437835,-7.547308668264542
809,-6.287512799516955,1.9016361722507573,-3.944646340956192,-7.964944780532374
810,-6.946414449194759,1.4070439139551503,-4.124078620607863,-8.392194573088386
811,-7.5800975005273745,0.9001112148818219,-4.295416833710597,-8.787075465803479
812,-8.092058216236502,0.40140687689188814,-4.456577074739666,-9.113829353695472
813,-8.537733322527531,-0.07334889767182569,-4.600562750063887,-9.388396530652004
814,-8.99876361087614,-0.5166021345498988,-4.722405713420751,-9.642829598265093
815,-9.485696597157737,-0.9415782325598024,-4.824112060992705,-9.895241387930733
816,-9.991512534777488,-1.3643896030068268,-4.914451119668873,-10.15749976501128
817,-10.482420734705093,-1.777097954761328,-5.010979340910422,-10.429259140883232
818,-10.928523442717172,-2.1700593419882037,-5.128294900075437,-10.70196062956412
819,-11.399800509752621,-2.5548011503008197,-5.27069978707174,-10.974583805944802
820,-11.970011437382672,-2.9469593935618215,-5.428144716289994,-11.24801070450097
821,-12.575537114062115,-3.354043785447324,-5.566822451748841,-11.511900645376945
822,-13.14623845703535,-3.780803969218406,-5.662442692596774,-11.761474976590373
823,-13.747553321104961,-4.229621827934752,-5.693363910072472,-12.0196907392097
824,-14.445898862978876,-4.6953709367390974,-5.687265576420345,-12.295306648239407
825,-15.208202057704167,-5.166207772353165,-5.692356807683509,-12.608126231810115
826,-15.973975757781847,-5.6258032159452975,-5.75692896489745,-12.933438884404806
827,-16.656500672045947,-6.04989626725751,-5.885352091962071,-13.208758578138717
828,-17.203899924273895,-6.410805740111366,-6.0592918119298345,-13.418359829390353
829,-17.6711948014437,-6.710729913751859,-6.264640391230208,-13.563625719227199
830,-18.142008113066584,-6.960553156521834,-6.490149861210333,-13.662120321064693
831,-18.513327497785326,-7.187233250298583,-6.731059795752595,-13.683074061703467
832,-18.683802426647453,-7.4268790805544125,-6.956920061105827,-13.624311664774764
833,-18.77051754169488,-7.70771314516652,-7.131219692295043,-13.510972994998315
834,-18.91686243617928,-8.038706032875035,-7.225967764104364,-13.403941414261418
835,-19.126471242293476,-8.400421433784382,-7.257863371750031,-13.354013301792438
836,-19.497505721109974,-8.672110146313408,-7.287973750177082,-13.52651270745174
837,-19.854335891620444,-8.939802423805144,-7.314475736802192,-13.662514899667071
838,-20.153394504982387,-9.19149240448355,-7.357618349272059,-13.751199699044346
839,-20.43491210766577,-9.410270898112978,-7.429964269124244,-13.82792111765918
840,-20.74744099050226,-9.5805631496063,-7.530591137202148,-13.933125545034212
841,-21.018685776636698,-9.694579380427765,-7.648256916921771,-14.055206298539051
842,-21.165451040971487,-9.753435771684835,-7.764835127446632,-14.164810981752437
843,-21.21702715094296,-9.767216600947489,-7.848633904724725,-14.242191191418296
844,-21.23588672548647,-9.753176198615392,-7.8760654786788615,-14.276051396732484
845,-21.273361126178354,-9.73565457359685,-7.872332652848451,-14.286607936201321
846,-21.36598775978334,-9.734500399607446,-7.863869486380795,-14.30539084036514
847,-21.456972674144115,-9.750660380033684,-7.8631385206227,-14.332049182516991
848,-21.475100046672345,-9.774299090807691,-7.849809717499321,-14.360376091171176
849,-21.489197585621373,-9.792056305575572,-7.811450714240251,-14.409141571681218
850,-21.58730053218272,-9.791594731332287,-7.769099997690129,-14.489291854230975
851,-21.723534847453276,-9.77480585657193,-7.750785694126505,-14.632906069642944
852,-21.823691620070157,-9.748699179650748,-7.783426506564192,-14.827214302134347
853,-21.8648455439581,-9.707878748083397,-7.845570982505059,-15.043980750807133
854,-21.846648358002383,-9.64545590952682,-7.9010152004856,-15.243644699734197
855,-21.83414935338132,-9.566610170443393,-7.938497762280325,-15.412106710028299
856,-21.897337056369327,-9.478073249864519,-7.962437317965832,-15.546476774897588
857,-21.966638757233675,-9.377447093870247,-8.000212479749797,-15.628328107977493
858,-21.948144456218376,-9.261481119842777,-8.080596803072497,-15.645048131996496
859,-21.895462394836315,-9.132403650091357,-8.195739409312448,-15.618329445336991
860,-21.885194738027227,-8.992182043685427,-8.317695409655952,-15.572803153166605
861,-21.885724790458344,-8.84328994105683,-8.411177365327285,-15.499845849768747
862,-21.84366496799649,-8.683954888527321,-8.445447930499725,-15.382502236108737
863,-21.729840458528592,-8.49427119162675,-8.425370794034329,-15.216658747588125
864,-21.5294483887438,-8.25426997608916,-8.371406694670288,-15.004844637237012
865,-21.301976164480944,-7.96893670958316,-8.286303917395845,-14.766490724003711
866,-21.11624812193786,-7.654367089787476,-8.16955617468387,-14.526575080160232
867,-20.913868033132594,-7.323370568029631,-8.03041524035489,-14.27991254476448
868,-20.616786028246516,-6.988279666500389,-7.876990649311102,-14.019769179165777
869,-20.277950472767913,-6.658328876712797,-7.71223893866074,-13.786719756544624
870,-19.971154593007558,-6.336879009340767,-7.539871530098287,-13.612384555393048
871,-19.682820868081375,-6.022283513384624,-7.362279663254129,-13.506280495991655
872,-19.378845669398043,-5.70910434620433,-7.186090629775931,-13.42602211375978
873,-19.02470551343991,-5.390318528127247,-7.034506386527855,-13.347462557862016
874,-18.593007302791833,-5.0576846102314725,-6.9272230655313365,-13.245582388363422
875,-18.149818629078954,-4.7035070782392525,-6.862149675877513,-13.131011882092858
876,-17.76713165431965,-4.322259021762894,-6.817342358470845,-13.007040808095804
877,-17.357347746394087,-3.9073763732827613,-6.741970216789873,-12.841562999309302
878,-16.81726503892462,-3.460487692616582,-6.585442571865347,-12.58155662952179
879,-16.204224885099936,-3.0027334349982517,-6.337735658890886,-12.240909461119543
880,-15.617192501797408,-2.5614889077866594,-6.015701171633784,-11.908984621678346
881,-15.115589525065172,-2.161089290080245,-5.652026651291945,-11.64702338035248
882,-14.72316260134491,-1.8136352953561976,-5.283029136920111,-11.434198920985509
883,-14.344318604062808,-1.4997873258210261,-4.922297281903434,-11.204090071751093
884,-13.858318107456267,-1.1893016127750664,-4.568259803273331,-10.912332562748508
885,-13.297543205330019,-0.8691654795769173,-4.215829556587346,-10.584046794695134
886,-12.740942664593952,-0.5371592110285685,-3.858971326539405,-10.261372587190547
887,-12.171527971214962,-0.19964218938052078,-3.5022706741693117,-9.959573458647405
888,-11.569596319748927,0.13200919470555944,-3.156491709657638,-9.648985018948764
889,-10.98906857605547,0.4524194537234866,-2.8266628392484336,-9.317801234129877
890,-10.483747051312527,0.7609956952149723,-2.516735393082334,-8.991806768613568
891,-10.087576427403375,1.063224548309984,-2.236658751397387,-8.682234040216345
892,-9.80066327406209,1.3642686242367923,-1.9921671462637103,-8.362042845588773
893,-9.491939398808709,1.6524072407602681,-1.772882490671285,-8.027240510545948
894,-9.027954760926253,1.9126287877820922,-1.563939844648417,-7.672269879552783
895,-8.49210941497438,2.1486847037776005,-1.3572404763167658,-7.30439407806796
896,-17.20791270971374,0.9130128888495618,2.352996424564204,-18.526061617590663
897,-17.843083988759695,1.611305570565773,4.219604870823707,-19.23208580709713
898,-18.53543509226065,2.2743001810953505,6.389817874658557,-20.105694261843475
899,-19.23033313632404,2.938538719693866,8.804450910545913,-21.048992102083844
900,-19.891052805116317,3.6461269561714094,11.322664084671036,-21.959380843504785
901,-20.624930253912822,4.380653112113472,13.820615492254024,-22.888090198199713
902,-21.555310111964,5.103936448912007,16.145401582304718,-23.933318727503146
903,-22.658408305462327,5.809243986136922,18.128695972391892,-25.14744778573357
904,-23.879627706561852,6.467953253319309,19.614074314749004,-26.552706786485775
905,-25.24711301199428,7.039780318922171,20.525392620011253,-28.116645844273872
906,-26.777029849554015,7.466665936733905,20.86700850281878,-29.76963180020673
907,-28.409036315382313,7.752335640169899,20.70934314762013,-31.44399798104899
908,-30.080227958595657,7.97978361128187,20.301052970291867,-33.09067191594809
909,-31.758633724723946,8.1793618889771,20.10327155399999,-34.69801303032474
910,-33.441046540599984,8.368643441043886,20.38317525863321,-36.28310913369495
911,-35.191220281400575,8.538777698853849,20.950997306299175,-37.89282096434545
912,-37.077964282325254,8.658316804802219,21.424419591067203,-39.57300837925642
913,-39.08165119565726,8.69368445736337,21.591555217046736,-41.29841801980292
914,-41.16275835062192,8.622810402018223,21.496312120764692,-43.08150698143263
915,-43.32546846777894,8.447830581044194,21.192678349010222,-44.90756642035059
916,-45.564066725102464,8.183985154712605,20.61636053667353,-46.83960029263081
917,-47.86873783209636,7.853733388673783,19.675963715342746,-49.00871703714666
918,-50.20029100642961,7.468525889262853,18.269430065842407,-51.330449249614034
919,-52.37604196140261,6.997890218225467,16.290593108454715,-53.49541080353191
920,-54.24687219718078,6.408868014976211,13.66968332108911,-55.37681780247724
921,-55.95548867364883,5.704989242896041,10.384732723698514,-57.03238445716387
922,-57.68544544590888,4.908793924442835,6.448465522792537,-58.612006103101095
923,-59.37765613004013,4.0681028849853185,1.8895679897606161,-60.133319548734114
924,-60.95421721053519,3.2259624364864514,-3.2538827244978474,-61.59835703170444
925,-62.48242307699129,2.3582965645416407,-8.946341628717237,-63.06918999741516
926,-64.04389118746003,1.4477316180167121,-15.156526137816805,-64.59227557743695
927,-65.73444470668619,0.49729347416260467,-21.854756688341823,-66.21280722262449
928,-67.5845872121085,-0.4421729464738202,-29.013997309678164,-67.92000866599142
929,-69.36200431319365,-1.3424489847735128,-36.60845991785609,-69.52554577726731
930,-70.82138837566534,-2.2263839635785008,-44.61277413294248,-70.83734673573981
931,-71.99338860750994,-3.1233458899722817,-53.00189239223708,-71.84889563203927
932,-73.00213319411867,-4.063346083717112,-61.750888234677475,-72.64061676160567
933,-73.9322470357808,-5.0081490282293455,-70.83512200079423,-73.30435333357012
934,-74.851776307245,-5.928819524290969,-80.23026423047493,-73.93958513917596
935,-75.75304756246749,-6.825715045641673,-89.912118751708,-74.61926640842046
936,-76.5803031814453,-7.752812333842991,-99.85721214841588,-75.34882862809174
937,-77.30459508561277,-8.737560941790955,-110.04215984062293,-76.03914570807922
938,-77.91176191740384,-9.749576969009025,-120.44446726717042,-76.5807866762855
939,-78.37306849470542,-10.77525215414937,-131.04187558301152,-76.90358591331541
940,-78.69293883604522,-11.79382797108879,-141.8078132046882,-77.00542564271964
941,-78.97851257284364,-12.804250492888455,-152.72963188659622,-77.00412122124749
942,-79.31596536697552,-13.810709296732927,-163.7777215743675,-77.036791409535
943,-79.6358639908988,-14.800944647571832,-174.93460230086086,-77.16250906653269
944,-79.82655362646226,-15.755050038179613,-186.1933515766427,-77.3580975836687
945,-79.81455494079087,-16.64595343367565,-197.62566417580624,-77.47768035292577
946,-79.56455611235369,-17.455129865593523,-209.43878093871106,-77.36137093840944
947,-79.149854537989,-18.191370276631673,-221.84512205598492,-76.96287051064915
948,-78.66415951776493,-18.880025585566134,-234.91360675637992,-76.31530618051652
949,-78.0720261201985,-19.561655072261164,-248.60496870091984,-75.5307260584997
950,-77.32467043864823,-20.267956183046085,-262.85495868727975,-74.72645001872618
951,-76.48660512741749,-20.98262478750921,-277.5703138333772,-73.90116482552885
952,-75.62234533106677,-21.676062527229877,-292.5976830454759,-73.00373014523683
953,-74.7192205999877,-22.34803656242611,-307.7611008658765,-72.01349016460337
954,-73.73920195714761,-23.002702408259943,-322.89851669714886,-70.9081627627133
955,-72.61460142651777,-23.629586614283063,-337.89696518387706,-69.65188693665165
956,-71.37323153755675,-24.22080896329963,-352.71031637594734,-68.2921441267052
957,-70.14524645721269,-24.779945295081607,-367.31956330748466,-66.93133418992988
958,-69.10174166968474,-25.314293237715944,-381.6684657227319,-65.69500982930983
959,-68.08803325669494,-25.830997960655267,-395.6859648259614,-64.53443840251508
960,-66.88810220638912,-26.33777354276161,-409.3024702666519,-63.3339613595472
961,-65.5922185223071,-26.845354801331084,-422.4923226335153,-62.06837746732522
962,-64.34373371926165,-27.34519676712408,-435.24316266142995,-60.704137876102955
963,-63.12822600997805,-27.849444785482174,-447.4618811314986,-59.309332498784634
964,-60.978061602085724,-28.276233466058343,-451.47753210364374,-56.993842074878906
965,-58.81870649797468,-28.683530032523542,-455.08384859002905,-54.686687785423715
966,-56.563021442086,-29.065859638235064,-458.28606373058415,-52.36954117406757
967,-54.26751714804553,-29.420621228136806,-461.0817354502407,-50.0499453857953
968,-52.02303625388387,-29.745751960651294,-463.4665321822712,-47.73918843732876
969,-49.804950431593035,-30.044490791922794,-465.4466200163992,-45.42330900412474
970,-47.56619518155377,-30.319467709265258,-467.02834520234796,-43.090183356148465
971,-45.33178625155293,-30.562582294413158,-468.2052983693396,-40.76583248938251
972,-43.12758556758138,-30.762145695563305,-468.9659989763819,-38.477289350339426
973,-40.928212392185614,-30.90734310293816,-469.3029326904727,-36.209583930694016
974,-38.70510864418053,-30.993533916299626,-469.20801126067767,-33.935209028651975
975,-36.43996650109107,-31.033969756531278,-468.6678601737813,-31.63741318185173
976,-34.13145734157683,-31.04922070790599,-467.67442585031426,-29.306537808441707
977,-31.854423278434204,-31.051970010435255,-466.23307022287025,-26.956720834766184
978,-29.682793757451563,-31.05041975584082,-464.3589037441425,-24.61081121176184
979,-27.557924848586595,-31.049468730041863,-462.07745179000494,-22.259981916211583
980,-25.390304291216022,-31.049090770528405,-459.4110166529871,-19.895098205319332
981,-23.183684638255837,-31.048347113457176,-456.36257332691963,-17.55261547007665
982,-20.966189800902004,-31.04356721077785,-452.92119877694154,-15.270737208896803
983,-18.746110049733158,-31.023739975649384,-449.0579316951255,-13.046984287808746
984,-16.52454847727489,-30.977209853684503,-444.750819430497,-10.854935607208198
985,-14.258966765154025,-30.89936693265028,-439.98911365460725,-8.647083786088505
986,-11.893840815706767,-30.789778123038637,-434.7808675141417,-6.368858846844387
987,-9.444376930353004,-30.650067975331414,-429.13224505657746,-3.9982777423197855
988,-6.943490266276341,-30.48509378529022,-423.013055542531,-1.5373974768831813
989,-4.32509430963345,-30.294550153350148,-416.36830588895606,1.043415391489079
990,-1.5333523773315174,-30.07589798070728,-409.22057496880484,3.758897075319263
991,1.280595622574226,-29.850684533590663,-401.6787348061818,6.467529428225032
992,3.9565042491214557,-29.618204104194042,-393.7752943516858,9.080109819183876
993,6.604723820316218,-29.347348841894277,-385.3899911091366,11.663918081427845
994,9.36497432781637,-28.97347419164635,-376.3790328657123,14.386747103940587
995,12.165309626511618,-28.482029759780538,-366.8018939692837,17.231732353177225
996,14.849436233227328,-27.92562342478577,-356.94014783700464,19.90400814793809
997,17.197060212392728,-27.34558474971278,-347.0122184560292,22.142057322134164
998,19.029930445063457,-26.7192211127155,-337.0236460496145,23.94980006493397
999,20.466311106771855,-25.985278364531577,-326.8681705742641,25.376180222625376
1000,21.73713561923704,-25.121322397938776,-316.41659137946,26.575540666817933
1001,22.92010529991932,-24.145272947268925,-305.5513372063539,27.603878908740324
1002,24.052786713082284,-23.09334220081607,-294.2068420713581,28.494785639732562
1003,25.197122354699452,-21.934436805385868,-282.41546531549085,29.409269450707967
1004,26.39123854718574,-20.641800413597025,-270.28619175002876,30.45499672219668
1005,27.72015153449144,-19.201568261590175,-257.89801407182074,31.71989070013523
1006,29.23232596950422,-17.655701282387234,-245.22589597556856,33.088527936390456
1007,30.750863335296742,-16.07849411230933,-232.1792067932755,34.39855181108478
1008,32.06409728087641,-14.50616211889176,-218.7427959129987,35.48633876165519
1009,33.17546180308037,-12.948830174646735,-205.01185182382474,36.39539552311495
1010,34.15678365462977,-11.404318066144565,-191.06991947566274,37.23518772823992
1011,35.02540211289215,-9.91756065023364,-176.98276640527067,37.99891382119259
1012,35.78145599038939,-8.54315688933034,-162.85186251214563,38.63127360283587
1013,36.352168012095504,-7.310559771816282,-148.76037766277804,39.03117679900176
1014,36.65540678255547,-6.225584271796534,-134.79838423695332,39.11099502493924
1015,36.74202933994728,-5.2553263515413775,-121.107222667117,38.93829715496529
1016,36.696773504451734,-4.352182412274006,-107.77397867587314,38.63821028240407
1017,36.53272166799755,-3.4834909007405463,-94.8552810554249,38.29150857307318
1018,36.23515898378435,-2.640507020847942,-82.45608479543347,37.93297404140493
1019,35.74353282019698,-1.865286211914618,-70.61369321022647,37.47592047124774
1020,35.00711939382265,-1.2126238001761225,-59.273672066699525,36.81283392405547
1021,34.12457390258373,-0.6819763611086087,-48.38188150289845,35.98547189303452
1022,33.23026537197054,-0.24748521545487648,-37.8358150041816,35.09507463405777
1023,32.321439467975516,0.0882916732830086,-27.49262070953641,34.21076249582566
1024,-5.023610182632944,-4.3963994179235035,398.67234209368365,-7.6270955882597855
1025,-5.2098050355379755,-4.974006504833463,409.29961286602406,-7.697279973442627
1026,-5.390299943016756,-5.539213907490917,419.38903447965953,-7.76517217461784
1027,-5.5432243411579964,-6.069043114411026,428.8730736594547,-7.830686535953125
1028,-5.666343635191228,-6.557661573349528,437.68656551419974,-7.894127907217801
1029,-5.823545075847961,-7.0128199965707045,445.77409233533797,-7.962714021458714
1030,-6.0700017492847556,-7.452212697412895,453.1273636867022,-8.039098682421201
1031,-6.302779344018282,-7.897132542583182,459.8068501315481,-8.083632919456347
1032,-6.415952229077673,-8.363112852108923,465.8853164137145,-8.065989781259894
1033,-6.488159131199844,-8.84724030420973,471.39187866014476,-8.03517609430389
1034,-6.620321160740694,-9.338063758602225,476.2931697444797,-8.048211824414796
1035,-6.79689427378895,-9.831362720604336,480.50993807877813,-8.09998852582289
1036,-6.976157962005344,-10.317847566234134,483.97793117566675,-8.168819668521706
1037,-7.116090539376077,-10.773091102949582,486.69151011258407,-8.237948961457631
1038,-7.181047525896573,-11.171178967355425,488.6826002460842,-8.293305770564285
1039,-7.223271294977841,-11.492358037228906,489.97705719186933,-8.355279866235621
1040,-7.299644220176865,-11.728142801808117,490.5793172045045,-8.44279407975265
1041,-7.335404896931623,-11.890130883352784,490.4743435779194,-8.517920005385818
1042,-7.256929041756431,-12.001204043429496,489.63768401945197,-8.539450456136809
1043,-7.13330282924685,-12.083861830251562,488.05292146667597,-8.508247694073244
1044,-7.049454460396783,-12.157107979541696,485.7204357952575,-8.442305733636886
1045,-7.020508563854583,-12.232860893637836,482.6484843713241,-8.382141386008966
1046,-7.033154372511666,-12.310958649803755,478.84355953208836,-8.361477571590543
1047,-7.006310065803947,-12.379408205607332,474.30190598498996,-8.340484499365191
1048,-6.869469921629926,-12.420721922145626,469.0086806755509,-8.272014714506335
1049,-6.7295477985182135,-12.412646622790755,462.95518285394803,-8.194210698245065
1050,-6.6974600196700775,-12.346424928558424,456.1519912935796,-8.149532392729814
1051,-6.664930916374971,-12.247039279019175,448.62260172479,-8.099626807284631
1052,-6.5086003020904295,-12.152072092574507,440.40095452768935,-8.002589031166154
1053,-6.279839822553797,-12.092639363476454,431.53426395352164,-7.8755838728261365
1054,-6.0650985492914895,-12.084929165114907,422.05250442354435,-7.748172892367898
1055,-5.912387191250709,-12.119092785353958,411.9327495904305,-7.640898858298974
1056,-5.854822897700095,-12.166875011144132,401.1080814649834,-7.572854693435172
1057,-5.847804183511091,-12.186635592072264,389.51526846907353,-7.5397059399475905
1058,-5.840336143658844,-12.146026549408964,377.14476684947465,-7.536212835252842
1059,-5.910998264179863,-12.052810009586944,364.0360295636865,-7.599065743728443
1060,-6.136150620368734,-11.930735382952195,350.25526233244955,-7.75990960044984
1061,-6.443099778717432,-11.792762168310764,335.87450225590806,-7.9953353413375305
1062,-6.732892301724843,-11.64784995905033,320.9204385146466,-8.263422758192313
1063,-6.9755176293346475,-11.498634037420494,305.351221283142,-8.533253204544788
1064,-7.160415397924761,-11.340243742047235,289.09729743259805,-8.774927671417071
1065,-7.301259025170476,-11.17148638733944,272.15182593510707,-8.963837671788514
1066,-7.422392206117816,-10.987675866830221,254.5895771609649,-9.089833218076253
1067,-7.484266882673538,-10.764765333847572,236.48546969701206,-9.147616860337852
1068,-7.45761102980514,-10.483682980195468,217.85999194559733,-9.148557074765117
1069,-7.438639729904756,-10.15947623745106,198.69641668798045,-9.146986253986398
1070,-7.520322302325701,-9.812450964760561,178.98386519164015,-9.189628949645277
1071,-7.656631185544572,-9.442556087626283,158.74117169864004,-9.262496207248315
1072,-7.775105702139677,-9.043702277393256,137.99733436193594,-9.331011434314645
1073,-7.854014687844094,-8.605661320511327,116.75543128628445,-9.36122341130972
1074,-7.888160313444107,-8.122893566751788,94.99747266106792,-9.333098893190694
1075,-7.9308324039852245,-7.614539515809318,72.71587159103689,-9.289021239804907
1076,-8.026937611909174,-7.105145283417046,49.921664093035034,-9.275805578906144
1077,-8.065985864534408,-6.603867694471945,26.629247328588228,-9.263557472098741
1078,-7.947353016797782,-6.1114040477637595,2.8383877482914976,-9.212245677965647
1079,-7.778177837405532,-5.620702084830274,-21.461896873896077,-9.128662850363748
1080,-7.6932058699340455,-5.1209215287210945,-46.26169369298915,-9.031543163705004
1081,-7.7104202971266345,-4.607995552376686,-71.52239255477438,-8.949904903592062
1082,-7.7997665040354045,-4.0810829287290815,-97.20082389018874,-8.903133161419191
1083,-7.870266461636118,-3.537298174975103,-123.26373369995733,-8.848240780541325
1084,-7.906720565067947,-2.997395199513719,-149.22795508643253,-8.767707708469816
1085,-8.00589292057461,-2.484206254296745,-173.99026305312074,-8.68681439945555
1086,-8.31530223751045,-2.025500265244087,-196.73698510224673,-8.655637543471018
1087,-8.653237649544574,-1.5940675037865661,-217.27496772117658,-8.604547919474053
1088,-8.791801066428807,-1.143141576754465,-235.60732417094636,-8.45347021020088
1089,-8.856938568198672,-0.6600691285191969,-251.911993463069,-8.25760433217419
1090,-9.030575200388204,-0.1473935855478592,-266.6305978133718,-8.102372867956229
1091,-9.263751440761231,0.3902297975060591,-280.2815442176478,-8.004990910920984
1092,-9.466105000631133,0.9022540137824826,-296.5924839131073,-7.997426815968932
1093,-9.59883527288746,1.445745869410921,-312.1253290482145,-8.025313528088384
1094,-9.631948069450056,2.030150195504835,-326.9456326154888,-8.056538570642907
1095,-9.67238924685718,2.633398268314736,-341.0428825084864,-8.093510349862086
1096,-9.838291951767316,3.2280725252411204,-354.3827636222947,-8.145202282173404
1097,-10.03667873778734,3.813164689352584,-366.93466099915867,-8.17072960960306
1098,-10.132158667627325,4.398449591542541,-378.6792602383195,-8.133797381823841
1099,-10.157230558085335,4.995171837255271,-389.60641022143807,-8.071205642578757
1100,-10.182745085609573,5.611161819954511,-399.71445463928245,-8.03644803455968
1101,-10.210251825458442,6.2366296984493665,-409.0056397673409,-8.046400992398473
1102,-10.234650324251477,6.851610689523889,-417.48307966867236,-8.1017290485146
1103,-10.24021429776802,7.434325089248553,-425.14983884048735,-8.177628396568686
1104,-10.208150604850958,7.9703153959120145,-432.0079065450172,-8.241343925216848
1105,-10.208993497749745,8.467109167078151,-438.05882472451964,-8.319773649448008
1106,-10.30751359876407,8.944153801559693,-443.30371313158514,-8.440565216042513
1107,-10.391965474733654,9.420697104221208,-447.7436572219197,-8.530219196241134
1108,-10.333717810195328,9.907626644469916,-451.379850847902,-8.510565724348073
1109,-10.176467863774128,10.396559289502274,-454.21369079535054,-8.406959259642788
1110,-10.0201531936104,10.864708253918982,-456.24677501635693,-8.282932234521827
1111,-9.949967401131131,11.277907975156658,-457.4804990091158,-8.202162424201594
1112,-10.023980690730738,11.607417559007482,-457.9165546878205,-8.21225787785989
1113,-10.156106295265518,11.857361962052222,-457.55767387878234,-8.276306410493033
1114,-10.222926498617616,12.048579409304745,-456.4072279920155,-8.324872609663709
1115,-10.272674315861618,12.194452124398058,-454.46578586821084,-8.347440211700532
1116,-10.380649446064819,12.308530634187811,-451.73524402567386,-8.34851011245776
1117,-10.464307413510493,12.40702705838267,-448.21633239331504,-8.302035492748436
1118,-10.426682038754393,12.499138249277307,-443.9109982838766,-8.188222393527292
1119,-10.265703805078902,12.590927710798706,-438.82205772265314,-8.008175133987079
1120,-10.020546753749672,12.678085169607405,-432.9551108740374,-7.77375105096282
1121,-9.810316541859171,12.72121961385132,-426.3370200791303,-7.527281126867781
1122,-9.744711075757003,12.681447659784862,-419.0870179933781,-7.308289408338712
1123,-9.719080495930802,12.575522209992187,-411.4815099332554,-7.08626111689395
1124,-9.585493817037058,12.435630614771862,-403.81254000729587,-6.820495664856947
1125,-9.400336924848864,12.260609633309258,-396.1608021990576,-6.541039165681883
1126,-9.267403420280244,12.042123333678708,-388.39740546743985,-6.2958646508162595
1127,-9.183403325216378,11.780876713922492,-380.3766075922548,-6.105412147959113
1128,-9.124335127747589,11.479886107498647,-372.1008670949982,-5.977160086607438
1129,-9.068449732681175,11.154223663499856,-363.68469296966805,-5.888229316933111
1130,-8.989833765772918,10.821273202663532,-355.2149304599123,-5.803566574083787
1131,-8.934218744094071,10.481852989831811,-346.72126274165765,-5.7333280511311555
1132,-8.94734632568642,10.13081771598955,-338.2125838400646,-5.687199845180164
1133,-8.93724190630938,9.764837532518326,-329.66500916391306,-5.60435402047184
1134,-8.79431630343045,9.383877740688126,-321.0093355881327,-5.416779752866399
1135,-8.542868105149097,9.0010830989284,-312.1981338688497,-5.117197226869136
1136,-8.249623832986883,8.629041132964165,-303.2795577764056,-4.728841580586073
1137,-7.94245061452481,8.268106996804324,-294.35120817574847,-4.28371937152884
1138,-7.646517276077437,7.908574401928515,-285.4709236396364,-3.825856919345807
1139,-7.374726439630936,7.512732424607629,-276.6712481750298,-3.4008761162004912
1140,-7.126609654654641,7.052933063606322,-267.96373923923665,-3.0389206181016557
1141,-6.944668713457845,6.574757963553522,-259.29177617203777,-2.7429098101392295
1142,-6.858062028383846,6.143351371603533,-250.58907660012423,-2.49651380980229
1143,-6.775172420198612,5.780515808855692,-241.8844601215232,-2.2701804074206713
1144,-6.593438131824509,5.483384174385392,-233.26935967153153,-2.0358217358142996
1145,-6.3402193283921315,5.22990572516077,-224.78080097736492,-1.7924705358829016
1146,-6.0787856882594316,4.985170033355531,-216.39302022144474,-1.550295123821228
1147,-5.832846055152923,4.726012720559083,-208.06909041427167,-1.309590930666107
1148,-5.608717959745489,4.443866518024391,-199.76459440336103,-1.0702380185583262
1149,-5.341576970806069,4.143651935932503,-191.4351697931382,-0.8245414728157581
1150,-4.964867917996815,3.842178325732668,-183.07797402155484,-0.5684471893498355
1151,-4.573306674258868,3.5631462591212197,-174.76289566513995,-0.34327610640127854
1152,-10.935047571633222,-1.0671319254321676,-0.5361692010018081,-12.566683509644017
1153,-11.714071418888318,-1.2291689214158303,-0.6303559876799696,-13.266098008132063
1154,-12.4686188219564,-1.397904110096422,-0.7059628697713639,-13.937178135758389
1155,-13.15465437512469,-1.5647134589655831,-0.8016492200202038,-14.543329934992093
1156,-13.751439553165543,-1.7193487276807475,-0.9533566158754888,-15.059121889849102
1157,-14.27104678821433,-1.8546968483064836,-1.1510232132731653,-15.507002763190185
1158,-14.742347718078602,-1.967301212911451,-1.3645976539547946,-15.924058412551318
1159,-15.146700252483203,-2.05915951657021,-1.5681606897245732,-16.327836458421544
1160,-15.469381584825578,-2.1369392155232103,-1.7362267345083788,-16.72371244607305
1161,-15.777181435877349,-2.213408110801063,-1.8420497636825448,-17.101654150340565
1162,-16.131343878921452,-2.29848875649504,-1.8792482833202226,-17.44469053434858
1163,-16.501557746596298,-2.3851789361314086,-1.8839794222335022,-17.74594456323903
1164,-16.840778436354686,-2.4626417949973307,-1.9000869724627014,-18.008438016909707
1165,-17.12885491585555,-2.5347763868044457,-1.9463566548303746,-18.243094553828872
1166,-17.362139206607296,-2.6025223681882155,-2.024328802860531,-18.466025219237657
1167,-17.60247656200885,-2.666248931014356,-2.11483986991837,-18.69965619279037
1168,-17.903057626950464,-2.7178901102646535,-2.194770260816964,-18.95775458088465
1169,-18.175164562530853,-2.7604625734320876,-2.2644826063332304,-19.217953579407236
1170,-18.326324346713136,-2.814872623663582,-2.3339593498333797,-19.454260029168957
1171,-18.422283314619076,-2.8926986068824214,-2.411616660918425,-19.68370786582699
1172,-18.54968853145969,-3.001139280279126,-2.5027533929773593,-19.923255856433308
1173,-18.70443876753783,-3.1323350723871406,-2.598891480406488,-20.14577124413879
1174,-18.862821582152304,-3.273027172463384,-2.687841606609571,-20.321580926049627
1175,-18.98575797846889,-3.418003198168526,-2.769507621530764,-20.44291250069768
1176,-19.041170672304503,-3.566144984056961,-2.8513308873760836,-20.516489879175385
1177,-19.109467828881314,-3.720115456029954,-2.9376489361988205,-20.58314696741953
1178,-19.264371935696218,-3.882642552890452,-3.0406239199822487,-20.68087417933598
1179,-19.390914716666753,-4.048244857320557,-3.198050472662207,-20.783559655264813
1180,-19.373304520929825,-4.209194892968595,-3.436146384643112,-20.85485878180447
1181,-19.289371267743547,-4.360778326317939,-3.7311437321251706,-20.90694011051062
1182,-19.246933169039846,-4.500383580593113,-4.038671629627673,-20.954043965333227
1183,-19.280777442919135,-4.630154533096621,-4.316628257831627,-20.98840175300513
1184,-19.38246808072251,-4.751097438420067,-4.5309480689775326,-20.98982584701089
1185,-19.435761725188968,-4.857588824059102,-4.672631096413696,-20.90392575973314
1186,-19.326092895256764,-4.940570503897907,-4.75006230415422,-20.68871975239093
1187,-19.12063420386008,-4.984998263306267,-4.777450383106503,-20.378724449697458
1188,-18.924568737424554,-4.982443564754802,-4.771260377188151,-20.03472272503848
1189,-18.726029516539022,-4.9491940948918725,-4.738608930249892,-19.695338501398048
1190,-18.495777073961293,-4.907882473482871,-4.686575962264129,-19.388544785330453
1191,-18.247971140860834,-4.868966916549191,-4.634481283950172,-19.126328261830036
1192,-17.990257594012384,-4.836853591422418,-4.601041118575262,-18.901192956711867
1193,-17.730363850073118,-4.8098308948974156,-4.6008753841972885,-18.70165074663176
1194,-17.467087281244044,-4.78270155708308,-4.635282730995816,-18.509166460327435
1195,-17.12979382905396,-4.7567486424679375,-4.673361010940938,-18.2812711607903
1196,-16.659359745385494,-4.733935965659125,-4.681503524526757,-17.984455109874684
1197,-16.1273765329535,-4.707859628339048,-4.654483265497157,-17.642345560739322
1198,-15.617669308566875,-4.672471813625237,-4.604896054805988,-17.2819534235736
1199,-15.094655892207477,-4.631311484717598,-4.556438312016209,-16.8727355189048
1200,-14.50857433340734,-4.5880660452222255,-4.535430504313451,-16.380930249960006
1201,-13.876760301234935,-4.538268249108101,-4.5621422886120095,-15.806293259897748
1202,-13.22526471121934,-4.476743693363552,-4.638634164531343,-15.166809027545339
1203,-12.58396763961642,-4.399770140381725,-4.728729204956572,-14.517512484046026
1204,-11.970182344449466,-4.305465663722974,-4.792794037883802,-13.906368283204992
1205,-11.313209536557608,-4.203715024646377,-4.830092023743995,-13.302779295036135
1206,-10.546927855589159,-4.100381201820203,-4.854919852667153,-12.66113259115608
1207,-9.741124898967168,-3.9750676270935164,-4.875964001127445,-11.985564591332476
1208,-8.97898717718083,-3.807327924710137,-4.903778802265419,-11.293084600140299
1209,-8.236629602177556,-3.599351089368483,-4.948248755482063,-10.601196039295312
1210,-7.471259779609379,-3.3669324846681667,-5.014380518366209,-9.923084015973664
1211,-6.664675404935352,-3.1398745502144276,-5.102311453954252,-9.233146215779938
1212,-5.887423504833614,-2.95948896321796,-5.209209098532141,-8.52602417472888
1213,-5.257591130582995,-2.8565846094478853,-5.33604328474839,-7.865315237511707
1214,-4.913654754627637,-2.830801190861324,-5.479130599809905,-7.323340063265461
1215,-4.685731466872781,-2.85413283429008,-5.627101458751837,-6.874399896885484
1216,-4.3459468749097185,-2.87436587795841,-5.764235647352319,-6.459868169340679
1217,-3.9711715801279426,-2.864483405474816,-5.868589255091853,-6.055147764909202
1218,-3.701302517862971,-2.8087405222277213,-5.924958996600865,-5.642298314368379
1219,-3.5163536495245005,-2.7147686974229526,-5.936414554546592,-5.215643346851458
1220,-3.1926781839631255,-2.762317880553449,-5.990255131386825,-4.669044993064994
1221,-2.8545512336221663,-2.7956686436446727,-6.046894082146468,-4.113259064511629
1222,-2.4341283012519255,-2.8023628133106717,-6.139752710458026,-3.529118060319102
1223,-1.98011040844794,-2.778570319470843,-6.2649079013236255,-2.938059038771259
1224,-1.5684760069625086,-2.7258135533613124,-6.400580280828391,-2.3654496121581676
1225,-1.1481145222735096,-2.656328062879362,-6.528159644492233,-1.7970565093477977
1226,-0.655204826618867,-2.584876919200494,-6.633419774642032,-1.2171686893750744
1227,-0.15439564712122653,-2.510884237200924,-6.7163435402950515,-0.6527015607977501
1228,0.2752811701632797,-2.4293603027101254,-6.79103034429618,-0.1347542535853834
1229,0.6434894761039752,-2.3456041696053704,-6.879066569208244,0.33582382995362065
1230,0.9883128520226439,-2.266111969734476,-7.0040758049422065,0.7726644969465435
1231,1.3617063824773599,-2.192344712526214,-7.181510273992473,1.202733845499286
1232,1.8088326123731282,-2.124734473999515,-7.413681100268253,1.6529362330026685
1233,2.2798334473130955,-2.059982737901747,-7.694340664471046,2.1203335054148575
1234,2.70295581408272,-1.9953367657765988,-7.99623976670828,2.586671323880828
1235,3.1169745913151274,-1.9400740874080413,-8.258885950467821,3.0398509236005666
1236,3.5753873571828247,-1.902802133429326,-8.418150636342059,3.4696259456502814
1237,4.027447795068529,-1.8762035669404105,-8.421632059483581,3.8656853350463654
1238,4.412433263746525,-1.8465713378115305,-8.256455564225648,4.226560864895811
1239,4.73072992162185,-1.7984229116068025,-8.00288338961948,4.565840654944488
1240,5.0083468025298,-1.7213572524695733,-7.767117165323251,4.8994052791705665
1241,5.327564803534474,-1.625773648015473,-7.594546692772193,5.236398557696816
1242,5.7592223100681235,-1.529829980600386,-7.491440706320695,5.575441680332556
1243,6.208030178002646,-1.4417151768825194,-7.4316005085119885,5.889143313025868
1244,6.547269419586299,-1.3635732355970847,-7.372026857491961,6.147681524768663
1245,6.814352030022639,-1.292193247775837,-7.303361835319055,6.357366635235651
1246,7.082129578723638,-1.22091585907922,-7.232383302337911,6.536713118658303
1247,7.336905651663759,-1.1461972151988538,-7.149650299076237,6.688591259511861
1248,7.546789557234982,-1.0686655908810831,-7.050582930855044,6.81457210207136
1249,7.658761698728093,-0.9935526512591684,-6.9482775149128875,6.915855631899021
1250,7.6309022596926,-0.9280409090578132,-6.856643887794795,6.9941800699322565
1251,7.5630624101536466,-0.8803213760301054,-6.792540277838919,7.075239935027866
1252,7.57022824803884,-0.855404628038892,-6.761340049553265,7.179672838272937
1253,7.574620975633667,-0.8425206277710383,-6.716476599685034,7.273495266387134
1254,7.46213747304293,-0.8341821012757206,-6.611493881723452,7.3110447704213835
1255,7.26543059357298,-0.8334192577696296,-6.470333424010374,7.288029184957223
1256,7.052461947605304,-0.8570051445997249,-6.341970945784944,7.214327115102019
1257,6.8518040166319425,-0.9096595306726564,-6.2645386870145305,7.093964762973704
1258,6.681027529976078,-0.9741722023729291,-6.259331525097693,6.933914966649163
1259,6.500528589655844,-1.0428577537273251,-6.292335450852542,6.7336738620730445
1260,6.260079547913319,-1.107060834009221,-6.311891873900414,6.492238134400931
1261,6.019064468038836,-1.1622786306378066,-6.309648869388296,6.234301580254583
1262,5.849082854873091,-1.209688066209341,-6.295555641606571,5.986135508102424
1263,5.691905297160317,-1.2511637000167872,-6.2807124520169575,5.736915936457496
1264,5.466240528494722,-1.289896058278209,-6.275425660427224,5.4721322822116365
1265,5.182088480046038,-1.3336635743156697,-6.2637532956641175,5.211621550973219
1266,4.872695988154275,-1.3873885024535382,-6.22173274107959,4.983373678242743
1267,4.555636533610377,-1.444371993601212,-6.1499182112302,4.808788085757019
1268,4.251242306438147,-1.4936076334079915,-6.057995228978625,4.700019317506626
1269,3.943532833392202,-1.5261282698748153,-5.949164821848001,4.632627290413688
1270,3.6199449807867077,-1.5362868670198575,-5.829608705040035,4.575406059687047
1271,3.3710262900891874,-1.5289475882420833,-5.709231864722173,4.542430874438177
1272,3.2875896468201593,-1.5123731865902643,-5.595363966424926,4.554708790526621
1273,3.3213558312314926,-1.4844027687992756,-5.50028811210675,4.600835296495092
1274,3.379535431105632,-1.4420869597729424,-5.426024899662433,4.655822092872877
1275,3.416549910119235,-1.3927827677705589,-5.334293582861481,4.680500413861246
1276,3.4043062955810925,-1.3470049533223942,-5.183058686144988,4.6412221862054635
1277,3.3460936190753126,-1.3136682255081884,-4.973496661452192,4.551231314038158
1278,3.264771738430305,-1.2991064551157738,-4.729488241793689,4.442781858149534
1279,3.136038351334192,-1.3045722592204376,-4.475120025578771,4.332923803748595
1280,-13.531336547914416,-10.498062703249309,-11.412172154109893,-11.509048685488274
1281,-13.890193270954736,-10.633020048208492,-11.905673322273369,-11.839787704308806
1282,-14.188951805333895,-10.772264746928263,-12.370415269517855,-12.165075819292381
1283,-14.466910708509527,-10.913363782091755,-12.791267508704838,-12.476433593036168
1284,-14.774308298149313,-11.049672060034226,-13.15844049047128,-12.760863776930572
1285,-15.121869294542892,-11.17062593388037,-13.479337646383042,-13.003108358874274
1286,-15.501490671683106,-11.265001509634384,-13.77369826924035,-13.192944379551067
1287,-15.843680826386057,-11.323359918682499,-14.080447659788907,-13.31947156988339
1288,-16.08610244701508,-11.342903997747527,-14.433857577812272,-13.387488015629543
1289,-16.2941774001099,-11.332350796836698,-14.841080653846063,-13.443808871376387
1290,-16.547681749511497,-11.307189779969315,-15.285479945636801,-13.537669950540709
1291,-16.809727579586525,-11.284279079271489,-15.71944687600919,-13.678469525964063
1292,-17.031232683769417,-11.277988250087528,-16.097191885234317,-13.85787176956618
1293,-17.2266833013408,-11.296166689210578,-16.416894328526826,-14.062526156327033
1294,-17.419855764649554,-11.337736340745927,-16.69830767074738,-14.275404152716705
1295,-17.65304903828991,-11.391542128293297,-16.96258316918623,-14.494129107459315
1296,-17.946683210653052,-11.44164511152919,-17.229688567102922,-14.71799485927824
1297,-18.193767347970475,-11.473234047386171,-17.505998948514712,-14.926390971399393
1298,-18.289013081708504,-11.476668906315586,-17.78564840973308,-15.099464157271678
1299,-18.29172605908235,-11.449933630862342,-18.05327660407277,-15.23695021373657
1300,-18.29376274449063,-11.399010413025064,-18.291720471946473,-15.347681287770946
1301,-18.30030207639695,-11.339358846266425,-18.502454656051352,-15.441766296672045
1302,-18.300107174074288,-11.284623821724107,-18.68946714166189,-15.533476189175522
1303,-18.285470823056933,-11.235219760699263,-18.82976669672858,-15.6413972735301
1304,-18.24397842333971,-11.182964894216976,-18.913069117695592,-15.776213300503448
1305,-18.211244179911983,-11.114361765859941,-18.97746748673985,-15.933329073208036
1306,-18.21755636079567,-11.017915979981883,-19.073015024185125,-16.09639080737097
1307,-18.186119768532965,-10.89190933554086,-19.24708921790062,-16.234524705920848
1308,-18.047734368251774,-10.747776557869514,-19.518711925413918,-16.3213105294566
1309,-17.875911743894306,-10.598020551038134,-19.82646290291476,-16.359073585332055
1310,-17.75820784790689,-10.4629692720372,-20.08916107760707,-16.360842505124104
1311,-17.689747115800305,-10.357551631256996,-20.284794524673178,-16.33712388378672
1312,-17.637599226771854,-10.272509716320116,-20.41116784461536,-16.296056322187074
1313,-17.542100178069354,-10.189663798360465,-20.4457550866286,-16.22535496172714
1314,-17.35802686511868,-10.088865177079132,-20.38415736466005,-16.115991510356782
1315,-17.16855539724618,-9.969172019277446,-20.269451123731834,-16.00427275752665
1316,-17.06527871673318,-9.837560628124782,-20.14710488782559,-15.926121557908884
1317,-16.984151922211122,-9.696519636477714,-20.027840021078664,-15.86463039471338
1318,-16.84347342581394,-9.54777266577015,-19.909366459197496,-15.793007841053095
1319,-16.67780426757409,-9.390256170028348,-19.78317478292068,-15.70878482173913
1320,-16.53039767439265,-9.220778380051241,-19.64059943274735,-15.612541303296206
1321,-16.39272472050681,-9.039932496033856,-19.500856638329047,-15.509392440886549
1322,-16.239949663861882,-8.84733065051552,-19.380635077198356,-15.3998490535631
1323,-16.00066011398659,-8.63609531016824,-19.25118317648137,-15.2465070808256
1324,-15.617246055128428,-8.399664468370739,-19.0777880125756,-15.016059673660033
1325,-15.163865160899679,-8.135735734195176,-18.857288240391963,-14.733675562157947
1326,-14.729944261941581,-7.846308323253043,-18.595968200946434,-14.436525643884886
1327,-14.277548715462464,-7.541090052613373,-18.29853921449335,-14.131136146536592
1328,-13.75868764023048,-7.229087620338619,-17.973042773453788,-13.817870077541652
1329,-13.207922829319598,-6.909771297755951,-17.62257931972091,-13.495810085718984
1330,-12.670885286363339,-6.576569837929991,-17.24988645065403,-13.162369026272543
1331,-12.201152705724505,-6.217303587681622,-16.868778565213276,-12.839570317197055
1332,-11.822779830605107,-5.821563126864607,-16.49111220486069,-12.542949693457567
1333,-11.415303448154372,-5.391377510671268,-16.1132247739092,-12.230522307462778
1334,-10.858564615521022,-4.934808434055362,-15.724779837533179,-11.860733008114803
1335,-10.225954325046137,-4.45952899709615,-15.318071735613989,-11.454128195781129
1336,-9.621825576879592,-3.972143431180041,-14.884300264875536,-11.044619163465638
1337,-9.025259687945228,-3.475433297202277,-14.4066139434447,-10.645511491358445
1338,-8.395350430613092,-2.968989234522654,-13.874828429520667,-10.259802296241698
1339,-7.723146699949963,-2.4488368676920467,-13.305759473215058,-9.865407654856993
1340,-7.060142033925046,-1.9339399051622195,-12.75936850970611,-9.450152804562437
1341,-6.474430353908754,-1.479317745673014,-12.262289798130864,-9.041760701794194
1342,-6.061474173995781,-1.1154545869534098,-11.85078715841891,-8.68281944555497
1343,-5.692197728881347,-0.8400897453568454,-11.499531728784808,-8.35684858069981
1344,-5.216925747253709,-0.6379897225003818,-11.153715344361586,-8.042702068732423
1345,-4.7920559973739865,-0.4840318347446408,-10.796813492376097,-7.78450082413502
1346,-4.604098528217131,-0.3635083742534621,-10.423472286593983,-7.627078420813611
1347,-4.567106465543754,-0.2621052375713074,-10.009027479412538,-7.555648252067883
1348,-4.30909532679699,-0.062441140686286395,-9.453554025116542,-7.449024941031024
1349,-4.037342934896045,0.13421137043673412,-8.88978810519527,-7.369244362994263
1350,-3.7321983802383945,0.3261923504841634,-8.355846618966407,-7.281572477015402
1351,-3.4371296481673568,0.5106903141787393,-7.85565698733304,-7.161826888446655
1352,-3.210885694530413,0.6850701175383622,-7.37880866340827,-7.0002019516445575
1353,-3.0056886280893624,0.8522469440893282,-6.918829842263053,-6.799116863734842
1354,-2.7517511155625054,1.01196571529848,-6.47280575570791,-6.573454791416909
1355,-2.4859404263303295,1.1616369493950556,-6.059941005624252,-6.353877717864172
1356,-2.2603390691902785,1.2899879380073775,-5.701575247061848,-6.168435191562434
1357,-2.0361157868433066,1.386900679352921,-5.38315355841638,-6.017925281931232
1358,-1.770918219446094,1.4559664789904698,-5.0816734642627015,-5.891186195143498
1359,-1.4922435041731645,1.5053575599828168,-4.793413892152771,-5.779200446281278
1360,-1.2445057212327966,1.547447248387239,-4.519098978295038,-5.673548664573819
1361,-1.0832625268411418,1.5912415015348529,-4.271206467853968,-5.583693645466047
1362,-1.041585239654815,1.6400478004279262,-4.054254987402741,-5.517069837696334
1363,-1.0270211833789764,1.6885919144798682,-3.8144718514442326,-5.43517605807805
1364,-0.928297078771863,1.728592057413312,-3.4954488303266356,-5.2969240959037664
1365,-0.7760771352401424,1.7548436177101863,-3.109400689512518,-5.115686152223546
1366,-0.641155943117008,1.767088381027336,-2.6982639598959914,-4.923110644036197
1367,-0.534427353501614,1.7763775247637945,-2.305959044102869,-4.737079456655946
1368,-0.44988695220080066,1.7954341780806018,-1.9675222916398207,-4.571454115315691
1369,-0.3512834660601941,1.8233315442268496,-1.6731097458670932,-4.4228457501436695
1370,-0.19837100788455736,1.8539011511982235,-1.3893174295446888,-4.280884397469746
1371,-0.04595405801320923,1.8834846221967179,-1.0915454037729604,-4.1684645654451815
1372,0.03837194444403824,1.9092406293249415,-0.7667870788101255,-4.1051625507124845
1373,0.11366011097417872,1.9344769878059112,-0.4267763122974167,-4.0475833989339245
1374,0.25600227582869234,1.962165987217861,-0.09918391438350942,-3.9442264070895843
1375,0.42359528179676065,1.9840045911787783,0.19498023323891522,-3.8002087274597067
1376,0.5561974478503493,1.990060564666178,0.44332644814037453,-3.6393799799346653
1377,0.6553393941184761,1.9728401019212414,0.6359617045904289,-3.4764217980746657
1378,0.7407438218446429,1.9361803123855532,0.7814041221865098,-3.325180793816566
1379,0.8733249578711575,1.895815133496227,0.9284730098301117,-3.178180325632283
1380,1.1028820465012517,1.877276166535188,1.126114847656843,-3.024159451221771
1381,1.3247484005521744,1.884605951601919,1.3856099654750604,-2.8956015882445065
1382,1.4175839490764903,1.8946420134269981,1.6864222927943349,-2.823880717622074
1383,1.4490847100625124,1.8925695633629258,1.9597486314634078,-2.779448107638741
1384,1.5280194582620328,1.8852056154567267,2.1373303357232447,-2.7158395136867566
1385,1.657921391365066,1.8851426351602731,2.2291189778886955,-2.6093988633268017
1386,1.8090129580284184,1.8979786708114788,2.2804830594357255,-2.450040760599763
1387,1.911550700691968,1.9232058174338311,2.3265847112456273,-2.254057007762322
1388,1.9021333358947508,1.9614178257698438,2.3930612921918466,-2.050348134598777
1389,1.8832606271953996,2.029790500058767,2.4709903844594923,-1.8384797560854271
1390,1.9811731880166483,2.1494011437363914,2.532507312061063,-1.6138849132292588
1391,2.1150367748495986,2.3156870329583015,2.5702723719435405,-1.4118511073397237
1392,2.164842676807571,2.4974360211087583,2.585161172758332,-1.2646641367175315
1393,2.1646356776707663,2.662727069019737,2.5665153690983473,-1.1525918448913337
1394,2.1796898124905684,2.793986076776164,2.51480068151081,-1.0414949702864025
1395,2.22415550250773,2.8833325189594587,2.4645595481285447,-0.9128843023026971
1396,2.2977309047590664,2.936493921498716,2.4548928098317755,-0.7585478391649934
1397,2.3436455138231578,2.963648526478474,2.5028221685233882,-0.5975869282939643
1398,2.300530839579436,2.9765167102489145,2.606809285151071,-0.45463003208039515
1399,2.235110500890022,2.9830394382297243,2.736587082177933,-0.3156816533336114
1400,2.235794953081968,2.9885201714809697,2.8529095706654015,-0.15660810985179002
1401,2.252141418257235,2.999802944905997,2.9482040035166146,0.02106187351666121
1402,2.2123421042036564,3.0215044596527814,3.02428236081233,0.2067394091927335
1403,2.1507131566509,3.0533708721024375,3.0622186122290094,0.3924713874395445
1404,2.1198888290041484,3.0903385833595225,3.0459547304042967,0.5639767364272299
1405,2.1385223688268313,3.122066817866602,2.9759054901550286,0.7021588086241897
1406,2.2073703135755127,3.1356795332923086,2.8666154853342944,0.7904258345654318
1407,2.259827448796516,3.118147876381421,2.7565125702228968,0.8091466363722908
1408,-10.418397561056413,-5.606324227260164,-13.553068761435778,-11.65375932955659
1409,-10.818370273376917,-5.75329314059336,-13.844382997718945,-11.936486881743367
1410,-11.209199997166593,-5.932618753654207,-14.19137490779719,-12.233070367432864
1411,-11.581910051617108,-6.127272543527868,-14.601309869698717,-12.563356386638842
1412,-11.941012417348546,-6.315883967498306,-15.050056710654063,-12.938742574224689
1413,-12.281631552687408,-6.487403143955453,-15.499227211191583,-13.343532408705617
1414,-12.609072194199502,-6.639364264445405,-15.922599317142518,-13.748045248484129
1415,-12.896606932173466,-6.776574308062921,-16.3096387905448,-14.100675514904852
1416,-13.123862798097239,-6.906701110099263,-16.65062278598001,-14.359679203627298
1417,-13.361436714510793,-7.02967472468463,-16.939399335631915,-14.53922171090306
1418,-13.670575840994372,-7.14642045945934,-17.193148657429507,-14.67226568823517
1419,-13.979277154513316,-7.259461130714542,-17.445428370800695,-14.775402104084291
1420,-14.204776726339627,-7.375511333730109,-17.710765361670504,-14.861377621047982
1421,-14.362595238019342,-7.497291298518336,-17.986016391505835,-14.929271180343466
1422,-14.495027938685231,-7.615966567832565,-18.255501655347857,-14.978481663635801
1423,-14.65251655668359,-7.720688932050005,-18.51039480279086,-15.051079739881567
1424,-14.870260602393232,-7.801327154175948,-18.744456878025566,-15.183791446727742
1425,-15.078723367648047,-7.860964693974335,-18.94563018420634,-15.343387034538797
1426,-15.200211024442655,-7.906221683111238,-19.11515174920265,-15.500849896836568
1427,-15.289072386121934,-7.935308168170993,-19.271503561041975,-15.632488780892572
1428,-15.412698062948763,-7.945445228685729,-19.442460390750117,-15.773176569852717
1429,-15.531668220848339,-7.936030736790093,-19.645886308984363,-15.918337515999074
1430,-15.598466237053353,-7.906715626432783,-19.87290145973034,-16.063026430819797
1431,-15.617479523825704,-7.86440003771154,-20.098176885652357,-16.185231105090317
1432,-15.60899098996009,-7.810747264657527,-20.308733088414357,-16.26620317808362
1433,-15.631260451501479,-7.738003818822394,-20.501438913881476,-16.33690806843289
1434,-15.730719500580955,-7.632692483168392,-20.68054883398956,-16.43075228527792
1435,-15.838303384482424,-7.50056437957002,-20.8444918656775,-16.52919677328144
1436,-15.873652802615862,-7.365916305212138,-20.98578168811333,-16.601190470141315
1437,-15.87759517501694,-7.247992434482818,-21.10089374456038,-16.632931741384226
1438,-15.901514407311584,-7.1553154690999365,-21.179275570358673,-16.617143062015145
1439,-15.910456368831916,-7.092327855541962,-21.2037163666869,-16.556773233418937
1440,-15.862431624633047,-7.06126499940029,-21.173135663688814,-16.465515726652907
1441,-15.73408588970447,-7.052576801807165,-21.103589987550194,-16.354119922128888
1442,-15.524542485828233,-7.05182925253511,-21.008872598833282,-16.232290081763463
1443,-15.331919710824645,-7.040847719885292,-20.89809792927588,-16.130838044232846
1444,-15.245931768553774,-7.003959743478354,-20.776141482853436,-16.05887779341832
1445,-15.177596919177722,-6.942836624481405,-20.65885820993924,-15.995522199316309
1446,-15.024664726800125,-6.8673129531864285,-20.547181655612444,-15.902499222615367
1447,-14.854759553097066,-6.8012536014488365,-20.422890206032278,-15.798252167177145
1448,-14.75154853446198,-6.776965159660272,-20.254607332260356,-15.760726408465281
1449,-14.709561042782182,-6.800707259282906,-20.028015893128682,-15.791712239982228
1450,-14.694970552790885,-6.845294814660347,-19.7646895915208,-15.769006517130585
1451,-14.608971669619583,-6.880723980040944,-19.50269103021873,-15.571744729972046
1452,-14.37543927945641,-6.896507557382956,-19.24755536078504,-15.209979616471072
1453,-14.124013914707998,-6.9061814960256145,-18.96108554432404,-14.790259862070435
1454,-13.990677976701718,-6.934330746547808,-18.602889387543858,-14.441617836197286
1455,-13.881648705860338,-6.987710140110717,-18.164475390272326,-14.14514326328359
1456,-13.663138135989326,-7.038992574692989,-17.674156817584528,-13.822897700563185
1457,-13.306528608712208,-7.04907429414125,-17.17552247291671,-13.408326492232229
1458,-12.818763836615458,-7.002874456887066,-16.690503727509473,-12.85521080574334
1459,-12.271157345379166,-6.91141361691431,-16.21594296696023,-12.196958583849785
1460,-11.736768129809713,-6.806945569644581,-15.74077427837036,-11.507355154755729
1461,-11.138319390751795,-6.731278889420666,-15.253740643884907,-10.832603358658186
1462,-10.397432213531875,-6.702267675815985,-14.728019691880185,-10.225873543836707
1463,-9.612047924764397,-6.715881390976675,-14.134662445893149,-9.695263499459124
1464,-8.913344626794894,-6.79211937036329,-13.409726295464706,-9.272495156015934
1465,-8.345221131805571,-6.970416345840753,-12.437351591505113,-8.979995945107758
1466,-7.919496121222771,-7.2461524153650725,-11.119660638344495,-8.785237099008873
1467,-7.630257421740037,-7.587382201516716,-9.324063407938475,-8.63929586997483
1468,-7.500818125272867,-7.991124572017469,-6.9420312807657085,-8.556392924325248
1469,-7.486184350856168,-8.44493951167996,-4.043549312848304,-8.577558897108053
1470,-7.56314622274451,-8.893546792336592,-0.7827011749932518,-8.621617378482846
1471,-7.519748670313986,-9.30421367509433,2.636664498253289,-8.554629145891202
1472,-7.157215761465016,-9.677847701981758,5.942381658233202,-8.25323493033052
1473,-6.622915872911452,-10.003608841417574,8.911218858965306,-7.711502444176612
1474,-6.146130704371535,-10.243677974375359,11.497589289174039,-7.044315325657181
1475,-5.722278933626233,-10.377027506734212,13.786384509746012,-6.4422371058075045
1476,-5.888620112503267,-10.400175953381005,11.499921275103473,-6.713867046438029
1477,-6.038469219180257,-10.444051391536924,9.261485255473133,-7.0029957280895445
1478,-6.207922432732996,-10.50674177592611,7.0544900256082546,-7.263823597034594
1479,-6.439600281534973,-10.571441865833018,4.881408235125789,-7.486436042190156
1480,-6.761632735323159,-10.622736386680025,2.7482312838741914,-7.6770481552334955
1481,-7.082099372092689,-10.653651300102373,0.6573356899065326,-7.836273837333392
1482,-7.292232031614606,-10.666229309167303,-1.384937867239179,-7.968509108452015
