,TP9,AF7,AF8,TP10
0,-13.824829334384823,-10.099824113768133,-13.444373624093886,-12.03683704496911
1,-14.149793417904853,-10.315894928249497,-13.901661674208004,-12.502632127780048
2,-14.476135403114714,-10.524756129703778,-14.359038815920282,-12.96377544015142
3,-14.755355006595746,-10.722992258123195,-14.799698003950908,-13.412650326444346
4,-14.953858346867477,-10.916665882206939,-15.218704922738754,-13.849719372184163
5,-15.1470753619186,-11.109248147221697,-15.627215382405845,-14.266091291973622
6,-15.418752619197035,-11.305743884758867,-16.040507209481763,-14.673684001197305
7,-15.728380706181902,-11.509611910475872,-16.460576542615616,-15.093600103545262
8,-16.016544609237805,-11.72275771639919,-16.882449648767782,-15.54059063099044
9,-16.303496041149884,-11.946838915274345,-17.29952947911637,-15.995322563133346
10,-16.614361185145277,-12.1824806098393,-17.701557130849803,-16.427732415574926
11,-16.941546099679787,-12.429846745048817,-18.0749480707617,-16.816162502016383
12,-17.26829532944922,-12.686410516118825,-18.41235554068395,-17.14966074622627
13,-17.54826916445048,-12.94516356231015,-18.71688579809237,-17.44110473853576
14,-17.743536202047785,-13.19759638899699,-19.002438655808433,-17.710574757445013
15,-17.897223075952176,-13.434592020306319,-19.286661345185713,-17.96618108434923
16,-18.067595628367233,-13.654865519703057,-19.585773718853286,-18.21121318637595
17,-18.23719388106876,-13.857226795133641,-19.89174418885711,-18.433342822967916
18,-18.38418646588964,-14.052929517291432,-20.174125331330522,-18.635007846194245
19,-18.563952565591133,-14.263663747790416,-20.41118418230147,-18.833109901542763
20,-18.813969573771693,-14.492033793031595,-20.610411792109627,-19.06374181832357
21,-19.074244465267945,-14.710804485430515,-20.797769431356414,-19.31319918373796
22,-19.262031342228028,-14.88061798023971,-20.977028916364766,-19.512409292328456
23,-19.306901666140977,-14.976738848327921,-21.128190065196137,-19.614390805078333
24,-19.174142746197614,-15.004083724355489,-21.230032777753042,-19.61022745504107
25,-18.934921516421696,-14.984989301694254,-21.28872776460564,-19.506384205861213
26,-18.681419928369785,-14.942492500201736,-21.324795970200817,-19.33017212029424
27,-18.41893040864969,-14.890791316107304,-21.34427203900359,-19.104846076833088
28,-18.12793656097771,-14.836199684506873,-21.331969822421385,-18.849033078285807
29,-17.8048405860209,-14.784270957106108,-21.275610456956127,-18.573088853930948
30,-17.44987389042917,-14.737771675981556,-21.179040314421265,-18.28431493344592
31,-17.098644891772672,-14.697929448633948,-21.051684421539647,-18.002686329660815
32,-16.787664381589874,-14.664392721145509,-20.898837262684086,-17.740664950129844
33,-16.4879451389585,-14.635163619444736,-20.722417732380464,-17.501590042572506
34,-16.164834174647343,-14.604623063771733,-20.521472171214352,-17.26785023061538
35,-15.847487970187316,-14.560492698839331,-20.300096326660977,-17.037139337366742
36,-15.568708375627788,-14.49023385011326,-20.062402976637586,-16.807467923519468
37,-15.315558062655303,-14.387238592892007,-19.807690606668494,-16.58006306060051
38,-15.067395013174465,-14.250799173313679,-19.534676924310286,-16.35471972001296
39,-14.80605155629668,-14.0862475504822,-19.235771430355225,-16.113084456358127
40,-14.518561313652015,-13.902847860535823,-18.905842681321595,-15.84159201612091
41,-14.238761734780303,-13.711647836511027,-18.54019180450829,-15.535790140746446
42,-13.99440838350864,-13.519975990595256,-18.129683378769396,-15.207080319579543
43,-13.719704897958838,-13.32563622475276,-17.668301857417706,-14.866724561032271
44,-13.349712253108985,-13.121575453098005,-17.163476213949952,-14.505972852041534
45,-12.925275038701347,-12.899252784669907,-16.630883855524065,-14.108093124393145
46,-12.503815240821904,-12.652019521216818,-16.078264384833712,-13.667061909334768
47,-12.093751724098292,-12.382732698082904,-15.50870487213869,-13.204398884769853
48,-11.686863165836286,-12.094826973491298,-14.923848700016071,-12.761197489782312
49,-11.240922784345571,-11.790533636242017,-14.337764578223933,-12.372735165208438
50,-10.71869048092989,-11.466293596999021,-13.762863603673951,-12.039110197463767
51,-10.176160693889024,-11.121029887001972,-13.195064404953445,-11.724998283353354
52,-9.673165111026655,-10.759612374976818,-12.623127656782211,-11.382959951134511
53,-9.161685784724023,-10.386090504651015,-12.036563674100533,-10.995241693152728
54,-8.579797541133066,-9.996607422317833,-11.42308616696387,-10.559176795449375
55,-7.934392561076869,-9.584749220206323,-10.76846107636343,-10.078055521412676
56,-7.245011616573642,-9.142438695573567,-10.062863829075637,-9.558873479475915
57,-6.521525331106699,-8.666332239706412,-9.307157139860765,-8.998207496550565
58,-5.771472048156668,-8.155579000406536,-8.508444953694438,-8.389437575284262
59,-4.9679649534574155,-7.6110360003929545,-7.670528455848994,-7.733681311420582
60,-4.127870532078111,-7.059031595583184,-6.830515545703632,-7.081088592842758
61,-3.3490056365927905,-6.552057390201189,-6.062360628504021,-6.531038922452486
62,-2.747595189892456,-6.124528989525541,-5.415407284811962,-6.12579692794584
63,-2.2814226171003043,-5.780381798780054,-4.876938879412648,-5.832322827604384
64,-1.8682186731598251,-5.509857305591302,-4.399598966744386,-5.599412947797487
65,-1.5297401709660359,-5.2989630775130685,-3.9396510427786153,-5.383609306017587
66,-1.294986781805357,-5.131858596741493,-3.471068295508221,-5.140477905651485
67,-1.1368521575573467,-5.004715650393052,-2.9883254016819616,-4.850279409575876
68,-1.1707806003936967,-4.830226263252819,-2.4797544075732185,-4.546361673809996
69,-1.1983178415188285,-4.666188131604478,-1.9551936797740113,-4.241796985543678
70,-1.1782999160426006,-4.504271390115361,-1.4328274261646892,-3.9564299610579345
71,-1.134579851415532,-4.342690103046005,-0.9388288885639371,-3.7024591450999287
72,-1.104238702310465,-4.190112801635423,-0.4960285188521418,-3.4977252001746293
73,-1.0698498693936014,-4.048965290893282,-0.11220166549130611,-3.3436938609884646
74,-1.0067986153778468,-3.92022786396745,0.2174745384986934,-3.23285026397209
75,-0.9324544584022467,-3.80280360967234,0.5058072924955931,-3.151665213768509
76,-0.8668030603097171,-3.691519485336619,0.7705108496840323,-3.0804156063357526
77,-0.8116319470314198,-3.5743616922031607,1.029861216653642,-2.9918985490403442
78,-0.757777622592338,-3.443870824593938,1.29537971321723,-2.8640635690991143
79,-0.6583556778702653,-3.297289283272674,1.5649402408824482,-2.6936669740549055
80,-0.47401144355029284,-3.144555007064206,1.827901532426028,-2.4897770645638264
81,-0.25175549137433784,-3.0042612619616373,2.07035436515744,-2.268510269347609
82,-0.06249137488738181,-2.88437892634581,2.28164857236272,-2.046755287624838
83,0.07248995199606337,-2.7800090543422695,2.4637687450034083,-1.8297734634872431
84,0.15319887551689196,-2.678351498996264,2.627019765369093,-1.6168955269766017
85,0.19586911788680295,-2.5737710654036206,2.7848585615266948,-1.4086900769892978
86,0.22601719685602317,-2.4628371868623695,2.9489932195627557,-1.2065522314685475
87,0.23134007063924844,-2.3393538075697227,3.1201297696454997,-1.0182607964507366
88,0.19697098700557408,-2.1992313596097324,3.2918350322413956,-0.8500805404429684
89,0.1691237069950585,-2.0424902432248984,3.4577563094219297,-0.6959451059122153
90,0.20052442121358055,-1.8709165772786862,3.6103007496349275,-0.5446612684481852
91,0.28658457414148897,-1.6886154770961994,3.7412344934493857,-0.37851477458411564
92,0.4032462751675337,-1.4994894570735262,3.844912382036638,-0.184944658364084
93,0.5374256432957193,-1.301213482598586,3.9181073317164112,0.013819669837119734
94,0.6741942634624619,-1.0917831061549936,3.9624826369353636,0.1993677713403198
95,0.8062856788752748,-0.8782338677716519,3.989353911082913,0.3681530954094234
96,0.9306861993718293,-0.6714111545398247,4.0104267941662,0.547065108389019
97,1.0184476439063759,-0.4799700107670237,4.039306204016104,0.762109165940289
98,1.0465161230652036,-0.3098483855641834,4.078879440652289,1.0089906418513614
99,1.0536100155466122,-0.16564817194266637,4.125156469802326,1.2596484526280725
100,1.0880308555199436,-0.04400578086498898,4.17706974431714,1.4913667893577793
101,1.1401508526508293,0.07534304301918834,4.226965002791025,1.6987956548694356
102,1.188311894124301,0.21468861832268712,4.2672510927976255,1.8799013527558643
103,1.2328298820613166,0.3837152540583907,4.29263791561257,2.025852195272406
104,1.2793393122315726,0.5770603661558438,4.299940300143023,2.116523641261017
105,1.3688602511725623,0.7791201741164199,4.287774478119427,2.1459547653287196
106,1.5292885610601252,0.963003158359347,4.257894530683346,2.130558328176163
107,1.6663362590619142,1.1107451248859705,4.215376104160444,2.0834839654745516
108,1.6726432644331273,1.2219817887582285,4.165891329044939,2.016569694730603
109,1.5791951962872193,1.3049639783696636,4.115340277665872,1.9213190962971365
110,1.460013292926733,1.368557330088498,4.064965325453885,1.783533994945377
111,1.3378122022513472,1.4203661465762287,4.003802633528345,1.6050186682087402
112,1.2243912824295098,1.4713982458264088,3.9176909996233666,1.396877004469758
113,1.1184358889222654,1.5348174360870612,3.7988414356944693,1.1777984184187835
114,1.0069442240691564,1.607741619400857,3.6463901328756787,0.968734128787922
115,0.921591508586842,1.669635071212422,3.4706322766048547,0.7773075827827575
116,0.8926239831449595,1.707837976541147,3.2843251836405147,0.6046493130820375
117,0.8560786171182706,1.7203948184585647,3.102802170504744,0.4581649082480347
118,0.742251508827795,1.7139111257295339,2.9314274196229784,0.3425736299652942
119,0.594633337774711,1.6968774218381506,2.764814967981991,0.2503548586305875
120,0.478405479356972,1.6743190678510271,2.6009075396253922,0.17083196901307945
121,0.39354073372741677,1.6454814862434048,2.445416546806298,0.10044147576842241
122,0.3178336816805408,1.6014456294060573,2.2952500230329154,0.03704673420487717
123,0.20119277156067975,1.5378133652562316,2.1347688916761025,-0.025567384825279448
124,0.0011780244835702947,1.4598471002768063,1.9584361453698642,-0.08602677896506539
125,-0.212727456242541,1.3710159250447411,1.7773117074090272,-0.15295592712326986
126,-0.34936497712035064,1.2770981602911662,1.6088853259662577,-0.2138755589484995
127,-0.43739975873855974,1.1831668717425219,1.4590741102766411,-0.24419534795312892
128,-27.791100464395793,-24.40637807614471,-4.838506797018385,-20.982329032146858
129,-28.7640321857253,-25.254944174233593,-4.8297007315596225,-21.541544247378024
130,-29.673859551227387,-26.086489501669917,-4.885268036405263,-22.079420868270123
131,-30.509966836371987,-26.907405671134345,-4.993314895845231,-22.585859725546953
132,-31.275434464544695,-27.683536771606654,-5.119633566639436,-23.047716408293248
133,-32.023787125266246,-28.428705451998475,-5.2379238610665535,-23.450392857692243
134,-32.789508873260786,-29.217459176874375,-5.319482819014552,-23.78025845933508
135,-33.461622934057836,-30.06888781395626,-5.321632800063905,-24.018361262180036
136,-33.92968677415729,-30.926791529153572,-5.223177327264743,-24.15843697353735
137,-34.24566317053382,-31.738091049633173,-5.063208327165668,-24.229874204893775
138,-34.503004415885584,-32.479240770022855,-4.88811741037934,-24.2710953306432
139,-34.753248320456855,-33.142031765535435,-4.738090345905766,-24.306178906910365
140,-35.02785039949718,-33.721842451403326,-4.615553173143999,-24.349682952634122
141,-35.291282028260675,-34.234077756669464,-4.5221571529436275,-24.397055161932755
142,-35.496055830070155,-34.69314826625891,-4.4572391199633765,-24.441045597963477
143,-35.69372768021933,-35.101061863529544,-4.454066981476286,-24.50311368400829
144,-35.9385757475529,-35.45696591823693,-4.541863602408673,-24.602549528929547
145,-36.17698762662014,-35.76681957312712,-4.700740131508412,-24.72421869861862
146,-36.3445311010356,-36.03309281590171,-4.893436693249532,-24.841136280728485
147,-36.440867446919896,-36.27429064033995,-5.088121546347293,-24.92793111993808
148,-36.481084500498035,-36.490340509906304,-5.261566043288776,-24.96156557664429
149,-36.49210189392308,-36.683816848520976,-5.415772097125881,-24.938242583840964
150,-36.49630437210009,-36.8523936514961,-5.570645874910558,-24.863721750001876
151,-36.44267136860393,-36.99922707482817,-5.7436694164836375,-24.723188521556676
152,-36.282726954733796,-37.1209803394028,-5.958438147351,-24.522867081030917
153,-36.081430918539596,-37.188333848126,-6.219997253308399,-24.284840743477158
154,-35.90736563637269,-37.18056532026609,-6.531825628819555,-24.05518686841819
155,-35.7235193624878,-37.08183967323523,-6.863912949349079,-23.84679873973675
156,-35.47061959949477,-36.90923986102447,-7.147440890050002,-23.611576007211255
157,-35.117716767927654,-36.70909947367329,-7.337477192709802,-23.28117599371146
158,-34.64922930168043,-36.49958983324274,-7.451008881017176,-22.83138955523424
159,-34.09686903232074,-36.25100031031266,-7.517365064334114,-22.281183352771578
160,-33.50121446669034,-35.92472114403276,-7.578061052456793,-21.67606307075946
161,-32.84242983172721,-35.49905696599079,-7.6437375516709745,-21.04607844469931
162,-32.09338151505378,-34.98837237662906,-7.711044477925202,-20.407347527169055
163,-31.27718089552842,-34.4188030513765,-7.7831973297226575,-19.748950386234604
164,-30.42383850949214,-33.8207228570352,-7.8637498676066055,-19.054750433599114
165,-29.53718530762279,-33.19928895803875,-7.9615047812991735,-18.338574274236706
166,-28.619179290206148,-32.54363518729998,-8.084401481728506,-17.622690684815897
167,-27.68303473939678,-31.838244993866724,-8.226963423121179,-16.920355605380912
168,-26.736711219977582,-31.065508787373545,-8.378163441680101,-16.239504878208983
169,-25.778586875384157,-30.21353570294362,-8.527556453256757,-15.572760650320992
170,-24.80529166315845,-29.279909921428498,-8.666665519888417,-14.908257127021095
171,-23.799155713395947,-28.273291126232138,-8.79331137905292,-14.250806864642307
172,-22.752394066624753,-27.208793087183103,-8.907960931284151,-13.604837278255452
173,-21.7184954529059,-26.09858979374251,-9.011832267863891,-12.95598043385872
174,-20.741855706110822,-24.95271823662951,-9.10234819261886,-12.28720624553752
175,-19.770173776235747,-23.784733760943205,-9.164073571471048,-11.590108392569396
176,-18.73588945644936,-22.593459359932755,-9.183189886741113,-10.859507509253692
177,-17.626047457093605,-21.37297032909845,-9.162805319514998,-10.095195131043413
178,-16.444422094173802,-20.093979388808584,-9.11560818620552,-9.29833817033146
179,-15.217630559785063,-18.73987868032422,-9.059546056633174,-8.462672409251528
180,-13.965708003170915,-17.307469650821872,-9.012419778872998,-7.583010686562259
181,-12.622848399244335,-15.828395014202583,-8.983614373782734,-6.665133640827995
182,-11.129513896192405,-14.337993891002945,-8.97444773852024,-5.721380618331986
183,-9.540324445373429,-12.845401149632456,-8.974433046169029,-4.761392938710564
184,-7.932536044005352,-11.343268947241558,-8.969685048515629,-3.7974259389529768
185,-6.34717029614641,-9.796510800424905,-8.964224112504509,-2.8599133178348106
186,-4.795208605402698,-8.188822297579758,-8.958065248614686,-1.9647791408251611
187,-3.204545259868402,-6.539599387110399,-8.915281317951607,-1.07163095566413
188,-1.5325789591071801,-4.9314408443402336,-8.838110023159283,-0.16177163631694752
189,0.10732458950416462,-3.4518642522300116,-8.808453102948931,0.7051569110168538
190,1.5747186978799566,-2.1123528477545483,-8.88530063342323,1.4922800115073915
191,2.8980920092003903,-0.8770456766882933,-9.076162107540634,2.1795157266921388
192,4.158049000618958,0.33316646995393384,-9.366617167178191,2.7933012074682355
193,5.370893514339776,1.5746901866923597,-9.710703676583243,3.363485682377108
194,6.537299381586501,2.872846082062706,-10.077799843071546,3.891678546785389
195,7.639885132253544,4.213148096312315,-10.438268583439488,4.345193134511776
196,8.943353026903909,5.782832049782006,-10.750811035065182,4.905331280593787
197,10.221958116808787,7.329032303387323,-11.094891785877087,5.440558602123403
198,11.571995570638753,8.847443397146185,-11.484129946336456,5.970465680119609
199,13.012284384270535,10.338169598070042,-11.905845992110267,6.552953888176547
200,14.52662435410414,11.804844857110668,-12.333188157641604,7.241630601853436
201,16.122161995129638,13.257074125223658,-12.738724617224207,8.035175315276716
202,17.777512670903608,14.689207394245905,-13.098029413245298,8.892055860007744
203,19.393502502769298,16.0922009018059,-13.3983661235367,9.730658347499169
204,20.86086956022611,17.42874855801018,-13.63835690991903,10.471238684582648
205,22.11409068517083,18.65839485831746,-13.825570934674458,11.060246233884186
206,23.127007068504778,19.77123345283387,-13.969663336166606,11.498231511443853
207,23.949914390934264,20.772534096115812,-14.071545201074443,11.800682972314782
208,24.651523742980647,21.65725995614465,-14.1276006026682,11.969025962767203
209,25.19775373173246,22.420195391824247,-14.133155264391764,12.027631173175216
210,25.53906084293929,23.055741276721204,-14.08395217067962,11.998875729708576
211,25.73417806250863,23.577834552502562,-13.986739218495005,11.901561007832212
212,25.857561927715743,24.005775533369317,-13.848322021010278,11.75406890965342
213,25.917506618962744,24.347136690032908,-13.655387651112974,11.572155133727076
214,25.897693488427873,24.60407215374684,-13.393399735963781,11.367068274991754
215,25.756719547845773,24.77694510614781,-13.068178319364707,11.154634332572002
216,25.456441514802737,24.86374594707191,-12.695071008071686,10.94302035799089
217,25.03979837153433,24.86388435946432,-12.29241163297848,10.704002972887796
218,24.57639371282153,24.779596077469694,-11.878466454062744,10.40782585839467
219,24.078499585685904,24.617698957058998,-11.460922770206977,10.076700117544993
220,23.547344492478064,24.38912196578142,-11.039972615793953,9.746334768555716
221,23.015440398023415,24.102253213796867,-10.61587327558444,9.414906026213574
222,22.51143992174902,23.769576906804765,-10.187742550187155,9.081823645009981
223,22.052752263551266,23.420714047546557,-9.75182745947648,8.740954186202183
224,21.642885159480002,23.083458431719084,-9.308104115186035,8.406699754760131
225,21.229401941643825,22.762910818390743,-8.867022007778175,8.085229010349131
226,20.75941870074254,22.450517727483753,-8.441905205046416,7.753863058377669
227,20.276961310566673,22.127765126689198,-8.042170397630644,7.422641701730433
228,19.84593671379876,21.775963704635394,-7.670843411083158,7.109121109965365
229,19.44885912128633,21.395469140055447,-7.31926840273545,6.857186118618847
230,19.04913141381636,20.995869927938855,-6.973790642773448,6.694078824259608
231,18.645594659735146,20.584784332160787,-6.623788193008198,6.595268624466869
232,18.240122445137082,20.16690324736817,-6.265440682192217,6.496534725370294
233,17.840027067799603,19.73451609736359,-5.906362344713372,6.363883247017393
234,17.452379678515292,19.27750939514765,-5.559290006215418,6.208917971816465
235,17.030699071364293,18.799523200274244,-5.239534013698645,6.046365232879004
236,16.53533933947977,18.310403560380802,-4.953505275669277,5.869705489343747
237,16.03437125291411,17.822470939609463,-4.677186052907965,5.69444442348285
238,15.61244620415281,17.346963092237694,-4.381396133389563,5.53014986123791
239,15.270171810823856,16.880385796802084,-4.061028601302347,5.384363577463764
240,14.972239111062484,16.417261339176093,-3.7256930548280978,5.259614214493657
241,14.661002964371896,15.966656709947593,-3.4042839267635543,5.138801338846488
242,14.28223931603782,15.540596284320815,-3.1248726339274944,5.002201278532398
243,13.871744199329422,15.15035837432835,-2.871650713265619,4.853008064744678
244,13.491925152782603,14.789442368452324,-2.6241835716031705,4.703558890310228
245,13.118382510663109,14.442245287501322,-2.3627657446443875,4.558880417469744
246,12.71425466170567,14.066229315666835,-2.094389988548685,4.424815008428784
247,12.327294442952724,13.617261324147327,-1.8507834884809742,4.313473240600328
248,12.008470283878985,13.083404536747345,-1.6306349843591847,4.234264409512396
249,11.728087246709396,12.505382942543715,-1.3990254580460508,4.186337115330018
250,11.442974460174012,11.92227674175516,-1.1114207130446812,4.162892591516868
251,11.140391135718877,11.344002090424764,-0.7703669142828555,4.1559008602267316
252,10.82038865200565,10.737817435052838,-0.40389280414118617,4.1523972338555994
253,10.538059491682173,10.117310028890637,-0.03682476918983238,4.135518380482997
254,10.33717918437108,9.564447493672983,0.2989701956627885,4.086671921582819
255,10.110145726340905,9.114507888857322,0.5511905405976055,3.9786420284558286
256,-10.640709044131256,-16.073179853402255,-39.56021936207364,-18.551994458452292
257,-11.463387253028637,-16.46647564451513,-47.622571963241676,-19.466451126923054
258,-12.220746842947907,-16.998322441905252,-55.5156012898527,-20.32697854932035
259,-12.873778409627224,-17.550095956074998,-63.29662304505625,-21.190765799846158
260,-13.422618828336041,-18.03314676549773,-70.96055338567237,-22.098166513101617
261,-13.98976044396962,-18.425892611800442,-78.50063460856397,-23.0732803237866
262,-14.695035639367312,-18.754706182744496,-85.9392383978707,-24.110722495304564
263,-15.490982485952093,-19.045038738068683,-93.45964931982911,-25.176403972578672
264,-16.293084763135834,-19.32170446512852,-101.26921186379586,-26.2304420291328
265,-17.11049381972718,-19.611107936832727,-109.43123407330235,-27.249005828079476
266,-17.958866149366067,-19.88871068187608,-117.99558832418624,-28.224866284520417
267,-18.811234422970177,-20.101655416404657,-126.99728931779802,-29.164292605090004
268,-19.637679326595997,-20.163779996392577,-136.50884067331535,-30.084835923656268
269,-20.404974076029788,-20.08592501302854,-146.55074143751403,-31.01689388917019
270,-21.086854705316973,-19.987809441036816,-157.04745995774243,-31.978465512418957
271,-21.69713463841973,-19.953953814299908,-167.96028035837261,-32.94143187581919
272,-22.266285323370166,-19.971258654351193,-179.38792668226654,-33.86399139295049
273,-22.80435092256845,-20.049702762935077,-191.3997762071144,-34.73124051370047
274,-23.32470827871736,-20.1624487397156,-203.87416985588226,-35.53307454353416
275,-23.873870057276527,-20.273057511276427,-216.62121783387062,-36.24523693674172
276,-24.48557281162171,-20.34510798446213,-229.57530637611404,-36.85574120875774
277,-25.137706107695088,-20.331628184440614,-242.71615195940475,-37.37581222843378
278,-25.7917552540336,-20.2014281777283,-256.0781914666912,-37.831178320266304
279,-26.419692380419995,-19.964410689460415,-269.651813312164,-38.270646030716534
280,-27.004339013073768,-19.652396671630907,-283.40328039130054,-38.73007494580631
281,-27.5648123605036,-19.30648571820222,-297.29258507208687,-39.18846443205476
282,-28.12806267223689,-18.963417920128926,-311.2506242073997,-39.6042992088773
283,-28.678188025313784,-18.631020155469237,-325.17985594927677,-39.947375422079475
284,-29.20443364858317,-18.30086922653112,-338.970634957936,-40.20722762861011
285,-29.744238769308495,-17.971397369683586,-352.4916541403591,-40.40468389512015
286,-30.344518958974227,-17.637506039027674,-365.628842567079,-40.582892051024324
287,-31.04728919729318,-17.27292362611054,-378.35962936732227,-40.81060586202128
288,-31.863124914208907,-16.860898286262014,-390.66806693059004,-41.12897892630981
289,-32.72509514533259,-16.43216149403955,-402.42548201486125,-41.47503984277659
290,-33.53473770494929,-16.01868005183576,-413.50391318630005,-41.754812753243144
291,-34.21773962099759,-15.602668852255336,-423.90437547566574,-41.93070740724639
292,-34.7206890244758,-15.149892744093082,-433.6492450848441,-41.974079896464154
293,-35.01030921482484,-14.646848068367152,-442.6777277111111,-41.83736869546535
294,-35.09300209571008,-14.06337124973744,-450.95611054866487,-41.49017035710513
295,-35.03059590599795,-13.410252965195712,-458.4095054538079,-40.9187125644979
296,-34.90095487162689,-12.673476645914683,-465.067623019259,-40.15188020198509
297,-34.74727101741624,-11.865049644393139,-470.8656066070541,-39.295779120864864
298,-34.60144422221243,-11.069325152341632,-475.7331960604461,-38.476537470320906
299,-34.510326301999086,-10.38736552213432,-479.57253988246674,-37.800147482466414
300,-34.496367801652355,-9.808739921002886,-482.3190266557386,-37.307972805776224
301,-34.53991220595485,-9.277619315237773,-484.05409997091346,-36.9170358669181
302,-34.59050122746111,-8.714775908933943,-484.88529835825665,-36.49111793235857
303,-34.55343310161636,-8.116543344971499,-484.81226941524875,-35.908335822524066
304,-34.34988378716273,-7.505633642947847,-483.7973413236474,-35.091802761754884
305,-33.98997126673533,-6.883302015389592,-481.8047786593012,-34.07236596543771
306,-33.52254738987966,-6.248019003637314,-478.7946506594622,-32.92777927807313
307,-32.998078899976406,-5.587635562857002,-474.75994374212826,-31.694379684954473
308,-32.46067085689711,-4.888186437911324,-469.70540932406306,-30.400486055262967
309,-31.8950626207256,-4.163181056863311,-463.62185062755515,-29.08426239912307
310,-31.277613810171705,-3.4321386903806053,-456.50898005420845,-27.769446994631892
311,-30.672346838409954,-2.693154589560187,-448.3615929463991,-26.47734725144008
312,-30.132350770025422,-1.9456948328385202,-439.2477265048633,-25.208233460962656
313,-29.585728422348353,-1.2084623305472628,-429.27443705210175,-23.898414039537883
314,-28.945637720459978,-0.5010340741479762,-418.64296739340915,-22.484991106518688
315,-28.203060239517594,0.16526146135587544,-407.5906049596998,-20.977254255148864
316,-27.42045714958891,0.7540819948579625,-396.2552726261772,-19.454251189880267
317,-26.666843880724915,1.245696242962053,-384.73095608421323,-17.989229646776387
318,-26.022983127148077,1.6105853087023851,-373.3044250534091,-16.65938225813897
319,-25.353062220398233,1.868813937448001,-362.11523551503024,-15.42851876362614
320,-24.497248361268,2.0591467794674756,-350.9138951061587,-14.204563718810652
321,-23.57513611253484,2.1767806118155733,-339.2875232024797,-12.925776851924716
322,-22.7511091172143,2.2200911944161343,-326.87902860591106,-11.5612301168012
323,-22.005934795646784,2.2457195053679917,-313.47757774144475,-10.134286377853007
324,-20.642372087247352,2.4597121894464937,-285.31000313690436,-8.176165523764737
325,-19.30421539868556,2.708885234300554,-257.25157830881705,-6.242406139432278
326,-17.94239071160828,2.9780213127017836,-229.31703359569494,-4.320349607678034
327,-16.604298758564745,3.237870357917314,-201.48290255209665,-2.4056166571371853
328,-15.360420030394325,3.4542922239395426,-173.7078960388015,-0.5039883412289194
329,-14.197125338177404,3.595214585858277,-145.96109110389904,1.358182131123431
330,-13.077785812771912,3.649689752926009,-118.22291164489968,3.155353194649217
331,-11.998400567121179,3.6586627396306532,-90.49388341457887,4.8652141327666785
332,-10.951723508148117,3.673251653476565,-62.78846604740145,6.516852364358437
333,-9.922029828573923,3.7082131765070523,-35.118536419558936,8.154560348991124
334,-8.883228144712003,3.7583050107158744,-7.501165440688499,9.877509070388058
335,-7.769493199867685,3.781766589915148,20.04044742429523,11.692610221290796
336,-6.514785274864551,3.759868690297136,47.474208033117655,13.479391948566816
337,-5.101780642419344,3.713752885490281,74.73998002988753,15.146443461356101
338,-3.54735388004318,3.7187215126661974,101.78061028958456,16.704893622943416
339,-1.898597608739925,3.7839218678930497,128.57502500597025,18.139097757714183
340,-0.21211128447760647,3.824746133026548,155.11304476489045,19.463800142489017
341,1.4902577659860419,3.810330915775132,181.39615873417517,20.671747764279875
342,3.2079354198943184,3.8030810953547447,207.39179211411525,21.75952671085517
343,4.929431895685247,3.846363537229887,232.9455198560084,22.791302899968773
344,6.6506467086014975,3.912187723163314,257.84215786093057,23.839676623707657
345,8.397819301349214,4.007402528211826,282.05129852838974,24.91835288000003
346,10.178425830826333,4.11768372852614,305.51234491626855,26.00630805310199
347,11.948851887587342,4.207505100663585,328.0739204366106,27.066525410450787
348,13.627374328463725,4.241623113965345,349.6626769986747,28.044397298032937
349,15.066398735769274,4.220942133852184,370.21096417732576,28.87969123292095
350,16.1498722749564,4.129754797141558,389.42520435472517,29.535609768120757
351,16.93922743255256,3.9675780534993885,406.976421565396,30.011512433822457
352,17.58278608733424,3.694900050866846,422.550058754021,30.348854974320506
353,18.193904923612706,3.340112460023843,435.98557872123854,30.655364997572264
354,18.862515260277778,3.028704964441602,447.32817316147197,31.014661675550027
355,19.67975726721191,2.815800052952616,456.91317717608257,31.507721041687212
356,20.661511768376478,2.641359454073679,465.179486734392,32.10247084918586
357,21.631919489384714,2.4560731661167554,472.42425786783565,32.655297292863736
358,22.390726541534693,2.2784066726013017,478.8145306947994,33.09940823492791
359,22.951600777437555,2.0999784682742155,484.4028770405846,33.4266568190484
360,23.40559250832555,1.9238216396538108,489.1903819689102,33.6749810252966
361,23.7534305375513,1.7236085702315493,493.151694264263,33.816373638990335
362,23.997582894911293,1.466849747973182,496.39497129693046,33.81698122124325
363,24.201638236919216,1.1369937367705685,499.4652483055545,33.72951065524889
364,24.41646296112948,0.7451020945238751,502.8952311365068,33.5811422160455
365,24.66473315635131,0.3753788835642558,506.8311585418464,33.375084565972564
366,24.93470632759996,0.11686458973469113,511.00000981745103,33.04325498029812
367,25.10522457199436,-0.03950219193573454,514.9837334925048,32.49701614265235
368,25.062184398410075,-0.14152625026308677,518.3046929405999,31.76332282865466
369,24.88207105763661,-0.2204650035648389,520.7691378551569,30.983777816972044
370,24.701212968967962,-0.3028406178607604,522.3450623147525,30.25948077019647
371,24.562679706050936,-0.3737462550817874,523.1134931557451,29.67604784282266
372,24.475427609573693,-0.43461863543867374,523.1166547089788,29.25541721583187
373,24.433009025445465,-0.48474659339579684,522.3387026998257,28.959902641783927
374,24.406398310799247,-0.573369928696248,520.7826324573325,28.724783756575555
375,24.392429489342607,-0.7698220041658212,518.4641253539431,28.387927908015
376,24.386374752098536,-1.0258001330069413,515.286129903806,27.872589948632974
377,24.34018014430389,-1.170846509407852,511.0650436970395,27.187809744800585
378,24.201174378662724,-1.1425372871251576,505.70364646836504,26.4036118979618
379,23.91734016844231,-1.040706813256646,499.2113513582949,25.57487895956553
380,23.471379350880188,-0.9516520959707212,491.53694878125503,24.748021085389148
381,22.977600058814073,-0.9040378761038955,482.6239841916018,23.95939951456092
382,22.568120996699143,-0.878821077570784,472.44370932806777,23.21864225222659
383,22.21522635575646,-0.8540499499612588,461.14333430185116,22.504583812515364
384,2.6853304319791755,-9.8062077579362,290.05360783403086,-1.2421309192581964
385,2.537021910505466,-10.169748393778319,290.9561241065209,-1.438291736506708
386,2.4590834748459525,-10.54929607987943,291.4485647760579,-1.6605536873128952
387,2.4086643036924094,-10.920793692031932,291.5560944882641,-1.895234460063455
388,2.328399028327019,-11.24399671741497,291.31448686515756,-2.1272901277227265
389,2.2014337923082015,-11.51256640168107,290.7578815531315,-2.3544462895550398
390,2.026523274708691,-11.774748943846985,289.8685292037897,-2.578987247560841
391,1.8320321858983841,-12.067037309280009,288.58607418282605,-2.8043571521389077
392,1.6512353613354314,-12.415311771840239,286.8693337323879,-3.030945086718221
393,1.471263439072753,-12.794624306170869,284.711347965594,-3.244423896829828
394,1.2721062653440016,-13.16047809047853,282.1120582925204,-3.428121676559885
395,1.0652165079769402,-13.494069011639946,279.0568789312974,-3.5821780060394564
396,0.8698579173250134,-13.786269256017848,275.533342861855,-3.7127656123057156
397,0.7080167191112829,-14.027236589655027,271.5606887035926,-3.8127470965225374
398,0.5943351617539769,-14.21863585346228,267.1899565236385,-3.8835700271998252
399,0.5063181615948268,-14.373459569021287,262.47457456818137,-3.965631655524366
400,0.41063384662049346,-14.509990747392939,257.4588248987129,-4.094279071503181
401,0.3056971351938468,-14.651243646642952,252.1797268922279,-4.253158732447389
402,0.1922232073200571,-14.814571137069702,246.63699790004048,-4.410371589510387
403,0.03038096410501326,-14.999322485022098,240.77282128319354,-4.550116283900884
404,-0.2072713949994368,-15.192998223665617,234.50942842453014,-4.663427957592527
405,-0.47471964298077485,-15.38175183985405,227.79069895250183,-4.745734873858077
406,-0.7220961007575586,-15.547569458891294,220.6004037908005,-4.806656135860907
407,-0.9564529558838406,-15.665672860879305,212.98115383011222,-4.874562305156822
408,-1.1995219781295139,-15.729342413915697,205.03130890046071,-4.97423826475466
409,-1.481339492065318,-15.71990242141769,196.83884889581725,-5.111679169801525
410,-1.8139191963528425,-15.665950199676148,188.38226125398796,-5.27323663657869
411,-2.1203136589914275,-15.615077327004235,179.546827637554,-5.414823804540034
412,-2.322305911846878,-15.605673759628985,170.27135657417114,-5.496017106038402
413,-2.4492910595683477,-15.60711689079247,160.5991775349925,-5.5185524359809905
414,-2.5575546773899647,-15.572229743821417,150.6158863193228,-5.508724690739575
415,-2.6670930228342473,-15.490250150338559,140.3970336768011,-5.504410350004134
416,-2.7889804944666734,-15.366197414957776,129.98591016340058,-5.539116377132097
417,-2.911242763429886,-15.218402727775748,119.38020970786214,-5.623562781967919
418,-3.025047490356667,-15.06958234296892,108.54325641818343,-5.743697182348314
419,-3.178504130556023,-14.919185566506288,97.44100521925772,-5.8488672862506625
420,-3.426356528587533,-14.758732015127725,86.06125781306733,-5.89353157084378
421,-3.7829713822713376,-14.590357002800786,74.40852986608135,-5.892343754549133
422,-4.236784214075872,-14.41531193223181,62.50114984452437,-5.881513644685264
423,-4.745822827835433,-14.230492715767543,50.369174404769055,-5.880593831862501
424,-5.259219711586016,-14.029480191919525,38.0368832419023,-5.905054115672898
425,-5.755277845634665,-13.79599471921749,25.505849491375443,-5.963560540329811
426,-6.228509525788739,-13.513047071916327,12.762345632876904,-6.0557886705031425
427,-6.6714761144930375,-13.177818788108638,-0.19436276952359344,-6.183992737873292
428,-7.084362176495066,-12.793058638738549,-13.343264844072875,-6.345876181706045
429,-7.481598178590957,-12.35356245272996,-26.66697169035179,-6.522950533599086
430,-7.867376804561695,-11.862343684584433,-40.16739948024557,-6.695667109323468
431,-8.220854258350759,-11.347330725958056,-53.85056557888633,-6.859504976851305
432,-8.510075229200977,-10.839529675960442,-67.71614548745288,-7.012611285210258
433,-8.684809300146902,-10.35444611703073,-81.76470814542613,-7.146413165773324
434,-8.716707421465152,-9.89702995378387,-95.99511482101725,-7.252708154685956
435,-8.666507649841886,-9.461704638073284,-110.39765798098016,-7.325196558214997
436,-8.610630803278514,-9.037383229903572,-124.97514100727022,-7.364596226925699
437,-8.550503553415506,-8.614630089613554,-139.7583197206073,-7.382829823214387
438,-8.473673192913125,-8.18857372899153,-154.7780793279313,-7.399948297061438
439,-8.412203793784473,-7.766900567537347,-170.0233966071685,-7.445778749544796
440,-8.39531576122457,-7.356204965842084,-185.44236911726054,-7.5383241017101
441,-8.411556106352624,-6.94207871972591,-200.98799093163433,-7.6651304981518456
442,-8.448263468893556,-6.506240548074583,-216.6506019648164,-7.795220097784021
443,-8.528473074245479,-6.04440095848836,-232.44653603936663,-7.879421816734065
444,-8.682366334299841,-5.577146355213679,-247.30431781300183,-7.857188394144246
445,-8.83398131575313,-5.147323800147557,-258.960486551791,-7.7186770605407915
446,-8.925192636231833,-4.768365018415411,-266.4415319126066,-7.477049279827833
447,-8.88736237392805,-4.427709106950204,-270.6040252205846,-7.180971759128214
448,-8.704983218446626,-4.098067621339415,-272.6854249420577,-6.907764366583703
449,-8.574274788724255,-3.8099330238786795,-273.64206413829714,-6.750471349658891
450,-8.686437713614419,-3.5872129543468994,-273.9965645189834,-6.770421372424394
451,-8.948459430079723,-3.4231561966614987,-273.92107410066836,-6.9438027448184485
452,-9.170700456978258,-3.1845691870743007,-274.7045518910703,-7.271645749919464
453,-9.352207233646757,-2.949547429474773,-274.799856802282,-7.608692820637181
454,-9.491898647438397,-2.701221710678779,-274.13633997783836,-7.892742241657349
455,-9.611898400188618,-2.4267673543505017,-272.67028510891987,-8.110743101845788
456,-9.740135769796069,-2.1197969498851186,-270.3832501225854,-8.276845949754252
457,-9.8280710262577,-1.7878199652763234,-267.3336472626827,-8.39451872749682
458,-9.820440548863099,-1.446025854908323,-263.7624033964237,-8.470507074357757
459,-9.760484468231953,-1.0989174387620841,-260.0314806003811,-8.517330912954268
460,-9.71501640946133,-0.7533372517057806,-256.3738470038893,-8.549386586038258
461,-9.704535756110497,-0.4429705963166634,-252.77612683294979,-8.593465080478808
462,-9.731084435727038,-0.19807566170686888,-249.09750530868493,-8.676362991823096
463,-9.765088961280991,-0.009250907932415897,-245.1993638537758,-8.803114916383283
464,-9.770763977446684,0.14913616167665264,-240.9788801695256,-8.967326319356813
465,-9.787529996964382,0.2970996155446168,-236.40319239102763,-9.17218179654169
466,-9.863386435913016,0.45005263348231583,-231.55109272892892,-9.412568845732821
467,-9.947536563334213,0.6099492394478756,-226.5502606321805,-9.647400860807307
468,-9.976635898625265,0.765779321835569,-221.49648363082173,-9.836793074399289
469,-9.969099060571997,0.9057764166476395,-216.43921364808173,-9.981867631256167
470,-9.966308788007456,1.016477624018557,-211.35178113007862,-10.101462207049092
471,-9.998371101304214,1.0724602585772685,-206.1754598764763,-10.223937882819426
472,-10.083786129008834,1.0597068343235025,-200.9497820036041,-10.369062859770153
473,-10.185654279955438,1.0087772002753748,-195.84401233960213,-10.500623126583742
474,-10.24920069896118,0.9630745193190179,-191.03726164001424,-10.57106701393162
475,-10.278748376716143,0.9409716578413421,-186.6058663349601,-10.58360046441849
476,-10.29013712869509,0.9472426569683094,-182.53534682598954,-10.56227146869258
477,-10.246108713735062,0.9774538649649918,-178.7526708797202,-10.533549056664675
478,-10.111266976331873,1.017993214804903,-175.15849065123695,-10.522270508633987
479,-9.903569358925793,1.0602703448681692,-171.6810084758029,-10.518943436688557
480,-9.660482970673234,1.0969833215249316,-168.2775089240418,-10.504954561392223
481,-9.419741795440602,1.1105259903108609,-164.86084407697803,-10.496693984561565
482,-9.21635719378464,1.0863717396349983,-161.30434100458436,-10.516722669525157
483,-9.054553033245206,1.0295714514353542,-157.57069919452718,-10.56614780119776
484,-8.923030644720335,0.952042196228621,-153.75998676307066,-10.634444712842631
485,-8.836866251969662,0.8590256601236619,-149.99655313510698,-10.699641398772261
486,-8.803690020755369,0.7563663819501039,-146.32746643997737,-10.733249716425975
487,-8.775900158168163,0.6516844142944429,-142.74824042007256,-10.715529926046008
488,-8.70206031341019,0.5551266829791853,-139.25931636711366,-10.640973596022297
489,-8.575499927435901,0.48855183981642303,-135.8516291559849,-10.510403090508008
490,-8.415151423031743,0.47098771948465845,-132.4698957362256,-10.342611892449597
491,-8.26961422812267,0.5004495261238934,-129.03254960523168,-10.205554127517681
492,-8.188817605304472,0.5616666808980155,-125.49578689149038,-10.160257458279354
493,-8.156285839725188,0.6315116075496741,-121.87743048264855,-10.183873558244477
494,-8.133395848136095,0.6862070609307038,-118.23896234197274,-10.220829059119453
495,-8.136170071409131,0.7130875594110136,-114.64590552881154,-10.236985720122519
496,-8.179240285154293,0.7089173803211835,-111.12721241278773,-10.210908328943276
497,-8.21167766360948,0.6819499161640039,-107.69234741683744,-10.145957953540663
498,-8.177002342162142,0.6411326470900885,-104.35254857118939,-10.06290930078151
499,-8.056951788491675,0.5743868515528946,-101.07486149368754,-9.973141144688782
500,-7.858506534038637,0.4678685249523816,-97.78088787179824,-9.882175857906066
501,-7.642754999339209,0.32859917077216955,-94.42785607779592,-9.794445061403282
502,-7.475613811803588,0.1752114717131798,-91.03012695226518,-9.70721248254863
503,-7.31874059557171,0.03268627741942225,-87.61724466452775,-9.610147045510168
504,-7.114410175434681,-0.0772927217070917,-84.20875085192354,-9.491423617470387
505,-6.916834360418973,-0.1443761647925465,-80.8160820033933,-9.340361443438884
506,-6.792057403904099,-0.18534529457919788,-77.45702648733118,-9.151948929518117
507,-6.706724030853109,-0.2212713026923445,-74.15856182628396,-8.936028912177653
508,-6.605041805127106,-0.29473855805819554,-70.96306039975394,-8.705965253189193
509,-6.465375910216841,-0.41867092276596474,-67.91723301126042,-8.46371026375299
510,-6.279678709448346,-0.5483205091981636,-65.01772262275482,-8.20662788050424
511,-6.07125574268376,-0.6436096200867099,-62.21231109658849,-7.930393401182993
512,-12.927484409247965,-11.8000900447588,3.4613854389291405,-15.106501757771703
513,-13.105233103920412,-12.065527720828017,3.537911731076612,-15.411718540986856
514,-13.320881381884508,-12.318781209154743,3.65361952304123,-15.749448148550165
515,-13.580393949958566,-12.571284224477216,3.7857340132274095,-16.092538908335904
516,-13.873987780900189,-12.834392301700353,3.8952114317632995,-16.393253007279593
517,-14.159195086282317,-13.10429643776738,3.9587242457325087,-16.638451284810092
518,-14.398854478575563,-13.37000175633634,3.9748828445658657,-16.830366146117814
519,-14.567134526981675,-13.614930616697746,3.9372916077034947,-16.979756489423202
520,-14.659910903669191,-13.825616435052293,3.8498742760998153,-17.10985873117182
521,-14.737788478063864,-14.002666237134092,3.72064528885338,-17.242011361897443
522,-14.857045680665015,-14.15659033543517,3.565001474218564,-17.391690040322178
523,-14.972547012848713,-14.308162662492926,3.416438692092873,-17.579729610684232
524,-15.0255800490485,-14.474265734365265,3.3046598371476326,-17.807291100547086
525,-15.03344421531601,-14.645713758319005,3.2358302392400033,-18.019320201857095
526,-15.02750841352639,-14.804352678047225,3.1962163833550923,-18.156332901533176
527,-15.018419027469056,-14.945238461556071,3.155021489772937,-18.210992033102492
528,-15.00845901139331,-15.063275587141915,3.0739028205769334,-18.19247320325692
529,-14.970464937876676,-15.14194012020638,2.9364967258598775,-18.10415453258584
530,-14.872761374745636,-15.169369054940773,2.739300723229254,-17.94987919914797
531,-14.725066320703649,-15.147686362844647,2.512646232106164,-17.7135599764291
532,-14.545971360911212,-15.086847427487998,2.314421047296362,-17.3852717890096
533,-14.326624808881004,-15.00677639703598,2.163585395805353,-17.005270545036105
534,-14.060495165943586,-14.92490203370552,2.0242571688264444,-16.620435552388983
535,-13.764238619061473,-14.83692305184981,1.8539628385910132,-16.238575323533876
536,-13.45845511477832,-14.734805104039335,1.6447512159951667,-15.85519146810493
537,-13.160802892638753,-14.621876309504156,1.41826089688921,-15.47040182587101
538,-12.883227058395272,-14.507191181539769,1.1852534082950712,-15.078322661101272
539,-12.615855400439877,-14.412259965575092,0.9358919163840148,-14.673799554739219
540,-12.341879284880765,-14.352073292677494,0.6790142010580196,-14.25012230535007
541,-12.069406208527699,-14.30616912568059,0.4479029616818587,-13.783564541262304
542,-11.803245230308839,-14.244534636139932,0.24789211486909957,-13.260219461962985
543,-11.503131673991636,-14.154562876897746,0.04898338445720499,-12.703295911243066
544,-11.14018136345478,-14.03142708681339,-0.17017878402113346,-12.149247865252518
545,-10.748535665633089,-13.872990045233022,-0.41319877467897437,-11.634503617155678
546,-10.377766432698127,-13.683880653283017,-0.6703318741187012,-11.182471286037147
547,-10.0760860085222,-13.477043454442214,-0.927694887592642,-10.775056955837421
548,-9.864733872761938,-13.261040342925298,-1.1715651566344394,-10.381673903935829
549,-9.665582915378144,-13.02643284248779,-1.396470686221602,-9.996895016420016
550,-9.393522399732758,-12.75984173295099,-1.610313811061017,-9.621385350407635
551,-9.082061825257565,-12.456059879782313,-1.8330096658246573,-9.248230473623973
552,-8.782080076762375,-12.117035069805757,-2.090082236938474,-8.872427347070289
553,-8.471226411969242,-11.75516440257962,-2.4190428543944904,-8.490271471329276
554,-8.116733025117115,-11.384618219424492,-2.8331250059162993,-8.09836582853923
555,-7.68897172186128,-11.014688024063965,-3.306106569797333,-7.696472183837656
556,-7.17779373117174,-10.645866267032533,-3.784886689247289,-7.283691345203568
557,-6.658575547004923,-10.256243278590022,-4.245465214872308,-6.858146490332626
558,-6.210168777422166,-9.827924107114608,-4.70238181601303,-6.4133851860882025
559,-5.810734248561765,-9.379255491636599,-5.161831858046989,-5.928735207500502
560,-5.407609156967654,-8.938238480653366,-5.595096021349749,-5.38704030091419
561,-4.978303465422396,-8.522478872215826,-5.968444680051341,-4.794590109770793
562,-4.501466687058308,-8.137990184289716,-6.290281805224993,-4.165772030900657
563,-3.9580806065339855,-7.765995846123335,-6.611947569327473,-3.5143727340465247
564,-3.342871019690823,-7.3806148133093705,-6.986030638479533,-2.8503403217334897
565,-2.640476740932739,-6.971606680692333,-7.424103849606113,-2.1626411368089635
566,-1.852960632274687,-6.539742314630953,-7.902237225166001,-1.4406811964637234
567,-1.0573446125217743,-6.096523489387251,-8.390345137271407,-0.7050928304253324
568,-0.3235223628720744,-5.656914432432589,-8.88809737809118,0.021195131369061274
569,0.38695202141049195,-5.225935779832792,-9.410684042283524,0.7383998300523247
570,1.1300888206291,-4.799635400860424,-9.973549694081102,1.4567538405725817
571,1.8959738198944378,-4.368162555137397,-10.54278761984422,2.1948995211167017
572,2.5637658351759764,-3.9541158199059536,-11.071828226770672,2.910998620909659
573,3.049807842476273,-3.578679974752262,-11.511591488502946,3.5310567293325077
574,3.246951019020166,-3.2796355316948818,-11.838870565696139,3.9583439410784544
575,3.2943065046498052,-3.019325436910997,-12.071089339092369,4.235176709791661
576,3.4071242003314612,-2.7415607472468424,-12.221727781021457,4.461144300302649
577,3.605126493854865,-2.4647876979378034,-12.294908549018299,4.670115347864922
578,3.8398566786820973,-2.2248950233499643,-12.298246411896868,4.873021972824325
579,4.121335130507807,-2.0297438111229575,-12.234884125355729,5.082840824803362
580,4.4943944055363385,-1.8063360685090364,-12.295822096280876,5.416253836399581
581,4.863119547330177,-1.603152769931135,-12.367577228967768,5.740000871896157
582,5.1894666000847005,-1.3794383505977055,-12.442186183054197,6.051899716306094
583,5.440694622665683,-1.1159950275169446,-12.515054283485922,6.343421408374927
584,5.601972109143104,-0.8113639631633917,-12.578742433673764,6.604605122422471
585,5.723992628708821,-0.48631279888581874,-12.647951735925831,6.823380077219514
586,5.868331308376426,-0.1735181133733228,-12.728537449751231,6.989575186353661
587,6.015434808421435,0.09720801020297712,-12.816038041342804,7.104362175377563
588,6.127992325328621,0.3100479401590817,-12.902456497400486,7.175702633577186
589,6.229443069453637,0.48595770400733745,-13.003581632022094,7.208674843910169
590,6.3498207001710805,0.6559195827403252,-13.123764146377114,7.212924089156348
591,6.491493999545425,0.8206455271849846,-13.246285222291654,7.211558120633149
592,6.644883752921061,0.9695426404917079,-13.325774688253714,7.227746979023989
593,6.759574371670407,1.0965247447542825,-13.327363724361403,7.275026330368324
594,6.790739741509039,1.1985689363378689,-13.24817673715114,7.356084837990654
595,6.794608553801772,1.2862710403518522,-13.101615289411429,7.452083563308013
596,6.845714053571676,1.3750346265419038,-12.921733406664181,7.5401512213399435
597,6.92734246108809,1.472763448899098,-12.74687470237486,7.622521885267906
598,6.99540843558193,1.5780417591712155,-12.610999918677452,7.709383177864021
599,7.030875263491922,1.6713591135225658,-12.540282785917372,7.798451828932144
600,7.021448140052987,1.7294361603666013,-12.543091190207202,7.884534110756028
601,6.982864162926323,1.7475642487500775,-12.602941639544365,7.962779039147085
602,6.9424706271263865,1.7320275202395239,-12.69394003799894,8.027343862279842
603,6.875667795959059,1.6914486813687648,-12.799550555372983,8.077354804545124
604,6.7550079958926315,1.6379039488360687,-12.920867572956615,8.113108696067567
605,6.644083739493353,1.5848785529901765,-13.090675566746546,8.128756036190529
606,6.607431593607324,1.541177345723928,-13.367238914842419,8.116803648305519
607,6.585309405039775,1.5048565651242736,-13.70293731395838,8.07426224134644
608,6.4995615142155,1.470387785168094,-13.926877582580273,7.999746598084503
609,6.364921561655702,1.4363210221495206,-13.941489947157478,7.887664300000016
610,6.226703209063291,1.4048979783745013,-13.780435053240232,7.735782025604285
611,6.134415799314849,1.3859646543609359,-13.531547250796573,7.557799096568178
612,6.125863583077747,1.389785315203688,-13.28631269864185,7.369465586989622
613,6.154814071077108,1.4137199311322484,-13.108367524964802,7.169873207838077
614,6.148503560796318,1.4495522640635659,-13.007348216875252,6.954025430207401
615,6.106015284939313,1.493178770113348,-12.955229017693538,6.724531237782403
616,6.046187850055039,1.5393606148624808,-12.893684766704888,6.485951624943947
617,5.948496510495788,1.5801609586655965,-12.74203874370472,6.247398517075669
618,5.798358741874726,1.607783497683614,-12.444055818832707,6.016562469236615
619,5.6159468519785625,1.6116024218058829,-12.020512754715265,5.7824864022042455
620,5.430368195408592,1.5868803384282482,-11.53994378861176,5.530932939173209
621,5.280797653167764,1.545813214085138,-11.084128514916296,5.2711873009479495
622,5.1967469534335295,1.5082029568363955,-10.71868049970598,5.017787895598994
623,5.140578685984241,1.4946990607014872,-10.479463447390115,4.763388618776869
624,5.064323470441421,1.5179074521417735,-10.33792602672702,4.504351813561192
625,4.998245618756297,1.5680349036824166,-10.204504769741837,4.2638809321310465
626,4.981467691995438,1.6235217017900025,-9.98214863172746,4.069933024957204
627,5.000602538791413,1.6630194277524568,-9.648164185121558,3.953384622520644
628,5.0181083289074255,1.6714188542440809,-9.228654603055887,3.9244246620429566
629,4.9486960680541126,1.6524788392100105,-8.777051893294,3.919083299086733
630,4.724260574462781,1.6196066054929936,-8.355864837011692,3.862003867491364
631,4.424234602364051,1.5829224055294069,-7.9834635401226715,3.7444356923173627
632,4.170163642322599,1.549551729488158,-7.65975617832286,3.592406543314401
633,3.9795282633729494,1.516084483332322,-7.385913857414482,3.454337779310819
634,3.8354686858316183,1.4776116503834,-7.168807212277519,3.375835655549221
635,3.7536412379901996,1.4465151211782545,-6.993390827180721,3.3374551153945955
636,3.7344481389638213,1.4371699851967443,-6.823592619181312,3.2932861279340586
637,3.7419189309790126,1.4497089623963355,-6.633833162576947,3.2268428025891556
638,3.7389919878415223,1.4761328420570443,-6.418069461314781,3.1357347365371377
639,3.69442786873773,1.5007171881523902,-6.164120723396972,3.0267949126517424
640,-2.661084981324195,-9.004326746219817,-14.399301730206723,-3.8521629081117603
641,-2.7114214363275075,-9.341318842262659,-14.750278256186023,-3.937085136465302
642,-2.6931399559996683,-9.636734341769802,-15.12512458850749,-4.0697254650428025
643,-2.6296612652929117,-9.901430313055688,-15.507666687777181,-4.222978517092205
644,-2.5599742203162,-10.152611846742163,-15.870573696122944,-4.353558904874308
645,-2.489326817691445,-10.402737195361539,-16.197911792871476,-4.42118349735874
646,-2.415535016326665,-10.659310664132386,-16.470436515532864,-4.395904044487447
647,-2.329459877655073,-10.922203595954866,-16.694966403968944,-4.283661228008128
648,-2.2177648957629774,-11.182955404878385,-16.863167961031508,-4.108017716571068
649,-2.0981678328083193,-11.424637467030163,-17.008270201785166,-3.876835310653286
650,-1.9852191971262145,-11.632798313156936,-17.17283006966707,-3.604276690913508
651,-1.8277278778788268,-11.805857712617254,-17.40361817118504,-3.334990553275427
652,-1.584703970065263,-11.950815612464407,-17.727015793028517,-3.1101627528192175
653,-1.3145985768494923,-12.082872316390139,-18.11682641515035,-2.938405563070379
654,-1.0892090457035601,-12.21464997351912,-18.51780032384553,-2.8135720245934324
655,-0.9196852794329617,-12.340986087155223,-18.87178423685348,-2.727029165485389
656,-0.799458778789115,-12.450369428623585,-19.130446380125676,-2.6667275160196304
657,-0.7047300000622628,-12.536731644402872,-19.270821185945362,-2.621657653026516
658,-0.6152448146281061,-12.600238965252613,-19.301390184341713,-2.586928451680326
659,-0.5897309466881543,-12.647637078596865,-19.267222610852496,-2.567050908654025
660,-0.6782569548170484,-12.693605139718096,-19.221007127491635,-2.5658765538531654
661,-0.8023620414671473,-12.76679561283863,-19.18901591693591,-2.5810424303568285
662,-0.8709460767562743,-12.88724372608943,-19.177420468925597,-2.6032085753357426
663,-0.8898903261227956,-13.038469537953924,-19.179295892133222,-2.6044759313467005
664,-0.8935050467097769,-13.192080049896074,-19.176065402148698,-2.5669436772805208
665,-0.9127997528734794,-13.33196803703467,-19.144460819993505,-2.5173175863782884
666,-0.9777106487868816,-13.44762440426404,-19.07127696852598,-2.4962739833008953
667,-1.072969297129215,-13.536080312978292,-18.963291182271526,-2.5323779380881244
668,-1.1745927796275788,-13.601292918357148,-18.841561367330016,-2.639920251117682
669,-1.3165053682545622,-13.642382215723096,-18.74161900638824,-2.8061622268620505
670,-1.5291267597255798,-13.660053604894829,-18.69098258664879,-3.0019923384516893
671,-1.7736957649002478,-13.671216318454324,-18.67868018059999,-3.1989704304117095
672,-2.0023245299291283,-13.687792555279298,-18.67796483550768,-3.3712702941830495
673,-2.2048114832735504,-13.690870318912326,-18.67161204361662,-3.504842819322099
674,-2.3829736912409105,-13.658920714024198,-18.644523665170595,-3.5940215393981707
675,-2.547468727894773,-13.594276851703604,-18.581206560378316,-3.6274613205922295
676,-2.7122316038638954,-13.507428700986726,-18.47285176980258,-3.6064633305025007
677,-2.86475481862679,-13.410375494944978,-18.3228440739127,-3.5604355022746494
678,-2.989583044475781,-13.312948352027904,-18.13538488488063,-3.5262173401217645
679,-3.10969131100401,-13.208997356409693,-17.89992963920732,-3.5399225831735124
680,-3.244454424965543,-13.086595109504016,-17.607970876945572,-3.615647971803142
681,-3.360460834089534,-12.942562727975014,-17.270206985109944,-3.716379810014438
682,-3.424797697356337,-12.774923372655438,-16.90276137559863,-3.7885654919826988
683,-3.4490369021312746,-12.578121616836427,-16.51746396921441,-3.7906534110332695
684,-3.457914588316156,-12.348426530728663,-16.12093935874481,-3.704694511425893
685,-3.4859053710160324,-12.084484018903591,-15.711466270979049,-3.5652831435991454
686,-3.5546740399789525,-11.788710330739857,-15.27936723717751,-3.4196973686401044
687,-3.6171921367468385,-11.471189674247086,-14.805468641300832,-3.2809205347052965
688,-3.6225392175645057,-11.14389430079998,-14.275187397373807,-3.1457627631940297
689,-3.5970166088708546,-10.813743207941146,-13.694749380105252,-2.9955797891078983
690,-3.582638176275803,-10.484105476376767,-13.077349050299636,-2.816307046858459
691,-3.5880346640809573,-10.156103656744024,-12.43568572606304,-2.6396080257331134
692,-3.6135826442214496,-9.826148118891686,-11.77644931470177,-2.5033763017741824
693,-3.643777537230992,-9.486734196153698,-11.081181622423253,-2.4143979727994997
694,-3.6635236820704806,-9.12871520984145,-10.334550951633531,-2.364271265030018
695,-3.70718081034286,-8.73951054824739,-9.558108968785088,-2.316504977779503
696,-3.8071984488520156,-8.313066227272259,-8.783238874034192,-2.2387131880270315
697,-3.92626144480894,-7.861055938910642,-8.031975251515592,-2.1739679410348702
698,-4.019777838918063,-7.400441228309035,-7.312120789095289,-2.1644806090755226
699,-4.095349371475074,-6.944013385305203,-6.603613584215905,-2.1520890958934507
700,-4.215125659255818,-6.5181808264141425,-5.911643392794007,-2.0806296365918375
701,-4.410797977789206,-6.138911190767308,-5.28633424907103,-1.9869622173609807
702,-4.729172882190487,-5.8270592572690285,-4.7328894635053445,-1.9248911616578401
703,-5.103102552203738,-5.581922087096688,-4.236473212278618,-1.8992643911826712
704,-5.441097523121905,-5.388646528902504,-3.7589263592488593,-1.8996663436169638
705,-5.788636260497479,-5.243434042500353,-3.3246096189742724,-1.9025325849098176
706,-6.20873758602025,-5.1350046738119115,-2.9552469782768322,-1.8971631600740237
707,-6.65921131828493,-5.016707462302527,-2.6649451516640883,-1.9567304496153066
708,-6.896092117986474,-4.765828410273501,-2.3114618298699567,-2.19988468645297
709,-7.092193880354615,-4.486703643425553,-1.9790280294188727,-2.5456015931067375
710,-7.228948915165209,-4.209801494436531,-1.6404750358997149,-2.9189512097280916
711,-7.318429003196236,-3.9382875269753246,-1.3476932831891262,-3.2768254163301713
712,-7.3851355601544615,-3.6688052357928496,-1.1525903173288892,-3.5880498464175377
713,-7.437319048729178,-3.416101947095462,-1.052994781217205,-3.835785252527102
714,-7.477127972775265,-3.1908833066772955,-0.9949861502669634,-4.0248316383583935
715,-7.5110629119906935,-2.9845765302095737,-0.9218137589101153,-4.164273472414951
716,-7.541759329286602,-2.7821283015921776,-0.8116197302032346,-4.270715486149046
717,-7.558661723181892,-2.562981518574688,-0.6407441830897742,-4.37604119821133
718,-7.557740868320555,-2.3134449028276283,-0.4067957855949381,-4.5091872988453625
719,-7.558274673015104,-2.0535597147912403,-0.10799818059104892,-4.684162702955215
720,-7.585724583052086,-1.8128248402668685,0.244445728386335,-4.897496907025165
721,-7.677295997052978,-1.5960412728535274,0.5999185253765905,-5.115368033132448
722,-7.8472710781764885,-1.397382973781467,0.9038305739067506,-5.298734210300211
723,-8.01289136457577,-1.2132318044505503,1.135823718620534,-5.4401199466038905
724,-8.077677178312902,-1.0356566915863865,1.2993225329291846,-5.54847185989332
725,-8.04502702293286,-0.8532918182153929,1.4203582118439793,-5.633750531922976
726,-7.959796356312577,-0.6578905377417047,1.5339520055304803,-5.707724086676857
727,-7.854260780315621,-0.44498196202994605,1.6520852085023088,-5.775823681178164
728,-7.761110987427602,-0.21657958134160438,1.774051287798628,-5.838263488092073
729,-7.6947723119154015,0.010920196730621091,1.9073701545725286,-5.892771872984516
730,-7.652306885284291,0.21990978931451954,2.052515108370326,-5.939803380375925
731,-7.641841712810582,0.4100089549807059,2.188860079360201,-5.992037432939233
732,-7.667150260998545,0.5876965059475614,2.2948735065715575,-6.062518155876899
733,-7.694942696208665,0.7564805326252848,2.361467449785187,-6.156004480323325
734,-7.693266055370715,0.9182548596903208,2.391501714618561,-6.264533552999093
735,-7.687399591872679,1.0672752122675417,2.4140678250750693,-6.350788150131742
736,-7.708551423799648,1.1954939551781127,2.4591657392096558,-6.37562856274279
737,-7.736154665606817,1.3048307745323895,2.513802893480659,-6.33749534855763
738,-7.732984092678962,1.398797446660546,2.5521151581838786,-6.25408616224214
739,-7.6636567133743,1.4734739672818815,2.573952603403354,-6.145947029440713
740,-7.505205768440547,1.5235190329812187,2.587018214313994,-6.037387015903489
741,-7.28954006864363,1.5428684419574847,2.5918873126069455,-5.9381512615132275
742,-7.069883037748893,1.5292148813186577,2.5920474347950604,-5.853619888188516
743,-6.855299176845139,1.495740777947684,2.5996988904435416,-5.815454922251214
744,-6.646393191945205,1.4591555017814601,2.620408365627192,-5.8480352372611675
745,-6.489110986483235,1.4228100166873376,2.6436218658612836,-5.924807472010169
746,-6.416939068648501,1.3840541271928715,2.650488126601247,-6.001449779686731
747,-6.391206284626064,1.3421229740250014,2.60730645099313,-6.048465367830372
748,-6.349920426896059,1.2950106448812093,2.4938850233872514,-6.044711315156033
749,-6.243226606407694,1.2383408286709128,2.351765594049253,-5.985652628656616
750,-6.0410257409687365,1.1718576255762596,2.241553087644503,-5.879927529367064
751,-5.770892300523561,1.103565249048672,2.1873531721570774,-5.724049956259782
752,-5.483155621961589,1.0462060091243723,2.19292757492968,-5.52044911085359
753,-5.187404029921123,1.0175021666590132,2.2555655338391913,-5.311500722069996
754,-4.880272749970598,1.030704774835033,2.3556096608816994,-5.1398632832030335
755,-4.577258368453549,1.0792053078215194,2.453007916427675,-5.000054136447941
756,-4.287779313323,1.147866861650404,2.5102994267891265,-4.8686612125925794
757,-4.005618875952497,1.2267287060949297,2.5181714014145364,-4.730283721683277
758,-3.7199770596190116,1.3075529714988623,2.4853564799501204,-4.570730209433596
759,-3.4028060049491238,1.3873721447779397,2.423056073688855,-4.39260941408382
760,-3.0354899866999068,1.4643254248261757,2.3483979678784825,-4.200837771531539
761,-2.665251329546051,1.5235370633645147,2.28779117207305,-3.964647783135284
762,-2.348533982769862,1.5515107376494541,2.2593699640792746,-3.655477515615726
763,-2.0710874786870512,1.5549151447273897,2.252265570888033,-3.2926312663858943
764,-1.7984591905427882,1.5488539329134134,2.2411396340387384,-2.9170663322573382
765,-1.5264735184265852,1.5460944517566353,2.2084681168760505,-2.573835213209142
766,-1.2581991380145512,1.5562265361060696,2.1302273833430174,-2.3042037341229586
767,-1.004704752911911,1.582040836969073,2.006975191635999,-2.116632045392402
768,-5.994525619823028,-6.891500662037313,-8.242946917302456,-5.354719115230587
769,-6.195727401991576,-6.924252379774246,-6.34511212061828,-5.5167973743875
770,-6.383858034802736,-7.036163324392583,-3.3795711934888097,-5.691383119173601
771,-6.569984069820616,-7.178534276672158,0.7554878774941236,-5.91811677158716
772,-6.723119310275108,-7.2691917197444305,5.61309684113062,-6.159493430152532
773,-6.768963945069683,-7.273623038768553,10.478899188208366,-6.378056839596597
774,-6.653513258838558,-7.206711265080137,14.880675796356133,-6.509787300021991
775,-6.480493719103942,-7.1716510427185804,18.721528735973557,-6.566659577052582
776,-6.387678685248673,-7.2672865963440545,22.07388475193601,-6.567748130334448
777,-6.412530206762235,-7.529652473587829,25.06114446263212,-6.486228157167145
778,-6.553696717116109,-7.912175609010801,27.959300850335428,-6.402161779878867
779,-6.782564590212539,-8.34343047609536,31.09417988378703,-6.5116347232172025
780,-7.057853846882571,-8.7821038788769,34.514494407435855,-6.889058479617555
781,-7.404312361439231,-9.224913936101592,37.924760534315226,-7.487889143323949
782,-7.836131824200577,-9.682314401279486,40.92165745165589,-8.18321850121464
783,-8.27543757476561,-10.176712885337873,43.19954184005505,-8.872849547596818
784,-8.64276906257083,-10.742562212215253,44.6035882086642,-9.486499341704178
785,-8.866942347703244,-11.394443147269268,45.09886723335378,-9.981309053100679
786,-8.962669653387447,-12.115140450666718,44.71712547529915,-10.392066880561284
787,-9.20934654774556,-12.876503697146163,43.51518514056244,-10.901243241576655
788,-9.870387372412134,-13.652342915324398,41.54805272945262,-11.665274470066876
789,-10.880237788921313,-14.39032893220239,38.86460482262347,-12.720888983733843
790,-12.044562964613982,-15.016313964061215,35.501132491594554,-13.957003791551788
791,-13.183681266296798,-15.568297623087044,31.489510862696203,-15.279723744049594
792,-14.164624752765596,-16.197842682677837,26.857672138368365,-16.601835865750537
793,-15.009511356755834,-16.971872169343992,21.632579462227284,-17.889823736147754
794,-15.84874864560934,-17.83574235672078,15.841362459872382,-19.17724779972269
795,-16.851485047384383,-18.732176094477914,9.51012882907895,-20.58591807555164
796,-18.14937021844697,-19.645532347625746,2.6674862467660727,-22.213046396407766
797,-19.741400675088773,-20.567567737771856,-4.660955297286405,-24.00465535177101
798,-21.526231755656756,-21.478761820240134,-12.447530890683879,-25.838958165497633
799,-23.34116837273457,-22.365175390515027,-20.667061741712665,-27.589581074404485
800,-25.033584256520466,-23.2133126968281,-29.312151026133634,-29.19008491058692
801,-26.536128750860396,-24.01318535112572,-38.43477770551638,-30.59635370595338
802,-27.869806824614145,-24.775220324810217,-48.141750775884645,-31.895054240746617
803,-29.175974455711174,-25.53659415230592,-58.542562028504285,-33.28496845703962
804,-30.59667214552023,-26.33595883517885,-69.75533934224025,-34.83021657709829
805,-32.107564069913884,-27.15673201135983,-81.85636804369386,-36.4531189580159
806,-33.627081526018664,-27.935883429370918,-94.87132001560194,-38.01447522065955
807,-35.134246881315235,-28.625158469315377,-108.91113017838335,-39.479794210420295
808,-36.61351263747315,-29.238484091365994,-124.00534855992153,-40.826245463407936
809,-38.029516652812056,-29.833162713539505,-139.85713294534614,-42.08783144243943
810,-39.371674814555746,-30.432558770970772,-156.0059164686841,-43.25304677038655
811,-40.66328981970085,-31.012205595835397,-172.04735779311113,-44.26087580455029
812,-41.93094277414909,-31.57836508529681,-187.75156616506914,-45.123758987652344
813,-43.217221087310946,-32.182900755764045,-203.12970986904153,-45.93916321067428
814,-44.52712557040805,-32.82082539743096,-218.37930972179123,-46.77755722488595
815,-45.723672602192316,-33.43264252037211,-233.7965400411069,-47.60293869809846
816,-46.678656994697505,-33.93293302879823,-249.56931973229425,-48.29684786871363
817,-47.44458900612198,-34.234725542648064,-265.6024301101191,-48.75356343841617
818,-48.1241478964616,-34.30574015346972,-281.55590695073494,-48.98086183738171
819,-48.78330075354004,-34.186442282355856,-297.02366983622534,-49.09674759140666
820,-49.460669582664,-33.980111369602284,-311.7229613812866,-49.260877117578964
821,-50.08079721250528,-33.775969347237336,-325.5566085496297,-49.509822175364256
822,-50.563528493764785,-33.57839587267003,-338.508209164909,-49.85866459411025
823,-51.019180736410625,-33.33094155801106,-350.58164575714216,-50.28086059324703
824,-51.56178652686037,-32.98790763436812,-361.83134209701,-50.7696172738793
825,-52.095694822944395,-32.52392033401358,-372.31200712431865,-51.26234556397795
826,-52.49394608201201,-31.91614545495585,-381.99774883183943,-51.58625745999193
827,-52.74983350490487,-31.179907893350492,-390.8086917857161,-51.577427679609656
828,-52.89132794486273,-30.370276146153806,-398.70729434473003,-51.27014209928037
829,-52.908667529839114,-29.57311392465246,-405.7229032796426,-50.870614841830275
830,-52.8198090939836,-28.83312142990008,-411.88779510830193,-50.53602669996934
831,-52.63288780918266,-28.141599959648236,-417.2164757902027,-50.261980638955045
832,-52.36748449199482,-27.44041880107324,-421.71860401768305,-49.976129113904626
833,-52.13160206057337,-26.68921554177354,-425.36660738254886,-49.63393246921496
834,-52.00501060457661,-25.864617985818086,-428.10784283764673,-49.22964288905273
835,-51.888174522930086,-24.958241353081007,-429.9102831349622,-48.739463117330345
836,-50.970318102738155,-23.620351919676438,-423.0756359437764,-47.44638938320329
837,-50.00278756206914,-22.2847047514489,-416.0627265219319,-46.06983895102683
838,-49.028264140541765,-20.947433644285717,-408.8704679628646,-44.63768836686948
839,-48.05555721259426,-19.61664136928575,-401.5142015315566,-43.199689874150565
840,-47.083014265487826,-18.300088504188647,-394.0009949214484,-41.80166793154193
841,-46.09001155740047,-16.991271971764544,-386.32273151375557,-40.43956378013136
842,-45.051185765885634,-15.68057517074074,-378.4749970221219,-39.08486328483105
843,-43.99046858871476,-14.365493394002742,-370.4633847734993,-37.71753978309189
844,-42.9387929708747,-13.047655345761113,-362.28643069098564,-36.32246343754822
845,-41.86416374003259,-11.732917670459377,-353.9370494405561,-34.897711747953025
846,-40.72545353327402,-10.429793683880268,-345.4088787131264,-33.45154140148171
847,-39.53665022044006,-9.144816073000344,-336.71286478989435,-31.98827926754177
848,-38.32104934944026,-7.880540259369438,-327.86076306840056,-30.509523520905518
849,-37.0733874192466,-6.635052001244411,-318.8569696920851,-29.017585396354956
850,-35.781092765362956,-5.401397809659694,-309.69628044844404,-27.512309468688027
851,-34.42384817059052,-4.166357068083076,-300.36882522526304,-25.984159761661587
852,-32.985716977020964,-2.9179419978908943,-290.87392380582986,-24.428715039620414
853,-31.493666161828965,-1.6535146925521458,-281.22200153157155,-22.86679028845654
854,-29.98940242403063,-0.3782006655887138,-271.42136747576006,-21.324354090839346
855,-28.47540084596393,0.895627927296335,-261.46267995946334,-19.815273538396482
856,-26.951020634541944,2.154711023180588,-251.32431325431307,-18.340672507375547
857,-25.466188393461373,3.3927007768893986,-240.99366064009033,-16.871415866799275
858,-24.062445893248093,4.61013264335436,-230.47219067541732,-15.373584033969655
859,-22.71190072333982,5.81917548964023,-219.76368782900357,-13.8532313641935
860,-21.359200560464185,7.03360433930526,-208.86033947264931,-12.323929926374012
861,-19.94592807453719,8.246721264649773,-197.7462740375747,-10.775673996092461
862,-18.426912905334312,9.447610983725896,-186.42150774045967,-9.18776439197788
863,-16.825175694969907,10.648377404409278,-174.90775732955825,-7.519461991415271
864,-15.189943075629875,11.860570025073704,-163.23824825933698,-5.741927795341434
865,-13.515772208960799,13.068341152685363,-151.44097692897893,-3.8890039386987683
866,-11.79458933309317,14.248388701028567,-139.50998403734928,-2.0240452972092076
867,-10.075308644758227,15.38611986421367,-127.40728881597754,-0.20537657799086328
868,-8.403813930844219,16.47421398732187,-115.0873105910928,1.5285758226350852
869,-6.803191748477947,17.51475688145174,-102.54112804583158,3.1787061114224557
870,-5.26682776222613,18.5163417552215,-89.78074584227473,4.780113480880904
871,-3.664396727486376,19.49727054846275,-76.83500549440855,6.4091029062369245
872,-1.886981238498696,20.457447158258763,-63.71941674501387,8.121327884841193
873,-0.08533319899108982,21.38539508735335,-50.419376133289916,9.86784823434074
874,1.5320991089103364,22.24258409345455,-36.88607754824143,11.55334111335727
875,2.9266448498808155,22.992422122539665,-23.076773219960735,13.080602802843607
876,4.1422713729203195,23.65053888447006,-8.994014464051313,14.383297085183951
877,5.285293988345783,24.275172565518247,5.327597508866578,15.517753012488168
878,6.472597840401035,24.901864148968464,19.840696719085773,16.553757715838795
879,7.704256510876522,25.52573734406714,34.515665179344985,17.547927811323028
880,8.92335821854333,26.148500603339304,49.34052782838722,18.463515833834478
881,10.056180791966522,26.777628596007286,64.28435606907321,19.24643590499038
882,11.067446899548967,27.4266445213507,79.27933154614503,19.91461623385143
883,12.107185540582632,28.07964355490919,94.24475593830209,20.61134293346573
884,13.351347831172498,28.71308097207923,109.12512728627118,21.566836906608312
885,14.795462329173853,29.278793028341113,123.90873542029823,22.864973832459192
886,16.341010465594287,29.691876146162876,138.6027507824354,24.3014173706783
887,17.821579682331574,29.902032527678497,153.12019863405064,25.542291024824003
888,19.081007786221154,29.958117348453953,167.20141735971492,26.45380182099779
889,20.161748189013757,29.96694777739081,180.4178370842679,27.1498786143959
890,21.172853917333708,29.967738331002963,192.23003288467663,27.77008337311436
891,22.11952339073343,29.916382186176172,202.30018452501125,28.353404197445307
892,22.962809898826094,29.724456867779452,210.84984424432417,28.861989694730745
893,23.610770464190615,29.340659265752116,218.4507322916919,29.251668888031155
894,23.979257766811077,28.76008447771719,225.52480779541426,29.442490701406726
895,24.143787280085547,28.07487924784959,232.1655182776433,29.424800330684683
896,5.5675935723737195,-5.78412102046606,313.3594595721473,5.834489320469178
897,5.671958572568898,-6.05092372530054,326.6259501061732,5.864136511625121
898,5.768010440011781,-6.315317405567724,339.53306377767956,5.8461660877601025
899,5.809346148285293,-6.594436649568686,352.0033146147442,5.784888147891525
900,5.753463955231425,-6.901354471656986,363.8964631796337,5.683904014801997
901,5.648854597935491,-7.227824207413652,375.09058650015754,5.539218319484057
902,5.560581420224243,-7.555937789005886,385.5369992367436,5.353899252401593
903,5.506186817997872,-7.868282719717117,395.2319355602713,5.161034762022046
904,5.484558095146575,-8.151017372399565,404.1935705240847,4.994084536413004
905,5.478286344404101,-8.401491963567718,412.471623795088,4.862596480553953
906,5.462965856710277,-8.625468373346518,420.112988402122,4.756642051079073
907,5.436355162657032,-8.831094814844326,427.1165865604185,4.636457516499191
908,5.404423850876884,-9.026175510469496,433.4331745794272,4.460448584428253
909,5.369055722410707,-9.216603158123464,438.98226310495716,4.227260659188275
910,5.3290181382724535,-9.4011141945428,443.6851450464967,3.949633399704572
911,5.266974234877245,-9.565515809331425,447.51225994413426,3.6281585654982123
912,5.167795047117457,-9.69485122800009,450.48593677084716,3.2674626005753593
913,5.048783625567005,-9.78544649441356,452.67360713718125,2.8772914498177693
914,4.93564711702959,-9.84418205101623,454.17167057333546,2.472639724448234
915,4.826823645836785,-9.887404931406312,455.0325315692631,2.0882860130989287
916,4.72024655326588,-9.936755703521671,455.2289695135616,1.7540879405130105
917,4.6576388861866445,-10.016042928147613,454.7001805266159,1.4650176581851688
918,4.6673576412228215,-10.137557625330057,453.41210547306343,1.2027269258434894
919,4.684622158757028,-10.288093497756751,451.36906910652965,0.9529388024467027
920,4.64328545158962,-10.4420342949427,448.5845064765487,0.7019619451263509
921,4.580373729408689,-10.57122500701881,445.0732158702269,0.44582989698607656
922,4.540674573279315,-10.654228441450687,440.86612328246963,0.1822950572796507
923,4.505442352817916,-10.694904049567489,436.01084843232917,-0.10615332739539032
924,4.439858151807798,-10.706684978490673,430.5427646900316,-0.4332560790747805
925,4.277083013404272,-10.689812926299009,424.4573414117046,-0.7949763866088284
926,3.980307065008018,-10.646979934762726,417.7061736294176,-1.177463636130316
927,3.668321066820298,-10.593999767391102,410.2277315486128,-1.5482094774219533
928,3.4678478847030454,-10.549052427241914,402.00255128961896,-1.8816563123535273
929,3.3454543154525695,-10.532085511778478,393.0659300821448,-2.2033500222219087
930,3.2214765639135305,-10.55403906190975,383.48030587232927,-2.5411807937186404
931,3.0511016991164874,-10.600022111766693,373.31457032532734,-2.8768702153275796
932,2.8031683363745583,-10.645803157318436,362.6002170461683,-3.1828039375294934
933,2.497111914383178,-10.67523379878927,351.31272747129924,-3.430676232356529
934,2.172965660240199,-10.678569980555766,339.4024225448477,-3.6153084253902934
935,1.817747790724313,-10.654608338418422,326.84932814250135,-3.8092005854928472
936,1.4172262887226417,-10.61040656977056,313.66220858118186,-4.087896972132696
937,1.0231115480824897,-10.557210300278077,299.84383165795737,-4.452172647110299
938,0.6815927556547295,-10.506588895014993,285.40003124235415,-4.8629124957513
939,0.36404821968367984,-10.465894762889738,270.3677532561474,-5.252312817383566
940,0.03279354730930814,-10.439232182056799,254.80511841093534,-5.55736968274485
941,-0.31161183379886925,-10.426709345093958,238.75126926697502,-5.778739863342381
942,-0.6578348328838216,-10.424849265865598,222.23732525918876,-5.951492040538249
943,-0.9743992427175098,-10.437552702616857,205.27998705424517,-6.11157254245539
944,-1.2403704108744604,-10.462168221615665,187.8838270604085,-6.294739268007646
945,-1.5141262215788611,-10.463469026031808,170.03677545866108,-6.522190480255953
946,-1.8581073571573603,-10.413474392467167,151.72801270889744,-6.796839167122199
947,-2.245921349113576,-10.332852533793,132.94161449286563,-7.10890823842033
948,-2.6348925304851436,-10.257050381644518,113.65688684283053,-7.441513423958205
949,-3.0278579216718673,-10.215333162312449,93.89139835939561,-7.775881724940753
950,-3.433994976473026,-10.223198865231799,73.71055746208754,-8.10141227955477
951,-3.861005286199775,-10.255026408180655,53.176773340548934,-8.424922169495956
952,-4.314449251571289,-10.274408345455232,32.324111295843714,-8.759031993158812
953,-4.7619936758567,-10.274924007293336,11.162882549664808,-9.11721297129838
954,-5.173786711894746,-10.258852751409064,-10.335211429442595,-9.504038161995075
955,-5.5908049400205595,-10.222821336306108,-32.228916941905965,-9.889297997074241
956,-6.063237418294522,-10.161880365644237,-54.23197378973739,-10.248143807092989
957,-6.526085878971455,-10.08104966305776,-75.64660872188148,-10.581599222815461
958,-6.9307034390674715,-9.982984782185378,-96.11134459840808,-10.900631792701736
959,-7.314574011439287,-9.879204416815266,-115.81007173405054,-11.170549684690357
960,-7.747413629478719,-9.782389318773593,-135.04954214641631,-11.362342732416698
961,-8.320348531216093,-9.698715422969299,-153.98946162773117,-11.490712771064413
962,-9.0854236711199,-9.6288933587745,-172.61648318793237,-11.600742878108973
963,-9.951981953340228,-9.569813643241286,-190.88927307443478,-11.785217618142259
964,-10.629173209004907,-9.524959517810721,-211.76491445705756,-12.34235029718103
965,-11.272970554016036,-9.483126940240991,-231.87816072476545,-12.969579929577915
966,-11.890535395765841,-9.443010845606032,-251.2071644335278,-13.567038711113806
967,-12.483536749653657,-9.40866750899264,-269.8036223895654,-14.076068868951479
968,-13.061094106687174,-9.38703824558497,-287.75481104509635,-14.470486137614504
969,-13.634204389289392,-9.384140893555607,-305.1522803996079,-14.760764232860769
970,-14.20683170229406,-9.405399413796662,-322.00105682719055,-14.98697461577461
971,-14.79549988921705,-9.460520421714357,-338.0948550441814,-15.196413277557589
972,-15.399310738477737,-9.550301987659594,-353.08609704324505,-15.419498364527934
973,-15.930417997420953,-9.65069801509566,-366.6082688097572,-15.639669598977578
974,-16.301110414804143,-9.726963600109665,-378.3626317590524,-15.815773351674613
975,-16.548169611327893,-9.747935589764147,-388.298541512821,-15.910911287697479
976,-16.74548936037789,-9.693092890829597,-396.6711777195793,-15.904912276361692
977,-16.912732938775424,-9.562559575266052,-403.8359426063876,-15.813111960838272
978,-17.05169748765242,-9.375955187605783,-410.0636328979968,-15.67697559037738
979,-17.143008412579313,-9.169371573522817,-415.5021287176687,-15.55380035357282
980,-17.162359434363978,-8.981716290024208,-420.2048154635474,-15.489572482662075
981,-17.14839033758353,-8.834637743138211,-424.1709760182319,-15.480082768087918
982,-17.150722952717576,-8.733054116360742,-427.3803639940284,-15.49270440417836
983,-17.145758086340685,-8.673044869107676,-429.81070578672006,-15.486787075075096
984,-17.095309888160674,-8.636071867426748,-431.4514570273758,-15.425153727727393
985,-17.009693387161185,-8.580585605093777,-432.2966921176542,-15.317010966135266
986,-16.903562269231024,-8.465915393577019,-432.34699176263206,-15.182348809029328
987,-16.778659400524305,-8.28176059157492,-431.60479022462835,-14.981352982842731
988,-16.62853444729623,-8.037157335908804,-430.0727311412259,-14.674599573144611
989,-16.390263677496094,-7.744474061683086,-427.7534490250913,-14.29281661989422
990,-16.013613566386194,-7.424363467089323,-424.6496429298883,-13.889214911507008
991,-15.588561187260503,-7.110975045367593,-420.7621185114943,-13.508994179967942
992,-15.233918392379715,-6.833590753414101,-416.09348642184364,-13.182771138299266
993,-14.948826449637853,-6.592541919746329,-410.6452912615395,-12.888487584381528
994,-14.695712497840049,-6.377656446125922,-404.4192081111272,-12.585682582376904
995,-14.479414364848017,-6.194010971434212,-397.4167245813791,-12.26891021599735
996,-14.29960258974877,-6.04568872344474,-389.64209639574904,-11.946770950218639
997,-14.138532355040526,-5.924077226140644,-381.11792304931157,-11.634078058368061
998,-13.977119216465805,-5.816886367695736,-371.97930919234216,-11.343140682032123
999,-13.770717352037222,-5.702150466147313,-362.54206607964966,-11.045930947438286
1000,-13.48341373527314,-5.564266494047802,-353.1284641957588,-10.708087012097172
1001,-13.162014016182441,-5.4270328607777,-343.8988865894785,-10.341414933357601
1002,-12.870396123392336,-5.321351156820162,-334.8441203076064,-9.973080970573205
1003,-12.58639648288498,-5.244949142495767,-325.7603418068219,-9.616315231065574
1004,-12.276267638862265,-5.181761707792251,-316.3459418043041,-9.282163373325439
1005,-11.985577710353637,-5.112731206042459,-306.4259307923419,-8.97507848104787
1006,-11.76542237519351,-5.022377614556374,-296.0635017534039,-8.69673989253605
1007,-11.615062531162582,-4.919537547319653,-285.52399646025737,-8.465745744820287
1008,-11.51183678285794,-4.8232008547584195,-275.1173357782569,-8.299827881904891
1009,-11.393801972509296,-4.747430485807758,-264.9982068669635,-8.192101354241805
1010,-11.205488381850806,-4.696168077156558,-255.13892042745368,-8.125681780446453
1011,-11.006491598123096,-4.643997194217262,-245.4805219319496,-8.08427434308449
1012,-10.876938578500699,-4.5597463428172755,-236.0263476797619,-8.052550103464144
1013,-10.779064675042786,-4.44282470600418,-226.80015161735164,-8.028358405662615
1014,-10.64765249284895,-4.306506669813096,-217.7988214335984,-8.01277023853523
1015,-10.478296877705441,-4.161335117938207,-209.0089286912888,-7.9884772004338265
1016,-10.280104205983568,-4.016537088521465,-200.43902146366295,-7.93658148666885
1017,-10.07095527532518,-3.8755621124730437,-192.13176660375476,-7.858095561715437
1018,-9.866949101003371,-3.732512746507678,-184.13395592954237,-7.75875701768122
1019,-9.618847980835127,-3.5683640123137432,-176.42774386621372,-7.638305514303375
1020,-9.273306961722321,-3.3653435372280236,-168.91773835068057,-7.496007361944535
1021,-8.867532696392612,-3.1261584210824473,-161.506857596574,-7.323072448196787
1022,-8.464191018150037,-2.864964792395562,-154.15743412872942,-7.117235136608594
1023,-8.085399278528532,-2.5981683297045377,-146.8719492634203,-6.9088945704821505
1024,-5.376065854820327,-11.849483451246698,0.42656240310022553,-13.785617853303389
1025,-5.781068799097575,-12.140954351875717,0.3934985857957231,-14.111885829827584
1026,-6.135878692553727,-12.411479788445016,0.22783285557758745,-14.381494961525467
1027,-6.44141945062182,-12.65875334975471,-0.012799950806238525,-14.623500435732604
1028,-6.719180515817446,-12.88707105678787,-0.2547227242691983,-14.87277147885331
1029,-6.978733957450291,-13.109598184963632,-0.46177479391957343,-15.16124840623104
1030,-7.2408998441079,-13.342512753519049,-0.6353180492441809,-15.50207573998656
1031,-7.578854104671437,-13.600121608805521,-0.7745261967552758,-15.875699550149758
1032,-8.039699601982853,-13.889143924126067,-0.8613573968076376,-16.24240879481608
1033,-8.554425308518649,-14.200272758383287,-0.8918075724967143,-16.545560882631793
1034,-9.034407477714524,-14.518023979401942,-0.8674722831480647,-16.74609917621667
1035,-9.45127307064099,-14.832616704907213,-0.8068765615087147,-16.86902830305322
1036,-9.812878460805528,-15.137183645424933,-0.7426934924320183,-16.965329868527597
1037,-10.18474354792263,-15.42689335889795,-0.723399183548231,-17.068463820884784
1038,-10.632208790891012,-15.700141595430152,-0.7869877801881896,-17.204414224598683
1039,-11.122687593363613,-15.956604894367844,-0.9277158328596001,-17.394886564804313
1040,-11.59652575480605,-16.19622295137743,-1.1214635591748807,-17.643552109017616
1041,-12.041735574816926,-16.419768421171916,-1.3318267683921245,-17.92736234395686
1042,-12.45627702233914,-16.627009820056223,-1.5309613875238401,-18.21572952738169
1043,-12.83667208200872,-16.812603165902356,-1.698248993867316,-18.49525699858318
1044,-13.187968652747102,-16.972939003615576,-1.8095307173137238,-18.753079285140718
1045,-13.500479766332463,-17.107726024148864,-1.869281272471975,-18.961421597047533
1046,-13.769267146354291,-17.219361736730903,-1.897141443368958,-19.098887181845296
1047,-14.03842497043612,-17.30717611528288,-1.9319661513616115,-19.154350199289482
1048,-14.342087473315345,-17.36131013613213,-2.0114759656738275,-19.135918015528596
1049,-14.63864357291527,-17.36787075950145,-2.143141087416336,-19.10377155492932
1050,-14.874831725995413,-17.323777658581943,-2.320144202724441,-19.11481016230381
1051,-15.029465195897647,-17.233446879289666,-2.540111543698248,-19.146451800888777
1052,-15.105606992647887,-17.098535231376214,-2.7963873680077316,-19.15888798767772
1053,-15.165305260238066,-16.92730454357597,-3.070938933979329,-19.162824257843393
1054,-15.268026975515342,-16.72944587870309,-3.3450317725849046,-19.16987547576867
1055,-15.37152415672743,-16.51492075116205,-3.61696151716347,-19.157140427830452
1056,-15.418839856791916,-16.2936316353,-3.8737319042745706,-19.098719087280543
1057,-15.429493861280735,-16.07644334924632,-4.089687359591512,-18.978098632394307
1058,-15.436521319449254,-15.86852318034614,-4.230626070800388,-18.78588785986811
1059,-15.453641020833908,-15.664143050166917,-4.281471946456074,-18.531706312225207
1060,-15.486000743002325,-15.452027462163198,-4.278154047532079,-18.233083201575383
1061,-15.49668827187466,-15.216209598674322,-4.303806693165738,-17.89453747344645
1062,-15.446499013976622,-14.947822369360086,-4.418404114806004,-17.520016367885187
1063,-15.375563056757876,-14.648676249197063,-4.6022849227235065,-17.12944054940884
1064,-15.324532887876801,-14.332192994403597,-4.779856876007691,-16.737921858068262
1065,-15.23398329665609,-14.006251927559234,-4.913041497018126,-16.335637282259103
1066,-15.051476285842783,-13.666893880908093,-5.027607796437249,-15.907825845259831
1067,-14.82228021938552,-13.309442380769482,-5.162155128844856,-15.451143584408818
1068,-14.621745052025942,-12.937465665230286,-5.328243227501234,-14.966654991671065
1069,-14.532803120250168,-12.560908600535292,-5.5135858310565276,-14.46175464646445
1070,-14.60759946089529,-12.189840300989088,-5.705024067810223,-13.946668662602649
1071,-14.78570643722662,-11.821867872067578,-5.892093531973176,-13.41849216177608
1072,-14.970761083594278,-11.448201643961589,-6.066657590174995,-12.877738348129393
1073,-15.12284680296375,-11.055788163575398,-6.2081686876065785,-12.349944244575077
1074,-15.224492746345877,-10.634404620014775,-6.303190916689653,-11.8567181988026
1075,-15.261340948680294,-10.18915412655262,-6.3664650745030045,-11.395437913559022
1076,-15.236064006264808,-9.729857940267683,-6.417210877814942,-10.943735150304379
1077,-15.161945576008636,-9.259249501175775,-6.477990527873801,-10.451965054321123
1078,-15.043027543205742,-8.777062571812209,-6.55806676922609,-9.874766744852861
1079,-14.869819855747604,-8.280117341023038,-6.661029773543455,-9.204661651014323
1080,-14.619532522575932,-7.763434938824461,-6.8020734374265786,-8.462084576089316
1081,-14.236445342554465,-7.226488419745281,-6.98383743857247,-7.699278414757457
1082,-13.68619553231013,-6.668033585784142,-7.205040845124622,-6.9685654301821485
1083,-13.026851489952488,-6.0864966372688745,-7.460477260814049,-6.26596381017336
1084,-12.340286493379415,-5.519994147030477,-7.735856316497932,-5.612585361680919
1085,-11.663352571787172,-5.053409970277577,-8.009276496435966,-5.1155474887133146
1086,-11.011137141900226,-4.724224508483468,-8.224084744277327,-4.8178304147946704
1087,-10.382667264189159,-4.494747462187129,-8.302681026763638,-4.644413132717385
1088,-9.761558321858493,-4.300368825217135,-8.23596905853951,-4.465423583221447
1089,-9.134128973618608,-4.090179886243072,-8.099212205677949,-4.2227081072401225
1090,-8.499131795518718,-3.854565664923535,-7.994029792877282,-3.8775160057039475
1091,-7.8583438580380225,-3.6356308249276137,-8.0063931097422,-3.5078619206178594
1092,-7.187545256387659,-3.4003382937304654,-7.880370657611374,-2.9722157943085663
1093,-6.629085509172962,-3.2397555338842654,-7.758781441637708,-2.4841046321078535
1094,-6.264164490009816,-3.137248802035279,-7.614117704281429,-2.0529301094918018
1095,-6.029203914944016,-3.044298182696949,-7.430387683639594,-1.6956255939277582
1096,-5.822312202672042,-2.918737855850452,-7.204470004450071,-1.419178487320244
1097,-5.619296079750637,-2.745430201501164,-6.945061435640338,-1.2167004776498276
1098,-5.428916233689962,-2.530559738103421,-6.670294936863097,-1.070091955848817
1099,-5.2951610410689325,-2.2869272473488964,-6.403790222591784,-0.9410032119565443
1100,-5.258994281373349,-2.029771307136632,-6.16697173774586,-0.7894190065981266
1101,-5.257506545596086,-1.767697032481662,-5.965116759436041,-0.6026075820690283
1102,-5.193985390664854,-1.5027199799884274,-5.800479463934398,-0.3813839048113845
1103,-5.038066048989591,-1.242195695100789,-5.685943383904884,-0.12253584910992332
1104,-4.784933079856401,-1.0013758721869492,-5.632361635085724,0.1694541369999365
1105,-4.421697381824563,-0.7846493846504272,-5.658823807406849,0.47884915011386725
1106,-3.9535566189645603,-0.5819414463951866,-5.757243111135756,0.7815648864965401
1107,-3.4134029766950436,-0.3848377705150372,-5.862620908492492,1.0406229922642363
1108,-2.837242932373578,-0.19694802075649473,-5.8880783765840095,1.222417521889941
1109,-2.2438670884957443,-0.02942915168526278,-5.813791169017196,1.315046774765553
1110,-1.6415055114826191,0.11496003891765313,-5.692342160573636,1.3292080017159242
1111,-1.0327480035668115,0.23868798205352038,-5.572765941793532,1.298268599050223
1112,-0.4136574404027117,0.34933058998188077,-5.468862921949273,1.2668081264751085
1113,0.21583747196608966,0.452632313129266,-5.385106623857511,1.2820830232776719
1114,0.8529530704741812,0.551314507647832,-5.304195184580954,1.3746409846535503
1115,1.5085677649134404,0.6502234683317825,-5.202640303427431,1.5247489429310703
1116,2.179913319754636,0.750587288111771,-5.0744185154047035,1.694460168305229
1117,2.816596544232905,0.8570262437555528,-4.939223556869054,1.876472052794404
1118,3.3605810360225874,0.9816062108192899,-4.839145555103373,2.071424622860237
1119,3.768553065935479,1.1218642277348319,-4.790770825940949,2.2650390107385396
1120,4.031656241090156,1.2495997342411576,-4.773447429043944,2.444344003855696
1121,4.239858649107691,1.3354786647353625,-4.764659707973178,2.602541534096724
1122,4.494048892347174,1.3765331741349662,-4.744325294700062,2.734987310942844
1123,4.778739652948057,1.3913307075430357,-4.67372783012542,2.848951227642512
1124,5.035142677860895,1.3963451096174997,-4.512625842253842,2.9533866491720433
1125,5.225144279773504,1.3999851355478343,-4.257727180723089,3.0321597676006946
1126,5.329588529626046,1.4040254878151788,-3.945291526943384,3.072808502788086
1127,5.395781234222863,1.413838497960868,-3.6073223198697124,3.1052707210752484
1128,5.493650499424995,1.4343208316157205,-3.2772881192891967,3.1674495913830896
1129,5.630748124042471,1.4722071671971697,-2.9836727174593705,3.276911087125802
1130,5.787009568072772,1.5312712046658776,-2.7304818339529677,3.429270594958741
1131,5.958720813310412,1.6004729734715002,-2.5059625630142977,3.5791361697770423
1132,6.1291760976718646,1.665800628351977,-2.2776772896098407,3.6690626754682403
1133,6.252740838650169,1.7183965917377337,-2.0289467975150144,3.673876724140975
1134,6.288945140078178,1.756092433138688,-1.775771626427625,3.594427847942008
1135,6.211922331131171,1.7770296767771814,-1.5406126974720737,3.450488749932649
1136,6.025808271784006,1.7761158117858529,-1.3306614751582158,3.2800218026057912
1137,5.819026493617623,1.756443844688614,-1.1384034028466838,3.130062061194031
1138,5.686654209935059,1.7312131313056582,-0.9525772979599509,3.039079528296384
1139,5.60910457044128,1.7078507914236685,-0.7808780045425532,3.02030246089818
1140,5.5313395954167595,1.6822361592828767,-0.6422822012507701,3.064270330806715
1141,5.454189079136085,1.647194593020012,-0.5811169948729965,3.141870269630589
1142,5.389350777733345,1.601489562420629,-0.6146628442069539,3.215525847988627
1143,5.343197959673334,1.5498069460616102,-0.7085118467329152,3.2604642965215906
1144,5.317947913686958,1.4914081801488812,-0.776332483716892,3.262015208349982
1145,5.278083147311966,1.4195695363246332,-0.734937048258545,3.205464068793174
1146,5.178401576909099,1.3251712138564533,-0.5670797119994571,3.0900524934665317
1147,5.011910121985731,1.2035051067377946,-0.3129160814024793,2.939165338907664
1148,4.793485743951407,1.0564602904290616,-0.038543620196116096,2.787101543555796
1149,4.528267198303482,0.8961376539030469,0.21855212882574093,2.6710260646835264
1150,4.234958058734477,0.7401443926865526,0.45525391044743313,2.6137108318060736
1151,3.992667385918669,0.6070239829923711,0.6659055562264968,2.6055250094437947
1152,-15.759393961944674,-11.196156301033012,1.527679665804254,-13.687533384115996
1153,-16.122214916310426,-11.647220157596182,1.3674424839487331,-14.382345403737022
1154,-16.34479911682102,-12.090858485136792,1.1551366272934278,-15.027649766827924
1155,-16.495090013956215,-12.528635737682782,0.9256611594562284,-15.610127270640321
1156,-16.650326497114726,-12.96122434675464,0.7014320369912949,-16.13155032329809
1157,-16.799155208162354,-13.396494656396543,0.511048905561559,-16.61109962270585
1158,-16.91557799599388,-13.839315699014067,0.3976081801806629,-17.071372874404364
1159,-17.024586800609377,-14.28200129255747,0.3426683177777763,-17.519575469819685
1160,-17.15277374118225,-14.712716630069563,0.2517135785401735,-17.954132969442306
1161,-17.313108376948026,-15.118296202919714,0.05019862495713617,-18.371374959698432
1162,-17.50785146483398,-15.491585336229662,-0.2423075855377826,-18.76551335026509
1163,-17.691111148295988,-15.84476269312633,-0.5447594045615771,-19.13186729526384
1164,-17.822311408383317,-16.194925078341214,-0.8114857579136948,-19.470440299463856
1165,-17.947890970950876,-16.54704525545162,-1.0434473373330238,-19.788502307719263
1166,-18.12232963731403,-16.900261632617838,-1.274503177607224,-20.09536282282286
1167,-18.32508428316738,-17.252240935054264,-1.5323976823056509,-20.396142258800893
1168,-18.517821929657575,-17.595932314716194,-1.8251268369164575,-20.691586902238257
1169,-18.684672076356417,-17.920182899275147,-2.140254039511926,-20.979516015401565
1170,-18.813272794021273,-18.214910778912092,-2.4392159945811374,-21.25330290385807
1171,-18.897277791006914,-18.474348424121207,-2.684888960876547,-21.497791605355616
1172,-18.939788199854533,-18.698128383053323,-2.887286174939125,-21.70130313688832
1173,-18.94133577888487,-18.892600950498693,-3.0825466914225554,-21.870160771085647
1174,-18.900087105041017,-19.0672148040553,-3.317088190555711,-22.015679470596183
1175,-18.82650022478852,-19.230386610744745,-3.6097867031241897,-22.14133270323277
1176,-18.72008441716445,-19.387469008322043,-3.95617889542137,-22.246828587306613
1177,-18.530646649379126,-19.537843907824907,-4.329533310196639,-22.32940909046584
1178,-18.216883612722867,-19.67623598620843,-4.697699295619778,-22.38287970028254
1179,-17.808829653888036,-19.796363435457447,-5.0430614271441865,-22.398977341309383
1180,-17.357818405499867,-19.889783610700828,-5.366737350705963,-22.372238307468198
1181,-16.905415580056648,-19.9446880720037,-5.699174099096813,-22.30291741610432
1182,-16.478569938304307,-19.951867910752373,-6.072558197442627,-22.195180549448008
1183,-16.04806390214053,-19.908405319115776,-6.488447484964933,-22.060309944287386
1184,-15.57714127617554,-19.817856375974042,-6.93111931209746,-21.9063849705247
1185,-15.102210999304932,-19.69265288130752,-7.373080737233096,-21.720647567101913
1186,-14.663841651591067,-19.545805819652436,-7.789961077320109,-21.48990892220678
1187,-14.229957866465165,-19.38158107423971,-8.183111303294199,-21.223097975431216
1188,-13.764546430081522,-19.198704255212835,-8.564547793068957,-20.933192458413806
1189,-13.277205173989195,-18.992149942499097,-8.951326580445564,-20.628307619899896
1190,-12.787153665667445,-18.756693252804098,-9.344486487742861,-20.310771602631227
1191,-12.32405128661046,-18.491979292526203,-9.71330640030226,-19.959758174048655
1192,-11.901810170448256,-18.20134853207565,-10.016154821844104,-19.562094633201458
1193,-11.457772367439206,-17.89203008132821,-10.240682994162913,-19.12179427949748
1194,-10.922800869668556,-17.569087843961505,-10.417698539510265,-18.664671048250653
1195,-10.306765527821456,-17.22836098218948,-10.60285743931828,-18.202451376368685
1196,-9.643464687597048,-16.861572842595997,-10.836487236503306,-17.72008872366487
1197,-8.943719190831217,-16.458943799895682,-11.138137367067134,-17.195932284489274
1198,-8.224258776618148,-16.015194605516744,-11.499985367717128,-16.631025851226784
1199,-7.507244474706975,-15.53813664742608,-11.898823974699958,-16.03415088056809
1200,-6.808913579150128,-15.039832126362608,-12.30296856575837,-15.419371324644855
1201,-6.170151585799323,-14.53037291726553,-12.668939800105298,-14.786944241369845
1202,-5.607040022634369,-14.013968968859297,-12.976777188047315,-14.130380146149303
1203,-5.019439881594918,-13.477899894568921,-13.247248393733148,-13.437219301665321
1204,-4.312163095017779,-12.908315353750792,-13.52153927436617,-12.709556637162963
1205,-3.5391004792576295,-12.3097019113973,-13.804712875185906,-11.938097770855672
1206,-2.7816416425377306,-11.691672396166343,-14.060358471124214,-11.143068353658116
1207,-2.0442691245208637,-11.059746044828819,-14.280476846949327,-10.373522930265457
1208,-1.3096347346861419,-10.414524461044495,-14.507078775504304,-9.625034590202997
1209,-0.5449568244128589,-9.746504775859842,-14.787497999024678,-8.828122755225742
1210,0.2804789648697903,-9.042485032711859,-15.140926770626564,-7.9183264467831895
1211,1.1366192457609452,-8.290426646851468,-15.53301524280088,-6.904851701739719
1212,1.9660994706004074,-7.510493990809116,-15.871656029957062,-5.879855316732413
1213,2.752162453028986,-6.773238700511554,-16.03670622313264,-4.962873533288953
1214,3.4804399288013403,-6.13163643263557,-15.995227118978557,-4.193943290309408
1215,4.119262937965656,-5.594504796899932,-15.802041042141513,-3.514567133513021
1216,4.655742083437938,-5.134503953312985,-15.545497057198888,-2.856299899138946
1217,5.125927498747018,-4.72669767441817,-15.271181676319705,-2.2067914323674276
1218,5.580171746417315,-4.346283595157881,-15.000960110738408,-1.6060788035163174
1219,6.066618333012956,-3.9727164584994874,-14.738883638136604,-1.032821975086097
1220,6.806910991871603,-3.569435227942623,-14.654909679263522,-0.13634879873599848
1221,7.537440645170301,-3.178778522281264,-14.580675796153283,0.7889422534040166
1222,8.187861638520152,-2.813203010952903,-14.526174760838387,1.6876203423530567
1223,8.752375893529901,-2.476359059752437,-14.479524195383268,2.5167095047231114
1224,9.25049472319648,-2.1647680889473833,-14.426173617673214,3.276828575000634
1225,9.689520763933215,-1.8708542146674232,-14.362715006224159,3.985215820090137
1226,10.083545732783604,-1.586808252158047,-14.294078680645674,4.675765902874622
1227,10.446594063963852,-1.3118891903152476,-14.241293281798429,5.352528387075888
1228,10.791813616210725,-1.0492246769386306,-14.228464097440936,6.005901830472476
1229,11.156113381017807,-0.8000823071749525,-14.259703101133125,6.636662052895673
1230,11.568581673418146,-0.5647996966240644,-14.327922725839667,7.2465816731761015
1231,12.001762509816562,-0.3438871555945914,-14.426418337915532,7.833649482139351
1232,12.411402149780667,-0.13465657765865338,-14.541774047393845,8.400475807033416
1233,12.783656832305027,0.07261771886782732,-14.651798876358423,8.9602139692711
1234,13.115283998256022,0.2887775156543291,-14.730966546353779,9.524350914477372
1235,13.402206991748349,0.5189853469810422,-14.752027707475987,10.09167859131136
1236,13.647029908547424,0.7642246632670682,-14.692588055407498,10.650027023692331
1237,13.847418548726269,1.0212665793701388,-14.5437021245539,11.176995967606985
1238,14.00140716183701,1.2841515567542794,-14.307985938429896,11.65107353255851
1239,14.132932452249198,1.548959778437156,-13.998763744795959,12.056479626535381
1240,14.261021271971357,1.8111266629928808,-13.637702962492902,12.400551836645231
1241,14.350016500093306,2.061553489229715,-13.24098696964698,12.71491620459569
1242,14.354923319530998,2.289224652484662,-12.832021032760766,13.047066136584142
1243,14.278684003673572,2.485457727714972,-12.442196348230727,13.405630800722735
1244,14.139089586590353,2.643648632518625,-12.106666891826032,13.751995896094625
1245,13.943161878194058,2.7539732171082454,-11.824990880655097,14.054235773332124
1246,13.70069724007985,2.814607308059344,-11.560759141021002,14.307138549325932
1247,13.407661848294076,2.848263742553328,-11.295901641989015,14.507238682744752
1248,13.064924203810996,2.883155386650283,-11.045974923745522,14.664483632695294
1249,12.735617747894478,2.932667792402902,-10.81344425596699,14.783275598133985
1250,12.479369916735063,2.9982096314058975,-10.572587904536807,14.865297710894033
1251,12.25702434394364,3.06651370825924,-10.302612121497633,14.919742994576366
1252,12.000973202570004,3.1184319227618595,-10.019861668374894,14.951540259933491
1253,11.689879670955387,3.143990563621527,-9.76999477262109,14.95111152173614
1254,11.318611284934164,3.14152706092942,-9.570558532238017,14.905156947317515
1255,10.898586726505679,3.1187208378355127,-9.394576370826961,14.799782216850904
1256,10.4507369644536,3.085516172794828,-9.195105295159868,14.631008607898712
1257,9.95451021250302,3.042174954193586,-8.949178052890455,14.427614094627183
1258,9.395633695936512,2.981955452913298,-8.655469161733674,14.226559366869612
1259,8.836088948571224,2.893553370862149,-8.345398578627673,14.036756871812896
1260,8.356907288828356,2.7663833160789126,-8.053002668494784,13.852600108180216
1261,8.009310848956435,2.5987518102163283,-7.81532194809858,13.673334632011585
1262,7.813697730483973,2.398475096362654,-7.624540564107764,13.489225993154195
1263,7.729520590884029,2.1832561450244126,-7.425774514994588,13.265994746316506
1264,7.690522323219645,1.9747765078763022,-7.173100693699421,12.974192568308219
1265,7.667331568374198,1.7896459014957227,-6.866982875362198,12.620564206897479
1266,7.650308879473196,1.6368050380521235,-6.537188076101321,12.232203214700254
1267,7.6284249133120845,1.517374765418173,-6.204816379804184,11.84311696384442
1268,7.601043727718597,1.4232764184556086,-5.895454374009185,11.48794098495341
1269,7.5817958950002105,1.3338496776973365,-5.632373174212955,11.184116865852067
1270,7.576024402314425,1.2284978782564773,-5.428550866569238,10.933626250520012
1271,7.565627847690399,1.1040864239371149,-5.258222120943165,10.73420656031742
1272,7.520079379171139,0.966061225498923,-5.064541479834085,10.57277415359482
1273,7.387398470165724,0.8182707083895918,-4.8146507918969235,10.418757124664603
1274,7.130776225039218,0.6657206191888891,-4.519344645080493,10.240782935349156
1275,6.803430341084476,0.510916999074515,-4.208659902170115,10.021122142939346
1276,6.4792163020717854,0.3557722622572509,-3.9046797172209833,9.755731912579689
1277,6.148838077632642,0.210267370836402,-3.640046965984216,9.459283849445068
1278,5.785292266573778,0.08268999084461817,-3.4684493473463993,9.153102886019155
1279,5.412397329015095,-0.031162825410151182,-3.3850497009750735,8.845600222497264
1280,0.15063793809513876,-18.120372896780484,-20.47211539901098,-0.8365245672645407
1281,0.34911170915291145,-18.554178148666256,-21.26510739276837,-0.830393473256922
1282,0.5596369650678171,-18.989462245742075,-22.045327954076644,-0.876708487596057
1283,0.7733197085798691,-19.426064214953865,-22.766064072352357,-0.9252238730173308
1284,0.9834792135749317,-19.859201271765958,-23.36110158501844,-0.930885698380268
1285,1.1931486833500908,-20.29240591365621,-23.81598724640228,-0.8981892807256627
1286,1.398600204260753,-20.72955496616902,-24.132119430906716,-0.8447319192252379
1287,1.6188953345598847,-21.176100267565175,-24.27898090103466,-0.7490029905443938
1288,1.843865708082599,-21.634794551080294,-24.27386509644392,-0.5933698318330333
1289,2.0589828511389876,-22.1104765383799,-24.16319267483271,-0.3919356732857189
1290,2.259132429393082,-22.611177618725353,-23.96319720019909,-0.1735828246853972
1291,2.406656540546668,-23.134380677271356,-23.674146840656142,0.003637008705393907
1292,2.4390625298174413,-23.643170331241805,-23.24664148008703,0.09228230225323536
1293,2.360798259385483,-24.082574723512614,-22.577157266437858,0.1273208783636896
1294,2.2463112520133413,-24.439854404562297,-21.528151888334772,0.1582103444011389
1295,2.1701522014024093,-24.74336657840649,-19.95309075991552,0.15871499296553976
1296,2.178989026996633,-25.02290609773758,-17.77112582690913,0.09902399727944938
1297,2.3048247822122283,-25.30596415564393,-15.046206104251603,0.02531783968994561
1298,2.490307957260199,-25.640364473725633,-12.005629847135793,-0.01638545306309147
1299,2.6129546935573993,-26.08086396056972,-9.039442950286055,-0.056643235649342316
1300,2.6178074815736663,-26.63087581172156,-6.644291039053787,-0.12816352637269873
1301,2.527701478160436,-27.24587750227209,-5.185781561899724,-0.19652552538730028
1302,2.412805134788419,-27.89035511830621,-4.685985590628288,-0.22166719125401957
1303,2.319261215185609,-28.55438863069597,-4.862617607267531,-0.21871352702730817
1304,2.2684140606777765,-29.227975613394705,-5.281201612554333,-0.21810080865468445
1305,2.2693300118963364,-29.893710065235503,-5.585212320102975,-0.20820548096310282
1306,2.2853858607366773,-30.554045764150864,-5.671068822255238,-0.237749416549752
1307,2.1734119622983137,-31.231037594591115,-5.621092567701579,-0.3388430187697309
1308,1.8271760148566734,-31.922353395987358,-5.579300861505859,-0.6278994299306739
1309,1.2603815546035069,-32.60568761346337,-5.5497300592267145,-1.1832308893721122
1310,0.5722439178324906,-33.25085171802799,-5.306970722029742,-1.8918951249136848
1311,-0.12402354263091933,-33.8425168162116,-4.708759615667535,-2.609425947734251
1312,-0.8104897379583369,-34.36431200787486,-3.8058319778423275,-3.206766600779632
1313,-1.5666979007510247,-34.76347894787009,-2.7122593324615405,-3.7666559702659486
1314,-2.3944089179170205,-34.974788430395044,-1.6491827972027329,-4.421155030459836
1315,-3.185508386236632,-35.06071054830861,-0.8206732680066029,-5.179164458949031
1316,-3.8669498501115336,-35.20283625709371,-0.23482014326863698,-5.993874420982298
1317,-4.443066218889611,-35.495911609503516,0.19358296590715085,-6.758264903700056
1318,-4.955575981871721,-35.875075215732096,0.48582565489471197,-7.369291478175587
1319,-5.424674391385157,-36.212820263602374,0.5456660188556297,-7.862872382166308
1320,-5.873630802194136,-36.44113859268616,0.20171231522964383,-8.281384470980294
1321,-6.323131310485461,-36.57454324413398,-0.6993529221226016,-8.744532994660876
1322,-6.797903202991255,-36.64210247116505,-2.239960145196319,-9.251184448850342
1323,-7.3063826874116895,-36.658204355407825,-4.443618454327044,-9.661297861588427
1324,-7.853073168225453,-36.61474381366163,-7.286832600445206,-9.985183964159893
1325,-8.457762359259686,-36.488744018393184,-10.733256562984746,-10.32185640454111
1326,-9.060554099390973,-36.257312338922844,-14.75542244886493,-10.788971053467971
1327,-9.521587058506746,-35.93743934771601,-19.338980444736713,-11.330346129235867
1328,-9.834760907208949,-35.599504095578276,-24.46009871879992,-11.84692807285568
1329,-10.149523276067633,-35.313366136179994,-30.080815724160534,-12.336809672482875
1330,-10.548563450991033,-35.090002070751225,-36.20289604432593,-12.805351862419311
1331,-10.97857795551776,-34.868011341870904,-42.94702122971523,-13.194634975000238
1332,-11.353413257048384,-34.55866599323785,-50.45005171747961,-13.461527030962891
1333,-11.684598139073353,-34.09727753558259,-58.6706502943333,-13.640842563348095
1334,-12.075898429800908,-33.47485470836823,-67.4365054616747,-13.777134314680684
1335,-12.56163866506142,-32.75791168619888,-76.61881646045019,-13.854725076374764
1336,-13.068153437863309,-32.04639321538556,-86.19477314733955,-13.860027118049704
1337,-13.512771724550737,-31.37667692316565,-96.16271994473907,-13.842825285550724
1338,-13.868630325380048,-30.70210029477629,-106.46077553027713,-13.852675900825632
1339,-14.130853292451627,-29.94931376467864,-116.99001956244854,-13.885092160663266
1340,-14.328103314568743,-29.114893130823503,-127.67674660549251,-13.940478215269438
1341,-14.471746568343834,-28.291769633117518,-138.5046480425244,-14.022599332204154
1342,-14.573762364336007,-27.55488405649782,-149.48308445130203,-14.137707124876687
1343,-14.6445763683869,-26.906775787920616,-160.60297659780542,-14.246167375316324
1344,-14.711901975747574,-26.296395411629373,-171.89520875940582,-14.300899647181888
1345,-14.791755008367737,-25.650275412332714,-183.4137560802143,-14.289325206433311
1346,-14.90917433154007,-24.950752839229025,-195.11957202715632,-14.221555186356273
1347,-15.093960750833315,-24.230797099296556,-206.92091755343603,-14.131797639842844
1348,-14.86685956978013,-23.027213941396873,-218.7020316788895,-13.843251072689883
1349,-14.67320412555913,-21.83622655345947,-230.15187695308478,-13.57560098687497
1350,-14.526978663713306,-20.657367080242366,-241.2745623193299,-13.300745582207773
1351,-14.38886960593665,-19.48758990107763,-252.05656089755706,-13.0123711326052
1352,-14.211599211603444,-18.32240722679092,-262.4736578751455,-12.709441818977089
1353,-14.000445191568412,-17.15746942334074,-272.50284068094305,-12.386366882512984
1354,-13.764417546326488,-15.990142984524487,-282.1201884722343,-12.039423761000354
1355,-13.518097733042817,-14.823598996729267,-291.30476236098036,-11.66159348533713
1356,-13.242546649511281,-13.663730348100092,-300.0393201094785,-11.25009654028271
1357,-12.91738367890877,-12.51190553439062,-308.320310526941,-10.818765128062651
1358,-12.533755235004316,-11.370292105046286,-316.1541654317616,-10.389410724593427
1359,-12.120239877099245,-10.24956756470973,-323.5822198672557,-9.984115615408403
1360,-11.724759626181418,-9.155465785847822,-330.6742297166758,-9.617813911648295
1361,-11.350116165569878,-8.102329833144704,-337.46414280246694,-9.287907446469278
1362,-10.944589233802029,-7.086797877802459,-343.9287250968389,-8.975550992988126
1363,-10.482657771009915,-6.084236242747914,-350.01744753578834,-8.651887087983157
1364,-10.006780678729294,-5.0824746406776695,-355.6893573132936,-8.287332779398895
1365,-9.582588823704757,-4.09081114213149,-360.9312010957185,-7.852616491687645
1366,-9.211519190085987,-3.1154389265755533,-365.75644349077044,-7.338746194255157
1367,-8.82627037887386,-2.1596553927145954,-370.1888471454422,-6.791846641060789
1368,-8.401278431479385,-1.2235448245527802,-374.2524471973647,-6.2697735493297335
1369,-7.982054498497411,-0.31168626855296677,-377.9505486632683,-5.784784824019168
1370,-7.593204368245992,0.5740951064597912,-381.27372981605015,-5.325129684360235
1371,-7.205778746043497,1.4435626124329086,-384.21250577057543,-4.876729047858963
1372,-6.776581936377074,2.3077456769318387,-386.7601254353178,-4.421402503414996
1373,-6.30856316151032,3.1691425191341764,-388.9208443271127,-3.9344115992734867
1374,-5.820363280969235,4.025652721967246,-390.7060570369612,-3.40427735628955
1375,-5.350650166172056,4.868531175092274,-392.12823496207034,-2.8780775627053465
1376,-4.9272548113092025,5.693316780776085,-393.19556818947893,-2.4003917049286687
1377,-4.480334126797042,6.501465296553371,-393.9023325172276,-1.917628594190618
1378,-3.9452803369905594,7.306580555002733,-394.23549596539965,-1.3599175205127707
1379,-3.3168070992131797,8.117761708909764,-394.1841789236272,-0.7258990396366003
1380,-2.6695908852790353,8.927741438835687,-393.74014367475894,-0.04764076845757423
1381,-2.0621008512050607,9.728608421739601,-392.8991936035076,0.6053318286848834
1382,-1.4946858568501564,10.510121014486781,-391.66041134359585,1.1716493640552292
1383,-0.9632421660626955,11.270405826890164,-390.0290730271513,1.6849694153004098
1384,-0.441228932964625,12.011674554720734,-388.0034765488171,2.214523739447354
1385,0.08379735168838731,12.735629594024838,-385.5793476237728,2.813683466134157
1386,0.6139375548301688,13.441146568362305,-382.74266102583795,3.501828338775468
1387,1.1526909678255213,14.116251022249692,-379.4934689997927,4.1886127523460495
1388,1.7000847920190896,14.747722266936957,-375.8600222675799,4.762792158850408
1389,2.2545684326017206,15.335257347520178,-371.87409691813485,5.235099278973764
1390,2.8163935307634937,15.885727398883516,-367.54478240630107,5.666502754034825
1391,3.383072279458511,16.40674448508496,-362.84120409239364,6.082079541454073
1392,3.954605955537117,16.90723121161019,-357.7275780015499,6.503496821731357
1393,4.547025183996561,17.396240417741847,-352.1838670763732,6.977794256654136
1394,5.172168018041993,17.876397076483986,-346.22646419073163,7.521376911841781
1395,5.811864926246646,18.339863266041657,-339.89209736525925,8.054074295153413
1396,6.436313834828665,18.771371083229575,-333.19765668940545,8.483913068383005
1397,7.018701101041281,19.148093371746818,-326.11305916863347,8.802142896495818
1398,7.540021832871372,19.45365832799986,-318.59453378998836,9.04635868360575
1399,8.007496144676999,19.680876253747474,-310.60624166078395,9.281952774861324
1400,8.4387003647346,19.84309927852553,-302.1471061777648,9.576158616935208
1401,8.833295920540941,19.95077366288796,-293.2383478722622,9.940158441074976
1402,9.18583314472853,20.01368543909892,-283.90053952069394,10.346765342792327
1403,9.500880649920905,20.03117879115871,-274.1801779976931,10.749779074753812
1404,9.781829105393692,19.997612890770274,-264.1530784033903,11.100276289442613
1405,10.022448637177058,19.915589696653093,-253.85114739590554,11.395043655989317
1406,10.223119967545568,19.78873072976284,-243.29307293560802,11.645253625520404
1407,10.35988242773215,19.62313364494947,-232.5336875311645,11.822115016767913
1408,15.701186751739064,-11.507783441615405,112.28475317852758,17.7732213888844
1409,16.43178667918296,-11.59474469692487,126.77643101370487,18.191965131372655
1410,17.19430350954401,-11.663831820079407,141.3679595076842,18.614845499213246
1411,17.94425947555488,-11.729599310716187,156.03448380384347,19.034073354353307
1412,18.653054269185436,-11.786041890006189,170.71167926619103,19.44065598136038
1413,19.360028534033546,-11.80307032182265,185.31565772993503,19.843069498465265
1414,20.10982663788576,-11.76048494473146,199.78443679657875,20.24911120559382
1415,20.84036308738992,-11.676421180672927,214.04487745309763,20.636307289704746
1416,21.49106136459148,-11.580854664950973,227.99921386472283,20.987809326781843
1417,22.112165086119507,-11.4991798185196,241.58722376574133,21.322691471171026
1418,22.774774593365777,-11.440139356406645,254.81659610385722,21.67317815776218
1419,23.523488085639347,-11.401319079583885,267.6943992011639,22.080658976595636
1420,24.368149394394898,-11.370880175181274,280.12776933582506,22.56855399756472
1421,25.221725939706186,-11.32447220373039,291.95128649845964,23.096972401986108
1422,25.97854504306585,-11.234486641310722,303.0587401057718,23.60473616766159
1423,26.625840379362604,-11.09155809024456,313.4839791390235,24.054587670439712
1424,27.175298466419182,-10.91335899687315,323.3740272397648,24.417093385609625
1425,27.597651113813377,-10.730343513228508,332.8725705056709,24.671715795979896
1426,27.86693833607745,-10.568659546318754,342.0385161597707,24.799891582188902
1427,27.984097012779653,-10.454151912005349,350.8720616131866,24.76166469928699
1428,27.949746356721924,-10.408198072943957,359.3363294053476,24.51949871494935
1429,27.754325588479936,-10.422151823003093,367.30976683604206,24.06278104889181
1430,27.39430165535066,-10.463652387858975,374.62458231803316,23.399804857110936
1431,26.869002363564814,-10.506040068397438,381.19402655902906,22.558196564574274
1432,26.19386898564082,-10.53825324899687,387.06130513967935,21.57695775623388
1433,25.433922749077933,-10.555138422374176,392.3365261945677,20.484464684880706
1434,24.64764551324566,-10.560412920869354,397.0799212586018,19.307487759253263
1435,23.824820298549994,-10.550408689755237,401.27034688075224,18.092668696495085
1436,22.932558858547903,-10.527627051658854,404.8839210718698,16.874204420060153
1437,21.944979054132478,-10.500897755692714,407.92597415168984,15.634545793503529
1438,20.851451346152096,-10.48737435337549,410.3926976100529,14.347271372899085
1439,19.692260461244803,-10.492836359967379,412.23866335481785,13.02184552327857
1440,18.51980660499052,-10.504211917994235,413.4104237714881,11.674770029835809
1441,17.34492912327884,-10.502413251805258,413.89597638846516,10.308115476690109
1442,16.164274870961126,-10.47865749280687,413.73557983508726,8.923572157757281
1443,14.9814991801595,-10.431322273384774,412.9785827206788,7.525958228108197
1444,13.796377210854548,-10.364943729482178,411.64703919975835,6.119056901940388
1445,12.607142318101099,-10.280539821506704,409.730445893166,4.705665321413653
1446,11.414097418334343,-10.177661419344602,407.21614616480565,3.2904522075228764
1447,10.216601670622177,-10.053795202435515,404.1088818660399,1.8848523050270267
1448,9.01413607568865,-9.907032330090146,400.44491881395265,0.4993862168655992
1449,7.80881799524747,-9.741593502649339,396.25880476874795,-0.8696197364628279
1450,6.601660255527365,-9.563067112670126,391.55326820521424,-2.2275150441040137
1451,5.388924745157435,-9.374131958352454,386.3112022685837,-3.5613492186442235
1452,4.166855356349225,-9.175159389845977,380.53078024755933,-4.860926184714646
1453,2.9333723640892897,-8.962895697435112,374.2365850108451,-6.146202212658032
1454,1.6896744587936403,-8.733600574277261,367.45021075684406,-7.4369393613404124
1455,0.4473250246924716,-8.48641220811028,360.1647741333385,-8.722141666053433
1456,-0.7838454117975635,-8.223309482733233,352.36301376322797,-9.987152234566533
1457,-2.0133244628557367,-7.949019302481679,344.04540183526524,-11.229899470460683
1458,-3.255163317690374,-7.666203018101372,335.2565566582166,-12.4560875321482
1459,-4.5077168365795295,-7.375182214708663,326.05668315635086,-13.69162990406284
1460,-5.768464616911056,-7.067782765225452,316.4584564634138,-14.957645717888541
1461,-7.052633188011719,-6.714695023539249,306.4062900549104,-16.234765925477184
1462,-8.366968307225541,-6.292471441254996,295.8187630613144,-17.492304083577924
1463,-9.686502084293759,-5.796302517842472,284.59763229782993,-18.716823559034676
1464,-10.978010083364774,-5.244842033012376,272.71355473585254,-19.904356361065513
1465,-12.21440020919268,-4.666431954744227,260.22217685129135,-21.059631239778614
1466,-13.382485354780863,-4.079906870528656,247.22640392785826,-22.199585975056962
1467,-14.50213138776325,-3.49915700021472,233.80703528860369,-23.34719696801425
1468,-15.617064402846689,-2.9577075247131135,219.58731743162068,-24.502977865629326
1469,-16.698665683484208,-2.5197154512123765,203.67174413626807,-25.577480092001775
1470,-17.734100522158283,-2.206657104233323,185.67384322830378,-26.482988652453287
1471,-18.76131900062304,-1.9764015118218028,165.9202663288402,-27.206521199588128
1472,-19.821221224580547,-1.7829291478677682,144.91395248667564,-27.793228308544457
1473,-20.90494900644054,-1.605500399583245,123.20276943380115,-28.309535670419955
1474,-22.017628336362694,-1.4310146403059345,101.17841025663544,-28.820971240714854
1475,-23.039334461788368,-1.2541965304878464,78.9701814295602,-29.34862991140314
1476,-23.980559280631127,-1.0104231007029774,53.522831755210696,-29.822926543664025
1477,-24.80044862671454,-0.7800035470381377,28.116695756080173,-30.261917196718873
1478,-25.533378183142304,-0.5783479720594044,2.729188536923254,-30.62983079070765
1479,-26.181437628097612,-0.4195636533064318,-22.61499911779332,-30.909142303331553
1480,-26.74976068547231,-0.32121305681599005,-47.86935718119419,-31.105086298023938
