,TP9,AF7,AF8,TP10
0,3.0068647550656724,-3.655698385991082,-8.37103510540275,1.4021996424758227
1,2.8295588627950616,-3.7979648032128432,-8.71314519642661,1.35323437566551
2,2.8771250731733233,-3.950374928674847,-9.017168743897177,1.4846467976724154
3,2.813086381068351,-4.111761405299287,-9.274103969746596,1.528532917522512
4,2.333037615571036,-4.279101962669874,-9.494198930317681,1.2413959441807214
5,1.8609359729360606,-4.447009405645864,-9.71796856316507,0.9715512729043183
6,1.856797394767475,-4.610627397373629,-9.981456816037433,1.0868909799045028
7,2.012688678068673,-4.770853077645401,-10.278161754430705,1.318490939997676
8,1.9340270499486096,-4.931329331046777,-10.581916485303372,1.325283911066329
9,1.6922514460017009,-5.091802353746734,-10.86809637817966,1.1440394536187
10,1.4419145503741821,-5.253307044985955,-11.114845929836877,0.893866999096225
11,1.367269655568135,-5.426332268796779,-11.309706896476657,0.7590769244160074
12,1.5909013160805034,-5.613175044420566,-11.456892507095313,0.87523341866808
13,1.6804524384471475,-5.808432722311664,-11.58305924249407,0.8919489255586354
14,1.2413861437106122,-5.990393491303023,-11.717005618301995,0.471713225998471
15,0.8015360375950324,-6.127190262727315,-11.869145498692081,0.0030934407322738833
16,0.9378152200961459,-6.204422535459884,-12.03671365694126,-0.0713165750862847
17,1.3695931852886718,-6.237340385512678,-12.20251294575866,0.06613277102516343
18,1.665491218956246,-6.253399313329811,-12.347755108787608,0.12597234241700844
19,1.705120528620269,-6.26940871445937,-12.474618823106137,0.034810424454540634
20,1.4777519008660849,-6.2931442059627605,-12.591369326319228,-0.21971660932223763
21,1.2786161266576666,-6.319407471273634,-12.69432828203935,-0.44122526119327893
22,1.4071950570194456,-6.3359386709991785,-12.778497136821473,-0.43982984167373923
23,1.5106456332546285,-6.333694334470746,-12.846167686037155,-0.5214605720741323
24,1.1986501451059042,-6.309605278055027,-12.897713284420497,-0.9943903207073824
25,0.8240487694912456,-6.271870927600525,-12.924050067060065,-1.5446979340579203
26,0.7832312765523123,-6.234984861445098,-12.918152368932015,-1.8096561853567033
27,0.8776967689294832,-6.207197822429812,-12.884797369828208,-1.8960425588007719
28,0.8258285558438273,-6.196160317465397,-12.833749332676721,-2.0028892737288526
29,0.5302689887148656,-6.221504924995713,-12.775614907945679,-2.2532833207880687
30,-0.021036112896934273,-6.289524655784689,-12.719272579108706,-2.715518157852887
31,-0.5240328542348978,-6.386366439699638,-12.666369911613591,-3.157516339026327
32,-0.6927350839998792,-6.4802989220758,-12.612711155528261,-3.336857299010574
33,-0.8673161904682809,-6.54739278624522,-12.5531049833333,-3.4933676671231977
34,-1.429118220380911,-6.587327127816466,-12.481258663597838,-3.897340349768193
35,-2.1233605991365123,-6.617297194391602,-12.386057047157133,-4.344456322869321
36,-2.620345431010274,-6.658003313884533,-12.264196260930719,-4.591273751400345
37,-2.954110838097914,-6.728557563662495,-12.131464351673234,-4.682316672561504
38,-3.234178911060868,-6.842137968814519,-12.006424593362473,-4.731581433374167
39,-3.6270767275569833,-6.985157484179647,-11.905943872093175,-4.921136816236879
40,-4.256065680618857,-7.122735751631908,-11.829566260391411,-5.386378146954338
41,-4.808376701165406,-7.23769259994503,-11.728996585127563,-5.867214523461517
42,-4.970596295475217,-7.338541708911256,-11.555974593339286,-6.085189375101286
43,-5.047486465766472,-7.435799298619811,-11.310951962893673,-6.262432705607959
44,-5.390424952857007,-7.527326487759167,-11.01827611252595,-6.658794128542285
45,-5.839444460074919,-7.60272782595542,-10.725219833340063,-7.139756637151568
46,-6.154354201715046,-7.659706163596298,-10.472616676916628,-7.508945987123958
47,-6.236526221582505,-7.712788856367808,-10.229179863336313,-7.6447142518846105
48,-6.068754137302436,-7.779950188329727,-9.9662069566457,-7.499492986650492
49,-5.9650767990935245,-7.864493193977253,-9.686206881364603,-7.374934553910909
50,-6.223342683999302,-7.9609588945396865,-9.431929514882464,-7.5608549116843085
51,-6.504317305247507,-8.0550544249343,-9.214772229610597,-7.737832143631269
52,-6.427810406433449,-8.12880571039177,-8.989927214937671,-7.5517276964216595
53,-6.284623651358946,-8.17459192701594,-8.74232292389838,-7.2693303033288705
54,-6.412551519799133,-8.186647655132907,-8.44917298518365,-7.213189375558652
55,-6.675049361895518,-8.148837171396409,-8.077764759853979,-7.320316655972637
56,-6.858939463374521,-8.05060742899319,-7.615815515695057,-7.444096718223203
57,-6.781522128869443,-7.8986953577302215,-7.090818144498369,-7.3771963028051
58,-6.35443331500117,-7.7104041491130575,-6.544593138733351,-6.977194882922878
59,-6.016534922438813,-7.511232032291452,-6.020756491057211,-6.609575790159361
60,-6.241212496536693,-7.334396990129336,-5.5776420326483525,-6.680663557950992
61,-6.372383144637162,-7.209783590168973,-5.257301307376765,-6.694355419079588
62,-5.768812524888027,-7.13737925520631,-5.0572625581232815,-6.17248624250775
63,-4.9771521838560675,-7.082609559466248,-4.977883500896803,-5.546003809638731
64,-4.696060833357102,-7.004426628263907,-4.989545572204743,-5.347621005941939
65,-4.690332722914813,-6.8769926880675625,-5.050807136429545,-5.406579943736398
66,-4.564871534006969,-6.699247569315153,-5.12367606881115,-5.416958023521677
67,-4.240903803050123,-6.477409300136491,-5.177162802301822,-5.243926892869212
68,-3.6063728310496246,-6.3511376603712275,-4.97132300233464,-4.660962107934739
69,-2.9626397943208045,-6.218949679670567,-4.789449089050083,-4.042329211091232
70,-2.6225233000511454,-6.078438844878475,-4.666106344469374,-3.6758225608841153
71,-2.3316158403054064,-5.923468922434237,-4.613759720307161,-3.345494672777678
72,-1.7485518248441738,-5.74720596529724,-4.615424034041604,-2.7564347714841024
73,-1.0054384558323468,-5.559442528216173,-4.614004750116569,-2.0044753742845334
74,-0.33459752391097236,-5.386320545544651,-4.545059094384779,-1.279749664786253
75,0.1530732702162706,-5.237743417621334,-4.373467231011763,-0.7348566721867285
76,0.4184570109424227,-5.099293601664704,-4.097076910275635,-0.46651084442558305
77,0.7847837410362102,-4.955624442206939,-3.7632914905147015,-0.18135770687539177
78,1.5862727385177557,-4.805482236512375,-3.4336498959149866,0.45001450657436887
79,2.4311157919236797,-4.656810046329706,-3.128828082093939,1.1104335520772337
80,2.8217915670702567,-4.525536391120486,-2.845098748330232,1.3852438339885536
81,3.0155414133825564,-4.420560309163409,-2.5707790230460827,1.4912601891797803
82,3.416151527086354,-4.343960949895219,-2.291090341996404,1.7622706940226942
83,4.005170028643691,-4.288782417799126,-2.001964742311139,2.196779934504122
84,4.650102332350075,-4.243002479625026,-1.7140546736166042,2.6965697555523285
85,5.095989818968287,-4.20036374074847,-1.463371114997385,3.020866652871248
86,5.117165732438643,-4.15643705196573,-1.2815730130847094,2.950568867007242
87,5.127230562627127,-4.101000591356572,-1.1518595317707985,2.8402865361755194
88,5.613081758463285,-4.0265919855217005,-1.0363843637135106,3.1223460002488417
89,6.168609311394572,-3.9368396650505466,-0.9051186072100468,3.4889278811452025
90,6.24504678441302,-3.838955948024701,-0.737172930365542,3.510501371165494
91,6.070709190403515,-3.7391991857970437,-0.5363816410335558,3.3685628183870264
92,6.02795641155263,-3.6402595635839163,-0.3231611824020939,3.3632869632742786
93,6.162404882296114,-3.5325682585560965,-0.11302036405420685,3.5554920060196715
94,6.421711099897077,-3.4037124952139024,0.0793491997170592,3.92517418253739
95,6.522486390412313,-3.2531433869241995,0.23655814500756359,4.2162199582626
96,6.184168143244432,-3.0849743287508593,0.3493430798550665,4.162731583800713
97,5.807608393970054,-2.9012938613072876,0.4198959615718463,4.066884468218722
98,5.888135144867834,-2.704620915443019,0.46243868001201993,4.320274468430873
99,6.106640084590467,-2.496050764156441,0.5083750846440557,4.692900315214268
100,5.997528302555711,-2.27710310452104,0.58857886606218,4.841107075035341
101,5.680956746632839,-2.054375913276329,0.7142729828527226,4.833938988393939
102,5.406779406860018,-1.8372588364483868,0.8766762408639334,4.8323324316016
103,5.304333625162098,-1.634627443842769,1.0449089849022644,4.954314684766883
104,5.444899852675944,-1.4547754335074121,1.1810141420877063,5.281091715475059
105,5.539249038538707,-1.305480060561557,1.256894812521259,5.567050666938347
106,5.260363328923881,-1.1898667096331426,1.264842526965342,5.532303947858241
107,4.916964781820539,-1.102961236343168,1.2328834728084157,5.428511176737005
108,4.923891088912059,-1.0343512645048232,1.2039133041966132,5.595390688237461
109,5.086472535588359,-0.970057990311958,1.2082714610101926,5.883246294658415
110,5.092833597690893,-0.8977481989464469,1.257207947480381,6.045483065950282
111,4.9621155528946135,-0.813284004558724,1.3387157828873542,6.076026589691775
112,4.791952566637988,-0.7192089427525531,1.4218039951435582,6.031455307921721
113,4.744946302546448,-0.6234784422517028,1.453560334488427,6.061710494843014
114,4.964410230635419,-0.5349799091526506,1.4082602342502386,6.309080223625041
115,5.166294676637942,-0.45646668272837654,1.2843223862269433,6.544437227565196
116,5.020612467196594,-0.38637603422893957,1.1417041944449764,6.4913452732376795
117,4.797735740528398,-0.32047393648311484,1.048246685222216,6.347986433085953
118,4.867310209473852,-0.25369230442492896,1.0197320981215476,6.395135950182292
119,5.120169413833072,-0.18584612739354134,1.052115839402451,6.564219126194323
120,5.3357812345114874,-0.11797653188032982,1.112529592484767,6.705395582313484
121,5.3815729534720145,-0.046153853146071164,1.1691426679464942,6.7070234753678335
122,5.188463142663719,0.03387976008230015,1.1988742066707154,6.497420984839298
123,5.082190697920771,0.12286092664910914,1.1874971200553142,6.334148630069382
124,5.411222344293952,0.2194881816861112,1.1397001812763685,6.493967642884199
125,5.789065414958341,0.31952676848339634,1.0943880271270612,6.655616130206384
126,5.719501282149955,0.4184939355503359,1.0925310064399245,6.4183243970762165
127,5.457857615804564,0.5173595432787981,1.135564666006139,6.006695995869107
128,-19.413056002862167,-20.61748338317788,2.8759277216259913,-12.453047063837632
129,-19.276510351462704,-20.829236985249246,2.7853142244529883,-12.394560828787062
130,-19.076805352109233,-21.00306192014795,2.677564483004466,-12.278977143545873
131,-18.98254178406916,-21.152331613258106,2.568038403629961,-12.228789783920286
132,-19.116872170034792,-21.29009968099269,2.4709518181219923,-12.33471830288457
133,-19.182665122623604,-21.427462434488223,2.383552758908928,-12.340960449882372
134,-18.869623054620597,-21.571463107851077,2.296963953217891,-11.99575027758346
135,-18.424684618619093,-21.714052653718937,2.2092918957475316,-11.529625297485433
136,-18.15016605034401,-21.832912574841558,2.118403520430692,-11.22317363196451
137,-17.911107992292862,-21.90713808737241,2.0182292311570906,-10.996070553533231
138,-17.524420142860926,-21.926512102620833,1.903109848056253,-10.711266469106999
139,-16.9660733999935,-21.900177476736236,1.768123395303685,-10.306456114403044
140,-16.270989591466805,-21.851882185572574,1.610773699780539,-9.765620565309993
141,-15.71821529929952,-21.801222555483648,1.431823280381239,-9.346829968755225
142,-15.53497980731909,-21.751359685630167,1.2336509686534731,-9.273514720738847
143,-15.328173466141836,-21.695401878581126,1.0243324173616288,-9.201214548714187
144,-14.687354500859897,-21.624931756634506,0.8011936502265377,-8.764566775010845
145,-13.919002727281386,-21.532690172575894,0.5567711412963077,-8.208558473478423
146,-13.404950215017905,-21.40532226446929,0.26892489407160886,-7.850722336165766
147,-13.056671696697906,-21.22420337952201,-0.08046236859081878,-7.652670651703761
148,-12.691745009516861,-20.99643038066771,-0.4769875733730376,-7.495733548723468
149,-12.111590960704259,-20.756343800134424,-0.8908248766911057,-7.190236320084685
150,-11.187049460108975,-20.522978504729714,-1.2858378135938384,-6.589590801646318
151,-10.316065255797406,-20.288610454475368,-1.6491447837097604,-6.015045922902779
152,-9.888566922588126,-20.031815663393537,-1.9765180425610698,-5.785128224581699
153,-9.469671064384542,-19.73795025897037,-2.2775424667758326,-5.524671784578862
154,-8.575759085968713,-19.39639689141978,-2.554897160521575,-4.824420740106978
155,-7.515252314082102,-19.005073746873297,-2.830215578350067,-3.9354743852852154
156,-6.682321544374329,-18.56772448356081,-3.1222544497171136,-3.1922229904458512
157,-6.041924946334814,-18.092991038440633,-3.455094410043309,-2.605185172319895
158,-5.4619333315377805,-17.587517005297595,-3.8247508085014994,-2.1046191654910134
159,-4.670839807593786,-17.0579677789766,-4.18734905558499,-1.4762365197989125
160,-3.4727135307814216,-16.51363962308192,-4.478753329195099,-0.5515804479260569
161,-2.347110802516543,-15.95850956853233,-4.6907294495674225,0.3015069813277215
162,-1.7805938052622676,-15.379811821303711,-4.874938615191696,0.7060128999510782
163,-1.3912174501339334,-14.757488307716265,-5.079258016099805,0.946745527329744
164,-0.6821569662461608,-14.081489993615476,-5.32739263044892,1.4007742146286166
165,0.26149235389308645,-13.351674832781576,-5.635182222543002,2.030369042359161
166,1.241384008716372,-12.582603579293696,-6.014638824269143,2.709091095801476
167,2.1522768897857905,-11.803211410769931,-6.444487584908899,3.3408886656070464
168,2.9121075288848446,-11.039329218009437,-6.865900917222443,3.839260239510571
169,3.7156145894387422,-10.294971352015818,-7.239265727018512,4.341763174470612
170,4.7608367587581055,-9.549948361028337,-7.548540017707252,5.000005582989421
171,5.730733242443796,-8.779410708445255,-7.823071058531875,5.604010103737858
172,6.311219602880776,-7.969582425838366,-8.110128263214873,5.944471575039288
173,6.798517765246519,-7.120562278765366,-8.42359769952085,6.229859381779084
174,7.5503499915349375,-6.234094023692118,-8.735300089335306,6.701493146681617
175,8.520686206161619,-5.307772775463746,-9.016129182711994,7.312505837061082
176,9.577279046009396,-4.327000361386062,-9.272649611476488,7.9591586367891
177,10.581200095980039,-3.2798252562419075,-9.535852243037844,8.531676739412756
178,11.426591807767252,-2.1733153468226454,-9.8496813970104,8.960280946751155
179,12.384677450916879,-1.0222233500094586,-10.247449257931878,9.499601384754609
180,13.692118804270336,0.1607382330201416,-10.72811160559823,10.368138019681798
181,14.934258416137205,1.3386787563850653,-11.2282051851011,11.228125751676851
182,15.669785218749206,2.455162523774393,-11.667464361753122,11.706521874784766
183,16.040309224331953,3.4926934456524448,-11.982920664385897,11.885665697233613
184,16.342355240688505,4.4889898631596274,-12.16292401090345,11.98440670209088
185,16.82205496201249,5.531507351367071,-12.261451417613555,12.24869623597643
186,17.65092260465924,6.713788898457502,-12.374488913363628,12.866864389609246
187,18.580936955886074,8.0561330473996,-12.563810076533485,13.598227295208984
188,19.2920197114602,9.465873324878707,-12.82204613637439,14.120488386734527
189,20.091498417731035,10.760485960863637,-13.078502742935417,14.705089384149824
190,21.230752493648705,11.788345125341953,-13.238531154383903,15.574173574940117
191,21.90716779226852,12.517027440545805,-13.275393849734153,16.04669590933449
192,21.329847020629938,12.9959432643296,-13.239019006849022,15.460845726605084
193,20.001872588234633,13.301657570728668,-13.178019892142585,14.23986155090265
194,18.698194908414496,13.540815950056608,-13.115830567648677,13.01592187587121
195,17.60499954329646,13.827735784011809,-13.055206724211766,11.909582379220753
196,17.069971559870364,13.669086892459285,-12.975926698036128,10.836032189644255
197,16.457633391904196,13.461536431156507,-12.87667980106636,9.668257913363217
198,15.430020330274132,13.186020775104456,-12.746489885476297,8.165590198222361
199,14.269549554731148,12.838471548401614,-12.554927817364403,6.617353758560755
200,13.377655836516853,12.434987526513316,-12.274835948192306,5.401895258943541
201,12.577321944875314,11.998888827184686,-11.917889226056685,4.385184744675813
202,11.59399954350334,11.544528133849454,-11.51533239689162,3.323793946268256
203,10.484550844689744,11.079589536212675,-11.094684175821804,2.223928730235328
204,9.382681748648892,10.615917408510924,-10.68143968264822,1.1498903780870022
205,8.48904987455056,10.16339134968173,-10.294788703518506,0.24434550331186583
206,7.963343298418166,9.721794741834694,-9.940338220007535,-0.3654531526135057
207,7.488705674996658,9.283025054353223,-9.608755340012872,-0.9322765052309842
208,6.68472627179659,8.841384872249717,-9.283705768802106,-1.7564178954920275
209,5.786882324896772,8.398857989721035,-8.946756362929067,-2.6451071260741315
210,5.152134090855518,7.957071887326572,-8.587431470761306,-3.3149709154945923
211,4.690211797432574,7.519165415587445,-8.219434318480554,-3.845964716974508
212,4.218058555743287,7.100900317180024,-7.863609775318833,-4.3967282578059255
213,3.6602902393714154,6.71868429790545,-7.527949470397112,-5.054978367952754
214,2.984103027903644,6.368138438120378,-7.2104356101015386,-5.86573123457508
215,2.4464636357006975,6.029359708252094,-6.893613220735933,-6.5917489950193415
216,2.3135577934639815,5.6837600037263645,-6.5574703522137785,-6.977996699374428
217,2.2314383637856663,5.317096967216408,-6.2044578680642575,-7.307596962674028
218,1.773232522705698,4.923707981277445,-5.84732542663331,-7.93600353738783
219,1.227855410568518,4.508054724512167,-5.493575171245353,-8.639117130591094
220,1.004962569849107,4.08031679790883,-5.152712679409998,-9.096040618676764
221,1.0355277523367512,3.644934270555123,-4.834536405112421,-9.35067084853437
222,1.12194035976493,3.208978957639758,-4.551876803589645,-9.548267132827393
223,1.0182515196862767,2.78565267117837,-4.3099366039040214,-9.914815672300357
224,0.5335596289728595,2.393830246936727,-4.115410699322162,-10.633592474831095
225,0.07578000582038724,2.0410741920299365,-3.9536522598505752,-11.349368704412429
226,0.12386401888798182,1.7277589359457137,-3.781822828584444,-11.635185595970183
227,0.2927089935954146,1.4445803308111351,-3.5646553845391065,-11.797119418671823
228,0.051563299858978395,1.1763387544379915,-3.295896789112625,-12.263980532868349
229,-0.3760841258182301,0.9138977139978897,-2.9877234069147316,-12.829614268368411
230,-0.6241661163094294,0.6487906265327108,-2.6682202941159976,-13.17863186625067
231,-0.6720483204687531,0.37046496286778674,-2.356615753203272,-13.306320353783851
232,-0.5956165328724137,0.0728988458206401,-2.0648371764226363,-13.298510204873551
233,-0.6885278766914826,-0.2351755667274386,-1.801592417240985,-13.419149710819218
234,-1.2265502469531557,-0.5281694496285463,-1.561948664785674,-13.909783609280677
235,-1.775703311879044,-0.7812511969803426,-1.3503118289083955,-14.41484794554832
236,-1.809155731379483,-0.9978177977334577,-1.1551539474414592,-14.488156466626165
237,-1.6639905273732787,-1.2091608876549178,-0.9448953583534321,-14.366622090471155
238,-1.8394650789807556,-1.4476670542362042,-0.7111939542503417,-14.429746020116163
239,-2.2268964065550616,-1.711962685957118,-0.46626715425726567,-14.621639897914582
240,-2.5766680713170587,-1.9735936722585041,-0.23194788838521357,-14.791345851245342
241,-2.744523174908322,-2.212067044917859,-0.010261679510330624,-14.847614947353863
242,-2.6390520076201334,-2.425987982210338,0.20320194792180676,-14.724143683941021
243,-2.551120815949955,-2.622554612556513,0.4073643580393533,-14.637477865496999
244,-2.8181902606376767,-2.8093679179806017,0.6008888085693861,-14.828999797916763
245,-3.1333341901099923,-2.993218360256802,0.7766399135498967,-15.04452655930442
246,-3.0827507715213684,-3.1776162657004234,0.9291115278149137,-14.950363924153248
247,-2.862365493732934,-3.367111317630231,1.0711233893456442,-14.681344079857487
248,-2.783774083331767,-3.563829137307067,1.2185435149593822,-14.470124066174892
249,-2.834257139970038,-3.774478716644741,1.3735272423934834,-14.322316788420657
250,-2.9194026895614096,-3.997988169683895,1.5300003091098229,-14.189968729161249
251,-2.8634125140610225,-4.222479603459419,1.6727123083333837,-13.946783637098656
252,-2.5099956270060755,-4.4342369893347575,1.7850309685661894,-13.47942011413583
253,-2.1354780208345714,-4.619354976978683,1.8661240886192234,-13.03351722193219
254,-2.080462004475625,-4.766174568131446,1.9220279614552982,-12.894002393661628
255,-2.1365324119474978,-4.8778360596738946,1.9525323976782636,-12.868269929975861
256,-9.800928109876516,-30.912637409543038,-249.7187526483136,-18.276515144628554
257,-9.753655870537916,-31.526946352655397,-265.58060002363493,-17.67866955608965
258,-9.789124216336353,-32.068535424996675,-281.3110605928651,-17.128692262350572
259,-10.01732956505108,-32.55037454204656,-296.8305320392846,-16.775664259205215
260,-10.468475811370642,-32.99799496859697,-312.111434626802,-16.674809799425248
261,-10.833474474061054,-33.43781292087473,-327.1216816201255,-16.493053242306893
262,-10.828136135105904,-33.88525881495422,-341.81425149034084,-15.901839238555405
263,-10.854659073339219,-34.31616914686874,-356.1490296572818,-15.256584750255163
264,-11.349897341565383,-34.696090224545415,-370.04901045179025,-14.971338407981174
265,-12.052512888367596,-35.01605024358947,-383.3963416620163,-14.821389851281083
266,-12.587929059693304,-35.276158662500684,-396.20846668983836,-14.499026276943882
267,-12.905254552801336,-35.47718288151668,-408.6682613602415,-14.024131802346478
268,-13.039758009878582,-35.622013781762185,-420.9016389375059,-13.479749031640218
269,-13.159707974444872,-35.70700801436114,-432.83633426181973,-13.019603212042128
270,-13.440105705225623,-35.72788953191584,-444.29827082050605,-12.765981884382192
271,-13.648305626076919,-35.68676169612471,-455.0568063778468,-12.430574314532318
272,-13.54995396349773,-35.591669059654876,-464.9333082850285,-11.725899667291984
273,-13.486133176283117,-35.45925404064398,-473.8717666892441,-10.945416115348108
274,-13.803691098226734,-35.30638953117443,-481.8898349783617,-10.420313800711195
275,-14.296774166385552,-35.141619934608904,-489.08475520332115,-9.991291722681964
276,-14.669118233422251,-34.9651545584083,-495.5591706449437,-9.420410385613271
277,-14.798133204100864,-34.76528838487654,-501.46066483391166,-8.601959523721082
278,-14.659171826907325,-34.52836377615954,-507.01253151023576,-7.510795744303042
279,-14.567653620316117,-34.25190098478606,-512.2259791522969,-6.448990260259664
280,-14.820040106082406,-33.9375010565378,-516.7301859976773,-5.698674739521457
281,-15.0428218090269,-33.58492308196982,-520.0367007890299,-4.921090260201943
282,-14.819384786600093,-33.190866634572764,-521.7995975961644,-3.730629154084972
283,-14.437970743232134,-32.747708892988456,-521.8577763819462,-2.3586114852671263
284,-14.249249328132253,-32.24409589652537,-520.1907578443196,-1.1005521212674214
285,-14.134255035521255,-31.65849785317113,-516.8422955110102,0.12003980140604559
286,-13.901483768297702,-30.978296733142596,-511.89261797818403,1.4401371853416554
287,-13.377018230494402,-30.228766611491558,-505.41639020811,3.020621150621327
288,-12.472012848090925,-29.43514411631309,-497.4724372538865,4.955675336229452
289,-11.638145845860784,-28.619199786054455,-488.1143678132193,6.859813843605342
290,-11.292914998732464,-27.77776293069852,-477.38644779112866,8.361464928316948
291,-10.943292867564262,-26.898748181831035,-465.32863191735714,9.836462467193588
292,-10.033320037413826,-25.99299678018806,-451.9801482005516,11.71425257404771
293,-8.857260372247618,-25.100365526334116,-437.3806975371347,13.737584421615564
294,-7.826255491260359,-24.242842067649747,-421.57042995319546,15.571944307795428
295,-6.950677986675637,-23.38343178352032,-404.58855989226964,17.232149578613008
296,-6.145723589906586,-22.450266903495542,-386.4740593641691,18.820246089585503
297,-5.138009392191332,-21.39474168598891,-367.26609068766766,20.59662498868445
298,-3.707788375328563,-20.21756707814236,-347.00337285755626,22.761706624820693
299,-2.32456108989059,-18.933468329290985,-325.72377485749,24.906985872948916
300,-1.4719666487360823,-17.572583971209387,-303.4646432985967,26.59807939068142
301,-0.7586404180283911,-16.148477810942172,-280.26311937428665,28.137107168568534
302,0.2957210520565058,-14.663184312628138,-256.15580701735183,29.905441641499316
303,1.5200636258085565,-13.113287101236493,-231.17847716974487,31.755676586578865
304,2.640556228198094,-11.492633105396823,-205.3663822596797,33.46145307541585
305,3.564718822210594,-9.803205371208836,-178.75452210500967,34.930174170808215
306,4.267051845936884,-8.049132322575886,-151.377470686098,36.13368932060804
307,5.023399767094619,-6.228570325529264,-123.26927659472548,37.335097922863106
308,6.1031301964843045,-4.337711494511127,-94.4635186151936,38.79251211611965
309,7.176989292339981,-2.3743744068746873,-64.99327504196697,40.239383658369114
310,7.886053254848329,-0.3377905779062712,-34.89113038007658,41.36489761105868
311,8.522221439075645,1.7757022523634374,-4.189278841730864,42.36168451818728
312,9.425268800033558,3.9569395250618777,27.080601458257686,43.472512892521706
313,10.48254188354302,6.193077393015304,58.88732917664342,44.64099470699571
314,11.488696679022635,8.45591693905032,91.2002250394823,45.75729935157277
315,12.24184120967334,10.727907951439782,123.98894384803542,46.68163539952185
316,12.67015355452895,12.933388022450291,157.18203938322623,47.302778147047654
317,13.14057916275003,14.898763946037569,190.66918613297645,47.92213577565304
318,14.042094848007764,16.556381252389883,224.38262648388664,48.8006815338618
319,14.78598930083114,17.98236115780322,258.31418117591403,49.278764742680195
320,14.72052112328232,19.276469188370175,292.4493410593418,48.673960966943184
321,14.378442262308749,20.508001396624405,326.7695585751957,47.46774224420337
322,14.467309354587748,21.693402412196452,361.2710033165214,46.370828379910805
323,14.907393078723182,22.81536569111134,395.9665884936819,45.466301550292094
324,15.418493441409712,24.063966579254398,437.0966938393657,44.428370682397
325,15.70311715633268,25.25164953111432,477.3793026007382,43.20108121507194
326,15.4805597315931,26.40591855486653,516.6089898118555,41.46791170684714
327,15.111525069094776,27.507176745937468,554.6349413183734,39.564190595734026
328,15.09010416806933,28.48029462643972,591.3978794574226,37.968274633702194
329,15.179925121873937,29.302222417384606,626.7523319226756,36.494328126096526
330,15.012426810462348,30.02683672852598,660.5202778276572,34.84155697591724
331,14.806538149219687,30.700677417481504,692.693319213034,33.20232397037618
332,14.83862003517217,31.35232266633795,723.2468298418061,31.811160347796072
333,15.050096212391852,32.01200816907415,752.0422724542973,30.66753279466388
334,15.28494063088883,32.6799111628129,778.9768592480493,29.670348333347558
335,15.177991654189874,33.316456988797675,803.8009636458006,28.411343297948537
336,14.446580709901768,33.873056219407964,826.1239913107244,26.530933578905152
337,13.619652740610162,34.32454312448062,845.8820591941883,24.45594414161274
338,13.35036611264581,34.66918293124971,863.4083036750401,22.771467592257423
339,13.433717358137576,34.93563122314061,879.1216457953715,21.37513347575761
340,13.435515645464196,35.16959182417303,893.3361447805624,19.97839427080801
341,13.271664384829856,35.403542178970326,906.2191570637062,18.51824546094706
342,12.971415160537743,35.65543610646486,917.8240429313788,16.988027142839616
343,12.783820249898486,35.977619130072505,928.1500626914917,15.575742570041676
344,12.985650605691038,36.385720879736034,937.1699964294229,14.495198593470995
345,13.306749499775576,36.84648837569061,944.8583291345174,13.504166469629311
346,13.360228610735236,37.32313112381797,951.2035133815549,12.280526782107616
347,13.297149667133418,37.74761541919134,956.1979096324521,10.987199199930496
348,13.370210964406652,38.00725098267452,959.8409882787554,9.875848906719941
349,13.469523227897028,38.05224594441846,962.1351580175079,8.851360703682705
350,13.438756370630125,37.8671772033862,963.0830243697164,7.765391655604068
351,13.275827317044183,37.4672710278908,962.6871972797517,6.622361390807383
352,13.01184150333943,36.89796286643922,960.9495689410056,5.45380697219714
353,12.792163375540767,36.24657213009463,957.8718356365778,4.3726610525862855
354,12.754281023216109,35.58933352044251,953.4555498545558,3.48454114307177
355,12.660784859480863,35.00065828487701,947.701941104871,2.56613143771821
356,12.24757385081476,34.543902219860264,940.6128369466616,1.3850285137711187
357,11.764080335488941,34.20991247720585,932.1898535973784,0.21408190129597798
358,11.528787875983923,33.94815821557783,922.4355344243149,-0.6119352241077831
359,11.490507590378208,33.69369771008654,911.3521862259457,-1.151213660592739
360,11.470491559936285,33.39067775310488,898.9353146207211,-1.6028730170568417
361,11.123371128706935,32.96458503323384,885.200514673222,-2.316038065063946
362,10.182871967605077,32.410754107583976,870.1384593340316,-3.56103967764172
363,9.172696703710582,31.795596054598978,853.7577039281172,-4.850361404894163
364,8.723817563172013,31.2053556344632,836.0788558538625,-5.587484376014626
365,8.484673682239261,30.656471706404037,817.2422253769363,-6.107495314747086
366,7.902904443613165,30.130422815342985,797.61163236837,-6.937535921329823
367,7.127873614298695,29.60135924913426,777.6221367985453,-7.948518789678941
368,6.449488870871125,29.04075935027897,757.5741450645886,-8.875769186352008
369,5.94169144426258,28.45834294624225,737.5231794355714,-9.638336857710177
370,5.621538728146473,27.868685441422954,717.352126735724,-10.200134455280182
371,5.20767888081183,27.275503156910577,696.8403646369885,-10.815874910585313
372,4.400066761933633,26.656804344109286,675.8237189469129,-11.762452870028586
373,3.5906844742741963,26.001861127207803,654.272847348126,-12.653972079717926
374,3.2538108848393934,25.33086644473889,632.2452875030925,-13.038137039958011
375,3.0247747364044475,24.652645982192613,609.8477559583486,-13.299631783888982
376,2.4039063331014727,23.973899630602798,587.2181201968539,-13.951108564443082
377,1.5358768227203343,23.27266772286545,564.4322296422138,-14.84877852190648
378,0.7103022633216287,22.52393175575992,541.4825493364382,-15.68869044154968
379,0.059917502623547225,21.73722673007084,518.378647417547,-16.298896642097937
380,-0.3481492929386468,20.93765865417781,495.1797099055361,-16.581622503606575
381,-0.8071232934549373,20.155659093299693,471.9418064104124,-16.84796882066024
382,-1.6355718064550742,19.41461661992433,448.7057656427628,-17.46026948542022
383,-2.458408600751912,18.698203544096838,425.5181655158553,-18.0975936450105
384,-5.18049966314743,-3.078021655174234,255.64349749411315,-7.032362404284195
385,-4.8517375244011545,-3.0652714759911035,260.1508492462806,-6.8694476205579456
386,-4.677315547829576,-3.077242293838015,264.2824808964533,-6.8191994912334755
387,-4.6584207076041375,-3.1260065433681055,267.9851199483999,-6.895729260868303
388,-4.7127610371735615,-3.211376079687186,271.2242063868674,-7.057059413082992
389,-4.613362464651239,-3.320960377376036,273.99427233067763,-7.094387215058453
390,-4.183077722319515,-3.4369350699737717,276.31788525258526,-6.842582337237561
391,-3.850585954892153,-3.5384946275087996,278.2291532599783,-6.683176348562498
392,-4.04298023131009,-3.613112162425138,279.74079199810944,-6.999613797627669
393,-4.367970785990074,-3.6712638924274246,280.8617858402901,-7.4793538065296294
394,-4.348920467876213,-3.7295291553947307,281.62089045790265,-7.726256990640684
395,-4.140092510364243,-3.7943807823979303,282.0454777861636,-7.829739163454197
396,-3.990540367092444,-3.8641158468018775,282.14499919937816,-7.957634227333048
397,-3.939777243370186,-3.925850222690758,281.8827172994126,-8.16248524269466
398,-3.974698461671111,-3.9685304382614843,281.18431161135175,-8.459414507953424
399,-3.8531873093631526,-3.9734089022060304,279.9961653956182,-8.62659311094736
400,-3.3691538892890454,-3.945626156286559,278.3103881663393,-8.46302045057494
401,-2.9008592044869914,-3.9135612981061056,276.15085076998656,-8.262242304980356
402,-2.8469024723266867,-3.8965119176872784,273.55635775363186,-8.342506379618436
403,-2.9441027088394573,-3.89663046037735,270.57192784183036,-8.50428222964886
404,-2.8492275652318746,-3.905796185860194,267.2081762728861,-8.485860646959111
405,-2.6276829469587395,-3.916323991781851,263.4411874765951,-8.325618875121203
406,-2.4242654776158155,-3.9229365289316975,259.25422526880493,-8.126996085417597
407,-2.390553997602636,-3.9298500191740944,254.65269838506367,-8.032194925570652
408,-2.6246724776319637,-3.945342724088808,249.6562384099131,-8.147937268940991
409,-2.821791359257803,-3.9749352506517064,244.2927793906941,-8.251364230404855
410,-2.669983931975864,-4.019348174983938,238.59411960014077,-8.103238443852966
411,-2.433394340160479,-4.0724057603119626,232.57791932204282,-7.89535456496516
412,-2.4302703026305585,-4.124728770071631,226.22288823588556,-7.856904921627108
413,-2.503637490715902,-4.163419883998339,219.4844297937551,-7.865674104899461
414,-2.439520490261518,-4.185789943302355,212.35183586619027,-7.763550904127431
415,-2.2109890406956763,-4.204687000369724,204.8552317795516,-7.524830600441828
416,-1.8529365756211915,-4.244217718715855,197.0161861717677,-7.175175026807227
417,-1.6170726785543825,-4.308901087945628,188.8398268170119,-6.950915164507201
418,-1.710401995678972,-4.390582540832194,180.32780867029442,-7.037509472596091
419,-1.7698332347418395,-4.460745351898175,171.44149381144732,-7.072368642144813
420,-1.415313669994217,-4.4916187451662495,162.1073697830154,-6.681070974172188
421,-0.9259631034046518,-4.484116153388945,152.30193169730688,-6.126581825889067
422,-0.655307342671006,-4.454535265269055,142.07355128374778,-5.748195922825306
423,-0.5373221365762272,-4.424277828874366,131.50005057102246,-5.489658419008596
424,-0.42307499538491755,-4.413849523840012,120.64805973536986,-5.215594770045875
425,-0.13855511758258723,-4.427428610134834,109.54344270140591,-4.755984894751278
426,0.43002998053227415,-4.461050996990689,98.17686538404996,-3.9992407908505148
427,0.9056034984970547,-4.496612284379207,86.54524449333938,-3.3186120477697854
428,0.9276755396713908,-4.520845519023293,74.6664065310453,-3.0725866342548427
429,0.9148017831988083,-4.5176709756925435,62.541557490917135,-2.8642992502595908
430,1.3350012136429412,-4.4641499986830055,50.15251980718601,-2.244579402941
431,1.9300173022408584,-4.358673144188289,37.48581521719454,-1.4513376389796462
432,2.3476497315458777,-4.224283388519798,24.53254016085047,-0.8116031164557111
433,2.5817157211753807,-4.085737385297277,11.283597548991617,-0.33747053515751846
434,2.7125166061679273,-3.9599166637956253,-2.27178805066231,0.042595446799313055
435,3.0004635770871673,-3.8589630887700888,-16.13830403195581,0.5920218944224966
436,3.6558208308923867,-3.783380933952297,-30.281297440229235,1.523689326744764
437,4.249330354257895,-3.725185156026325,-44.634946750482214,2.4304227067360924
438,4.341707900036855,-3.6717396108401283,-59.1979154980264,2.880110233981952
439,4.322493239259979,-3.608682225006346,-74.041026444831,3.1808620201015905
440,4.654707817202288,-3.52655896811398,-89.1810364868723,3.722074555594244
441,5.146418468617938,-3.4274189162270803,-104.55796328331107,4.36734283946285
442,5.511770792010167,-3.32081053982416,-120.14522670638254,4.904461102104065
443,5.686652684250081,-3.218812071335938,-135.97762705110023,5.263526431337803
444,5.791999090877345,-3.133288823722587,-151.14744701253096,5.496694180608393
445,6.204488915826425,-3.0776679018848463,-163.6943131866619,5.922120499610162
446,7.286595321973274,-3.0649536697286925,-172.8094532870464,6.832359954193246
447,8.294605412346328,-3.0875283118805976,-179.3163655562262,7.644047181109139
448,8.39131376375545,-3.1294464243368907,-184.29202226903365,7.70837969658035
449,8.10421630924186,-3.178900742302094,-188.48589563084133,7.452335790536907
450,8.193381863477528,-3.243983736723629,-192.32493424264328,7.489743822344015
451,8.536744199374228,-3.3344879336708613,-196.03430018944047,7.761600929012309
452,8.73900406057429,-3.4034051554216807,-201.33851554940122,8.003585397336643
453,8.779445302601813,-3.4735327402817386,-206.48121673963527,8.143788559285246
454,8.499548680228697,-3.533678996719953,-211.38184048308176,8.025165284288555
455,8.287135544349038,-3.581282568883052,-215.90215425517272,7.94648745057544
456,8.569639314732619,-3.6170933712807867,-219.9858528029994,8.2454938380271
457,8.899203252298696,-3.6420766337338764,-223.72275788433703,8.562802027832063
458,8.696279569513017,-3.6587842797745025,-227.22094021550058,8.439369541044185
459,8.191207760858067,-3.6681603362121766,-230.492095850126,8.05365202897692
460,7.787490757812859,-3.672554111559682,-233.5030205348137,7.7249961562978875
461,7.538467407670077,-3.67995857281555,-236.23500106523306,7.527966935069533
462,7.395715276878509,-3.6999175985902437,-238.7006406422286,7.455000429243478
463,7.076074285665893,-3.742312848524906,-240.94293239159674,7.254806705810616
464,6.302896086308404,-3.81136477920918,-243.00274711827254,6.669143463390687
465,5.511530515956849,-3.8962547727534362,-244.89425468585193,6.054769370808801
466,5.235026578281588,-3.9800466671626427,-246.60495258734628,5.8556278731637414
467,5.153588013180078,-4.049346463705556,-248.1119451970957,5.805002421357511
468,4.7822612140826015,-4.097603384898814,-249.38989800368037,5.506804149878062
469,4.235152014929744,-4.13006208841684,-250.39125280020855,5.0649668192749635
470,3.7479561874989487,-4.159522353145245,-251.03662079483098,4.690055892591935
471,3.3934298253154256,-4.203040342849278,-251.20864207717162,4.481052531440798
472,3.196986130292113,-4.268853957554851,-250.80348139532907,4.490578898755657
473,2.896678394336795,-4.354382903873448,-249.80724729146937,4.483974369866629
474,2.2187643252384004,-4.439703300948613,-248.2621355666876,4.194695622278242
475,1.51471065132299,-4.50476708450572,-246.1986528388375,3.8819303507587595
476,1.224073837771088,-4.544377814391301,-243.6556641653092,3.8819942441349444
477,1.114160628372378,-4.558203129746455,-240.7120745563616,3.984548016628731
478,0.8201754006285741,-4.554693882917204,-237.47882142300213,3.8833209333521213
479,0.3767163538822843,-4.5441227332166205,-234.03639073851082,3.609545136873316
480,-0.08236465854492327,-4.536689237151828,-230.38256084171894,3.283046868527143
481,-0.3905695161571623,-4.5398102338553175,-226.49292268065614,3.0586957644456625
482,-0.4072533741875273,-4.558353290255605,-222.39140121344798,3.067971298765025
483,-0.4186344814131222,-4.588816570867467,-218.11466495589218,3.077909409227442
484,-0.7622869643979864,-4.62536950034343,-213.68851551032418,2.807517870126512
485,-1.1616345145428029,-4.65393885085498,-209.15286336032537,2.476105642922758
486,-1.240378946194596,-4.6516312537662605,-204.54141238485664,2.38869176890128
487,-1.1420773123196784,-4.606283168132237,-199.87173664277688,2.4543351848352857
488,-1.1216543435351245,-4.529226688250907,-195.17765312052515,2.490545393174065
489,-1.269000437126067,-4.442361925662197,-190.48549239622088,2.3983197031068126
490,-1.60506883336336,-4.372405408958174,-185.7682626658983,2.125650810536064
491,-1.8572424746759844,-4.3280177057435925,-180.97073508528487,1.9017686669074083
492,-1.7412206450841163,-4.304860251492688,-176.07163665822245,1.9787820848257651
493,-1.6128929594250299,-4.299583935126121,-171.122428567344,2.0769058197724695
494,-1.9107724973755755,-4.30039887767372,-166.22390430910207,1.8441193096321449
495,-2.353286525056549,-4.275146561651289,-161.44945298498067,1.5065969486658537
496,-2.524193340512516,-4.194073744524327,-156.792936408826,1.384984522091102
497,-2.4555049348045466,-4.0542820566290505,-152.20840328484465,1.4209261005158744
498,-2.2976136656153123,-3.871082753767851,-147.6656322121946,1.4596681430237348
499,-2.253636931741994,-3.668552564201947,-143.14361074501727,1.30464517364375
500,-2.496585571719682,-3.4766803689136925,-138.62099736003745,0.8090320196243875
501,-2.6699559786244227,-3.3259308668217282,-134.0957250820771,0.3267544703635925
502,-2.366650811629566,-3.2344612249945324,-129.59054240395264,0.26654309236978135
503,-1.990716191671683,-3.1939534812559787,-125.13326105704334,0.32062800293150784
504,-2.070725807039567,-3.1808434610062015,-120.74935923578813,0.04882094305978554
505,-2.3896533736522443,-3.172464902000154,-116.44766391707311,-0.40388051354429644
506,-2.5774820154807383,-3.1479898630648755,-112.20164043936464,-0.7735978724894308
507,-2.608061022718351,-3.090789723316868,-107.96585499878643,-1.027049196697645
508,-2.5436001837433415,-2.995047613795693,-103.70598471071283,-1.1877771404129334
509,-2.6161578090526656,-2.867709276765233,-99.4126913177234,-1.46635146776036
510,-3.0435565919132714,-2.7233040263304353,-95.10517844574221,-2.062329082422749
511,-3.4194300710756496,-2.5824151176591728,-90.81818567935674,-2.6127422781506633
512,-0.01257261277416849,-8.452671827253381,7.2069255142502335,-1.5150704994598772
513,0.14693632507150017,-8.74571330954443,7.273074969053001,-1.3801658485037478
514,0.07766595627781332,-9.056171385944594,7.287500709218526,-1.433060682642114
515,-0.1367375864218352,-9.380172805287685,7.213816793190675,-1.6204759901933112
516,-0.3424881416886091,-9.702737946524119,7.039469719330066,-1.8070064219972168
517,-0.390877231259223,-10.002472285490512,6.806937094921986,-1.8001762515957227
518,-0.18998649686721675,-10.255246095090236,6.569650342823014,-1.4633547955452733
519,-0.10178910569753179,-10.457329811258361,6.33756805959586,-1.1405338086002013
520,-0.4527652636367301,-10.632710999104782,6.102730462230353,-1.1823308638918684
521,-0.7662584845424214,-10.812504828364322,5.856814330199793,-1.2563368192104378
522,-0.5378138042021792,-11.009145771066951,5.589755156973095,-0.983560611351096
523,-0.08001010464955252,-11.222124585805062,5.301892589097112,-0.5976334548913596
524,0.17788632975153781,-11.439279816239388,5.00110163624488,-0.40053278958049104
525,0.20069556974872088,-11.655276227144437,4.697041763614005,-0.4015670005843606
526,0.066741947869284,-11.862536093613448,4.396464150826082,-0.5252175832761887
527,0.05878890553906979,-12.044786229327038,4.09202587251365,-0.5051678182456747
528,0.43120083150026134,-12.185035866947413,3.77037539242529,-0.11900424411980329
529,0.7905563267873755,-12.26581122424986,3.4288516357806307,0.26362353278097855
530,0.7267350670355265,-12.278755928907886,3.0612319166301205,0.2550564035671716
531,0.6745976932803814,-12.23812903829619,2.6403798825035776,0.19616216520838647
532,1.1129818393529736,-12.166460407164095,2.14506150965978,0.49062258959834115
533,1.777923017313264,-12.081409622494451,1.5811338312856247,0.984675807400377
534,2.2978780353048616,-11.993895421681326,0.971456595520564,1.4306893230220572
535,2.585423254507272,-11.901277244790636,0.35364623395597056,1.719182401070928
536,2.648005637103873,-11.795019432121485,-0.2380450291804737,1.800724738532118
537,2.7704583546024675,-11.671404078742288,-0.7922659106471772,1.913545900578202
538,3.2112340921569866,-11.530624241502982,-1.3174814349922963,2.2887838740321356
539,3.5688983587798453,-11.378827625579218,-1.8467955022939075,2.614603113477615
540,3.4166880692477646,-11.224910230695622,-2.4091485216084796,2.5513641121259987
541,3.0701043865851925,-11.071394288533797,-2.99429606387809,2.325520264448033
542,2.9395601485385283,-10.919109153607657,-3.575185122824211,2.2320646224013085
543,2.986634941012436,-10.777398486812288,-4.127366784184474,2.237747949400675
544,3.0822203254005283,-10.650482599154213,-4.6420162750325344,2.2488858766576807
545,3.0935212870531874,-10.520429032279695,-5.134619150836593,2.1493472681810792
546,2.917020781298574,-10.368512668980257,-5.645888036361117,1.860902337059114
547,2.8174533619960758,-10.19636066323775,-6.2620624857841625,1.6601385045750015
548,3.0534589225986584,-10.013288812433823,-7.041954495969662,1.8123995232391292
549,3.2990568456924914,-9.828209293383328,-7.9294348812170945,2.035898972483116
550,3.1936358299790077,-9.65061676743198,-8.829044381472055,2.0028465147739607
551,2.9204356484690193,-9.484168906659466,-9.67211425335946,1.8496422575693972
552,2.7396823501471084,-9.328655786997485,-10.417681192682542,1.7797185232447101
553,2.6746859330361263,-9.186732885116005,-11.080587060357585,1.8290691392093876
554,2.6894248288476152,-9.056503681419393,-11.703895529115378,1.976614874928919
555,2.587366700890914,-8.925514877281616,-12.315830611097626,1.9901368949925726
556,2.2112188583964767,-8.778360360522461,-12.927425095158014,1.6748558954669999
557,1.9276222357129993,-8.599314379001825,-13.526101932561922,1.3643269298736276
558,2.097561273486858,-8.379294413155165,-14.086048868962436,1.4152934129658816
559,2.3930761036669708,-8.127106768968131,-14.578744808424263,1.5947986817051536
560,2.4233988294142983,-7.853339137249721,-14.99548966425637,1.604057091809238
561,2.2926137935555757,-7.5735560841512415,-15.379303493034802,1.5173672680320425
562,2.2082032047225617,-7.28733686654438,-15.785626756931448,1.4757209349407598
563,2.3697269673499886,-6.977841172670679,-16.240084303820204,1.6302215053531766
564,2.8943720014947942,-6.638556673709881,-16.747989455230805,2.071430268695425
565,3.37991154490159,-6.273354514632663,-17.2929634748164,2.4537542354965383
566,3.425738797558672,-5.8926772988282465,-17.846035227881003,2.4448826914757626
567,3.421254624147483,-5.506505889850365,-18.39142652541421,2.4011902289886833
568,3.82191975879485,-5.12134302819761,-18.9202018928888,2.7291461274665134
569,4.377146772823141,-4.730664945534825,-19.412387966494485,3.203293396704038
570,4.756366466404086,-4.3304552843682655,-19.861856217976115,3.523588675445008
571,4.985705242690915,-3.9197682307848885,-20.3072709137732,3.703811244319617
572,5.25739712644745,-3.5398420344853405,-20.743479874775787,3.9305829389682345
573,5.8194361358846285,-3.256097320535248,-21.07195461170063,4.458036312010783
574,6.893045913628623,-3.098984737206496,-21.24470134928738,5.524122546544641
575,7.787483522970503,-3.0364131477864644,-21.261032786801568,6.509032062040475
576,7.812649200878573,-3.021091246736597,-21.17440081681288,6.756479201765817
577,7.665282917182713,-3.003779277647567,-21.03311382304854,6.792748442394829
578,8.200330795122982,-2.9521758067940116,-20.88027091371483,7.301231594694814
579,9.126583763053372,-2.8609167842063807,-20.74957052672352,8.06425473382259
580,9.79034068614857,-2.746829025754547,-20.70509563770706,8.582714626410526
581,10.320658411974957,-2.617873022666791,-20.698516253120903,8.957497026772732
582,10.742568406844185,-2.488193701214314,-20.720981586771767,9.190754219648024
583,11.2714241248299,-2.3699661735698263,-20.75276174022229,9.523118347511637
584,12.116137694848677,-2.270998617066103,-20.7649291891894,10.19464916103309
585,12.95795197758484,-2.196534045674535,-20.720279997176895,10.914877112690267
586,13.412183932071574,-2.146411830716618,-20.5865699911215,11.3144106825054
587,13.728561374662782,-2.111048101717426,-20.34361756410982,11.593066329923046
588,14.267405363536442,-2.079788968455913,-19.998176728614258,12.052409575319071
589,14.949329139511187,-2.049626180255208,-19.600860748151234,12.633885029249488
590,15.588146219047715,-2.023048551335556,-19.219839029622605,13.1923354117716
591,15.999525652321898,-2.0073275912958,-18.92072849528877,13.547673615606186
592,16.055397134885354,-2.008496599827732,-18.739581875803346,13.564707371193267
593,16.130063929371104,-2.0259780823278333,-18.637507573530474,13.580561209014219
594,16.64431586130427,-2.051260860153225,-18.541829256202476,13.98263416800947
595,17.222073958426723,-2.059149602386718,-18.40500305911791,14.4632730727735
596,17.36079593146958,-2.027477984703521,-18.19960514215845,14.595815129403919
597,17.30156025723481,-1.9662121453325316,-17.912186630716036,14.559956949941695
598,17.424458785580477,-1.898590664259429,-17.55412835546503,14.647807341779076
599,17.733970431714848,-1.8409435760020738,-17.177254785807204,14.867954848028251
600,18.12766933956059,-1.804307693925346,-16.828845877000226,15.150000711224694
601,18.31955261237525,-1.7869037891391797,-16.485009808471172,15.247070540878024
602,18.047720405165524,-1.7786701768956166,-16.102300612866888,14.93372505884244
603,17.731836277282497,-1.7748633586668932,-15.679817672857238,14.57766384044669
604,17.883545096790257,-1.7713521178879916,-15.233882153444394,14.627907653395958
605,18.164941601102043,-1.7605340691667002,-14.78932353433379,14.821913318635923
606,18.083800529304163,-1.7373880718735373,-14.373670230847816,14.756656656119059
607,17.784437176944678,-1.697630981118292,-13.985958619519842,14.522528032873357
608,17.54548262634632,-1.6439847295490329,-13.61216805545877,14.312355808163536
609,17.46599545894912,-1.6012030510291553,-13.254771372061212,14.200932143754615
610,17.578009099988765,-1.5951951931449568,-12.91515669115015,14.223079161294502
611,17.595506968652117,-1.6270313426699134,-12.574919001906187,14.14629978247208
612,17.206191635549207,-1.6839946155956729,-12.214465921813693,13.723843830702004
613,16.72932076301837,-1.748035263014215,-11.830352558048846,13.246573990737936
614,16.589165995322865,-1.8005337731486086,-11.426958782499705,13.087931344740907
615,16.575784240465847,-1.8339903988945683,-11.006443420457417,13.079478497704386
616,16.360741638088744,-1.8507397401728154,-10.575591232468547,12.939665875359044
617,15.993760848058148,-1.8612371404918537,-10.158183979757217,12.67528475977658
618,15.61038252993648,-1.8771954218023474,-9.775531146034423,12.364409523495045
619,15.364601956694848,-1.8987033152886672,-9.414235941059449,12.140749877378603
620,15.380183729297222,-1.9211229615242673,-9.053024959844961,12.128688181103312
621,15.37685043705802,-1.9436599341800447,-8.703736713474516,12.105536212637016
622,15.029335310873734,-1.9674642533830053,-8.378340595064493,11.807326912003868
623,14.610228849410317,-1.9983480958507553,-8.054554909965333,11.456457776250286
624,14.488313108080488,-2.0427171427147215,-7.703057254569662,11.351881703764041
625,14.51439747594915,-2.099001535474162,-7.3002268345841275,11.383999864895763
626,14.430335075642345,-2.162024371081504,-6.837805958908279,11.357874836681592
627,14.16204923311938,-2.227978232582017,-6.356713515781571,11.200661194717048
628,13.709654356186935,-2.2928969959787153,-5.912862212225928,10.89772517153386
629,13.331731805693913,-2.353021524660127,-5.517726390305254,10.701615873296973
630,13.298419203069047,-2.4044318403586247,-5.16822612736646,10.86869970362186
631,13.30909459471065,-2.44261681181072,-4.889376036369058,11.082120718333572
632,12.975395498877775,-2.4615458532172982,-4.6942347366627475,10.942900804684761
633,12.522343150286986,-2.452346981895828,-4.547817168845482,10.662113823258448
634,12.28698266887957,-2.4092444963722937,-4.401572004562859,10.568282567861639
635,12.218535927856745,-2.331048090681655,-4.212590336901653,10.637058235047762
636,12.178241562566509,-2.2288824482324334,-3.9568822835449207,10.7480146279886
637,12.007344870967263,-2.1231293379616925,-3.667019874803448,10.696371007291942
638,11.582023133614728,-2.04079173577261,-3.393942491348737,10.303447327394128
639,11.253021156222289,-1.9911566468749462,-3.1503516963246665,9.885546277960458
640,18.48917231072849,-12.16861776779929,-13.069827438090213,16.7536642322706
641,19.193888761837027,-12.438576506233847,-13.379445784942112,17.44759036530518
642,19.58663246073231,-12.722978602473283,-13.698428755430228,17.810012200136264
643,19.832501956606297,-13.017999832616262,-14.022334838467998,17.993010123453427
644,20.168289904539005,-13.3013250685986,-14.356840071374053,18.229503712365993
645,20.613438517175503,-13.565156945595259,-14.694240755269231,18.59168301624074
646,21.127211610386684,-13.82285595010228,-15.024974230673893,19.089126262901793
647,21.492244416120077,-14.080619965528177,-15.33430881588651,19.52512031989996
648,21.532901375023027,-14.328202596685408,-15.609681165031493,19.714083711783847
649,21.60653681283064,-14.553379474144217,-15.853254996900986,19.928804093735277
650,22.076345740004278,-14.751929518451748,-16.070959996926547,20.455023939609575
651,22.642608647715917,-14.922281582299435,-16.262808581730848,21.03706709027756
652,22.94055320462335,-15.06822782053903,-16.427039193571765,21.379814949313317
653,23.068297893309627,-15.196883462471124,-16.55614692639639,21.583749838241705
654,23.213654905451776,-15.311512606825533,-16.647255439540167,21.8207375859623
655,23.547366013544433,-15.412049733369411,-16.718824846961997,22.23868059945025
656,24.169836779230252,-15.493491994086208,-16.792449796704794,22.91175981154361
657,24.70993394289877,-15.560820014201663,-16.874178075432383,23.49090646163829
658,24.807660366662684,-15.63063940494733,-16.95996524953033,23.64240736343603
659,24.866707060898854,-15.708536285397196,-17.04094846770432,23.711986482361226
660,25.33532443603923,-15.78454092063062,-17.102296249693506,24.098115868091824
661,25.921762841526522,-15.842571858009423,-17.117515162082267,24.594602088340167
662,26.24865687375459,-15.874216681018993,-17.07075877153432,24.903331405887418
663,26.33838372525666,-15.885563225849483,-16.985210155319503,24.97133909044962
664,26.306786257468385,-15.894769273917957,-16.884392117629528,24.819638183511046
665,26.38980069385665,-15.896756093338716,-16.790919476213368,24.662592941566334
666,26.782581205727624,-15.85198686256732,-16.695547250860912,24.70793346268465
667,27.11020012424404,-15.726634127993005,-16.559371971749385,24.67640792602548
668,26.997557598716952,-15.520295618228555,-16.36328958739595,24.279146404026402
669,26.89317472954406,-15.254308790659227,-16.123507941652765,23.85937172526932
670,27.273625413650453,-14.953077093236558,-15.866682483953447,23.786862872795236
671,27.826360984317386,-14.647508576347164,-15.582862408967868,23.860979438556125
672,28.13216625726319,-14.371479929830317,-15.22546366266552,23.808612664810827
673,28.114383891459486,-14.127795208338004,-14.79524482896957,23.591882654108552
674,27.81937877988317,-13.888379428870275,-14.353131016427715,23.24935167771918
675,27.591782837534307,-13.632118047265664,-13.946866981721916,23.054021891830498
676,27.739724565459596,-13.367365091103883,-13.58414166987223,23.225136278054944
677,27.825473931580976,-13.113350701988026,-13.247756923897972,23.333014282613036
678,27.366541270144104,-12.882541391320226,-12.90201119922802,22.92665517768916
679,26.71539558605412,-12.652154344514988,-12.513411183792464,22.31098774676747
680,26.30558529735358,-12.386968095470976,-12.071190423798727,21.884075157176138
681,25.98133533818834,-12.095544881903125,-11.583803598460975,21.552206068637688
682,25.499920869986465,-11.830388501088837,-11.06306067308352,21.139894268871792
683,24.75640108546186,-11.601172616920278,-10.531693348456105,20.546734634487315
684,23.72386960564342,-11.356280238785645,-10.031883636880936,19.728499322337925
685,22.720416075388826,-11.045283132093092,-9.593242608733313,18.961354532960573
686,22.069759135061343,-10.651123857886352,-9.191117927928186,18.531827401950334
687,21.51490778170615,-10.186618665203527,-8.766396322805534,18.235240789133048
688,20.734067953662237,-9.666815577972795,-8.291833391185133,17.803096822445223
689,19.941510917880876,-9.0929579070439,-7.7832657405570895,17.37477926427769
690,19.36414237727824,-8.475068796902725,-7.241307359612982,17.0991465048018
691,18.83553368135494,-7.8320993703394235,-6.634248459705281,16.860333199851283
692,18.12958841585248,-7.180542341347327,-5.947824170147571,16.49922730404835
693,17.021545458301205,-6.5240542423329195,-5.1799819557790725,15.79214797290224
694,15.421045883473637,-5.856744506619882,-4.342238559265961,14.635110671706343
695,13.797573287084088,-5.173835774067568,-3.455752742258965,13.461309104966682
696,12.640586908771425,-4.472237367773625,-2.5572199876778394,12.731858681316686
697,11.7619002153874,-3.7127880782570166,-1.7114314466077138,12.329315928168464
698,10.824427318123819,-2.8278345235138307,-0.9990844957837642,11.978737789942763
699,9.798639588618185,-1.8310929719479447,-0.36973737874673246,11.571016655814658
700,8.89717531918625,-0.8444217080587759,0.3321105018760454,11.18628602784543
701,8.1972450287355,0.028366903973992108,1.1182197694451683,10.902966876414759
702,7.863674967786977,0.7810309555356788,1.8635875460332938,10.904079452328507
703,7.353419737633263,1.4443393554324278,2.5006948572733108,10.712143101170389
704,6.116351153929261,2.064409041933584,3.0774467070836256,9.833546843346639
705,4.792517374867469,2.675773237422325,3.6601117096995703,8.810461834466606
706,4.144578476122354,3.2793749027504693,4.287068978733125,8.291791097558145
707,3.803157606031374,3.843294955657428,4.922363942714767,7.975896902467642
708,2.2516675855143866,3.336779429320165,5.199589853071205,6.365334379141735
709,0.6065390873294813,2.851741803113183,5.4288465484862405,4.642422799773855
710,-0.9516714345743303,2.382593735543324,5.605247801112198,2.947842416401044
711,-2.277814026801597,1.9161091561021042,5.749278945715139,1.4148708356671422
712,-3.2765711932294512,1.4225396441226175,5.910681135520438,0.14031124968114345
713,-4.244547409743933,0.8782382723613693,6.124823776404321,-1.1145785971774507
714,-5.521069478160053,0.2783660752025814,6.395970453391642,-2.6260195283268213
715,-6.8469504959915914,-0.3499257525938729,6.717324111746491,-4.1688354916823105
716,-7.851537519625605,-0.9568611473836173,7.087264262669585,-5.429495274718714
717,-8.654668570083729,-1.5016153107309107,7.494211602358386,-6.510038602267114
718,-9.483178500904456,-1.9776777063421431,7.916824379007941,-7.603679458819649
719,-10.401917364410844,-2.404019281733964,8.305078932358754,-8.776297435190097
720,-11.426687832539315,-2.806687091636294,8.603405682677383,-10.045055497444626
721,-12.348084920363817,-3.20840463497322,8.769028475127579,-11.202313639795095
722,-12.953809046477026,-3.6239966160307735,8.795946779571839,-12.035077382813197
723,-13.589143572798827,-4.062648525987306,8.704777269425596,-12.83083258091561
724,-14.657114781197565,-4.526487964819753,8.558533723662215,-13.944604100927833
725,-15.877308322410068,-5.014623015496046,8.446003265835655,-15.180006812081524
726,-16.843100086117698,-5.522989048942804,8.401354849578025,-16.232135975057414
727,-17.602694776124686,-6.042638206914139,8.39119522450989,-17.124381953103054
728,-18.321524599111243,-6.564996879884929,8.376269519730752,-17.960931537693632
729,-19.176463254604904,-7.0852558968303745,8.340098489677429,-18.888153017538112
730,-20.303114949534475,-7.602337862724836,8.28708808790888,-20.029432933376036
731,-21.345790162033612,-8.122862630382855,8.235342772981403,-21.088842733638725
732,-21.901439840533538,-8.651964245937828,8.205891111884577,-21.737359805912156
733,-22.348222326645406,-9.17963167362178,8.198530115008035,-22.31364561698064
734,-23.179652589773557,-9.689618197838348,8.201271599337709,-23.246564963030412
735,-24.140794124538022,-10.169701888197046,8.177334912203325,-24.322416983699913
736,-24.835368877504756,-10.611747563719764,8.105126946688314,-25.191211532867083
737,-25.247744068833182,-11.01347395530017,7.983937659832519,-25.78641663434288
738,-25.474590129185014,-11.38027148966428,7.830620193065675,-26.139554024113853
739,-25.798765728128977,-11.725824441732968,7.6578824582305804,-26.495399093929066
740,-26.483640490209947,-12.06460240802694,7.487202197013599,-27.11458678753889
741,-27.12006447080219,-12.403327873455552,7.339973492229336,-27.69958782020669
742,-27.21169172159338,-12.741148046675672,7.242732501894777,-27.877167157049072
743,-27.10197931080826,-13.069263931141593,7.185903804441289,-27.95807297517944
744,-27.294596280984667,-13.374895197754809,7.138993156704136,-28.357497445897668
745,-27.689032506079823,-13.648524522566664,7.0366580120967,-28.94894844482697
746,-28.04785096664679,-13.884900080964409,6.834609500913956,-29.47945610582881
747,-28.27605612161032,-14.08278659536826,6.538522374197605,-29.825898537834636
748,-28.318615791883733,-14.246584561535972,6.214455267788537,-29.9221921750213
749,-28.407984770301088,-14.386881917232376,5.940348407015595,-29.9973156082448
750,-28.800529710210846,-14.515617949035395,5.7465336765637955,-30.31524420876644
751,-29.164200217626696,-14.641619662762494,5.6205593052567835,-30.600880511052694
752,-29.08807578141371,-14.768803975206534,5.515979498850074,-30.498471003538455
753,-28.806947885845766,-14.893850252649605,5.395534309821467,-30.206300151348618
754,-28.678914078560727,-15.01033293845791,5.234632341745184,-30.032561375382283
755,-28.65478542766402,-15.112232441519618,5.035723925118529,-29.967571028190832
756,-28.5941463077016,-15.197536996412035,4.816093824023036,-29.927568570855268
757,-28.384632530453146,-15.275503634408656,4.576864204012551,-29.813790452401793
758,-27.94458594931705,-15.356458740016787,4.321094387495211,-29.534512481572254
759,-27.533073060972086,-15.441520985598528,4.049593648921967,-29.294896569088078
760,-27.438610561559862,-15.52464691047617,3.777008051066311,-29.319536188003422
761,-27.391342530171983,-15.584800605168175,3.519351102173164,-29.342478750911965
762,-27.02715883821887,-15.607276635446482,3.2798195986224603,-29.027870646546635
763,-26.475376674277555,-15.591566546816212,3.058072468393335,-28.487390926156756
764,-25.968891284145535,-15.55754449307749,2.8643442410286877,-27.943574121282154
765,-25.54524811713804,-15.512971869919543,2.6956974275690397,-27.48392158092712
766,-25.18157846028705,-15.443965439794285,2.546229917972082,-27.14181794417426
767,-24.657519912870242,-15.34205978392325,2.4030526506984127,-26.730182775403023
768,0.8943714917399987,-26.071645198451332,-210.93866739322814,-1.1574841365542525
769,1.5512482033648682,-25.86913651553269,-224.33685000213822,-0.19968455700768148
770,1.6886785471226364,-25.642478289493955,-237.94708367137687,0.2626719520105275
771,1.69258707200506,-25.39313932591846,-251.7011739412444,0.615114611180572
772,2.0329753014350325,-25.109465359660952,-265.54345886859784,1.3224197453937947
773,2.583292352189974,-24.775230929473935,-279.41798864774904,2.2474128192631246
774,3.1087147092786815,-24.384470967959622,-293.2778103712178,3.1461954091293043
775,3.4406151220406618,-23.936046047215246,-307.14323279978714,3.8603318028632
776,3.478422528804092,-23.42628687578955,-321.09346229900547,4.301308834895956
777,3.5417582020830567,-22.863752706076593,-335.1795756395689,4.77664144142266
778,3.9668420653802934,-22.26948799695874,-349.38707066055144,5.6056625396957
779,4.465493183953392,-21.656633716508004,-363.68058462485556,6.509111925175971
780,4.688980474745706,-21.022793737587147,-378.02144173471794,7.142304840805003
781,4.832205742562414,-20.35633909253259,-392.36074632941165,7.6547703453450895
782,5.136606541640528,-19.65139530547044,-406.61679792784946,8.251858688618789
783,5.550734429472284,-18.921960832465157,-420.67159933856755,8.925106157112841
784,5.959760682401968,-18.19569071970294,-434.3516348572782,9.617803299460473
785,6.132673657930538,-17.48563396839941,-447.5044369323699,10.103841539680417
786,5.908276367666824,-16.78166172983432,-460.0023920147445,10.221725620312782
787,5.668259578102147,-16.06310132391288,-471.7775986806989,10.387554996005465
788,5.807977088159258,-15.311601484277357,-482.80098485550275,11.021509695164452
789,6.0453199558239,-14.520274002865218,-493.05074008096545,11.832326253311479
790,6.017981556198493,-13.692324362611053,-502.5122792798529,12.433971017527675
791,5.829644476724016,-12.835502703128371,-511.1775425593332,12.883482990881738
792,5.660351093035404,-11.959327031714428,-519.0389340307389,13.320712373883621
793,5.6249448518149645,-11.06695477746605,-526.0979167146849,13.89132152714558
794,5.781718642143428,-10.15857231417256,-532.3791488001337,14.686461137036153
795,5.809514190655344,-9.237847582962663,-537.921669441213,15.32455279111454
796,5.412845571255235,-8.304078699956404,-542.8068882922855,15.449842223553825
797,5.002967031951489,-7.34751763627476,-547.1238457488552,15.501007032215353
798,5.022217640052901,-6.3519939384108195,-550.8317903217265,15.964037425967227
799,5.164057229005081,-5.303446655027198,-553.7929144074982,16.560020230014132
800,5.052347395593711,-4.189407477038299,-555.9761242955007,16.91627998718218
801,4.788490336167267,-3.004287230749654,-557.5396942274684,17.057101209335617
802,4.5656076347944365,-1.763433199645525,-558.7555473144806,17.094776997463217
803,4.614419148146396,-0.49647838328968363,-560.0844406762985,17.279252952779313
804,5.0738771166701975,0.7729908429341098,-562.1933322455078,17.797549880055968
805,5.47378820657237,2.0348268402089302,-565.3163817321343,18.19706031462249
806,5.342514876776138,3.2898547452772244,-568.7856184387451,18.021695360430627
807,5.083076674676719,4.5449020582301385,-571.5429265965115,17.6751961879727
808,5.182143223437769,5.810710445481759,-572.7544242499565,17.648489611907575
809,5.398553530555216,7.0891394473556915,-571.967023302599,17.761392035313076
810,5.405777605666763,8.386995229675623,-569.0412071310543,17.740361104480833
811,5.19683735735557,9.71728548630903,-564.0187701300947,17.557427727643443
812,4.85548556675673,11.094644781362295,-557.0082520251786,17.250265581561823
813,4.701414007371252,12.51413506700806,-548.1302913822603,17.085612265541684
814,5.000890948137517,13.940678743936958,-537.4731652223018,17.29705374765829
815,5.338876314322392,15.333061564802378,-525.1105210216897,17.530297602396278
816,5.256948208223324,16.68498668873887,-511.094925354827,17.403192879278556
817,5.050891707448389,18.023402611586672,-495.4716680026628,17.18751699526639
818,5.099399756066943,19.37558689349725,-478.28360924687604,17.227617548882854
819,5.27385064831024,20.7505976827378,-459.5730887310429,17.449571530333518
820,5.367292067612516,22.13906842103893,-439.38397398414793,17.691990479335054
821,5.258874251676954,23.52691028847681,-417.7605042685176,17.79675955115835
822,4.888952140367419,24.909042331167683,-394.74726164825864,17.649834800251956
823,4.547819630127113,26.292437857896058,-370.388595555911,17.482743483399517
824,4.5209619709175115,27.69425785157407,-344.72826591295734,17.550035072373273
825,4.507229738808364,29.133267435007408,-317.8094118350222,17.643987975798975
826,4.163646743099565,30.62241964199583,-289.6745289823836,17.51649257338144
827,3.6986010637422946,32.16370585799659,-260.36543559233564,17.30749349304564
828,3.428925442387335,33.59510636727862,-229.94597590256748,17.243131634899285
829,3.2060420578000848,34.57141305269355,-198.52771948672117,17.157872130848794
830,2.882611363903404,34.925839695124054,-166.20656709675822,16.911650381485646
831,2.1445376605730226,34.74242303184608,-133.01324363332944,16.171851298211546
832,0.8059061642363125,34.15415937193447,-98.92966202306644,14.741192675990344
833,-0.45516779048865075,33.318836408393366,-64.02322167103496,13.293874434560738
834,-0.9304082310788473,32.449749309748334,-28.49071912100428,12.536905351166235
835,-1.026127071846175,31.74114498335513,7.525863470928202,12.075951575824803
836,-1.8440777275485525,31.460941613093347,54.54466908540095,10.6536796210773
837,-2.7319190137839713,31.27620572463058,100.85776001380391,9.094883326548272
838,-3.4424363870757535,31.099086735000856,146.38433584990992,7.647676418739686
839,-3.96414241265959,30.868377001805438,191.00420206749615,6.392334966261548
840,-4.363014592032889,30.557289482540167,234.59017117907095,5.336406656214733
841,-4.999241864165563,30.163030235569632,277.0559517315482,4.132244580146233
842,-6.183669447507144,29.696419701712266,318.37908296433204,2.4435935700851577
843,-7.392504420689211,29.193695437277004,358.4887076773713,0.7100057333636394
844,-7.9785577454249115,28.718481453494938,397.23585799028456,-0.5002817654976514
845,-8.168281278418583,28.31140245661005,434.53702666255333,-1.3497703547185966
846,-8.411300514468163,27.963817822554738,470.3914538256456,-2.19456656518495
847,-8.765401113268773,27.634101374010775,504.7755394736386,-3.125830637554255
848,-9.187740252220708,27.271953443968926,537.5451096942217,-4.161172439196138
849,-9.505613724844729,26.873674185157522,568.3788708803818,-5.142837847129982
850,-9.528306765185345,26.488570249885793,596.9817921928426,-5.86839704143471
851,-9.55923565329604,26.144829809255423,623.3990166378358,-6.549458800730407
852,-9.971549493726862,25.83755114319813,647.961320125225,-7.4651991548756635
853,-10.473172675492007,25.56180928219183,671.0244164749129,-8.365651004884443
854,-10.672008152064375,25.282537446935383,692.835584702363,-8.94881063939196
855,-10.783814074543209,24.93171027365973,713.517052444746,-9.46634338330347
856,-11.107120805524952,24.473072445869835,733.1018983933916,-10.222806453096302
857,-11.579017286486359,23.92086171043782,751.5819305676657,-11.145177400045487
858,-12.041832499469391,23.33921149586088,768.9341060147274,-12.036317521057823
859,-12.203224732835327,22.823754667084234,785.1375386550399,-12.505365049655842
860,-11.84771079894763,22.423028407036693,800.1836363029588,-12.268848840184823
861,-11.461514882904034,22.114593525791644,814.0674984353295,-11.91541956510782
862,-11.62376319310511,21.82633737018473,826.789542847716,-12.16852732258098
863,-12.09416863340472,21.470252842751897,838.3523324827551,-12.816796305544655
864,-12.415191669145727,21.040652222920702,848.7583835372749,-13.380100111144863
865,-12.523911768561804,20.623106643756838,858.0101462293279,-13.75373176050418
866,-12.458139223345801,20.273734914370156,866.1094965143176,-13.926860774693827
867,-12.344944465372569,19.972835101710004,873.0581411003188,-14.036685312546885
868,-12.334888236856322,19.670814411904068,878.8576768167518,-14.273976554831112
869,-12.139468477247501,19.335450296752146,883.5097303715336,-14.372107949979071
870,-11.44131069595197,18.953164179371882,887.0160535263882,-14.022934379746745
871,-10.639466187286255,18.529081990033788,889.3785072107229,-13.618837286224359
872,-10.227560010831539,18.08992788399151,890.5990756107243,-13.628015436819137
873,-9.99818262743998,17.675395603960183,890.6798688772542,-13.796553713328176
874,-9.60203554445582,17.295475581785205,889.6230988478005,-13.734230203399111
875,-9.043805258963724,16.922386145464557,887.4309481686591,-13.45472895342411
876,-8.415605568576296,16.531488328723402,884.1057958513609,-13.072221807104574
877,-7.945332529335001,16.124618995101848,879.6501182202741,-12.8012698010305
878,-7.843251944091437,15.728500290744233,874.0668152882857,-12.827875226998176
879,-7.685136895162337,15.372399725252416,867.3581935035809,-12.711305588371086
880,-7.005352215979002,15.047570688022256,859.5249301045443,-11.978412611157681
881,-6.314526508528914,14.710001121245096,850.574546374369,-11.147275203485531
882,-6.254225923607961,14.347492451250584,840.5056253715404,-10.886846826341145
883,-6.566259944182165,13.99757675441451,829.3220799822109,-11.000765675286736
884,-6.777647885793241,13.6912915131911,817.029857585603,-11.072908290245477
885,-6.715887748962555,13.42188676869048,803.6410751636672,-10.926423694540697
886,-6.333187264178688,13.150578723088993,789.2386751862562,-10.482279144709084
887,-5.990473437178753,12.835831441960256,773.9861972207801,-10.080841418699817
888,-6.098228725848249,12.47484064769007,757.9938965792525,-10.117780696951694
889,-6.2471296945083115,12.100565264678124,741.2932653738909,-10.18587052195467
890,-5.898642655255329,11.741762487475464,723.8958858369487,-9.758537384487267
891,-5.385147716266726,11.402182880033871,705.8037828291926,-9.170882059230417
892,-5.192879578931618,11.071684502829942,687.0275803515073,-8.90685130970051
893,-5.242795908499531,10.733177755331047,667.574307546656,-8.878628852160293
894,-5.320244203520557,10.377746156313481,647.4570617643341,-8.862817601588247
895,-5.243368102989626,10.00034570067968,626.759560079382,-8.68824037154773
896,-9.031700176495267,10.056021036271877,321.18097897394597,-14.695048846725818
897,-9.098109598618656,10.13883824809143,325.80660470549043,-14.912359109909943
898,-9.62731492447436,10.242575525575381,329.8599017845867,-15.535792575084425
899,-10.149815308085236,10.352573615285156,333.30577170981263,-16.20545990869309
900,-10.149571549320891,10.449314227067797,336.19715929034646,-16.503533465159283
901,-9.925237173935924,10.536057058354867,338.6077183638943,-16.63047561627899
902,-9.881829903334765,10.621382425754245,340.59521696860753,-16.871158901586963
903,-10.042588357957467,10.705055484290645,342.188195683144,-17.266015100633652
904,-10.327976541403226,10.780149449070251,343.38677476643943,-17.784193848599713
905,-10.441561870857516,10.828611850476795,344.1657683326706,-18.18358090449692
906,-10.141424183942677,10.831539618550757,344.50298406904767,-18.251889140208874
907,-9.895130031135649,10.776753103480466,344.3817572448174,-18.33072979428253
908,-10.192301969865758,10.668718851369384,343.7742482632175,-18.783053683427937
909,-10.663906861891814,10.544682930887396,342.6482007306558,-19.32921268124854
910,-10.844844867639369,10.445929957786545,340.9889012323751,-19.623486280124183
911,-10.85945787363047,10.389339560349917,338.81055728107384,-19.75943944779703
912,-10.936321216331315,10.372112268458267,336.1754520419089,-19.908774595275595
913,-11.213652530171519,10.36651938085456,333.1602049059135,-20.1931198095728
914,-11.765222800950728,10.3392715179922,329.7418529149449,-20.680450540507515
915,-12.277795288419496,10.282065199335355,325.80796457653054,-21.09937255394953
916,-12.434477415788653,10.19653607372255,321.29020214296105,-21.18246162970495
917,-12.544520264553892,10.080191422095657,316.19960632094035,-21.211278766210285
918,-12.968864165906885,9.932500700701196,310.5910762785341,-21.508811871193334
919,-13.491363433143421,9.75052357688359,304.52447312427273,-21.89831147454604
920,-13.833164582087427,9.532678987753364,298.0218855754878,-22.13862331985213
921,-14.02723770938612,9.29209636197721,291.0748389550333,-22.21461250915452
922,-14.16929275757142,9.043345940888473,283.67316355959707,-22.17425181534625
923,-14.43235305044997,8.781766712861504,275.81230528584615,-22.220592691843343
924,-14.943334320322379,8.504401739770847,267.5014568528052,-22.520650384066006
925,-15.38471674447672,8.23338838326269,258.76264639962454,-22.766668344726334
926,-15.439397135882787,7.989871768562469,249.6192338109809,-22.63675470445095
927,-15.4005222089073,7.773406340027653,240.072815521202,-22.38297023644362
928,-15.615380768621755,7.571380056499952,230.1052141699997,-22.31729447772254
929,-15.957856731175333,7.3599919359203305,219.70118464935052,-22.34979461510983
930,-16.22045212606937,7.114815541822645,208.85111675752765,-22.325448514937406
931,-16.286965014120135,6.827041598523473,197.5679271135309,-22.143686319494098
932,-16.110054038098156,6.499425564854591,185.8729761785378,-21.75363257398535
933,-16.001810797616816,6.142476336838545,173.78058344554785,-21.44599467513803
934,-16.254920786929873,5.769467455468671,161.29806270445093,-21.478477781459436
935,-16.50119447109984,5.388890204541179,148.41870332425256,-21.45473152681644
936,-16.33763082437869,5.003974036945303,135.13644454419816,-20.95505205627681
937,-16.04269197744744,4.608986083935807,121.45445815516568,-20.24626127096635
938,-15.966694358585833,4.197846859325692,107.3920432140794,-19.686320553619627
939,-16.052599585838156,3.778908736545206,92.97031105378927,-19.266173123095413
940,-16.162604899595856,3.3598382094865626,78.2081086517164,-18.89124419585277
941,-16.0944780661308,2.932457943334835,63.11928679651256,-18.356739672958817
942,-15.707488543144605,2.4836281309679533,47.701114107627184,-17.49838192556016
943,-15.418384866041823,2.0004694961313274,31.933655678381843,-16.685604101010636
944,-15.620865008472084,1.4745855818746378,15.794256968848268,-16.27991716887221
945,-15.839093937361975,0.9130539531720593,-0.731519832550152,-15.870823530307266
946,-15.543006679220463,0.33008332558112247,-17.660938140446717,-15.000605950189902
947,-14.993496902636956,-0.2656402964280488,-35.011736769019755,-13.89131872417775
948,-14.570100940502565,-0.8638262575710515,-52.74608394287577,-12.873544465254923
949,-14.329107710851275,-1.4478160522216346,-70.777162024734,-12.02938311022502
950,-14.227663900802145,-2.0030912781485997,-89.06806229222153,-11.353802491207045
951,-13.96449750465401,-2.519459505774319,-107.64718702427241,-10.590832691287103
952,-13.269234680428518,-2.9957701485372987,-126.53569346332598,-9.490249763469881
953,-12.545279507786969,-3.4498974569056773,-145.70802372909358,-8.349321434681176
954,-12.2308955172777,-3.9040401112059,-165.11593619488815,-7.501984259960001
955,-11.990526366859553,-4.367156531139372,-184.74508328731324,-6.677876824413742
956,-11.371732807525053,-4.81993968794809,-203.5408802208139,-5.52898040262997
957,-10.664195358923342,-5.2150877877760955,-219.26951019523133,-4.353071429312461
958,-10.188018246686648,-5.527192442652981,-230.96087875002854,-3.4402664640271365
959,-10.089410551578512,-5.759835267470241,-239.4608961093286,-2.910237913860146
960,-10.3692280021074,-5.944013984787505,-245.99879450943078,-2.7366124075750906
961,-10.479270658593641,-6.102106464951783,-251.51078172039522,-2.393581997284519
962,-9.890155538663281,-6.247388283206083,-256.49281441594394,-1.3958369897124732
963,-9.048913271243169,-6.381354289466887,-261.11295959351355,-0.18295282425242265
964,-8.816030150432523,-6.604583105043142,-267.6290241241127,0.35183729006928166
965,-8.72474396847015,-6.802723540341162,-273.45186701671497,0.7083930981654043
966,-8.38418669454553,-6.977951069565814,-278.5387459548984,1.2083962461920916
967,-7.830075869977989,-7.132189453045628,-282.9651605103281,1.8688845408163526
968,-7.208149870968333,-7.26625128092553,-286.947120992687,2.6201390591190754
969,-6.756539067959514,-7.372552888584903,-290.73873909601855,3.2432365153706795
970,-6.677127687058107,-7.445231814253984,-294.4805377504548,3.528085526055706
971,-6.541815246348936,-7.494521733579948,-298.11550530952553,3.820804668173375
972,-5.8714080472005605,-7.535799314041311,-301.45769886455145,4.525288259976239
973,-5.139332138222016,-7.579394031819992,-304.32304275230223,5.278419217836095
974,-4.967709649702369,-7.6314538306888835,-306.61008983174025,5.599611475728289
975,-5.133772235233455,-7.686475472853366,-308.3404847505896,5.664229923073215
976,-5.219161836785458,-7.734085784748225,-309.59806101681,5.795354577403155
977,-5.128704409702409,-7.780157274238746,-310.4068561891013,6.085117813408189
978,-4.854259020417206,-7.829728607359598,-310.7219964482765,6.550154119947183
979,-4.620922912181689,-7.8567024611226515,-310.50292577681114,6.967594112328804
980,-4.680412785198932,-7.836467292213811,-309.7398156085915,7.0851979051080605
981,-4.659313620329598,-7.783307072299034,-308.41829227652846,7.185831089368579
982,-4.122092047205055,-7.725463130361307,-306.5066778059445,7.622293299234967
983,-3.4467784014600937,-7.687492111400684,-304.0320098655078,8.121612511201313
984,-3.150122555723585,-7.684583209310448,-301.132622093842,8.30381677828276
985,-3.1463326987881626,-7.7022685755373725,-297.9838828229686,8.226705100818851
986,-3.190996287608321,-7.712498052174196,-294.7184716761305,8.05965228416075
987,-3.1278577110777386,-7.697419540645043,-291.4042481080217,7.933831872506237
988,-2.844478634111258,-7.648871724261429,-288.0429064351276,7.953264026874843
989,-2.583293853208841,-7.5740467686008754,-284.6220042711281,7.908851358908011
990,-2.6433269974158917,-7.488959784593086,-281.1440852171279,7.557164928285725
991,-2.7545694293679914,-7.4031192561495685,-277.5762220947276,7.172899905090767
992,-2.5561518511010015,-7.321086884780951,-273.8449017152844,7.105522554247067
993,-2.235761215729124,-7.244828582470842,-269.9126885863856,7.207511892754952
994,-2.0768149061266215,-7.171229926556091,-265.82320249120716,7.221979218030312
995,-2.053193780189673,-7.092937136409501,-261.659816647328,7.105148551338995
996,-2.0633937751786156,-7.003025811094909,-257.4732902683753,6.876127587089657
997,-1.9318333845602376,-6.89732412048853,-253.24343717320016,6.697639197891043
998,-1.511825153341595,-6.777382206628705,-248.91519530561513,6.737979357662132
999,-1.1176442622683365,-6.6556050854899915,-244.46997554091382,6.7418935077589754
1000,-1.1067972232683216,-6.546087717286394,-239.93026495707926,6.4111511517676405
1001,-1.1886511310224268,-6.454526394128774,-235.31290948685924,5.998785176062693
1002,-0.9608337565138478,-6.378358837181144,-230.60832392230978,5.850354321255106
1003,-0.5112780007208942,-6.304260212305189,-225.77505388056386,5.911792510865558
1004,-0.05832840026734468,-6.2160602816504555,-220.756194658926,6.020365676861956
1005,0.2099677505729815,-6.1070488305523565,-215.52324463058363,6.015211510479868
1006,0.16421412516905481,-5.980108623755103,-210.11219772450514,5.772780575218558
1007,0.13890596100354774,-5.843756882069167,-204.611930420192,5.571004585729776
1008,0.5247413655207369,-5.712491618459315,-199.09900730697856,5.728463835964029
1009,0.9903701414644253,-5.612377551520697,-193.5924582607768,5.918174010144994
1010,1.088029692002689,-5.559484170845704,-188.05871770046792,5.721495347215916
1011,1.0506687536942676,-5.533452974869436,-182.46242428173517,5.3521165460754005
1012,1.2312905854051257,-5.498638559262387,-176.81855821928008,5.145260891526243
1013,1.6072908941235693,-5.421707708301497,-171.18904241059312,5.112378106912186
1014,2.061246142443336,-5.282962640397635,-165.66069306455105,5.171112401923835
1015,2.3638463668061354,-5.1012907273161225,-160.2945181238339,5.092134963649775
1016,2.3111713970654697,-4.9122837186304125,-155.06623661992248,4.6607964580901795
1017,2.289090659284523,-4.73916953610665,-149.87049222374938,4.221461225739357
1018,2.738538508413263,-4.593802347642747,-144.5919918021508,4.188343894663388
1019,3.2312551955234214,-4.465941134411766,-139.18430062370317,4.243225489596492
1020,3.2103204984456246,-4.337883979370004,-133.68886691570603,3.9459359029167724
1021,2.9110730767325013,-4.213433802245429,-128.1771429143078,3.4537557363719014
1022,2.7309808397409716,-4.102771838781988,-122.71522036259937,3.046865488670209
1023,2.722416900695192,-4.008107733291536,-117.34747045163442,2.788937247284712
1024,-9.819087332162749,1.350266639634495,2.2793655495792637,-11.010521107128238
1025,-10.09703812894152,1.414746660703378,2.6458304293063475,-11.280197694116703
1026,-10.717059221820074,1.4739707770439854,2.8874626901841958,-11.802781592350472
1027,-11.26938050664535,1.5538354719197387,2.9964261759792166,-12.245781674823876
1028,-11.326659559590254,1.6727520942581147,3.0107379946228905,-12.266790136951784
1029,-11.204123538992153,1.824353013455086,2.974122907488304,-12.152201422228107
1030,-11.302718998365519,1.9881878870157175,2.937354345314204,-12.248659987274873
1031,-11.576135593315843,2.1335437554141206,2.932471653600605,-12.501606905231174
1032,-11.881938838724418,2.235835548010972,2.972662719115595,-12.764906288500189
1033,-12.012459216623485,2.301772694560052,3.068115074627447,-12.832302468756145
1034,-11.81721815859848,2.350559207731513,3.215244662027532,-12.562793825391994
1035,-11.707888494931133,2.3924392532241745,3.390252437426451,-12.336361732637181
1036,-12.080831215984512,2.434004863200148,3.5745757808114105,-12.53704240351501
1037,-12.469621211758454,2.47957248807852,3.7227574622196786,-12.807151745405514
1038,-12.355178709784806,2.527522230159075,3.833768211689539,-12.72861759187474
1039,-12.005133513971051,2.570064722165932,3.9327269086026844,-12.523599281910542
1040,-11.797862105428818,2.603574763640263,4.044639209773351,-12.487964698231819
1041,-11.78318019101334,2.634667225811318,4.14437244503762,-12.625936805015801
1042,-11.909166586724691,2.6777448019298795,4.194115865594888,-12.859321380543898
1043,-11.849460405637666,2.760614753920278,4.1709399572049355,-12.90935565480733
1044,-11.328602766991505,2.902098866056812,4.072733619358642,-12.550000275150069
1045,-10.817646110665953,3.0828657616656048,3.939707884038879,-12.163816734081525
1046,-10.828113412954696,3.270354172721366,3.8262709745286148,-12.169923162058332
1047,-11.030189152211552,3.4449827824866768,3.7630890248830418,-12.307188855887365
1048,-10.994112021635534,3.5945576617371673,3.7559424628727154,-12.2312151605849
1049,-10.855219830842966,3.711315709854357,3.791842202477646,-12.044151291403827
1050,-10.822895046543392,3.8000537149354776,3.8290872200392396,-11.913114687811623
1051,-10.962852608842983,3.8842901734214266,3.7821991209495875,-11.918014278531775
1052,-11.28618769385868,3.9853448322760303,3.5823757642424514,-12.096879033132883
1053,-11.499217232254665,4.102662870088598,3.2389159559011125,-12.212160296430183
1054,-11.339577716309833,4.222973908588797,2.8069748178047296,-12.042195673211824
1055,-11.177901438268345,4.323783110148403,2.358804876842265,-11.888772132070795
1056,-11.421191319969546,4.384148224573034,1.9655606091221296,-12.075790291468588
1057,-11.823709604227908,4.4043749228901685,1.6713929258946498,-12.378773300584216
1058,-12.05841884936163,4.3935536093844325,1.4769316950367715,-12.511440851096095
1059,-12.172372297784351,4.353511442258357,1.3262728835609543,-12.501785985422831
1060,-12.282582336648874,4.287424343920638,1.1442933429764486,-12.452767326373023
1061,-12.539271828913687,4.203280097101699,0.8767491405491505,-12.544557469567506
1062,-13.042314187356947,4.107575644680168,0.5004827698534932,-12.909632833464912
1063,-13.471551824912117,4.008133827270904,0.036168674489318986,-13.253242391684923
1064,-13.505661704536733,3.907230925521792,-0.4666204634903226,-13.262834178401018
1065,-13.414251683864947,3.786581347031224,-0.94945066638684,-13.160995529921326
1066,-13.52906483013596,3.629623772519078,-1.367078959330069,-13.227527466300788
1067,-13.730680394534515,3.44733658640329,-1.7127182306860351,-13.355219723784924
1068,-13.832830306312802,3.2586235357607505,-2.006357892553473,-13.377581623406705
1069,-13.762813980052147,3.0745450839279505,-2.27995017406138,-13.207146055884024
1070,-13.504485979187073,2.9025425732560333,-2.564180716089544,-12.806708592021772
1071,-13.350296362570617,2.7414507413196527,-2.872122619013047,-12.42030849714496
1072,-13.550861895726205,2.5864542684998693,-3.1976102895860334,-12.27555480004296
1073,-13.685367356102198,2.441514433882939,-3.514177221995114,-12.062583447094386
1074,-13.316038463090116,2.310335957213149,-3.7939426349651986,-11.456671742341117
1075,-12.760547378626335,2.1861925052874387,-4.027564933444482,-10.727368015072733
1076,-12.42266166701237,2.0616215616362457,-4.223478163201898,-10.199965640927882
1077,-12.237797924023834,1.935021173867932,-4.411148608211379,-9.820335302832625
1078,-12.044507966385183,1.8075053709496658,-4.622480221711598,-9.447908236780366
1079,-11.640175527373051,1.682653333173766,-4.869075696977663,-8.884663564865141
1080,-10.880811213581534,1.563166075206186,-5.1463485197584316,-7.990070631945175
1081,-10.166342216945367,1.4479601548173477,-5.436293821169554,-7.115873691120133
1082,-9.883181814219377,1.3304330250133451,-5.717959774677002,-6.6153681846141446
1083,-9.564022661608696,1.1948981703790638,-5.978711611766857,-6.11817613676535
1084,-8.637876140991443,1.0385955510657394,-6.230040934590957,-5.152446525794536
1085,-7.6315552326121106,0.871140409995642,-6.517652891783199,-4.167862013269504
1086,-7.059377473091866,0.713796974079359,-6.890135722762428,-3.5811522140653387
1087,-6.844205644557322,0.5823323432645124,-7.34795220262442,-3.3334045506527934
1088,-6.715427977393757,0.47773865683707833,-7.875013864777919,-3.207504949794795
1089,-6.278436157869508,0.37184840449420065,-8.501667217813885,-2.847227449629852
1090,-5.238776344957943,0.2319771402945725,-9.292336064431028,-1.9777489265407193
1091,-4.009545750308606,0.05236444738054659,-10.219755307695136,-0.9544770655930762
1092,-3.51736797259081,-0.28384656000522357,-11.093627509412325,-0.6201289468989144
1093,-3.168395008044705,-0.6369202028283218,-11.814805222445184,-0.4099712682069093
1094,-2.6110738899444246,-0.9979886437145756,-12.328908611469636,-0.02123219061287107
1095,-1.9371809385552106,-1.360470128080063,-12.652598386190904,0.4828689824379536
1096,-1.3315675383580303,-1.7204394496334814,-12.832075831025298,0.9556040927836756
1097,-0.8805490005677605,-2.075342459817673,-12.934043812196292,1.2876120894922352
1098,-0.6219488684388926,-2.4234917353350567,-13.016974609392099,1.4083647707608107
1099,-0.26271092444714694,-2.7591170424133242,-13.125691668853374,1.5953749562609816
1100,0.49763960404263274,-3.0772038723170674,-13.280308318828608,2.1453840622679574
1101,1.2782013886980568,-3.3863498386166335,-13.45801207870345,2.7230449602058506
1102,1.6085800058141437,-3.695146919740032,-13.623621933614967,2.9058470446887914
1103,1.7598192982126848,-3.990864887009819,-13.785466165723927,2.923064966018529
1104,2.141776736297538,-4.259219864424096,-13.948045824892903,3.1257299548582695
1105,2.715275788710895,-4.505723465829724,-14.100993540895637,3.49524790155412
1106,3.3225370674801495,-4.744047202335844,-14.204261076322041,3.911340915992811
1107,3.7333761811400117,-4.99134391531117,-14.22873421633472,4.146368122592211
1108,3.753534346908304,-5.2616756905504944,-14.185546005801354,4.000694435217357
1109,3.767044804350491,-5.547432015611455,-14.11168721006363,3.833030728675848
1110,4.2231815559794015,-5.831362228167107,-14.040769821624062,4.0696520818312525
1111,4.734114056767101,-6.107675855505814,-13.963557709230287,4.374075586848724
1112,4.77969553442057,-6.370442359435565,-13.836180088335993,4.284335569186689
1113,4.582967846135864,-6.601515552095192,-13.639570080394083,3.983436464760301
1114,4.514989718026671,-6.782777386627965,-13.399046730959059,3.786577594806988
1115,4.621747270932337,-6.905639488268233,-13.139587985862244,3.7507175979032388
1116,4.851487274605712,-6.968934884244628,-12.894917590339192,3.855460848310463
1117,4.923185760279322,-6.9784071013637226,-12.681620834871016,3.8729737505053357
1118,4.559557063967731,-6.947377049131531,-12.500710173344626,3.564967967965812
1119,4.153036415869491,-6.895557044467326,-12.348981605816153,3.235105335061622
1120,4.18996811189835,-6.842873319876033,-12.214913032943752,3.2631935396953775
1121,4.363268084977168,-6.803078757721869,-12.079739213612173,3.3920141637240087
1122,4.221885138537439,-6.782031173208547,-11.932467581016182,3.2517056563853903
1123,3.876061536957194,-6.7778886290393245,-11.734397896326577,2.9291497176394286
1124,3.5631822749409654,-6.782783979726595,-11.483336372048633,2.6098866022688516
1125,3.422803546268178,-6.78071149625478,-11.202194756859889,2.387804515314734
1126,3.541571137116301,-6.7584765752142175,-10.924814755526329,2.314445682809605
1127,3.635529182788976,-6.725777797592199,-10.646265007452106,2.1438266019262713
1128,3.3787816530471626,-6.696610813919514,-10.363877541556382,1.6153664260022322
1129,3.0781797391682297,-6.662701850381251,-10.09441129865599,1.0407985194625036
1130,3.1419183400904016,-6.610845077127902,-9.870869262656536,0.8202506111771619
1131,3.3675253556898617,-6.538868368656154,-9.71142353975253,0.7934947670864543
1132,3.437902823586928,-6.4495793953168095,-9.587304953298082,0.681428789240049
1133,3.3643417753355065,-6.352791730433009,-9.437193495098054,0.47262378730839527
1134,3.2435418634805506,-6.260721232621318,-9.224222999995723,0.23171621599183023
1135,3.2697718032907517,-6.175853331307687,-8.947021408430736,0.15381892857225943
1136,3.61517185138864,-6.096782212298855,-8.600182318657476,0.42260289467232015
1137,3.9695696984503823,-6.024978637992737,-8.164600451787383,0.760351346757784
1138,3.962389548022378,-5.961373501483726,-7.657994684483808,0.819753470438761
1139,3.8532210203018087,-5.907827755113463,-7.125791519824885,0.7959887879344443
1140,4.016680215090759,-5.863024609459,-6.636449246453423,0.9877048408112564
1141,4.358389165491206,-5.814263064144467,-6.204742242001619,1.3234665643788657
1142,4.678832533415677,-5.745385637137874,-5.848882167169587,1.6506025285369974
1143,4.86776859885941,-5.646502794724187,-5.620587877688981,1.863192448490763
1144,4.862210227838638,-5.514914264202378,-5.514047446783142,1.8872773955583177
1145,4.943913604377888,-5.353964832618704,-5.4339005787643755,1.9535628490490495
1146,5.410060184811325,-5.175967422506577,-5.266553085675374,2.3138002198978143
1147,5.8795987655500594,-5.007994202885365,-4.986263666256999,2.6551564610585885
1148,5.883553051085711,-4.873596208348563,-4.614165546401403,2.5978586465200197
1149,5.682124736889814,-4.773042238293684,-4.182715703598234,2.382803389891963
1150,5.6787528815055675,-4.690757796944121,-3.7386491133985404,2.362255183110735
1151,5.860709010542355,-4.596869032075503,-3.3168145276577667,2.513192724086099
1152,-5.842124569608344,-2.5080925806860432,-8.379430044594855,-3.2939232263807368
1153,-6.0398197186800795,-2.7299863031468052,-8.738096557799063,-3.4843736680759037
1154,-6.513820729795535,-2.9631222121058896,-9.085611318319625,-3.9786140265658627
1155,-6.974845308554663,-3.205547760140789,-9.400221777429289,-4.466361758420044
1156,-7.114307856577215,-3.4509995602464305,-9.673610176129817,-4.621386831410374
1157,-7.1998964049450915,-3.685707987931879,-9.929666397031392,-4.6688587098805545
1158,-7.543729032717172,-3.895111018286993,-10.22733130397973,-4.895241208072436
1159,-7.942837243920679,-4.061048980163388,-10.617544613848182,-5.153179411070189
1160,-8.156078566173152,-4.178237444875605,-11.089865728565321,-5.255244290368949
1161,-8.23784790372365,-4.280330338249918,-11.591962627709417,-5.213419887306005
1162,-8.30177407901151,-4.406028544581117,-12.074209121316882,-5.091410880422603
1163,-8.555446679972006,-4.562102528669896,-12.516501867333456,-5.097481220298049
1164,-9.131928696363392,-4.741431667345928,-12.946433311246613,-5.395614172336372
1165,-9.625511347023306,-4.9359392829623046,-13.41527909322643,-5.6875611923534555
1166,-9.636053438896527,-5.134645109952286,-13.911499679100121,-5.65983196665912
1167,-9.489060796995076,-5.3259776742952205,-14.36122046490442,-5.5463583251109485
1168,-9.591052928248915,-5.505833080183056,-14.723774988093803,-5.635021091764035
1169,-9.843763957094966,-5.691797630759899,-15.006724386404189,-5.843417486964737
1170,-10.045126668470466,-5.892273204656042,-15.227178535081269,-6.012953376953379
1171,-10.003062101778614,-6.11436554855678,-15.410926828667893,-5.965481187356094
1172,-9.597136622238102,-6.336093416977403,-15.58791693442075,-5.582066495117189
1173,-9.21623795551715,-6.549250759473154,-15.771161332007395,-5.186054579430207
1174,-9.236218992248762,-6.77287136196012,-15.953142194783576,-5.09124304279875
1175,-9.224096384326286,-7.0117125112980485,-16.12232972684186,-4.9277289648613785
1176,-8.694954987681884,-7.2377554749226745,-16.299634416919364,-4.295283772644985
1177,-7.906648766842839,-7.41906999595153,-16.527625474981843,-3.4347029805735
1178,-7.231441327877099,-7.56138407372235,-16.81921565264291,-2.6978364572738265
1179,-6.739550993683688,-7.67344749100728,-17.11670477638005,-2.211474003801129
1180,-6.419944550130753,-7.769535353781355,-17.322716349799357,-2.0115416882673696
1181,-6.020358858690018,-7.836375892124883,-17.373226970606208,-1.8576559953958371
1182,-5.31082334547882,-7.854870862848395,-17.292185994668802,-1.4905790698462518
1183,-4.752814960424664,-7.831170687485117,-17.173793164679683,-1.2103781680882972
1184,-4.777704875770644,-7.774673870173056,-17.136382306354488,-1.31370528088647
1185,-4.803413394013988,-7.6744456790454185,-17.253495739231155,-1.3398436485666438
1186,-4.19983676389439,-7.534886968149855,-17.47421059945343,-0.8224672194625079
1187,-3.2578648733956572,-7.34354212997563,-17.621323753312844,-0.03172870139772033
1188,-2.4237178363710736,-7.121834399653996,-17.53530111533507,0.6403358061418573
1189,-1.8009494696508526,-6.9261953941431305,-17.235763047160543,1.0850516956487812
1190,-1.3913348615112924,-6.763085983453526,-16.87303055623117,1.2921475337523902
1191,-0.9017467663005122,-6.579214920522821,-16.5552096335793,1.509522484642299
1192,-0.052709828755935384,-6.365838177790318,-16.298824951878515,1.9835100740212641
1193,0.710325865613769,-6.177800226145553,-16.044872230254967,2.3570153882326714
1194,0.9291490808739548,-6.036853445187412,-15.714114128102683,2.259961947407839
1195,1.0366743306830164,-5.9343277350910215,-15.269733732734254,2.088851188790149
1196,1.5336796398803916,-5.852494413397381,-14.727777722557528,2.2643139151887204
1197,2.2562486724571964,-5.8146224592751405,-14.074962113433855,2.539178618960867
1198,2.9085103292290775,-5.845144285879026,-13.199435432636353,2.5591305197235323
1199,3.272719839518605,-5.935664539889521,-11.946948922485376,2.14428624018063
1200,3.225377920183861,-6.068103216166642,-10.1919545053895,1.2516503452662042
1201,3.146293512544035,-6.228766350814842,-7.919040735342675,0.31747372832409915
1202,3.4276645333105553,-6.401416791309918,-5.202996528708454,-0.22435277849286378
1203,3.723687843125692,-6.60759063140916,-2.0324710737404534,-0.704275656553672
1204,3.6029582615087525,-6.862428933990322,1.6657184063511394,-1.5582398986919497
1205,3.2156701678199493,-7.188945550857755,5.872304122706728,-2.638817789923297
1206,2.80368054156531,-7.6375213270356195,10.506039895340363,-3.7160192218788355
1207,2.407449958722792,-8.20333872145324,15.52492818967777,-4.7539965632079975
1208,2.03242856505929,-8.857428153966577,20.85770635695301,-5.763995883662204
1209,1.5187595759264043,-9.549408118151758,26.243066527944702,-7.007906180239825
1210,0.7338538845962934,-10.227041643926382,31.28661469840487,-8.684531169151736
1211,0.03161863392300801,-10.865672132875183,35.65309401705787,-10.312482763166763
1212,-0.17287114283681865,-11.475343206851777,39.13110549702084,-11.340532895084563
1213,-0.46527387932979364,-12.093945546232877,41.60736864630069,-12.271565245577703
1214,-1.3806112196585871,-12.768614292119636,43.05118047543893,-13.63549824627023
1215,-2.6767975265047577,-13.500570257952834,43.52742689259465,-15.30696235852549
1216,-3.9047134180129106,-14.267827387638137,43.14209606936501,-16.98386294502994
1217,-4.860326491734445,-15.063761949063158,41.991238181838575,-18.47272732640445
1218,-5.475050822305313,-15.87687084490676,40.15313852200581,-19.64852081424181
1219,-6.04296375449686,-16.67497923975558,37.67315571304574,-20.735739671716598
1220,-6.762421788273274,-17.398412093188913,26.241942242849678,-21.48665871682346
1221,-7.530880588802528,-18.071489485761624,15.085116897519534,-22.22866573415523
1222,-7.955782066109846,-18.69702870541278,4.187375512443752,-22.623158805639303
1223,-8.285715048355451,-19.303742167219347,-6.466136092294677,-22.878046939753837
1224,-8.871582572179317,-19.92073076021444,-16.886721241845475,-23.30086350166233
1225,-9.617808542652377,-20.53945041227123,-27.074870043036203,-23.856225510771782
1226,-10.319668027399405,-21.136626225044132,-37.03558139277569,-24.418507795669623
1227,-10.781023826013545,-21.696475051389886,-46.78917764253147,-24.8294257895168
1228,-10.86310635947868,-22.207731279193947,-56.35856128234342,-24.956643864169077
1229,-10.883355614926325,-22.67386976549642,-65.75297619525877,-25.046331161923526
1230,-11.221287451768454,-23.106331972158014,-74.94815415741515,-25.39080162599567
1231,-11.613945296278509,-23.504672365396054,-83.8950674465068,-25.750503722051302
1232,-11.683817187463156,-23.8682395227253,-92.56895647768997,-25.799058671070526
1233,-11.573338259803007,-24.210942260922256,-100.98096422776842,-25.638492876780496
1234,-11.536039164250079,-24.547773113894248,-109.15938917723958,-25.477930857355297
1235,-11.674356509529929,-24.88570062296585,-117.1069857479501,-25.453557061982824
1236,-12.019860321194972,-25.224708346351495,-124.81568168882026,-25.64781141594032
1237,-12.290351986398454,-25.55220552372479,-132.2750721404389,-25.81962525864984
1238,-12.178142949016664,-25.85312677242449,-139.47363540935558,-25.684321090982554
1239,-11.994157274187856,-26.124903755265006,-146.41471332459497,-25.49869831565762
1240,-12.142867231781606,-26.373522770966172,-153.10601624993743,-25.595028681544846
1241,-12.367461648867808,-26.609259959307906,-159.56026336596477,-25.733691798432623
1242,-12.306473178582275,-26.84342815921302,-165.7843893114979,-25.59058839162689
1243,-12.043867188874188,-27.08404556743126,-171.7822179967321,-25.217931852352844
1244,-11.770881110125867,-27.329797017634274,-177.57257778649722,-24.773389254018976
1245,-11.706738782285008,-27.562364922860592,-183.17493117850358,-24.4907108712834
1246,-12.010915557881754,-27.758326082276678,-188.59557434742442,-24.55822293131662
1247,-12.273413704364588,-27.902041953055008,-193.81268748654142,-24.621362646504206
1248,-12.032615482603433,-27.98760368099002,-198.78609389686852,-24.256278793138286
1249,-11.693921911721814,-28.02629125926961,-203.47860407252827,-23.78915131920053
1250,-11.80964268289115,-28.035673415732997,-207.8877569700045,-23.67136102329992
1251,-12.175579911244196,-28.021261849245363,-212.04046398645687,-23.702997359588746
1252,-12.426101515382449,-27.98248525749586,-215.95973228404696,-23.564281531209257
1253,-12.508001977293631,-27.91869368882385,-219.65780351759292,-23.242139107507438
1254,-12.451777634725628,-27.82712956330781,-223.1461962110801,-22.807842554240853
1255,-12.504109146137017,-27.706558482476616,-226.4216578695877,-22.502349574884747
1256,-12.915476044436236,-27.557140875048034,-229.4782233557379,-22.551183508691995
1257,-13.292708298010055,-27.376012295709906,-232.31634014653028,-22.60227296654464
1258,-13.169075508859663,-27.162598273788905,-234.94119990365587,-22.22385850068385
1259,-12.901345562044742,-26.925741482369897,-237.3651886956519,-21.6832707152332
1260,-12.987098360781618,-26.677124327832786,-239.59793659927308,-21.37904248324585
1261,-13.294033656010091,-26.424437813877095,-241.63248142168197,-21.214593452677377
1262,-13.54735882819587,-26.173014758673816,-243.45137102101745,-20.98561700327171
1263,-13.63052447417971,-25.923559793929993,-245.02966182843736,-20.587592470943793
1264,-13.490020486762962,-25.67366548579113,-246.34586202010235,-19.96577751697956
1265,-13.411433747171515,-25.427679559485956,-247.4004055490793,-19.3846841608938
1266,-13.70867588283555,-25.186551592381896,-248.20634467156873,-19.139615119754016
1267,-14.036632604693256,-24.92858746957677,-248.7763715760746,-18.955734360324385
1268,-13.949260737825488,-24.62968317598263,-249.12216756611315,-18.462803825153458
1269,-13.669437036677937,-24.290662836853247,-249.25208655705978,-17.843771822794185
1270,-13.552719618780596,-23.91979815109902,-249.1674767826604,-17.377042317733725
1271,-13.586631631924051,-23.51378302654524,-248.85907799119093,-17.014119246630223
1272,-13.660645619816608,-23.068020404465255,-248.31943357770496,-16.62489990479651
1273,-13.588687962830313,-22.584057304600854,-247.55158922218013,-16.023701060438093
1274,-13.198404326920734,-22.064307929341343,-246.5695103157192,-15.061633573024475
1275,-12.752574728073608,-21.50855435502124,-245.39847110201754,-14.019387346608378
1276,-12.583016358786669,-20.92140001981774,-244.05317704715847,-13.246438828768143
1277,-12.45088465148204,-20.316539025621175,-242.51526466213653,-12.551722243986514
1278,-12.025012076641236,-19.71090143376646,-240.72452925902434,-11.641374464982487
1279,-11.478198438471892,-19.12804904874083,-238.61903757564204,-10.642630768801341
1280,0.2274250979781311,-13.134522199240548,-449.8194161552195,11.447468472439015
1281,0.49843313976655446,-13.23069380703673,-464.05393807216666,11.78844678306927
1282,0.5508452585851273,-13.342216655303815,-477.955693293369,11.938042058674277
1283,0.6739103214901019,-13.474746136422942,-490.7643331172275,12.158399512543923
1284,1.1475055267129266,-13.622527274654301,-501.929378223547,12.712514838937173
1285,1.63400524202074,-13.778746257090289,-511.17861868005576,13.346722036545827
1286,1.761429569271895,-13.93587515073937,-518.4541647042768,13.766367798119242
1287,1.8348340239962748,-14.090339938765414,-523.8131222273441,14.18326517206454
1288,2.212382207563092,-14.245249367968635,-527.3511509363649,14.851916852727596
1289,2.765885241027951,-14.413347367650656,-529.1608308568012,15.701658138260594
1290,3.285288909454694,-14.606673740520678,-529.3171998894193,16.598518190299448
1291,3.6314267318389004,-14.822511976016504,-527.8782918002547,17.399770511684395
1292,3.7322942617613895,-15.052025739908132,-524.8910923293965,18.0062227873073
1293,3.8924698478007747,-15.289724422378626,-520.3971059308298,18.64481902193362
1294,4.40812213818763,-15.526690889363671,-514.4366804045367,19.550194416202732
1295,4.944531373919781,-15.750006042712554,-507.0499284511023,20.488446637994677
1296,5.125395168957764,-15.945940067092018,-498.27803884786044,21.193661777696835
1297,5.173155158004826,-16.092409747113336,-488.1622655366469,21.818899327430913
1298,5.385748798873032,-16.17635559978902,-476.74394215322803,22.56757776313287
1299,5.773582244978397,-16.219747029425765,-464.06406929034154,23.46006357535679
1300,6.2704123094610305,-16.244843088111207,-450.1631063362577,24.457064607098665
1301,6.642196013448996,-16.263422051460367,-435.08097032903095,25.351806782702468
1302,6.700395297808281,-16.262502396694718,-418.8569901234564,25.965743140805714
1303,6.8225149098332425,-16.231567447948372,-401.52996132034343,26.580278284305535
1304,7.390990871550729,-16.16441069090201,-383.1381600460504,27.482408278505808
1305,8.070190035647249,-16.08519171000863,-363.7193628050675,28.380601929087184
1306,8.453660886312262,-16.021247141099973,-343.3108595028796,28.945090683446345
1307,8.637038835269264,-15.971829850542374,-321.94945429689363,29.289574810008467
1308,8.81823613060464,-15.924614316529045,-299.67146999666926,29.61425922335597
1309,9.190077103995257,-15.86220394928947,-276.51274803627035,30.095845060262285
1310,9.872546624578048,-15.770461292852168,-252.50865020581242,30.830612600367186
1311,10.464122190280015,-15.658418250574012,-227.69406065878482,31.438449947735965
1312,10.580210851943557,-15.541118981925786,-202.10339045677225,31.55716768447918
1313,10.67616630765418,-15.422269940324725,-175.77057200665755,31.60458577170691
1314,11.261296005594405,-15.297709061118558,-148.7290750584866,32.04899693470223
1315,12.060345623165407,-15.149294035106779,-121.01191186796504,32.62572109274701
1316,12.686204658171066,-14.958545098322888,-92.65160126543448,32.97106991481635
1317,13.113940007646526,-14.727916289527087,-63.68028845119985,33.06236166056
1318,13.402407061976824,-14.46632668423536,-34.129376291391395,32.96627732092951
1319,13.779195869305358,-14.175053635770379,-4.030405455425543,32.9400041376871
1320,14.44030481588123,-13.851873287600382,26.586221541403933,33.195154189483205
1321,14.972451479495305,-13.491823950453929,57.69015616126224,33.31537663446728
1322,14.972689873252614,-13.085815235306814,89.2515202221753,32.867800998796895
1323,14.902906170371262,-12.61971040416645,121.2409597952705,32.20134749472354
1324,15.275392155223802,-12.083692734653122,153.63105138659023,31.747074654975947
1325,15.845651707948196,-11.48551081457014,186.4081595775147,31.35734797410559
1326,16.25000681093046,-10.839267817922192,219.60434915730147,30.801513337598063
1327,16.393988716092945,-10.14867907297774,253.29672041838091,30.032353868103783
1328,16.285760805233238,-9.423461037659813,287.55031160777236,29.055368887922587
1329,16.24418816253806,-8.674936153798214,322.387279361543,28.106420594759474
1330,16.573792526995796,-7.9222186019730145,357.7872231358226,27.39882476408029
1331,16.920894006027005,-7.175785056890398,393.69119238254103,26.61444551265253
1332,16.879648668556477,-6.420612435634992,430.0383061988104,25.41475774508612
1333,16.721864506671483,-5.6394448580095,466.7631146634692,24.056371614125883
1334,16.78483975291978,-4.812654025123242,503.76608855829966,22.85966807380296
1335,16.958337569141236,-3.9372411180624556,540.9650625996042,21.76016769614662
1336,17.059955320565855,-3.016701602177302,578.2998613704196,20.616030501125703
1337,16.962216377137242,-2.043360176808775,615.6708883693854,19.291319106713722
1338,16.594322830358845,-1.015398514964119,652.9682868430501,17.69342688895209
1339,16.222759117164582,0.04888424268136532,690.1089042287967,16.067150288945623
1340,16.204325351445416,1.0839640225982918,725.9062112519902,14.720038335004704
1341,16.010456101540843,1.9825246619230752,757.9956647634428,13.192394083461583
1342,15.222588709040835,2.7009175177636857,785.3903816948764,11.114561912085799
1343,14.271565334927779,3.2857685454680152,809.0171357504795,8.926650122487173
1344,13.721329927893375,3.8124095614025,830.1964965375616,7.187899060584661
1345,13.540520254253215,4.338780579103333,849.8761740734299,5.865381927163073
1346,13.506135676867203,4.912644157632062,868.4634241843561,4.727129907129525
1347,13.29069271859324,5.534678074254068,886.0087572991399,3.4333485695053856
1348,12.394560197554405,6.299839043008491,900.7246688911564,1.2596313804588113
1349,11.40563024246537,6.984871032542927,914.2011460194645,-0.9040861450943938
1350,10.817665098297661,7.656986940391238,926.3640979769941,-2.5184384364935473
1351,10.331352492601239,8.363316475743652,937.1654608628495,-3.942648868780214
1352,9.509052232184246,9.096808834246469,946.5837273122709,-5.711135123785296
1353,8.51786507239802,9.828928241612898,954.6139928687985,-7.687184542814343
1354,7.6437342575478375,10.520774665757628,961.2600717753062,-9.590577797987617
1355,6.977277031806005,11.131546121761277,966.5280511324372,-11.356232239364527
1356,6.535983360645173,11.668681291354709,970.4219175392848,-12.96312986428678
1357,6.058966956710751,12.192130394921017,972.9450774621973,-14.611402102581156
1358,5.255791184825563,12.737314680988314,974.0991529824176,-16.512883741165393
1359,4.392666927056045,13.284043042565896,973.8851580135633,-18.309462600084725
1360,3.826790047693265,13.792811966467907,972.3039574756573,-19.58555621233605
1361,3.340698078096466,14.243145639918742,969.3564454433272,-20.634693641144374
1362,2.6228048705386304,14.642819666842314,965.0439310758944,-21.87727252690588
1363,1.7266248857476914,15.01209853734657,959.3674963958636,-23.252993777813707
1364,0.803374474794141,15.364091743258163,952.3288568406635,-24.571315446360774
1365,0.059871585554546296,15.710513813607058,943.9297055462564,-25.63155795839698
1366,-0.3356651335341802,16.06953853831283,934.1716945700826,-26.283055232244966
1367,-0.6762376662352739,16.437229070629325,923.056717668174,-26.855604831856553
1368,-1.3221078462981897,16.777410574575473,910.5867474162723,-27.748609509586217
1369,-2.030506121658261,17.056242899390426,896.7643442850102,-28.714705829181465
1370,-2.45062284823442,17.27175601164195,881.6052536057633,-29.38034219616308
1371,-2.704328480963994,17.44570700030511,865.1953244523027,-29.841648166549763
1372,-3.0077260419846668,17.587741329789157,847.7466185978507,-30.298763632428045
1373,-3.43773980058185,17.685577223224076,829.5189241395217,-30.88151179578955
1374,-4.0109082909695815,17.74087310307368,810.6782839195295,-31.662743005094658
1375,-4.452360328890813,17.779693965403215,791.2980911978434,-32.30947792363517
1376,-4.483240343093993,17.817530052593096,771.4328369737593,-32.466011509170094
1377,-4.447918515757967,17.856286015345052,751.1203453767158,-32.503277848466844
1378,-4.785293334125217,17.89009736598134,730.3569471418888,-32.91337593863123
1379,-5.283940883839246,17.912621380719283,709.1279587032542,-33.495104806491995
1380,-5.599844122885489,17.927036048250816,687.4622865014637,-33.90469212238561
1381,-5.7631909363957,17.939174075541448,665.3774804780506,-34.1697042661205
1382,-5.885711062424588,17.96884853034064,642.8054028483102,-34.38641397226334
1383,-6.1063847049989315,18.02254636706978,619.6768291942665,-34.68339907111888
1384,-6.541602785528769,18.079164634825332,596.0432048272531,-35.168202615490024
1385,-6.864027243387618,18.105406189207404,572.0492338535531,-35.47661527920907
1386,-6.721130650972259,18.08192820607965,547.8033088669041,-35.23264263600109
1387,-6.517616533207465,18.00254239032392,523.3372362599965,-34.89749946116276
1388,-6.757511504196158,17.879912022857628,498.65604583658177,-35.04364032858878
1389,-7.181583040605749,17.73569477257979,473.74445140419624,-35.41240999350644
1390,-7.380057840107866,17.596435337478724,448.55593022249263,-35.56524932399426
1391,-7.335580686647161,17.49420855551721,423.0762057868875,-35.44587853303577
1392,-7.149921424013946,17.447109422034497,397.3954805115001,-35.1183379537938
1393,-7.1099529413223905,17.43331686233126,371.6866451780082,-34.880310671546724
1394,-7.485642221225181,17.413373605234437,346.17211098667156,-35.02336053513546
1395,-7.870178360494223,17.357222758317818,321.1087285469802,-35.12528435530215
1396,-7.76561201512144,17.241486545342905,296.73197386595297,-34.656180145376766
1397,-7.528509520750316,17.055735670047092,273.2418529874938,-33.912927638363236
1398,-7.661796907103442,16.80064983107258,250.9099442865515,-33.35389445567649
1399,-8.00478440526566,16.470720549204536,230.1781477353739,-32.878852421561625
1400,-8.251208628864212,16.06685242571518,211.5148675835481,-32.267586253487366
1401,-8.284895089290549,15.617414166193585,195.0397290362825,-31.416028498699006
1402,-8.06148139083906,15.154406765326002,180.36564995216128,-30.266646451142265
1403,-7.8550180741288225,14.68704722043491,166.88759804252874,-29.06682349483446
1404,-7.978418136014013,14.213476522194181,154.10586905997562,-28.109325441134256
1405,-8.124983323757265,13.73005079648268,141.72775505153513,-27.17378222992433
1406,-7.894666044059303,13.231464220756123,129.64024510559267,-25.954150401828784
1407,-7.556232955549202,12.71561305616281,117.83639508697453,-24.642758049884414
1408,-1.7428001361303935,-2.982569206904043,110.92745481868087,-4.071649251694875
1409,-2.0315052043597084,-3.1438063522264525,112.70942054449623,-4.405698348717004
1410,-2.3928335725213112,-3.3363140307222037,114.40952709427893,-4.862481877253268
1411,-2.5541785380699107,-3.540962760394181,116.00917765537984,-5.181432492303013
1412,-2.319891710187728,-3.7314222430133768,117.46022754653276,-5.152051499767658
1413,-2.1167289696774954,-3.8814594941673426,118.70267813899784,-5.1257695344185885
1414,-2.3813343731010694,-3.9782051506963536,119.70711583057972,-5.475621656842498
1415,-2.6763487749549255,-4.040574462945833,120.48602358107244,-5.8508818903949225
1416,-2.504391858227911,-4.096588854988599,121.09267403443923,-5.851979196791448
1417,-2.1378972305748927,-4.160148052070396,121.60408416296592,-5.696076538862497
1418,-1.951390759763303,-4.234202235931338,122.02405682086483,-5.679519339155171
1419,-1.995760255596573,-4.305438335593598,122.26393991199139,-5.854130285953537
1420,-2.218447364709734,-4.355775251774671,122.23129200309572,-6.1862640372570175
1421,-2.305182936877365,-4.384379020703945,121.89142600104344,-6.396117131278815
1422,-1.9775766704724742,-4.397043996389742,121.25884247716877,-6.234956176748005
1423,-1.627710631982399,-4.390159879188081,120.36326506718203,-6.044772797018163
1424,-1.6942677393805783,-4.365500040486519,119.24087342440515,-6.206499586038937
1425,-1.891527682860771,-4.346807603632455,117.93041584672815,-6.468941501582273
1426,-1.8541958035645814,-4.356241216442021,116.46972698310064,-6.5101767607837555
1427,-1.6905762888122662,-4.388542640421507,114.89113099655876,-6.411088132009442
1428,-1.5817490095186775,-4.431212686919206,113.2048122591955,-6.319237295756475
1429,-1.647422958433376,-4.485481959598256,111.37915868596748,-6.352805777795772
1430,-1.9459469836977201,-4.549778948382127,109.35900832919278,-6.579240516492448
1431,-2.164034477387208,-4.607847884384078,107.1286529395072,-6.720467998951582
1432,-1.996898101878317,-4.643053845054672,104.71929931684474,-6.506737503264822
1433,-1.7503392172358296,-4.646246296576907,102.16951568777976,-6.214039393807739
1434,-1.7830661043851936,-4.615793764618389,99.51250279003372,-6.170295458432949
1435,-1.902024829197892,-4.560239475350286,96.77771837959705,-6.2431800433641085
1436,-1.8493192107883145,-4.492726444088766,94.00311888807833,-6.232405965533006
1437,-1.6486162024843696,-4.427144934512948,91.21554002192904,-6.112506775783857
1438,-1.3819195205147312,-4.368770545355443,88.34814573298412,-5.902766395172683
1439,-1.2316736087254325,-4.303578000512491,85.25107524754017,-5.783880295951537
1440,-1.3405909188596588,-4.212824530694894,81.83575089725049,-5.903889886888235
1441,-1.3895505729036906,-4.0824297029869445,78.12408245417326,-5.955709642738594
1442,-1.0713419274356335,-3.9118630363577105,74.18804043077196,-5.629112177703637
1443,-0.7346870390502994,-3.7323339828387176,70.08688918197046,-5.165837651361045
1444,-0.7737590213323126,-3.5792853531944284,65.84932869231497,-4.8745171702945065
1445,-1.0552306436363703,-3.460837871146219,61.489144610404956,-4.724465964227742
1446,-1.3342112127741856,-3.3700842076316455,57.007683996743246,-4.60903446720245
1447,-1.4273228897119608,-3.291932906776641,52.42176688494097,-4.369585010331971
1448,-1.2288176935062087,-3.207389051197755,47.759172321788,-3.894766263118098
1449,-1.0661446317490983,-3.105976052682105,43.03064346035511,-3.5118578865599606
1450,-1.2722293658395198,-2.9847046154006764,38.23925577675991,-3.5384067468316998
1451,-1.4830153653668923,-2.8450747024032457,33.40168330317799,-3.6242422230300875
1452,-1.2965601466677785,-2.6910712490255118,28.52520356999233,-3.369394244145692
1453,-1.013990939846859,-2.526992318000866,23.57632512404391,-2.9802124753491426
1454,-0.9968932399317622,-2.354978549773729,18.498768791485936,-2.732680239733005
1455,-1.1718611929017533,-2.16693612856128,13.274053975993244,-2.5905509310194947
1456,-1.3729338948421939,-1.9578261320994716,7.937814815751676,-2.458449701165649
1457,-1.3603268181249977,-1.7454908674619627,2.5642801028154,-2.139325537653469
1458,-0.9668307411754883,-1.5474629810662215,-2.775077196786194,-1.4929193295177374
1459,-0.6202833851568416,-1.3592932959336852,-8.132085826603463,-0.91474299660057
1460,-0.7436654371450823,-1.1678454966380063,-13.664677553459402,-0.7881078955242713
1461,-0.8945213268977272,-0.9545910363546367,-19.42613495066006,-0.724783307082756
1462,-0.5672360560205523,-0.7053593541764929,-25.33190753201455,-0.2717006453695408
1463,-0.013675937048489989,-0.43188981748874194,-31.3095184267333,0.37599757667041744
1464,0.4047380630969604,-0.15224819024518693,-37.346513502925525,0.9274103424306943
1465,0.634026569807079,0.13396175730435256,-43.45146339292177,1.342514543561824
1466,0.7074793926331984,0.43007496377877963,-49.62807456835435,1.6473658113813259
1467,0.8960352041555253,0.7307567529879848,-55.870429573681214,2.070228252504813
1468,1.4430171377741772,1.0265315775879043,-61.78404542719656,2.779451416561424
1469,1.8198875391815386,1.3129165714806859,-66.568302959748,3.2873651642291746
1470,1.5352223891870629,1.5826197868265788,-69.91622560471369,3.1276076684424963
1471,1.1897767261287893,1.8363559732734034,-72.18640136592114,2.8205675054474093
1472,1.498731559083346,2.0766474714846317,-73.8341802144157,3.0100325021304735
1473,2.1758789638811495,2.292538978250317,-75.18707072387069,3.47313650850491
1474,2.740435916619464,2.4760667065021167,-76.46570982965694,3.808935276058099
1475,3.096822939031531,2.6468519054077855,-77.79780012424038,3.8999705520734946
1476,2.973378938947085,2.7950475399430745,-80.22182207706045,3.6500660002891725
1477,2.9361832213545744,2.9439288718285908,-82.5954925030587,3.441968354212049
1478,3.311935853347564,3.076630772074117,-84.83305018366234,3.644572373119162
1479,3.717977558294729,3.182282726332048,-86.88579032762023,3.924799896742628
1480,3.6734425460142828,3.258444186185404,-88.74283177524558,3.838210603656654
1481,3.438152360965867,3.3260957856437434,-90.4116523886247,3.609438839778534
1482,3.4136904984943293,3.4102881605851225,-91.92969138751677,3.5878158460943377
1483,3.5953833858342756,3.513091462690978,-93.35597612501759,3.777667071087455
1484,3.8591349017831478,3.6227100223478126,-94.66631463900006,4.081908407886959
1485,3.9234790828118737,3.7174669668970757,-95.71270472685846,4.239389140565195
1486,3.5345248154535733,3.7752589996232797,-96.34267120958766,4.007355182341465
1487,3.1084167564492473,3.795009868610489,-96.51220029504174,3.7468306279630754
1488,3.1495468741435655,3.7877124755939944,-96.26207468373767,3.9026580645588003
1489,3.290329462352971,3.761999315485998,-95.69158592623096,4.163745590947327
1490,3.017267754280728,3.729122040760265,-94.92963776405932,4.086226888752466
1491,2.5242868101975864,3.7027306385828918,-94.09929677365707,3.817516869522876
