,TP9,AF7,AF8,TP10
0,-10.410796160498283,-8.554480626855176,-18.6693490761299,-12.488997860473386
1,-10.7065157598412,-8.876707439268044,-19.34094492201089,-12.918101173464843
2,-11.058333048507517,-9.214878923778656,-20.002893158538125,-13.348743614952527
3,-11.427017858120223,-9.54494407264647,-20.647056460172823,-13.756924191004238
4,-11.765055400792548,-9.843224845070058,-21.261644303757908,-14.1182923565707
5,-12.078365368632943,-10.10894188196945,-21.84590716846087,-14.448819034548848
6,-12.388061752213758,-10.353721380286341,-22.40575288012469,-14.776641426431043
7,-12.731151192470799,-10.60194903737739,-22.95203842807578,-15.139668771258142
8,-13.134381852028373,-10.873147960751089,-23.497530154658374,-15.561708132375129
9,-13.54013151546079,-11.15372470698288,-24.049579091143386,-16.003060682156324
10,-13.889759117702631,-11.420057757276936,-24.611850227112413,-16.41426125076657
11,-14.233745465249461,-11.661457099674097,-25.188152253095012,-16.79621172403711
12,-14.632025673190634,-11.87507471384776,-25.778216856876536,-17.16735051139863
13,-15.068548062141634,-12.070433643363161,-26.37350553827531,-17.546704510249388
14,-15.505273472776189,-12.26220732390139,-26.963119091838145,-17.950947787553087
15,-15.88978522675053,-12.453874166462771,-27.540536496048457,-18.369212019361836
16,-16.18308573843114,-12.645254773079635,-28.095829738463063,-18.78148934629766
17,-16.437281121096174,-12.842513788871935,-28.63176408823583,-19.188025617694738
18,-16.71763810035603,-13.048116811394879,-29.141922984175796,-19.589527961334802
19,-16.99654993333668,-13.252838379892372,-29.608734760738994,-19.970774383528195
20,-17.23321849563885,-13.445866895090651,-30.0365251247654,-20.316172592893718
21,-17.450412777860702,-13.621174031669307,-30.44216403182077,-20.615703688250125
22,-17.669648311246252,-13.77571397884094,-30.841974974168423,-20.864610165959377
23,-17.877341278149448,-13.915559598078445,-31.22405437630024,-21.07537215834115
24,-18.054716193052503,-14.046522600407544,-31.56615073554966,-21.263151491494572
25,-18.160444482792172,-14.154668608096499,-31.857186399273186,-21.418047687689253
26,-18.17889250199303,-14.234089089438818,-32.084584594218285,-21.53536809831577
27,-18.204439390157727,-14.286011623788493,-32.244371634941935,-21.645976132509816
28,-18.335142203314476,-14.331640418092224,-32.33402648881937,-21.781680458905395
29,-18.565849491334305,-14.392022664244308,-32.368483911333215,-21.959541482219773
30,-18.840384212837275,-14.45629349921092,-32.385748879249,-22.16886146496113
31,-19.072873621682575,-14.496577183093349,-32.41550524433188,-22.335254392758706
32,-19.17775149748002,-14.478874663646378,-32.4568539989762,-22.377901229150375
33,-19.13778448625964,-14.394699081566333,-32.50100028864243,-22.280998070204117
34,-18.974554970321943,-14.2467842960104,-32.52790259107977,-22.059944878037157
35,-18.698134792752725,-14.037471811574715,-32.52455469779982,-21.727461351872947
36,-18.331201566062667,-13.772120437404611,-32.48133386419494,-21.311993341267726
37,-17.940915255995925,-13.450954909105207,-32.384406514744285,-20.868956484628352
38,-17.578861189518797,-13.080089269464322,-32.22487080345967,-20.44565852136957
39,-17.210575968241205,-12.687176051991225,-32.00450022453714,-20.046139900682196
40,-16.798709859687843,-12.306064065508744,-31.728693680946858,-19.664161731781235
41,-16.379154076414622,-11.96524878996081,-31.404678090741314,-19.312927195168644
42,-16.00867553904051,-11.683055686687881,-31.03561770673037,-19.00676118741487
43,-15.755639454979972,-11.457430139128341,-30.60889750739876,-18.76091159572335
44,-15.662190116442883,-11.275291031399208,-30.109763293331813,-18.578183687934196
45,-15.646441671659119,-11.123189796816485,-29.538122326302297,-18.416666737749516
46,-15.610494597166717,-10.989363355783428,-28.897548309083554,-18.22782404258033
47,-15.588993650512093,-10.87203020044251,-28.18744836190597,-18.003047666354323
48,-15.625560112695977,-10.770723531444364,-27.40701762403222,-17.74573867275363
49,-15.659746972466916,-10.672443651961546,-26.55278419074897,-17.44820671311445
50,-15.6194328311092,-10.563760676077198,-25.623185241832786,-17.107793342410037
51,-15.460130065965274,-10.441368128922385,-24.62804649988476,-16.729722985307344
52,-15.170020552497826,-10.307956022002863,-23.580684948982135,-16.32259266340957
53,-14.834287187208512,-10.170869607319837,-22.486195687480343,-15.90483368248991
54,-14.551210852501372,-10.040194276492148,-21.34950421926962,-15.493347543480198
55,-14.306988824026499,-9.924931194105525,-20.18740751776575,-15.083067929638696
56,-14.063081120519756,-9.8278282031824,-19.012190661689228,-14.66429199056191
57,-13.849766215611087,-9.742493964606462,-17.812285647484916,-14.246780315367968
58,-13.68628441574668,-9.655037053705415,-16.577038657275786,-13.833388963797802
59,-13.529719205081658,-9.542873088475403,-15.297611268612192,-13.397341856540596
60,-13.318285785294615,-9.414790788434102,-14.036067456435642,-12.915658311762515
61,-13.035045248870277,-9.331267713791497,-12.916361136215016,-12.40831326451243
62,-12.672781896876206,-9.324986036531214,-11.990823811907969,-11.905688572810785
63,-12.320154679230749,-9.373021430069503,-11.217017908534206,-11.444086835131133
64,-12.059533382036484,-9.427987282553055,-10.529927235254487,-11.042657970092396
65,-11.798685916417648,-9.470901949957833,-9.86902570563336,-10.668960022840139
66,-11.426674178198175,-9.508935947133402,-9.194840274671689,-10.28195429195927
67,-11.00474383938067,-9.56488698414906,-8.494417808459776,-9.88591959491938
68,-10.7009655042291,-9.644885730816485,-7.548175589867296,-9.459769407094075
69,-10.440725131104628,-9.727799180312092,-6.594686839767192,-9.051845229166739
70,-10.202734662687622,-9.800917763912512,-5.621179765300577,-8.659105372224921
71,-9.934191793310896,-9.849077718033667,-4.6510056795816075,-8.249893790920845
72,-9.58271958338923,-9.859001327673095,-3.7161432890502253,-7.786974320618158
73,-9.195249554603988,-9.829620459864053,-2.8305641086393094,-7.271309995143659
74,-8.84425792055041,-9.768943231894275,-1.9954905174502178,-6.722463830308331
75,-8.50809176872881,-9.689366387450274,-1.1950562208058744,-6.147767920994216
76,-8.149966118530386,-9.604899267367925,-0.40573717735929465,-5.564658364923703
77,-7.80627645992829,-9.521548220250914,0.3853524680808658,-5.022144985525778
78,-7.516715064293219,-9.442020533945039,1.1816884703640258,-4.565073342054369
79,-7.278220259019937,-9.378807978233032,1.976108531868045,-4.210331786307765
80,-7.0680472606963765,-9.340494046203286,2.75615820127774,-3.943929067540408
81,-6.821872156331525,-9.314159083670244,3.5184868421779,-3.695516537403213
82,-6.482585896001006,-9.281733007336431,4.262433452476084,-3.3866413169571516
83,-6.0994759614933125,-9.234543355071278,4.979875052522018,-3.0071027674445685
84,-5.7531318537877905,-9.171112448373181,5.664132905789946,-2.5812354278466727
85,-5.447645083513358,-9.10457714027549,6.3168426954653,-2.119255372377314
86,-5.170107669629796,-9.051965198152683,6.944634688411509,-1.6414931225302272
87,-4.945852112095651,-9.009470262752304,7.55837767726639,-1.1987196875496429
88,-4.79056876495773,-8.972997750353109,8.169933531083611,-0.8284102242507221
89,-4.702223344302923,-8.940692985968985,8.785351284327598,-0.5268050448829701
90,-4.660366863337805,-8.922158252743937,9.404091292645305,-0.26391012078223486
91,-4.562904651476664,-8.917469340133625,10.023279662787507,0.03843331422701833
92,-4.322173384884319,-8.90717706846718,10.63243624566878,0.4403089073102497
93,-4.029049037438576,-8.871307239724562,11.203535072478406,0.8633390642839479
94,-3.8171082654378923,-8.812014199465775,11.7091916138322,1.196018482589992
95,-3.6889802472581517,-8.7364481280963,12.144085049644582,1.428490455165814
96,-3.608930294315287,-8.656905134111586,12.515593451864378,1.5910433253590357
97,-3.5720171930633273,-8.566893327348108,12.837788467778413,1.7171564988243024
98,-3.5688047932134186,-8.456847045334472,13.126042285374243,1.8445832413678638
99,-3.617129074473462,-8.33630668072878,13.381096860623286,1.9628623480548666
100,-3.7316993564286665,-8.22053415913556,13.597891906813592,2.044463653434116
101,-3.8232529410984717,-8.120250484842884,13.78162364291174,2.117093953930027
102,-3.7970874541652564,-8.04169422008274,13.938212338618733,2.2129639921660607
103,-3.7028928314626723,-7.9809887496639895,14.065874265581712,2.300169966110257
104,-3.618472158161192,-7.926583696266304,14.1621816293585,2.3433761800347876
105,-3.524183820930849,-7.864413785496563,14.225060916415115,2.363534891231272
106,-3.3758156495588727,-7.782120797095754,14.255108682905195,2.397476114621518
107,-3.1344000068019886,-7.6759509202870815,14.265247965153547,2.4767379041784636
108,-2.780663800196686,-7.549924741752174,14.267741258049474,2.618343121419492
109,-2.3926740361002827,-7.4096122672057385,14.258090582385053,2.787416527393537
110,-2.0723885265229627,-7.264574849901084,14.224192758463069,2.9308861116554
111,-1.8332006112270884,-7.135856500976387,14.150970074359059,3.029400472418115
112,-1.6513885934390915,-7.04004125748558,14.029410136092174,3.0831746722729654
113,-1.5130042746534407,-6.968169141242002,13.871862367819714,3.0979522576382754
114,-1.3990278294574532,-6.901740829202688,13.700671481710893,3.0917432960286444
115,-1.2989296342784318,-6.829364330476885,13.539070274508331,3.0964779232751374
116,-1.2140981974349623,-6.744062931934888,13.400947724327755,3.135724515275045
117,-1.1397106448069005,-6.648218451200098,13.267913326427362,3.200671140564583
118,-1.0722633227439888,-6.547058292354979,13.111167861540057,3.2677220227139254
119,-1.0339923509667925,-6.43626728360862,12.922526785093503,3.311783966614217
120,-1.0420506167172805,-6.308517860151392,12.698433224033545,3.3138147519981658
121,-1.0514916687881006,-6.154610013431578,12.454277953730474,3.290649195766663
122,-1.0141692925527959,-5.971505506715047,12.190231529992904,3.2651801740272517
123,-0.9625570316527147,-5.780910059513283,11.898639909754706,3.2131670189285058
124,-0.9443270848245594,-5.6080882016901725,11.5665529622978,3.105833966194765
125,-0.9573075689843286,-5.4576542633425555,11.19091968974836,2.953658090762625
126,-0.9820642180322076,-5.321186780641492,10.77564697364153,2.7826913605367274
127,-0.9783178042004823,-5.174627814667196,10.330929235446387,2.634372539141991
128,-19.638359752485233,-24.07618780157438,-7.461434059477015,-15.181483586342436
129,-20.121994364813343,-24.83750599899583,-7.571319753397736,-15.521582840881061
130,-20.685120549387296,-25.594674149196337,-7.637180731546338,-15.888288402750051
131,-21.301277599396197,-26.336352083279046,-7.6637043659512685,-16.24243805527844
132,-21.924311293984477,-27.058771568223246,-7.667153906422493,-16.546835051138558
133,-22.541815874890144,-27.761198105695843,-7.651479271447184,-16.793102052316367
134,-23.138068024003044,-28.43651396658699,-7.620286579283025,-16.992019048702748
135,-23.688865054533565,-29.07279392831902,-7.591066333608956,-17.172258222085716
136,-24.169918057831058,-29.67310425800201,-7.5801162673485685,-17.362860884732324
137,-24.52712593103028,-30.25879176159463,-7.5925299086809614,-17.564385076131682
138,-24.729738549877524,-30.84332876445794,-7.627694890114879,-17.764398843556826
139,-24.84845096112042,-31.416668360395715,-7.678877649762735,-17.956852491766558
140,-24.968954650626205,-31.96342376799378,-7.738035383925413,-18.133717947331395
141,-25.104810250749512,-32.47265879165863,-7.80677289651592,-18.2807274125088
142,-25.24510746576648,-32.945837789031785,-7.8886655895541695,-18.388668394995136
143,-25.37043032580105,-33.38784524352634,-7.977286912468536,-18.460228261002023
144,-25.45834251244911,-33.80444242911394,-8.067602945914494,-18.502228514377943
145,-25.540231827352994,-34.190186251115605,-8.168112629460321,-18.52284957877288
146,-25.641658666520314,-34.533727191525685,-8.28734712998008,-18.526996359092976
147,-25.683861460713647,-34.824745003892644,-8.422684740664492,-18.5034048640086
148,-25.589366772046212,-35.053729974084824,-8.567385949182041,-18.441281569553873
149,-25.39694765081164,-35.212142701861694,-8.71328135003148,-18.35165395629727
150,-25.166779806237223,-35.29798978078739,-8.853201094362213,-18.247243362769073
151,-24.908789977252486,-35.32152977854945,-8.987352632940167,-18.131600130429057
152,-24.622107798400858,-35.29661769858074,-9.119033349350218,-18.002112912916648
153,-24.283390637436423,-35.23192090647742,-9.249280759935441,-17.829379795164193
154,-23.873882324289834,-35.13380027260511,-9.37788175405637,-17.594064514458072
155,-23.461265470565444,-35.0043138877487,-9.502892065616015,-17.349071026927785
156,-23.10736579007095,-34.844091281536656,-9.620466998667148,-17.149517355013433
157,-22.746624837724625,-34.664134015805104,-9.727463220141528,-16.97315510013347
158,-22.300202945179233,-34.46848872107634,-9.82134613666105,-16.78781874641813
159,-21.780726758089223,-34.24441848869556,-9.896502777976767,-16.56167908553667
160,-21.224016884371185,-33.970429275227374,-9.951885788038634,-16.30045798737132
161,-20.664056518619326,-33.637683794343275,-10.000522192304198,-16.002528090607345
162,-20.128499588323987,-33.25495524405766,-10.055915790041007,-15.673716310552319
163,-19.578839950268364,-32.827558250474965,-10.120862914103485,-15.305325382287243
164,-18.973899981138047,-32.36204077352234,-10.189349618323872,-14.887776442865226
165,-18.3712065295299,-31.855190626665483,-10.24420456430327,-14.43670142092928
166,-17.831924386766268,-31.30377110482473,-10.267805210743369,-13.96928778426809
167,-17.320778248015074,-30.706291603441354,-10.253751965061348,-13.474247371201646
168,-16.787768623009978,-30.06854794307872,-10.20612694625341,-12.941344214718038
169,-16.225326105810545,-29.399453747326813,-10.142742829035086,-12.391101928010176
170,-15.636598055008118,-28.696069682594498,-10.082356762860025,-11.845331568509701
171,-15.046091517860328,-27.942210189965518,-10.026123333689597,-11.306340217708657
172,-14.476061248939276,-27.12387870353022,-9.96625261561231,-10.76921985914154
173,-13.879262222374255,-26.24322891866363,-9.898215837176235,-10.21499267924836
174,-13.20714094846894,-25.315901260749477,-9.81355254945248,-9.628846251772382
175,-12.507195933811994,-24.349227824791004,-9.694191114429382,-9.040420259828648
176,-11.82945054447789,-23.345309083687766,-9.529530056292279,-8.466887462050925
177,-11.128570967437554,-22.293806731939146,-9.326118501947175,-7.91764586128467
178,-10.350411711611113,-21.180056400427098,-9.104333109909993,-7.359403426890496
179,-9.495363256639823,-19.996403891412687,-8.90353819895218,-6.746103756163369
180,-8.579954141948297,-18.7426039187678,-8.75520660972234,-6.088214831397056
181,-7.643188215274712,-17.427237212239994,-8.65287709936203,-5.448494166672069
182,-6.7199105907267604,-16.063621486802234,-8.568485883899363,-4.844814837865963
183,-5.763798384662336,-14.6659498132848,-8.462939426056018,-4.233681289709261
184,-4.729928539627342,-13.243403552402727,-8.300672186307066,-3.603098739915058
185,-3.6844357815382778,-11.788163091348359,-8.07632450913032,-2.969038229947223
186,-2.6966328616032946,-10.291688503874568,-7.797877408237857,-2.3581248030881694
187,-1.7499092123296947,-8.748125780270735,-7.483118944353544,-1.768877846640489
188,-0.8046874466000278,-7.2038247580442185,-7.173130764815844,-1.2140154596943291
189,0.15284781609333847,-5.742626105722816,-6.964072521340314,-0.7115322306422507
190,1.1169855949490939,-4.377828946075117,-6.912430194967904,-0.2716128279159544
191,2.005934813355266,-3.06113552778313,-7.012378706838958,0.1265387353559174
192,2.729671954557236,-1.7580344069758096,-7.215164092762199,0.5335548247972399
193,3.262058387110901,-0.4558850717106423,-7.472262081410845,1.0130339230685168
194,3.636604971647315,0.8458414473941848,-7.7350274832325265,1.5551748898428188
195,3.925488633700066,2.125395855548906,-7.936768757747695,2.0427499767910797
196,4.609269506473253,3.3950591955337477,-8.19371273181653,2.0741197651217873
197,5.304677275868346,4.6547956237565655,-8.497242698573823,2.0988823359642987
198,6.047349885563344,5.910804826900583,-8.854771563373527,2.1704441662587852
199,6.846332289972844,7.1560766344970785,-9.23408112110183,2.3359063679353294
200,7.684860815740763,8.359809560675133,-9.593258944552755,2.572235331256237
201,8.457363778160754,9.49542426852563,-9.920977514512742,2.82106603836392
202,9.055754579252095,10.560041912261916,-10.22643118291516,3.0089346681965035
203,9.519792149878086,11.557722786774445,-10.513421944388764,3.1281804669874833
204,9.928068180242501,12.499470870466574,-10.767991536394774,3.186388820440688
205,10.264847483192456,13.384807091164141,-10.976939177062619,3.20225281057743
206,10.49369950784419,14.204198114240667,-11.139722831955915,3.1633749782557343
207,10.598222923090725,14.942398881609138,-11.252911224536913,3.0297624730633808
208,10.570699376845946,15.584617699208412,-11.308820245013523,2.7983451530285697
209,10.464161381274344,16.116972684139757,-11.312549444119059,2.486482281212483
210,10.340445063182996,16.538918440116245,-11.280331811108338,2.126223291534709
211,10.15766720231397,16.861507756934497,-11.22042824461869,1.7147109101425575
212,9.859822398107898,17.097292540756897,-11.12516109873851,1.2439971990245717
213,9.50331796204196,17.262134407365785,-10.985350488136994,0.7512632064320244
214,9.16320743247457,17.3752248377844,-10.802845216637833,0.26494623392212135
215,8.834141353259486,17.4498122930541,-10.585403682023252,-0.20162920225465478
216,8.49200425346603,17.49056186409639,-10.33968017663694,-0.6706156892610131
217,8.131865842509182,17.50298646387883,-10.090192656849634,-1.1509254638675699
218,7.749688204739587,17.498652561161478,-9.881473768494045,-1.6136699794631182
219,7.368950018774829,17.487515794356327,-9.725903608282703,-2.0304373057213754
220,7.0149076700098485,17.47528950414875,-9.58209335586709,-2.418091112863605
221,6.637784852387356,17.449825355074772,-9.39397394569177,-2.8076572863564317
222,6.188675684618456,17.397029335870297,-9.132977226751951,-3.2297315862493106
223,5.732606671169012,17.30091088313845,-8.801681932451272,-3.637868470804544
224,5.355188889823938,17.16203744179933,-8.413332398128972,-3.9806140183616954
225,5.06665446915371,16.999345007967793,-7.9911186711096365,-4.237247488270677
226,4.847608350702083,16.826191260021442,-7.560977210948311,-4.447193566859475
227,4.652152856710987,16.649603351416943,-7.16160906942557,-4.642814713618855
228,4.435605274209563,16.471105449765,-6.820849448147414,-4.851941132919627
229,4.2492844453570076,16.2965317558877,-6.52398472691291,-5.043571186820737
230,4.160167816065047,16.127931726505956,-6.24329828855039,-5.1687349930182735
231,4.119077500079707,15.968480669137572,-5.968323760793119,-5.226638967221603
232,4.052171538611658,15.809792854267148,-5.700311563225862,-5.237777424860317
233,3.967527667405139,15.64133691121001,-5.463080131973504,-5.218287659524316
234,3.8857765174187873,15.449562791409932,-5.27721039335956,-5.189928218779373
235,3.7919847869895453,15.230428791732594,-5.138723332059567,-5.177500932062032
236,3.6689927124033717,14.984597272190957,-5.017025343611437,-5.194125606092964
237,3.481544364583592,14.724185116860928,-4.880444781164737,-5.237616166097977
238,3.207491715657662,14.474789540955156,-4.716429174227913,-5.293949885364482
239,2.9298119731206724,14.253847376552816,-4.51750784197964,-5.325793197479729
240,2.738987958537094,14.051269462680477,-4.2684852519804055,-5.306082887782165
241,2.5877516870531565,13.837493025544969,-3.979582973374134,-5.271701266459474
242,2.393554202215415,13.58919697586192,-3.7011301086956068,-5.277478901533374
243,2.147971407979532,13.289211505082532,-3.479855795332642,-5.3401391636333395
244,1.865385865684961,12.934074450119702,-3.3042065593307535,-5.454956986285982
245,1.5711488850530166,12.529631874182828,-3.1143740555448565,-5.603068068481047
246,1.2976378630153336,12.090293419640657,-2.875571977869274,-5.75198578368124
247,1.0228120223108135,11.639957762944729,-2.5950984391244867,-5.873117591160839
248,0.7201682752265726,11.197811909118583,-2.306118410973879,-5.9474820295871975
249,0.45101922461380023,10.77030915035715,-2.0439382064838405,-5.961940420935473
250,0.28847270139151054,10.350384263069298,-1.8249393573251094,-5.919748589619644
251,0.22260110356759988,9.930369788100995,-1.6514688748211115,-5.855086283821024
252,0.21886988960688925,9.50918086011241,-1.5130498152354017,-5.806391290850234
253,0.27235729185588253,9.088608958210685,-1.41021772380239,-5.78736885622214
254,0.3729629990863694,8.663596467130438,-1.343531680033161,-5.792831195037716
255,0.4990510735193918,8.222796254345099,-1.298135310577742,-5.796757202026769
256,-27.383697875851368,-27.56254455028373,-325.1432505407563,-39.1966356062477
257,-28.350825890909544,-28.216634845383034,-337.3787290138405,-39.71786989470242
258,-29.287491756773235,-28.823609574036787,-349.1058410450749,-40.136009392317845
259,-30.190401860867567,-29.40800456375942,-360.21745267504724,-40.561901981149425
260,-31.057640784246495,-29.97743173639083,-370.63266491899424,-41.00734526461064
261,-31.925810546851498,-30.521424567329785,-380.3140002845658,-41.41770339287429
262,-32.80594043499011,-31.015026581123305,-389.2549336301991,-41.74171147781666
263,-33.66229714860838,-31.435189801655415,-397.4226350292421,-42.020494995307736
264,-34.435164899512635,-31.764472076325227,-404.79481638502756,-42.334556984677256
265,-35.00474632782545,-31.99524832758865,-411.4360108232297,-42.64571408926559
266,-35.301024986844,-32.133305900548834,-417.37495040816583,-42.79188990399948
267,-35.4628800651147,-32.204858853802335,-422.55616808096465,-42.68613085322179
268,-35.66452996739519,-32.23502967908883,-426.8632451236544,-42.40162504816201
269,-35.941078493709135,-32.23928573835691,-430.2584848655044,-42.09149960982939
270,-36.26869146125148,-32.22058090152435,-432.8037148298103,-41.8507637536588
271,-36.582157212783805,-32.18459036822921,-434.53155214038713,-41.705310656573566
272,-36.804247129039155,-32.15104495036795,-435.4113914746127,-41.60590798646516
273,-36.96542268770665,-32.1361384773505,-435.4281398898995,-41.47556644913153
274,-37.10767670361065,-32.12131191775443,-434.62802328219664,-41.236154348800376
275,-37.12887471467589,-32.05751100596888,-433.0678184759305,-40.85038985759899
276,-36.942284172804236,-31.898246263764037,-430.73022223476806,-40.320692784421794
277,-36.6443823715718,-31.655887682226407,-427.5853738833682,-39.68180100371727
278,-36.35987488799214,-31.366759596141332,-423.58849668258154,-38.98172345083206
279,-36.11499761349695,-31.05862365921584,-418.73715159712583,-38.255309232508544
280,-35.90363379706898,-30.755814708400433,-413.04587097752807,-37.52001645106825
281,-35.70249186121709,-30.468830928667078,-406.51560081285663,-36.767904454481254
282,-35.47247020403607,-30.198282050946688,-399.15058594415444,-35.979753662144674
283,-35.21355540562929,-29.927902170682025,-390.96767740444744,-35.15409052730835
284,-34.930857440722875,-29.64607952624162,-381.9877361403686,-34.29094709804479
285,-34.570193837228445,-29.33294835497003,-372.2231696851773,-33.36657901537718
286,-34.09195913230442,-28.955295049496932,-361.69239747252027,-32.36531289316012
287,-33.54540121048996,-28.50760552226056,-350.4761505579092,-31.312107091801444
288,-32.99615832083037,-27.994783580759943,-338.62709215733815,-30.238065294836417
289,-32.47621159402368,-27.42984894440324,-326.20706773034937,-29.152115631233073
290,-31.990851507028324,-26.829110318970727,-313.25158619852726,-28.05367012782386
291,-31.490623255012654,-26.199484273377536,-299.90925501253827,-26.930983056663635
292,-30.915256839126492,-25.543506138913862,-286.5132271538772,-25.771501871684055
293,-30.269102374594507,-24.866078099725975,-273.327873248303,-24.588438005052794
294,-29.574709587363586,-24.1722244686054,-260.2991774082059,-23.398486861895062
295,-28.81257049734784,-23.466892401916386,-247.12477646056334,-22.190489968395944
296,-27.97577591835153,-22.75478295188567,-233.54255768250542,-20.95297798620176
297,-27.11867898467298,-22.041663587200272,-219.56628250166756,-19.699776290819404
298,-26.293429715949394,-21.329007925775823,-205.31267020513738,-18.4449545557385
299,-25.50605414920058,-20.60208063063027,-190.67495440860714,-17.186897639267443
300,-24.733355431641296,-19.8474820228823,-175.43331418026304,-15.912569941963914
301,-23.91061029536212,-19.05722007989609,-159.5227139177313,-14.590181543240028
302,-22.97143952344572,-18.23088806342718,-142.99161272474316,-13.180334749736003
303,-21.922750008313038,-17.352906353932077,-125.8205402106651,-11.666177992253747
304,-20.789193247387384,-16.391471652987402,-107.88543996721694,-10.035253669017985
305,-19.536794684660816,-15.339631186631628,-89.02519550726552,-8.240440725062568
306,-18.14770139470833,-14.222841006052988,-69.10445840807225,-6.26168653972328
307,-16.67743966903666,-13.067805184803111,-48.035017090846424,-4.169890257664482
308,-15.191783803741613,-11.883093835920596,-25.84089570295413,-2.0545220123907253
309,-13.759056554029923,-10.676311896560813,-2.56140320064749,0.025414155092100765
310,-12.40088402801385,-9.445753185312123,21.915806516625942,2.0520188253879814
311,-10.975137788359374,-8.183662839251234,47.868227411320156,4.09643842655097
312,-9.336405559464506,-6.891117203653095,75.52099011834663,6.247718866857904
313,-7.53464881256615,-5.569753724735226,104.8448870539297,8.516571308742051
314,-5.66721201605493,-4.231453527136277,135.55974040084757,10.88469453777039
315,-3.7567680047901897,-2.881495151435244,167.31571064256593,13.343265583239793
316,-1.8089231479512753,-1.5601617459111699,199.72532779463208,15.782667286370573
317,0.21167115512098278,-0.36092669990584253,232.27350257788828,17.986094067232102
318,2.3435251867809024,0.6786602101767886,264.4369771522402,19.855928294196353
319,4.507943765847365,1.62748707627865,295.9135899184145,21.397844891455176
320,6.626839652989522,2.569927416131024,326.55824882771725,22.73206131309858
321,8.78923475552889,3.5577308458438717,356.36606537466685,23.933075541811828
322,11.073818241529013,4.568877363502996,385.5325736492101,25.040762657297233
323,13.401375968079753,5.539278438294868,414.2717330630946,26.08980912274447
324,15.959563664844346,6.784777571622572,443.8618203362707,27.38170664429975
325,18.20358717239827,7.920117221845221,471.5517856203281,28.593040757990273
326,19.977177998849903,8.949215033540401,497.20632286794074,29.70665815159549
327,21.35076087357564,9.876908546536637,520.6828995872471,30.688220184525754
328,22.497149598332072,10.708467499448577,541.7857473926623,31.51786610041437
329,23.512009232411824,11.461864589567115,560.5748061393169,32.216420924381495
330,24.481077744511946,12.158863559478993,577.4106631555021,32.84422290706965
331,25.559983830982024,12.819275777732466,592.6897339258086,33.516011484533394
332,26.843637633081833,13.457867723417307,606.6894343466852,34.327097071819345
333,28.23477471223239,14.079652110836083,619.5476613670899,35.28139257868145
334,29.566731313237838,14.681318410343275,631.3033948196247,36.2801718950826
335,30.72819893882797,15.252650671208391,641.9458554152159,37.18384579620895
336,31.65447449707523,15.790404691947845,651.4558260499308,37.809044527653825
337,32.34782075941312,16.278372611894056,659.8640194528442,38.08612197664652
338,32.86987399824463,16.723034461149354,667.4018138091467,38.12123828978592
339,33.300009991846224,17.159181046052755,674.4198627780924,38.03217046703868
340,33.70561128470982,17.597994222982287,681.0384268239374,37.944116960112396
341,34.12067233815466,18.021510352074213,687.1273834627244,37.881018444558116
342,34.53799053124927,18.39934992393167,692.4855405126314,37.797975240988585
343,34.87775548002433,18.721748307894106,696.9678275905605,37.64909657881769
344,35.064199049061656,18.989827836535163,700.472666680205,37.39342439433606
345,35.14803972837095,19.2155310506248,702.8945905539633,37.016998746090195
346,35.21199650012533,19.405756013458028,704.1780587247337,36.54171049507571
347,35.27807932256222,19.56821049738074,704.3176068147797,36.02877289949719
348,35.339472013560034,19.69179153229573,703.356081092117,35.54363961176696
349,35.30456176931879,19.745300120461565,701.4200368597062,35.10041734779106
350,35.0983339970476,19.734776701734575,698.6406608915242,34.69189378953996
351,34.88501941891377,19.721314043789576,695.0366058403566,34.32222031151651
352,34.858139539160575,19.766424561423495,690.5647412726208,33.99547788548498
353,34.96377415666391,19.86495875671383,685.2073540839523,33.72986883240751
354,35.06474914304984,19.962090803398215,678.8988316953186,33.530977145214486
355,35.069927072374796,20.013704245538417,671.5651955388753,33.34555074134144
356,34.91548632556131,19.991453862841233,663.0931689715027,33.100634573646865
357,34.653082051296295,19.895642994159036,653.4621596184631,32.73711269576813
358,34.37592961254238,19.76086642381686,642.8015783318676,32.22503370966114
359,34.05226105822161,19.642652799354863,631.2464561981864,31.60271867367385
360,33.627012914632616,19.55926242242118,618.9784950981648,30.93526481114033
361,33.147132278553485,19.478578608633484,606.1953051031827,30.27163824294882
362,32.67451260034546,19.365421627071854,593.0692360101582,29.646137601371763
363,32.22674930994492,19.20636401639621,579.7457402230785,29.013610025579535
364,31.80320247672965,19.009576949333688,566.3152659763953,28.37009827178565
365,31.362196289397275,18.80781693351418,552.7550346456416,27.760792521609936
366,30.853486687276995,18.636830259756596,539.0193602671626,27.319342382660516
367,30.30468220144312,18.49660568788486,525.1530169161447,27.05236778022391
368,29.75769529894192,18.367625354742458,511.23665764352637,26.763598754987513
369,29.16988684759034,18.230728218922817,497.3598022748651,26.27035462289509
370,28.497000664941606,18.069446036024885,483.5718619054058,25.5853183024795
371,27.770392981157233,17.875729678185163,469.87217504077887,24.84901344784053
372,27.047205578813845,17.65567808361506,456.19430076765906,24.264137058365826
373,26.4094382374021,17.44326319427683,442.4721417234264,23.874355878345927
374,25.914976000030745,17.26584064872719,428.76577525251327,23.616224170177755
375,25.476925607026345,17.120885918421404,415.2111759014185,23.336523345868994
376,24.975487390418568,16.980365641095716,401.8888042861104,22.879482654512834
377,24.42437471959568,16.822032918751667,388.7858107067048,22.269134037961518
378,23.88140294749028,16.652124546248576,375.82492075927195,21.59010982092375
379,23.34711645782998,16.49664924578686,362.94836233894955,20.95398512199641
380,22.823253960753075,16.367574556744348,350.1110276023254,20.383955134350206
381,22.35333414077427,16.258874187748443,337.30248253908206,19.83397925765035
382,21.959964177266386,16.147286630867136,324.540162798572,19.2528481739343
383,21.617750973315683,16.00737897757944,311.81221786016283,18.680784364216965
384,0.2505882252998872,-2.148721630222708,-10.555815657703272,-2.0898180160862956
385,0.31341972496847903,-2.15597718185232,-10.763665083497912,-2.1271000223078853
386,0.27928836768224674,-2.158808698776271,-10.984458922591346,-2.178917733060153
387,0.19812433165742882,-2.161456252452346,-11.159646573327203,-2.2263478988116225
388,0.1382523811820478,-2.170558307224713,-11.270370360914482,-2.24311854757756
389,0.09134216763845766,-2.1917044419062703,-11.342595550201848,-2.2300247286682486
390,0.036680865042226354,-2.2312185509713576,-11.399089645877195,-2.200118749731898
391,-0.05721338338128167,-2.293381129990587,-11.444910674871217,-2.194879433629607
392,-0.2046027234719703,-2.379419295975052,-11.473422272780065,-2.2482123796635807
393,-0.30911318073868016,-2.491292100108088,-11.469170908762907,-2.3262754263451573
394,-0.2778415641850529,-2.626221777474492,-11.42726174747268,-2.3816799401421402
395,-0.17091305500702314,-2.767260135092328,-11.360433127140961,-2.4137679620982606
396,-0.08171985307848217,-2.899223812164059,-11.298077146231687,-2.436254017933529
397,-0.016348229405603654,-3.025643484596137,-11.242848504207718,-2.4489401235541357
398,0.03130684576069381,-3.1571988022475006,-11.165197932733996,-2.460176613216847
399,0.025930215534689827,-3.303323548088869,-11.062315229989622,-2.506359687067792
400,-0.04772181919795346,-3.4716240759911305,-10.968179872606594,-2.6104102077159554
401,-0.15555292463516407,-3.6617754518599983,-10.890621953965326,-2.7454848996584693
402,-0.2553646778599536,-3.8694502656999012,-10.799439271012524,-2.8699620492543336
403,-0.2966913378526849,-4.093537435783234,-10.668663168067214,-2.94633821499227
404,-0.25942052833189017,-4.3339330916727095,-10.491005662242346,-2.9585352568302823
405,-0.23708856870716888,-4.589157346199196,-10.269775364570247,-2.9490393246790516
406,-0.3231310015321288,-4.8599953645185625,-9.996660903763027,-2.973384201681899
407,-0.47834365325545347,-5.150938498318479,-9.65577384495797,-3.049058257195056
408,-0.6284060449155006,-5.464949824842862,-9.235384997792243,-3.170426012888395
409,-0.7307574448793628,-5.804215468205966,-8.751658644739852,-3.3102103797752043
410,-0.7655935513838473,-6.163406064076241,-8.232146536679329,-3.43415321708914
411,-0.7890519313447071,-6.514677268520216,-7.7064632048607455,-3.5317858937082383
412,-0.8672604595208765,-6.831778966007106,-7.19470385579224,-3.6059251382315654
413,-0.9587760188115249,-7.1200725732220915,-6.6873108371088374,-3.657996532111715
414,-1.0108761879056736,-7.393794098158996,-6.163168774563224,-3.6938420935883074
415,-1.0692786987911154,-7.654043021720515,-5.609494187897375,-3.727297197295811
416,-1.181137778894602,-7.900812321546745,-5.021581768839696,-3.76602520330295
417,-1.3233345796302565,-8.137945666653186,-4.408633746162543,-3.798990883348793
418,-1.457738446849153,-8.366973906679458,-3.7877802136636722,-3.813089152209998
419,-1.5363606082762087,-8.590205557800154,-3.1719236696334785,-3.803017314686366
420,-1.5289174893451896,-8.809075331011172,-2.5699880122289005,-3.7743628497256676
421,-1.5082852538545661,-9.012724442297497,-1.9880660700625397,-3.7610925990336224
422,-1.552877390688495,-9.195606212566078,-1.424321902154843,-3.7962485179011596
423,-1.609490119345194,-9.383225613509909,-0.8666919115519693,-3.867821331109834
424,-1.6170995108801969,-9.602213578945918,-0.3007921670987154,-3.9550739189086133
425,-1.6250104297468784,-9.847896583238215,0.2850386370669858,-4.069316658996162
426,-1.700551740421558,-10.106276032375924,0.8902736533730454,-4.2203391858085615
427,-1.8843269914275622,-10.370978339837428,1.5160836818564323,-4.394878068212057
428,-2.192411196719269,-10.634800664650722,2.146714160860411,-4.574999185934252
429,-2.556372974490175,-10.890157902202564,2.75290653808136,-4.733638235755478
430,-2.898474529904129,-11.13033592859942,3.332567398033776,-4.855311194347109
431,-3.25505332483198,-11.34667294438655,3.910055827536437,-4.980275772899064
432,-3.673262680405737,-11.53102567574844,4.515667973596891,-5.153466997821058
433,-4.094964390244792,-11.67703912599151,5.146033249883683,-5.3593371583476035
434,-4.456763986549612,-11.784725992427195,5.792446715280211,-5.572770085086045
435,-4.77028845018198,-11.86434510900364,6.4431511228433225,-5.805152109202648
436,-5.061601675007384,-11.931737328070591,7.09637785065231,-6.0698558393914555
437,-5.3476113875211695,-12.0066734006845,7.75709733870915,-6.369334408227576
438,-5.642718264821273,-12.101903501793668,8.41151495738152,-6.698805686406657
439,-5.921329179247772,-12.210375956387205,9.027054718491515,-7.024417959573256
440,-6.160895845054105,-12.31549440731739,9.593784414814316,-7.314226286752123
441,-6.420161889458782,-12.399740648751898,10.115844265824347,-7.587683722058909
442,-6.7551351841346845,-12.450189251111256,10.611367873996679,-7.869536655790294
443,-7.125086178884284,-12.469074702680475,11.102362222729091,-8.140953520867395
444,-7.44414183789739,-12.466946276978376,11.762559543912168,-8.372500967788648
445,-7.708266068498329,-12.467696464486323,12.942802369560445,-8.57811817897598
446,-7.909763247681294,-12.490984651443116,14.744265466554797,-8.771702601782126
447,-8.127240469314408,-12.553785473150189,16.89740423214831,-8.99439763358954
448,-8.437528054309764,-12.658757412315389,19.002333754136995,-9.274526541603931
449,-8.725304714339352,-12.775013696249461,20.732732225063987,-9.548785390556496
450,-8.857855485917012,-12.865924119115139,21.937367976387797,-9.741477572080234
451,-8.915529093374701,-12.925527603535516,22.647705179404074,-9.86562442040789
452,-9.18822332317958,-12.941507753408269,22.86272535012384,-10.113500966719004
453,-9.467329334834952,-12.944139398856654,22.89048642196765,-10.337693825506939
454,-9.708562945791252,-12.941499934976491,22.884862869142868,-10.55217216909953
455,-9.899323904335123,-12.933016420627046,22.905755601298715,-10.76856764331577
456,-10.038362699553996,-12.910803903392065,22.891334413628908,-10.989692064374292
457,-10.170146578138501,-12.866014552340003,22.723030572183315,-11.219322166190665
458,-10.346115184648198,-12.790804192563286,22.38075177238625,-11.456942559151926
459,-10.53315305501404,-12.683002294096653,21.96114664536768,-11.6895445888847
460,-10.683339545639905,-12.546477325066487,21.522711676060485,-11.902085603920604
461,-10.83166158561516,-12.385418534917113,21.027698096592893,-12.082548350051795
462,-11.024895782086118,-12.208052669361885,20.419991412065073,-12.228360692227934
463,-11.257373495123751,-12.037266490942526,19.73232081236856,-12.361284781635407
464,-11.505684044369763,-11.892686910986297,19.082210839466345,-12.508050538249764
465,-11.728422268153368,-11.765243180149513,18.522862414171513,-12.674318679652277
466,-11.887410978727669,-11.636315259704682,18.006493328210478,-12.851250115483177
467,-12.015590810559601,-11.499936312582294,17.477284688654404,-13.024267192068757
468,-12.162139175866388,-11.354250584953347,16.92559871219891,-13.173686610435771
469,-12.299428598481105,-11.199096148256256,16.377121947931773,-13.27090475759548
470,-12.387079783630725,-11.03681070139504,15.847118626980558,-13.30064543739763
471,-12.454118867465905,-10.8629232603584,15.32881772967655,-13.295502521039632
472,-12.535623230728799,-10.672410457058024,14.807788420605698,-13.299124702850746
473,-12.612213580706024,-10.474359708077028,14.252905948141043,-13.321925163926382
474,-12.658811167211548,-10.278554153620359,13.619745128646194,-13.358658841449111
475,-12.66498992502873,-10.075764482818807,12.911196312388041,-13.391332999669388
476,-12.635554391380012,-9.8546387639535,12.212810606683858,-13.401781736412357
477,-12.644130836734808,-9.62066817501327,11.621159676116704,-13.413092853335932
478,-12.75773749725877,-9.383596403910271,11.160618215867563,-13.455179815021914
479,-12.907153796420145,-9.149218975395435,10.789566491308848,-13.510343522973086
480,-12.990584612762241,-8.919512583017177,10.440858174937478,-13.549311644135242
481,-12.996442433338908,-8.685087576955254,10.067226259260877,-13.569150865122953
482,-12.944581706939577,-8.433480159926573,9.644565914813985,-13.57277618631915
483,-12.862320926272956,-8.161137774805477,9.177739698411079,-13.5598511378256
484,-12.780080554059118,-7.869645829957654,8.679471077955219,-13.531711250711224
485,-12.661749249864101,-7.566283328915772,8.160628834861676,-13.47973301798777
486,-12.463566015730956,-7.25731954785998,7.616667650791909,-13.394124095107356
487,-12.246674803179154,-6.934469106535995,7.027187712723038,-13.290134592783748
488,-12.086314111121728,-6.5851313983644735,6.4103863077731065,-13.183404557075857
489,-11.959326717565858,-6.20556088552483,5.835254897431399,-13.051028746492358
490,-11.818254462059107,-5.799586967412415,5.347253339182659,-12.869070315862778
491,-11.652344589499807,-5.3757688216906905,4.95271147870207,-12.650748583459379
492,-11.45897904672089,-4.949745650276115,4.653471304539803,-12.423896020770677
493,-11.258607746605486,-4.551309675155042,4.43487455771388,-12.226852618673492
494,-11.075312619603858,-4.2033105139604245,4.272928766561787,-12.086165491180026
495,-10.860393540453673,-3.894779251615572,4.13142957101269,-11.967028687646915
496,-10.563348627725565,-3.6001316409886774,3.9735594721827647,-11.814503022869854
497,-10.251962161842034,-3.296580507419887,3.7807226109459653,-11.610762824398256
498,-10.00910214412502,-2.9701195628755506,3.5421521115397985,-11.354718101705954
499,-9.807910376010605,-2.6328221590103493,3.235298042269468,-11.049279341957185
500,-9.595106345375953,-2.308547534610468,2.849010977168899,-10.70817082970856
501,-9.350989132441825,-2.012084946657671,2.4021531524979807,-10.341462645005093
502,-9.070571241394962,-1.7504561332835242,1.9318421862853152,-9.958964184922616
503,-8.80925230267196,-1.516220778550523,1.4968996068130624,-9.594465164760544
504,-8.623682800564861,-1.2970723385144325,1.1405591486227218,-9.27574968417482
505,-8.4392047433398,-1.0968501720817965,0.8707022032585691,-8.973365939074247
506,-8.160168238870249,-0.9238743334203864,0.6542305447772336,-8.649764548336375
507,-7.825191619634322,-0.7765263171638612,0.4346587943191203,-8.323345972491065
508,-7.500574585510103,-0.6500095609603551,0.18857283944059583,-8.023725428982132
509,-7.180994702587635,-0.5396089907462235,-0.062463086907222506,-7.755934446538214
510,-6.846474107107078,-0.4388498097790956,-0.29628921519535056,-7.512020019117559
511,-6.461782025480679,-0.342300088584445,-0.5061485985700629,-7.251268566039247
512,-14.682250230590244,-10.6488291005427,-5.024049265011731,-13.80188431157436
513,-15.052118420890787,-10.876462532719442,-5.334497669189107,-14.239872650770563
514,-15.428264673500427,-11.11845481228532,-5.621908534169017,-14.643680321106892
515,-15.78176967387467,-11.383452976272988,-5.8964701767922465,-15.004082149573508
516,-16.087268882576186,-11.674500161198438,-6.170694394830377,-15.323406409658235
517,-16.408149416466056,-11.992186641114289,-6.438757629155188,-15.646586221038222
518,-16.803045945705794,-12.326596921694865,-6.6965829989617465,-16.01088668623394
519,-17.254315832341103,-12.666689771642059,-6.9637078469414035,-16.390033368599436
520,-17.717338850365998,-12.989754993269791,-7.260952568852228,-16.73991768628097
521,-18.124216131270575,-13.283596056720038,-7.598199231264023,-17.030187610001967
522,-18.423996099283645,-13.543345002680104,-7.971298406530089,-17.248006886650067
523,-18.673871540504198,-13.778958719798503,-8.345722272503988,-17.42734355766454
524,-18.944375305069894,-14.004901154936638,-8.68344669483578,-17.61470398183886
525,-19.201452235971882,-14.222888653795598,-8.976225889690106,-17.81709652687578
526,-19.39472667542343,-14.436367491241953,-9.227587739592742,-18.03204466570463
527,-19.523232642625945,-14.646578237031118,-9.442966779380559,-18.27235415862735
528,-19.59944282751765,-14.863317284124197,-9.626923898037287,-18.5446577024762
529,-19.66397794466683,-15.096351401272786,-9.770364246658623,-18.850753618877878
530,-19.751965905172593,-15.33759982071691,-9.869901645472169,-19.179149035367825
531,-19.80993553247237,-15.565272201876157,-9.933207899378518,-19.473554368256863
532,-19.780126536135093,-15.754986648415384,-9.98842702788854,-19.68018748811517
533,-19.71281039111806,-15.897432448933195,-10.124219566756105,-19.813304883285706
534,-19.66689055292421,-15.996031318632962,-10.405157397623753,-19.90422692709491
535,-19.614014926629505,-16.066825695168337,-10.773463625669208,-19.93952900412898
536,-19.517608241979318,-16.128602251092335,-11.131350711704057,-19.912697452385338
537,-19.37725288269004,-16.192126766676832,-11.404086640525534,-19.871617667472258
538,-19.206010883157855,-16.256812063716975,-11.54867804668053,-19.861344143765642
539,-19.059482080247633,-16.303727194190824,-11.60128672224579,-19.88549110791499
540,-18.982575643441976,-16.311733457732533,-11.627593651161835,-19.926818603187236
541,-18.91149223071983,-16.277062893819,-11.6502232086909,-19.939579520123964
542,-18.773193570095103,-16.20647168903023,-11.675199290659364,-19.88420184995434
543,-18.600517433774762,-16.11244473357605,-11.706466030430747,-19.789187153292843
544,-18.44382391307258,-16.01034339646673,-11.73896501022843,-19.69574010580769
545,-18.303022155797727,-15.90931432740331,-11.77508526183741,-19.595270150971523
546,-18.167910910350308,-15.811936577309147,-11.815654372165957,-19.469904528926918
547,-18.017036484553312,-15.719606647133377,-11.840947311474467,-19.315498006580754
548,-17.83142164110357,-15.623634879272501,-11.831989342389523,-19.13198950749387
549,-17.64629957613016,-15.511409484911699,-11.791511411534,-18.939712286597867
550,-17.499198563483127,-15.363763269453893,-11.730595262413212,-18.75893355437323
551,-17.35617567142982,-15.175766713049137,-11.657094336970381,-18.56939551428063
552,-17.173662216192003,-14.963268382391524,-11.580257260834147,-18.346812926858682
553,-16.9670743829539,-14.74136767902651,-11.514157775250903,-18.107779455929617
554,-16.75116279618906,-14.522976962690182,-11.465796959058377,-17.868783001559535
555,-16.489556216463154,-14.30260903496105,-11.423052074043673,-17.611725341245144
556,-16.147511874147952,-14.06730007451913,-11.369287981495587,-17.31309417421798
557,-15.717938354892148,-13.811586924319997,-11.298449393897402,-16.95403310579262
558,-15.21350023412873,-13.533350259234656,-11.209555883693977,-16.52652068825022
559,-14.698373832293056,-13.230583505179657,-11.10447309876251,-16.063243991723684
560,-14.230548251597325,-12.906696021484896,-10.990626798314818,-15.599798650046907
561,-13.766335632419374,-12.563065815248429,-10.874718090257423,-15.121526261554834
562,-13.254013511466335,-12.203763711358022,-10.765249063793279,-14.608972364492455
563,-12.736349852700407,-11.823670336569114,-10.685871232415419,-14.077333232882951
564,-12.269010906185505,-11.407128159994608,-10.649896903702242,-13.551094159155902
565,-11.86489655474967,-10.950717313551829,-10.629016838184853,-13.056829738118498
566,-11.51230436565739,-10.46978910440345,-10.588066112263302,-12.607867416488224
567,-11.158659004574197,-9.980916943658949,-10.513510128229933,-12.18406894477043
568,-10.739178281271105,-9.48244575950918,-10.405067113520984,-11.744965569802932
569,-10.229799899734578,-8.957466179991599,-10.286165289665854,-11.228946061065148
570,-9.62878297631201,-8.398532261140224,-10.178124425719748,-10.597140800717208
571,-8.93032814350994,-7.817206230359936,-10.058369707260914,-9.892007822099846
572,-8.175500384572073,-7.259324463940313,-9.914350437138362,-9.221240088563212
573,-7.495080131683776,-6.797258518518604,-9.758291500250635,-8.691882809517738
574,-7.016870411192039,-6.449783587422079,-9.622317358517886,-8.394345710365563
575,-6.778653530449135,-6.176886727498861,-9.539843184327584,-8.296233779393557
576,-6.743274154106324,-5.940930965730339,-9.524151440607925,-8.29911221250454
577,-6.784635699984538,-5.723307637945592,-9.532505776037558,-8.320631422864645
578,-6.774587753735398,-5.516965986469528,-9.512469968739767,-8.300103497001444
579,-6.739911408505057,-5.311147582168524,-9.44667594350881,-8.235861406022694
580,-6.259997293703064,-5.070367905753149,-9.357032369620402,-7.9159644460407295
581,-5.815305470839629,-4.823704778047549,-9.239628638438475,-7.59895030847115
582,-5.338968504177584,-4.583633979151125,-9.124681524973608,-7.26930728381174
583,-4.838343103551145,-4.357444144895132,-9.02261045302318,-6.930219597646484
584,-4.339977007013868,-4.1463267805993445,-8.929568374505834,-6.583554036430761
585,-3.8848391409888188,-3.9436680595040112,-8.82672870990701,-6.218532118991063
586,-3.5079465926197084,-3.739896170810503,-8.688109031210498,-5.831600990386933
587,-3.148900031205314,-3.5282012036108,-8.496556889541292,-5.4349391221231755
588,-2.7350864391787413,-3.306645993914984,-8.247065217904206,-5.049676231936208
589,-2.3188031726294884,-3.084723287087072,-7.951653233227079,-4.722598296760886
590,-1.977139563030076,-2.873870020211766,-7.63202930238712,-4.486591422639828
591,-1.696543676256597,-2.6712747915576736,-7.306388662666497,-4.287696652823614
592,-1.4406478028971692,-2.4697217885135108,-6.989864285679831,-4.05293403920263
593,-1.1934056792980259,-2.2694234971617795,-6.692185311330156,-3.7802278525692667
594,-0.9397687998155071,-2.0718367314136725,-6.417742167415094,-3.4907418363329934
595,-0.6950869491535475,-1.8766934050336652,-6.175677329030688,-3.1917912444314385
596,-0.4774609320760441,-1.6834853551780242,-5.970741502029008,-2.8898140872363176
597,-0.2313323356883174,-1.4891864211723767,-5.782152494771181,-2.5698206800007166
598,0.10040860904803131,-1.2904336308771414,-5.586182309896085,-2.215166301217314
599,0.4739319841478765,-1.0872482026762045,-5.39492158604992,-1.85598520727444
600,0.8201162671548607,-0.8817511262935033,-5.225480699005144,-1.532038227444822
601,1.1218099019244856,-0.6776224611352448,-5.053909198177627,-1.2440363377195864
602,1.3778528789854134,-0.47919449094742483,-4.855988991972118,-0.9827867859016873
603,1.5982564011697622,-0.28865050548530446,-4.6502762263842365,-0.7507293334888896
604,1.7983248304277506,-0.1081952273531655,-4.465631617882513,-0.5492931342434355
605,1.9447930840451118,0.05812807865984794,-4.326722362078874,-0.3920074038479102
606,2.003614204484592,0.20792973008827437,-4.244287281811829,-0.2872898141489889
607,2.027446920865752,0.3249167440937221,-4.170506275157352,-0.18596271255466454
608,2.0802182431860383,0.40516608090771195,-4.049101209830895,-0.03846703064880347
609,2.147441651286205,0.453036161032237,-3.8988456763549895,0.11887113983379458
610,2.1961436390754594,0.4783988491082573,-3.758442865707626,0.23308012120150942
611,2.2130011524575917,0.4862339687659262,-3.6198463914607175,0.306954058847674
612,2.2017709697553975,0.4800930223326832,-3.464905035585025,0.3664530933908804
613,2.226901374160956,0.46725600943032275,-3.296467282724756,0.45321589844785276
614,2.358020991152868,0.45587270458810025,-3.118577301288543,0.6055641304556152
615,2.5740244717341416,0.4458010699838686,-2.9186834421796677,0.8088615633144041
616,2.818046252611691,0.43999690371364386,-2.6946171859150345,1.020427936970301
617,3.067343260342549,0.4673906700296392,-2.487828670105101,1.2089135943571718
618,3.301874652229873,0.5506699173914145,-2.3457474129243905,1.3475154938216314
619,3.480586625742249,0.6852229185549588,-2.2798921519053486,1.4101939654608895
620,3.5777669623294077,0.8414676591218743,-2.2810200699033127,1.3917326764462903
621,3.605910405302688,0.9890733936528665,-2.326743824032014,1.321555361343745
622,3.5941626257058936,1.114398361038988,-2.386948057663836,1.242976001206435
623,3.5865743143139914,1.212392216319985,-2.443955844852107,1.1991348512933189
624,3.6175255542869333,1.2889740510452223,-2.4890606880318313,1.2180049703414253
625,3.6509622940173676,1.3486581857037288,-2.5122183579929316,1.2794565959647923
626,3.640485980104793,1.3937675842063562,-2.5078076494253456,1.3475843968161954
627,3.6203700496920015,1.4219933281153467,-2.4813453378562524,1.4218253349736376
628,3.64147388052351,1.4282856209319348,-2.43963078843371,1.512156882494764
629,3.7108437037956694,1.41310704432917,-2.3758377068915424,1.612509895518487
630,3.8153600795845923,1.3780282730370397,-2.284158297270697,1.7155977344196345
631,3.9090491171072763,1.3164498776251337,-2.1792647843109547,1.8201917939687495
632,3.9425337424888003,1.2248080288661893,-2.0806370514270363,1.9214775717404908
633,3.941330276768632,1.1164068903274724,-1.9986673986091126,2.008857518466661
634,3.9518176111043957,1.0104207509762058,-1.937963607469763,2.0733673588791834
635,3.9461266000803845,0.9191355646437478,-1.8906390985263113,2.1017546780538034
636,3.895333101791899,0.8506037785424001,-1.8446850801178478,2.0913922783668593
637,3.8622824980210315,0.8112069438876155,-1.8058640460608069,2.085963447476839
638,3.9156497899266833,0.7965360402602488,-1.7790206674062645,2.128549659833561
639,4.052276968041705,0.7997277796615377,-1.744080840681459,2.2001755438551767
640,-6.576121556674278,-11.282330036382508,-11.036150084831629,-8.771300546451833
641,-7.082478936500339,-11.527500514872978,-11.295626093100505,-9.322882966623043
642,-7.561888852749221,-11.77692651219209,-11.53536610206934,-9.938336612463496
643,-8.001828986232804,-12.029202408784696,-11.781507842337044,-10.554438561911837
644,-8.400863984530158,-12.280649467761712,-12.058901219484781,-11.111592921078993
645,-8.777381152068617,-12.529452069802632,-12.372051854861276,-11.624014873020668
646,-9.137000554271708,-12.776845044489546,-12.7085281004345,-12.120077178691902
647,-9.453244525452016,-13.025869901218394,-13.020791581831377,-12.588402233421878
648,-9.69062841102657,-13.281268383219892,-13.277775163568844,-13.014190407680502
649,-9.792338240179374,-13.5498430751662,-13.501014643347451,-13.386969617229877
650,-9.73567236592612,-13.835191861548397,-13.74173064703025,-13.705270258389397
651,-9.638681436586271,-14.133289362080191,-14.02617450584681,-14.017349299377079
652,-9.624451184240785,-14.435491755262898,-14.33268096536772,-14.367118229199766
653,-9.652048148318496,-14.729192555293112,-14.617925754345434,-14.716063659920035
654,-9.65133394018562,-15.004144378441731,-14.860158846060681,-15.01649065739801
655,-9.640667930133365,-15.2612565905691,-15.054318274169104,-15.283350771976016
656,-9.651710239814825,-15.505295844520427,-15.208658467638488,-15.543739157148272
657,-9.715854020908017,-15.738184425881405,-15.300711765936805,-15.814639442370988
658,-9.851182098612268,-15.959225741987705,-15.329442656170254,-16.10317227409252
659,-9.983603260436944,-16.161764116788955,-15.324695590746128,-16.36695857804201
660,-10.036795166721227,-16.33801768027812,-15.350060783251402,-16.562115165417914
661,-10.060261713128146,-16.48636935502919,-15.445104049380804,-16.722795630102315
662,-10.119052532170462,-16.608186592860037,-15.595235748932506,-16.887777593490103
663,-10.184368039319219,-16.705117697225692,-15.773785615026487,-17.01719105901064
664,-10.213849117487708,-16.779767824947136,-15.938691722122936,-17.064129685951762
665,-10.201400096018194,-16.835151731045283,-16.06329042326387,-17.03607822394607
666,-10.149584657367877,-16.8738249064462,-16.134475110380833,-16.952168403139467
667,-10.081113728013749,-16.89504585129866,-16.145995980846994,-16.82040449424549
668,-10.024983587701245,-16.8982247079152,-16.10121608681237,-16.652626057335965
669,-9.966353478259569,-16.890430979612372,-16.012210682589696,-16.459496202983146
670,-9.89067077037431,-16.872414567388002,-15.893652001554242,-16.253248756969988
671,-9.853045231241563,-16.842194966161212,-15.753090035771548,-16.05844503304705
672,-9.896611745004979,-16.781811522311347,-15.598922192220899,-15.897709368726995
673,-9.968333129843717,-16.68514160816447,-15.453792575712324,-15.780866668483664
674,-9.997848659560432,-16.550855083803217,-15.333549278046737,-15.701104826368338
675,-9.948584718922897,-16.387637646465123,-15.228604577839087,-15.626946493446589
676,-9.807380914171034,-16.206852517481902,-15.116838253810773,-15.516724619565458
677,-9.631184820348938,-16.01140279028413,-14.969111240505272,-15.339034905241352
678,-9.477597716877064,-15.799430371594223,-14.761021760743557,-15.075188904324678
679,-9.276213267882818,-15.56638760923396,-14.494379149758968,-14.714372224223053
680,-8.95972921599224,-15.307205007804882,-14.183873803064301,-14.26965870815865
681,-8.61275852759934,-15.022070424027737,-13.83571455843965,-13.796998197724964
682,-8.33872361301507,-14.713071953875456,-13.460479644523067,-13.355154900881436
683,-8.163796908617641,-14.379265015573775,-13.086471417316817,-12.968929226128688
684,-8.076384579629968,-14.018545535429043,-12.73567933658753,-12.63982429961928
685,-7.996983478143882,-13.630167992527804,-12.405962807381837,-12.340553274579419
686,-7.844778218272286,-13.207895506506336,-12.083111998725947,-12.039839017330772
687,-7.671343039844827,-12.753863475086671,-11.743123629932084,-11.752423379478582
688,-7.547520650368929,-12.260645222577429,-11.368864160020033,-11.499862652646112
689,-7.4206038014405085,-11.72046464578042,-10.973250651127607,-11.255230315128987
690,-7.2366610525774675,-11.144132148168618,-10.579231828544524,-10.993798537226262
691,-7.044695631043072,-10.543426230960705,-10.20739908661954,-10.744349415527529
692,-6.908041453114712,-9.933901588721781,-9.865947829323764,-10.538309081463726
693,-6.863685547435967,-9.32732651629293,-9.522846084660442,-10.369848592678395
694,-6.926276264238225,-8.731538901562262,-9.145079462850571,-10.223021956421682
695,-7.0343978848312005,-8.150149449929811,-8.744564590521387,-10.076223721921457
696,-7.119014856711908,-7.582363830832101,-8.346930957424672,-9.909876743100133
697,-7.219231249585546,-7.027420548397441,-7.9744186598752655,-9.74375186297913
698,-7.380394907719433,-6.475182805525526,-7.635788002397826,-9.5935433368678
699,-7.538542712128588,-5.9152703371131174,-7.297200188248855,-9.407368008347639
700,-7.6232180662400415,-5.355775053611793,-6.9542682684381685,-9.13931182974364
701,-7.63776186447296,-4.855630693174729,-6.681950677499133,-8.827696186798994
702,-7.60762198804739,-4.442105272023306,-6.53881317330202,-8.530515736706501
703,-7.558588527392959,-4.098276248999244,-6.489561304208997,-8.268447813505745
704,-7.515806807362316,-3.8072485006048384,-6.46438928306552,-8.048453966777917
705,-7.473853798842202,-3.5754790700629098,-6.393239788128353,-7.879924142151322
706,-7.415972700903606,-3.3994378654763744,-6.269061736146283,-7.732150374399275
707,-7.342876904598855,-3.2650716460079177,-6.122822612962092,-7.651309930965278
708,-7.23229473030019,-3.0083039762972366,-5.968983951385066,-7.579537598034998
709,-7.130030444568937,-2.7302839511624164,-5.850727357268766,-7.527064530696397
710,-7.049084296688009,-2.4367773733807807,-5.784261770600856,-7.470236894113835
711,-7.001279599695542,-2.141617234362451,-5.779987152728738,-7.396145986659724
712,-6.990985276250039,-1.8640475912518455,-5.838298685143421,-7.29850080303895
713,-7.020076460762989,-1.6122905635228362,-5.956788436710804,-7.197225856522876
714,-7.083675080175778,-1.3843517205667042,-6.127702022069288,-7.114919305161363
715,-7.135101477129716,-1.1647200907813304,-6.331382469040251,-7.0267333621837835
716,-7.137548482113982,-0.9359516691664023,-6.546183795425588,-6.901492719966392
717,-7.163477671006616,-0.7023362343874296,-6.75069255808012,-6.758239273472285
718,-7.294038491775281,-0.471382488774815,-6.9294253332997275,-6.6273795284658865
719,-7.481552903183827,-0.24867137531951855,-7.099679798044002,-6.511743400135848
720,-7.643566076697224,-0.02861787275678377,-7.275995621711793,-6.4062333409331655
721,-7.753146545044962,0.18970820049386936,-7.4110383641995385,-6.306641828794172
722,-7.804121391701622,0.3935912487375944,-7.4576285214017535,-6.202392931280387
723,-7.822293183583046,0.5825614020032669,-7.392051969892812,-6.087040983906737
724,-7.846289533371812,0.7566448494547168,-7.246429725875652,-5.954359139991878
725,-7.848932029038596,0.9142846439635374,-7.0639325345839215,-5.77314814010363
726,-7.796338943389449,1.0571642505939074,-6.892784547980805,-5.52243821601913
727,-7.749257081709197,1.1900139855587812,-6.740355367545238,-5.246195361317335
728,-7.776332061765893,1.3194719588148411,-6.592904283437243,-5.0016407368183
729,-7.8533217447757755,1.4587090812711374,-6.441493323553888,-4.801728930103101
730,-7.9324723931149475,1.6169536355583412,-6.28020657946016,-4.638929478819839
731,-7.9920628420459785,1.7838510382021133,-6.124750077642586,-4.488117962801748
732,-8.021742814349427,1.9425142867143212,-5.9884060114092765,-4.321508346351167
733,-8.062084227057017,2.083633990498585,-5.8719212316419,-4.161781156809907
734,-8.156392273857918,2.2031433809765963,-5.755633907823638,-4.039578874259743
735,-8.239310324075156,2.3051819685750297,-5.6340773003960125,-3.9255737835962314
736,-8.235240229077842,2.3969484633141507,-5.529444023256082,-3.783087811411683
737,-8.190492246713402,2.4786627629541806,-5.461686925612499,-3.6173441645826476
738,-8.179172321789034,2.547054361709303,-5.410876701952348,-3.454311552461247
739,-8.23013061999338,2.5962981180486318,-5.324743663656772,-3.3420578647942323
740,-8.346923006716999,2.622444729673006,-5.189688336678926,-3.3275689979860665
741,-8.454140808899558,2.634861350030915,-5.026447551030508,-3.408965283728106
742,-8.472932458144214,2.646326718435844,-4.874911616862209,-3.555635903636053
743,-8.484612042822771,2.6587729328081506,-4.740667815707848,-3.741617947838671
744,-8.597316970064352,2.6708598297256603,-4.6177365033736715,-3.936849310543282
745,-8.759782797984853,2.6839559496161,-4.509792674019214,-4.095029597560238
746,-8.88410331765428,2.7003536385632225,-4.419731111680831,-4.184377509182576
747,-8.965468523942876,2.725098745364438,-4.354478018256635,-4.227073433261943
748,-9.015592466626666,2.7630919174533037,-4.319108768877838,-4.259334945728686
749,-9.044914952954969,2.8165535500309495,-4.298533852025905,-4.286776956406119
750,-9.070021608849842,2.8826129018080353,-4.273288229917509,-4.305780031280969
751,-9.049474109884551,2.945788290317684,-4.238962927281186,-4.301392560049998
752,-8.947019714370594,2.9896917836861645,-4.198261510459249,-4.267854673621337
753,-8.860269141135161,3.0135870810876213,-4.156650040943767,-4.269980907030094
754,-8.89353552253323,3.022100276969104,-4.120262424329553,-4.376977400543476
755,-8.99937909830861,3.018152266519662,-4.089781779991356,-4.567156441898282
756,-9.0789138032658,3.0017252769299945,-4.0613562445061,-4.784201563923231
757,-9.063503199205133,2.9569200246567973,-4.0245636115331465,-4.994953756196682
758,-8.90814820217322,2.8680968104189284,-3.9723125949987588,-5.169038327468964
759,-8.637784218965013,2.747080809311946,-3.9160462440353005,-5.283384373040251
760,-8.313198130880386,2.61388936042232,-3.8719385831920063,-5.329042737873334
761,-7.957296487507,2.474531790558111,-3.8498034307653866,-5.286916409496213
762,-7.575858278070106,2.329927895440203,-3.8485230611573447,-5.150252981249396
763,-7.182461888130388,2.180096470234785,-3.8422475794181548,-4.972778378082634
764,-6.78094972107325,2.0224997251874917,-3.80197197082709,-4.81446678594389
765,-6.3541198216705155,1.8561175923958424,-3.7160926397490175,-4.665483580771825
766,-5.895594618049008,1.6830309642760617,-3.589995352456625,-4.498534229781581
767,-5.432883246876628,1.507603264681779,-3.468763026955644,-4.3247081312465525
768,-10.989304241189155,-9.397900384723869,-20.288069182440008,-12.053905366392426
769,-11.479434778218462,-9.782574928967483,-20.743431673609642,-12.575508335749891
770,-11.977227666874725,-10.162322662593738,-21.19199003938455,-13.077548430021325
771,-12.447124062749424,-10.545341968596043,-21.631916299725408,-13.518154624420433
772,-12.85249547935833,-10.939573421207239,-22.040941571640843,-13.920091472475974
773,-13.257658558991757,-11.355328672358585,-22.39364613255772,-14.390835406362338
774,-13.729035917113118,-11.792742239741763,-22.679381504994986,-15.002755807046029
775,-14.266128052500408,-12.233099017745,-22.91858197471856,-15.728886774858413
776,-14.843894630603547,-12.653574512246022,-23.151195057313338,-16.490410640425516
777,-15.401620416590177,-13.03262925529588,-23.419807195698336,-17.20211460512378
778,-15.888548641177337,-13.37234741076897,-23.72972135169292,-17.795530326183226
779,-16.369831940764715,-13.685658717586476,-24.032573041751508,-18.27542915440361
780,-16.91765796818714,-14.012529396868354,-24.266410118977053,-18.681330228732243
781,-17.461480036243067,-14.396463924669217,-24.378816052654905,-19.06920287790598
782,-17.92015431871005,-14.827985134548754,-24.325283029508803,-19.48156661195805
783,-18.334782632366846,-15.251512651517533,-24.067735392026126,-19.954882061108037
784,-18.751725848011024,-15.631197051279775,-23.60266025334285,-20.52491867449251
785,-19.1573700114605,-15.95872288237932,-22.98318575672707,-21.146415466329927
786,-19.520620707215542,-16.21857050148571,-22.30873157441496,-21.63035297383208
787,-19.74055877213609,-16.42036913092992,-21.615021329677372,-21.786220858959226
788,-19.75950431054072,-16.58446316898777,-20.784085013153707,-21.69240476038811
789,-19.7619834377404,-16.76570346185619,-19.665912201201397,-21.64484800947137
790,-19.941180456468164,-16.991756363313556,-18.231119719096725,-21.817570604998537
791,-20.250894349717623,-17.23476918375063,-16.53080621249947,-22.172380747675177
792,-20.571661610081573,-17.434490748952534,-14.619705758691335,-22.56003138158842
793,-20.80421121584584,-17.55306413539658,-12.551211183066178,-22.835825775731724
794,-20.881586666559045,-17.632971794831978,-10.370683974723235,-22.936510895932578
795,-20.889264218487316,-17.76925629053545,-8.169828893934483,-22.905376622083235
796,-20.94537086491306,-18.00784967841735,-6.108247055792603,-22.83784978354322
797,-21.017442031475937,-18.308740469403222,-4.4081647756153455,-22.827450514691392
798,-21.052028546945166,-18.60101519855987,-3.4424803447606784,-22.909136419216406
799,-21.09216757008301,-18.787932137708083,-3.651680422945173,-23.07026589276634
800,-21.19143094760027,-18.84414666624241,-5.17520808163755,-23.298146543102288
801,-21.377576222725605,-18.81918057915491,-7.743160330856097,-23.590057894508693
802,-21.665083336311437,-18.7704726762612,-11.006568916565246,-23.922633264574166
803,-22.020668477521646,-18.737775143960455,-14.725966334061257,-24.257229813878425
804,-22.39640476430329,-18.741313415160256,-18.67558199128442,-24.564794950503703
805,-22.80229672654973,-18.790396922361328,-22.618325942952648,-24.86913517974333
806,-23.25020266946479,-18.878425701111894,-26.38144919100018,-25.20128090645432
807,-23.66519006146035,-18.986142116873854,-29.88208019720002,-25.58098426902777
808,-23.990532144932736,-19.093468506422422,-33.0779027322361,-25.998541347739923
809,-24.309679478785746,-19.191753483288466,-35.88904183501647,-26.440215902985113
810,-24.71439228142109,-19.277123740025022,-38.207197462558085,-26.89234808418332
811,-25.188583299691576,-19.342744797544615,-40.04667841271584,-27.310391844905332
812,-25.68490197276538,-19.382086160022254,-41.57730110203167,-27.62689940258038
813,-26.140216084760592,-19.393384271951223,-42.93982139758443,-27.855131356281095
814,-26.508191152186605,-19.37609958561147,-44.15781225077862,-28.109501130198435
815,-26.87745408793521,-19.32120945579589,-45.25676979526806,-28.499238637612073
816,-27.33652384948885,-19.236674720442338,-46.345989489407195,-29.057619668575523
817,-27.77866952170794,-19.134934264434957,-47.55815249266243,-29.654627188968607
818,-28.084194140560918,-19.05887299556645,-48.91550593422939,-30.049845230079775
819,-28.302139338469157,-19.025037699041622,-50.30305213247582,-30.202205162380483
820,-28.51199352318188,-19.029966334274924,-51.54951430280514,-30.30031642470689
821,-28.738861054463253,-19.029274932151058,-52.509256332928835,-30.453851066232048
822,-28.98452996976899,-18.985159511793782,-53.1573112476168,-30.59519788280512
823,-29.188580800852044,-18.853587966941248,-53.59003671133163,-30.6168893243904
824,-29.27932176368152,-18.658922642124644,-53.95064388658032,-30.502711444510492
825,-29.2758906909963,-18.468137224950816,-54.36464847659472,-30.32091396904107
826,-29.211990758782648,-18.334014432025388,-54.93314012108622,-30.1164078463485
827,-29.04984840600846,-18.234047819441116,-55.7374344055747,-29.874930634406645
828,-28.777578561089218,-18.126756794735627,-56.882915025805,-29.570192369041038
829,-28.468710560990367,-17.985668811254563,-58.50462873217852,-29.219351700982465
830,-28.217384781975266,-17.823128419301465,-60.615836981145705,-28.901918491374122
831,-28.115822123012435,-17.691741938711527,-63.13452122410152,-28.697543533664913
832,-28.198896071628287,-17.597216734022474,-66.05307890310021,-28.60836588974249
833,-28.33674081821052,-17.533329019770644,-69.4036225464638,-28.569784245676146
834,-28.38576860307748,-17.480064905093357,-73.17436636629678,-28.528844823582745
835,-28.387356961191895,-17.422605452433743,-77.31864865710848,-28.474520783194563
836,-28.042475284925153,-17.080801857055786,-82.5214456142302,-27.92707420447876
837,-27.69500419300877,-16.750096090907643,-87.5373401126215,-27.36460290170536
838,-27.2719104240888,-16.433392556771334,-92.39441731292166,-26.767962614169953
839,-26.786431459828595,-16.13377560950988,-97.1292819533277,-26.134430993110207
840,-26.274025631622173,-15.848149885250875,-101.75894367762992,-25.49114275263222
841,-25.756007992316363,-15.557587663473686,-106.27787327283626,-24.860021390257913
842,-25.242692968649198,-15.241117365513746,-110.66438952943798,-24.22639159467249
843,-24.673661849780782,-14.892113411130373,-114.90267490047391,-23.546623970368206
844,-23.98781402501762,-14.514033609687843,-118.98068431500965,-22.799542208981094
845,-23.257615067648064,-14.116292207181298,-122.89299746992909,-21.989785464211195
846,-22.580100580540595,-13.713546634529356,-126.64035406813464,-21.142759437355945
847,-21.939553814306162,-13.32320420921827,-130.2165663172049,-20.273868894202973
848,-21.291379681700995,-12.958096632274527,-133.62053587365688,-19.398220072264564
849,-20.620764682398615,-12.616051222894798,-136.8640566579061,-18.538798337388357
850,-19.924240886432397,-12.287408232726055,-139.9628493909303,-17.712350052317788
851,-19.254192148816387,-11.96929611435471,-142.91397606603223,-16.923309769992922
852,-18.666134153624487,-11.65739807374617,-145.69328223470237,-16.16526422057595
853,-18.103045944639934,-11.334809773360435,-148.28275821127303,-15.412436072172317
854,-17.486290817896222,-10.986682236664695,-150.6872005146447,-14.638240673202134
855,-16.83870624388327,-10.61117832604587,-152.92036021935388,-13.846230366137904
856,-16.204706868854096,-10.21433844067239,-155.00088677850525,-13.044509940734786
857,-15.578919217226973,-9.816115915813075,-156.92492098145772,-12.24787922277344
858,-14.943925396237471,-9.431796192210902,-158.6832888884312,-11.453016965582046
859,-14.27401597476818,-9.040541853812242,-160.26855563128285,-10.648544045410059
860,-13.544730464596302,-8.612759491199034,-161.6851766455411,-9.841947270338645
861,-12.77881282269268,-8.138166506975693,-162.94807838815976,-9.035270414176255
862,-12.01732008100542,-7.62243992896267,-164.06698330152517,-8.23326385961231
863,-11.259580516387016,-7.098462085789605,-165.03119568198403,-7.427374621070086
864,-10.501454768184539,-6.6042843393513415,-165.81107988260277,-6.6133831143177915
865,-9.802069925281335,-6.146830951045241,-166.3881765663065,-5.816294341603665
866,-9.210128463504397,-5.71674681690136,-166.76226490044237,-5.067609653695899
867,-8.666788126609902,-5.298595630338177,-166.93643849898606,-4.390652352365204
868,-8.094155464094673,-4.878057442458276,-166.9219468445857,-3.789005824819586
869,-7.480526069427714,-4.464835845070014,-166.7250069861495,-3.2157609145263977
870,-6.842918143304296,-4.066035984419372,-166.35391676441603,-2.6139342931398657
871,-6.244121129042774,-3.702525479909883,-165.8179735449047,-1.9471813701506016
872,-5.74025219991192,-3.3562194007406543,-165.1321590101188,-1.217139427370288
873,-5.2419350366934925,-2.9914452143819394,-164.2942828636754,-0.434422018066575
874,-4.641873149500699,-2.5774131890503233,-163.2912113848922,0.37792435235078015
875,-4.005702049943713,-2.149690828329335,-162.09690213132566,1.1590809196864647
876,-3.4405815712963763,-1.7657954320136844,-160.68861358601026,1.820164685008075
877,-2.958696669821466,-1.450886371175278,-159.07424143144496,2.307376019084245
878,-2.545620516052203,-1.2115799076231224,-157.28916076445756,2.641222695491239
879,-2.17751051249411,-1.0371618609309208,-155.35428218397826,2.8658538153980073
880,-1.8197193191205754,-0.9015176633975257,-153.25962848481973,3.0528068599228493
881,-1.5034904952372155,-0.7836981131471101,-150.98333029516763,3.2664116239318837
882,-1.257645246211414,-0.6660162563051674,-148.51554281749117,3.5489306866368926
883,-0.9760598973758097,-0.5273634513375827,-145.87462225920578,3.9138423026873683
884,-0.5439666294770679,-0.35431513200916326,-143.09489833572226,4.347666022954519
885,0.011919411626582166,-0.1474303317836979,-140.19125770982006,4.810197257054903
886,0.612863827004953,0.08256383287643404,-137.1540038638914,5.264802951187273
887,1.189427461704492,0.31360303345273377,-133.97099110981705,5.683161270021589
888,1.6841306897168589,0.5244662513547728,-130.636696548874,6.061618957513481
889,2.124152981436042,0.713007971315126,-127.14644065670626,6.415833042943479
890,2.5655539150553093,0.8885379566034444,-123.49379990178659,6.734181244057174
891,2.9716555081309415,1.0595877244503513,-119.68012373855757,6.968138987729172
892,3.298401524611308,1.2359132633252723,-115.72919961283097,7.131661040422543
893,3.604515719914943,1.4314338100546156,-111.67218484727223,7.334064244679259
894,3.9617873423847856,1.6511556924428499,-107.52903292744311,7.665443213461716
895,4.381354119688446,1.8800796986040595,-103.28849300634812,8.122111554810948
896,-6.804555961426648,-11.046900912283254,17.35361506167814,-1.8570755493169
897,-6.862337085913375,-11.319415869815025,27.00033478505884,-1.6962530111132426
898,-7.022336856926513,-11.627493560282804,37.52292019551757,-1.6036423437690486
899,-7.162739475621064,-11.943986693812501,48.764132681361566,-1.5596312413202018
900,-7.164573826391104,-12.231677822893777,60.37164143755804,-1.536165418463054
901,-7.041283981851822,-12.460785610357302,72.04995743077082,-1.496553792816412
902,-6.8515959069716486,-12.634826767339217,83.69421595645615,-1.4135855841471157
903,-6.6436546010985715,-12.782102111016709,95.30219479679066,-1.2958580342534183
904,-6.462882937112182,-12.92213866950265,106.81815802248336,-1.1639096145894137
905,-6.31169507079529,-13.052832265093627,118.13089450294179,-1.0230414923507165
906,-6.173531957354886,-13.162256975988083,129.11922726882054,-0.8747277946199109
907,-6.075883609800273,-13.246474639683154,139.73113523342198,-0.7235082533464569
908,-6.0380726940038185,-13.307614774316205,149.97318858014734,-0.5699802445891001
909,-5.998586311500531,-13.361001510689482,159.82479775439162,-0.408773060451599
910,-5.899780921922727,-13.423280544016036,169.22610136942558,-0.23516339993716007
911,-5.779529295199678,-13.49461896035358,178.15290811240226,-0.05112891374732587
912,-5.683255887579939,-13.566554995509133,186.6383223429219,0.14012233384182082
913,-5.595010798459165,-13.629891395986741,194.7235923259685,0.33844262867183345
914,-5.482128990803086,-13.672893557491477,202.40841860855517,0.5434286014660887
915,-5.289076487916564,-13.68193399662953,209.6847980630046,0.7574081183845095
916,-4.97902750223192,-13.64839624404314,216.52111981531795,0.9800876593068711
917,-4.636269199624535,-13.575910176960807,222.89298690615823,1.1934458075495402
918,-4.35208688907491,-13.474024628187518,228.77832562201948,1.3831557897002507
919,-4.071891052008799,-13.347536805103468,234.12826398472347,1.5667790680700542
920,-3.7269128311905444,-13.204007529208397,238.9255092324934,1.7646107602747272
921,-3.361185619457251,-13.06316884435713,243.2534039960605,1.9742642774539796
922,-3.034419760031708,-12.9370107383421,247.2047623474077,2.185569355327846
923,-2.7627325472298967,-12.834003021895196,250.846668011074,2.379751151992552
924,-2.5463631779875904,-12.740454887364546,254.17410535152723,2.5433183427739676
925,-2.3569865286121434,-12.627371587100466,257.1462140182655,2.700817588442079
926,-2.156566816304994,-12.478126644447771,259.70385782580075,2.880403489855774
927,-1.9382911138281045,-12.286197854308996,261.82472742041466,3.0643255947899175
928,-1.707646580334762,-12.056731703641859,263.51680663730014,3.2267091377320907
929,-1.463333319635005,-11.794267082657122,264.8061506718206,3.3850967127293714
930,-1.2062665418703433,-11.509174242046546,265.7373700460886,3.5411055268568314
931,-0.9393150508959658,-11.226621573637388,266.3306319544791,3.6781521505982235
932,-0.6635773110095249,-10.964656020141302,266.6032864178085,3.758195037678854
933,-0.38006445742137585,-10.717593792598548,266.53211644857043,3.7833029361395414
934,-0.09012949934572526,-10.464812327722248,266.05371424388176,3.818474892781823
935,0.2088586376506938,-10.169127901146858,265.13113551366024,3.9271235659572015
936,0.5202513434876856,-9.803629590242648,263.78345149886127,4.090869759259343
937,0.8334190949642473,-9.37012946159555,262.04163637258296,4.249909759889865
938,1.145747726140932,-8.895623022862294,259.9514359209703,4.3367551638309
939,1.4945905167363294,-8.408276959894009,257.53164060317147,4.380375454332852
940,1.9120820450523228,-7.919433061428223,254.78979834204938,4.434143067204901
941,2.3866417046822574,-7.427209472482249,251.75716656825733,4.501909947351043
942,2.8849354771492433,-6.9208229201069225,248.4473066746512,4.571817928742571
943,3.3481425287863242,-6.396179491611783,244.86516006858685,4.623870532375378
944,3.72983516617657,-5.853130314873042,240.98836534664898,4.632989530588534
945,4.067258315381863,-5.300037126042367,236.82065553889603,4.596896780016329
946,4.414929687233992,-4.73942147296343,232.40281528770734,4.523969823272272
947,4.756268914615241,-4.165968478357273,227.69767520414638,4.41079851197958
948,5.071413014190461,-3.5617488973540152,222.5509008682339,4.259460438135113
949,5.401319179354739,-2.922981199236597,216.85166509148473,4.095922386703671
950,5.784816076511668,-2.2647863018386634,210.64990329002018,3.9441083980852745
951,6.221388728139375,-1.6004360340068982,204.06093161773774,3.801509426874093
952,6.694469940979143,-0.9345028054917668,197.23509579334012,3.6585682924381526
953,7.157303419948474,-0.2722620797345984,190.2809605525148,3.512706348243664
954,7.57264098378586,0.3776994069451385,183.21048836377113,3.3640347426774677
955,7.9878847720184165,1.0209108734661012,175.98865208113554,3.220533028651632
956,8.43041769125894,1.6515984258556602,168.24569253635073,3.0697322681758368
957,8.803881277768118,2.2050556660938097,159.311707166099,2.8829164299749306
958,8.994623756281438,2.634283498739408,148.94383864285655,2.5882180512937323
959,8.949128424140591,2.9228708703988358,137.54008678557858,2.1266040803316093
960,8.682625273975699,3.0702766581171157,125.67007880898251,1.4153405820896157
961,8.34795633088752,3.113433556431124,113.70531191162259,0.550037773567038
962,8.113727227949857,3.131989252394891,101.75852082344024,-0.2641636625864466
963,7.990242148366601,3.182391987820212,89.78604180403129,-0.9498239665615624
964,7.815007086893147,3.292650214335608,75.98756479125647,-1.5833199008593097
965,7.66105109555845,3.401912937916,62.31489774339454,-2.0972669639610193
966,7.477844900854598,3.480102658607514,48.77087262786215,-2.574458738567177
967,7.169047592175367,3.478226153956512,35.39951185961025,-3.073049373442734
968,6.672033966090711,3.3911822545313774,22.26121901648829,-3.6174321719622213
969,6.03944201058275,3.278885285563551,9.34171817138733,-4.2009023501415745
970,5.372420642018759,3.2142183982409094,-3.444540345940596,-4.795428025557896
971,4.771378162425781,3.2259723870742008,-16.146283329451613,-5.382088751812381
972,4.306924347257046,3.296171055250159,-28.713034653055487,-5.947410981147999
973,3.926782866891064,3.394683813682104,-41.08134501616476,-6.47885922363478
974,3.5449350899852394,3.4833501402223432,-53.25317668467173,-6.972713052519507
975,3.195029313567249,3.5477340250492335,-65.25525025268263,-7.419402598409055
976,2.935817491610924,3.591119946536535,-77.14877493831123,-7.821058476413748
977,2.7484302030090553,3.628637801209968,-88.97612284148535,-8.234145862567203
978,2.5968036382528275,3.672186639464606,-100.76337509740185,-8.69492858494621
979,2.4487278161758117,3.7112856637784106,-112.52261114869582,-9.224477555698178
980,2.2774086405606053,3.7251065005825246,-124.24841163967581,-9.76375291880855
981,2.116043593273499,3.71526737267257,-135.92224991372913,-10.212751458730047
982,2.007975977820969,3.70964244005596,-147.52371285670455,-10.524057329769075
983,1.9153214208269391,3.7262968625531476,-158.9745740234556,-10.710680770005217
984,1.78550899144196,3.7616918802194497,-170.1934041661019,-10.820339477385936
985,1.6331953817456273,3.808791338823876,-181.12136970753608,-10.838624987358289
986,1.4887341030668504,3.85200955181787,-191.61200289919378,-10.759435195947571
987,1.3545939316354119,3.8794552360714176,-201.3787083030154,-10.593064270241234
988,1.2289320908634496,3.885572385863561,-210.14249179037395,-10.395059965326512
989,1.1117567388102965,3.8741617154221677,-217.73448175950543,-10.208717424434035
990,0.9987544830322503,3.8537218815891827,-224.1413006049074,-10.018499110324484
991,0.8901339563126138,3.827146139093484,-229.49836132316503,-9.809373218860637
992,0.7880673366797202,3.796881543217025,-233.9266821079148,-9.560414459008403
993,0.6857451131186871,3.7710205802134826,-237.32465276207313,-9.30141796966154
994,0.5806054299850406,3.757618754955671,-239.46962678771126,-9.071419664549897
995,0.48708934496451983,3.7627584993373913,-240.24756074268169,-8.853622243376025
996,0.4238775727299905,3.7877063295104083,-239.7202912653498,-8.617427882362032
997,0.4158727048623756,3.8211739834179435,-238.04488283136064,-8.349429943883894
998,0.47625758472214397,3.8470986772200724,-235.30622339965518,-8.048789707958557
999,0.556929895475423,3.857839481549449,-231.4845996108647,-7.760696573273461
1000,0.6032673959090966,3.8485238922005776,-226.57716308820642,-7.533813894469877
1001,0.645532001648203,3.8088938492156035,-220.62611095690363,-7.338622528069352
1002,0.7295847818153144,3.733179887613415,-213.76820982054016,-7.142291097624937
1003,0.8293560607321496,3.62845599843793,-206.31193519159208,-6.920455407499879
1004,0.9070364977923728,3.5082897491024636,-198.71834323130506,-6.713773593283454
1005,0.956150037578402,3.3885930559069366,-191.4727748017382,-6.531395905554875
1006,0.9774352783704987,3.282169555372855,-184.947269793816,-6.382080806454542
1007,1.0074046250059774,3.190883535493958,-179.20392235110202,-6.24508972310501
1008,1.0701743350103936,3.106457910399136,-174.03037455342562,-6.09629827218014
1009,1.0644600373154944,3.0128941745481446,-169.0814763725705,-5.9660061716065265
1010,0.880756203759685,2.8920962544546764,-163.93740084898732,-5.895345191267012
1011,0.5597358606407457,2.7310697333268843,-158.20933356537805,-5.882378896897802
1012,0.19659871223830247,2.5271276621266408,-151.77193585129177,-5.907243619939378
1013,-0.14667432862845609,2.291335001048141,-144.76163841623244,-5.947921567903523
1014,-0.4176891008662211,2.046158170020349,-137.3360654288024,-5.976426751327145
1015,-0.6069208671055919,1.821623222038491,-129.64898191127077,-5.971942857970492
1016,-0.7309416545354989,1.64422402435006,-121.98950834192019,-5.920147186328514
1017,-0.7463276632099338,1.5282130859299299,-114.7445971526778,-5.803288790318834
1018,-0.625501867186892,1.4665523683034187,-108.20195788907105,-5.612527918098505
1019,-0.47958399639845206,1.4391092212099044,-102.36786273312401,-5.357427357556794
1020,-0.43690995409817124,1.4106729084433391,-97.02349993945333,-5.059273029120942
1021,-0.5034347934355536,1.3477937379943667,-91.96209098384489,-4.753048267700775
1022,-0.6352648780591709,1.2476976059903968,-87.14015934733587,-4.4696857434364405
1023,-0.7910861525756036,1.1346016538309964,-82.612575302178,-4.206269883640274
1024,-6.864114978173676,-8.848468327960392,6.200852240709691,-8.473391872398953
1025,-7.251762951087555,-9.172307078448162,6.059921697929646,-8.888597523183073
1026,-7.6714354035343035,-9.480931450836554,5.909742421484969,-9.33236731493418
1027,-8.075616949990708,-9.78402975599392,5.7583414366347005,-9.79265477617693
1028,-8.420078946017158,-10.089301017691506,5.606109233693172,-10.250812504185859
1029,-8.769157584775675,-10.396598684671867,5.46562542045308,-10.73229612913685
1030,-9.188831457645847,-10.702555391292988,5.346811679568015,-11.257386079998192
1031,-9.64479390074777,-11.009633589199035,5.251055968927245,-11.803923715260941
1032,-10.077211911072412,-11.319466951255793,5.165824925401733,-12.338300385262535
1033,-10.437069303297498,-11.626101879376003,5.102806512181082,-12.829073863984256
1034,-10.694322192724712,-11.922341239292466,5.041911230408089,-13.252158005797632
1035,-10.894632397994572,-12.204289123702095,4.927139033634512,-13.61356768619708
1036,-11.100016044459592,-12.468619840303292,4.737685018462192,-13.930059627659938
1037,-11.294092710776926,-12.712614170556837,4.473171937915853,-14.19736006423878
1038,-11.448034874543858,-12.934171034059613,4.152583757803876,-14.411666346464049
1039,-11.599471779996989,-13.126853164027517,3.786478792992408,-14.59325112090631
1040,-11.775484894775142,-13.285465124535982,3.3930190551514197,-14.759664374197433
1041,-11.924276887698136,-13.419657295822256,3.018598498767082,-14.905578120855735
1042,-11.993476476867642,-13.533795125097118,2.702274987867772,-15.021024267796196
1043,-11.975573726949506,-13.624439492126161,2.4444930912599987,-15.094744650838562
1044,-11.893073260850006,-13.679248574443099,2.2269295412873227,-15.123922049080367
1045,-11.837250266791457,-13.703222491560156,2.019898875550087,-15.14355736941834
1046,-11.88457813184903,-13.725610459499046,1.7947490152754781,-15.186871291548405
1047,-11.965908125972284,-13.770768287419456,1.5557594589098935,-15.232748742313781
1048,-11.989197243131592,-13.836416718668739,1.3122103164702392,-15.249236638460738
1049,-11.967118260242511,-13.903014278807014,1.038973595970766,-15.23744044449599
1050,-11.937555953719503,-13.95748953110808,0.7119083391522527,-15.2057708025526
1051,-11.928890902289725,-13.999873229543091,0.33889863016182353,-15.15123363740104
1052,-11.962264272637274,-14.035298429652109,-0.061191569554276404,-15.078050035431037
1053,-11.99051548704497,-14.053205464271352,-0.4685725841286413,-15.00694728805361
1054,-11.966178265264517,-14.047040645747314,-0.8634186885538545,-14.955676883160988
1055,-11.954244631249754,-14.014126860570473,-1.2382192979134583,-14.932521760192992
1056,-12.026482551482076,-13.968288922234859,-1.5924179716013733,-14.932125973937925
1057,-12.143923633513674,-13.92146657104543,-1.920042950974046,-14.915260380143605
1058,-12.25277703347379,-13.883234236393141,-2.220566318652789,-14.848650621137333
1059,-12.363067916713186,-13.850605010391387,-2.508193585594821,-14.753770264333326
1060,-12.491403842041391,-13.811961015710233,-2.798950635189611,-14.668123733284661
1061,-12.640306178409693,-13.7533747524362,-3.1046223614912702,-14.614144260564618
1062,-12.808259412921398,-13.663094290999899,-3.4282548935652026,-14.601828204558826
1063,-12.958643028513821,-13.532277632228283,-3.7537502452929368,-14.614018392625248
1064,-13.060912813480089,-13.362444933737136,-4.063639467249415,-14.62493039443291
1065,-13.159920393365764,-13.180341909583284,-4.3570690915154415,-14.627905045210264
1066,-13.303252250537856,-13.00802831501776,-4.646781016537255,-14.626292740191635
1067,-13.465294390577094,-12.848439309003387,-4.9583415577981595,-14.626505919338612
1068,-13.601300218405795,-12.684360032981376,-5.318330107346444,-14.634335136866541
1069,-13.68293425774535,-12.50633094637112,-5.745345926745289,-14.651607795591826
1070,-13.691202911155607,-12.320030984940699,-6.238677562976913,-14.666631458892802
1071,-13.63348261023493,-12.127304847762163,-6.7590852780342745,-14.640490829224952
1072,-13.529676837515613,-11.920854503003794,-7.2623541564639975,-14.538798067541125
1073,-13.385980733701908,-11.694792073001054,-7.737235566102951,-14.357552103473328
1074,-13.204043932064568,-11.447846816221015,-8.189282860132794,-14.116671558705765
1075,-12.987613351548898,-11.173105936541884,-8.633660471637336,-13.871036157654087
1076,-12.738206726920188,-10.857177662809965,-9.089664729907557,-13.666315308234653
1077,-12.45444271387649,-10.502328689435284,-9.557708908511854,-13.482222961775683
1078,-12.135399081006376,-10.127831468835346,-10.036484921835987,-13.27271554339923
1079,-11.78477484401452,-9.746202422003748,-10.549094179291378,-12.99717292547924
1080,-11.399117178660845,-9.345780377522907,-11.116340384139315,-12.626825292831631
1081,-10.966068101434136,-8.908377392455986,-11.731459406158312,-12.178680496412243
1082,-10.468000010962578,-8.417279537941475,-12.3759093449605,-11.682676332877298
1083,-9.858047985547373,-7.8849303459991615,-13.033492612057529,-11.12766757215073
1084,-9.125500448288848,-7.361606668950902,-13.642463014878691,-10.504271802583187
1085,-8.4320638555529,-6.92409921177034,-14.07920488855228,-9.89855332167551
1086,-7.9280236820335235,-6.616124315579752,-14.272388993673452,-9.386117642285564
1087,-7.580071686158866,-6.417284221746745,-14.233578969970727,-8.977181464763774
1088,-7.27881394064836,-6.27239161843354,-14.061833495615213,-8.643750274758634
1089,-6.926113192917563,-6.109286217998069,-13.841096762380598,-8.334879308070068
1090,-6.461179304080149,-5.880557380621386,-13.647024653171256,-8.00744219903646
1091,-5.961734151886939,-5.579081572741598,-13.54890330034255,-7.685448727819163
1092,-5.466244839618759,-5.243619950075622,-13.701462627688612,-7.244104681938158
1093,-5.029711102690986,-4.8989897383598935,-13.856427772892015,-6.856026376387929
1094,-4.584354025389038,-4.569778028210335,-14.006241409810075,-6.493465661698633
1095,-4.121160221541986,-4.258267363362122,-14.126696964610073,-6.1409990444034666
1096,-3.6398112325534497,-3.9527835706072487,-14.198369683703136,-5.778514458808841
1097,-3.1181450137199374,-3.638597891872393,-14.238615404819454,-5.3700103090844715
1098,-2.5449240409983807,-3.30357584291614,-14.277153911506138,-4.887921789931219
1099,-1.9179812681004533,-2.950126703771892,-14.315982127265398,-4.328915989407004
1100,-1.2502615051890402,-2.5921312825222023,-14.35491056138014,-3.711496445560181
1101,-0.6116743204151247,-2.2469079236442955,-14.427494263866034,-3.080526252029642
1102,-0.06840983256293579,-1.9312960202848193,-14.5510915092729,-2.484519090299799
1103,0.4092507580036417,-1.6580797267669878,-14.739407000783725,-1.9477228753115574
1104,0.8824292308140979,-1.4255927147090095,-14.960533230863064,-1.4687948631145382
1105,1.3690734902766195,-1.2234829669023712,-15.148600607030563,-1.0162414985634642
1106,1.8743760815823707,-1.0238750427868701,-15.277423631832816,-0.5464185802427567
1107,2.3978087501115617,-0.808756052055168,-15.376547904020532,-0.03168849717619726
1108,2.927998740321653,-0.5691366633160437,-15.454086087228278,0.5353112348736019
1109,3.4795126570873482,-0.31941166676750776,-15.501336838910259,1.1422710364382704
1110,4.062481404853916,-0.07836140297992711,-15.503625154796879,1.75835938242323
1111,4.6102158502640265,0.14433432044711597,-15.487265914513122,2.3307989198916785
1112,5.056630740482351,0.35280836910941143,-15.486019642101954,2.8157723180645546
1113,5.445008064370996,0.5452804607453337,-15.501510024495973,3.2247239954399585
1114,5.841836724088075,0.7083300623969704,-15.5272578650821,3.5919358455198775
1115,6.250781430254407,0.8404896017952079,-15.567578486841816,3.928934102117428
1116,6.651863856339671,0.9613444546092942,-15.625326097356023,4.2422035220596275
1117,6.995165047302371,1.0773943095340164,-15.70407835256903,4.547044880698231
1118,7.233147720442613,1.1924339989294672,-15.801638893066082,4.849858792219212
1119,7.423311728861268,1.3005977639934905,-15.890395210033457,5.144664875912444
1120,7.6392814712641455,1.3904463174533053,-15.938873821158891,5.418695931160723
1121,7.826891640963397,1.4564673148891492,-15.94005528308489,5.638952568799336
1122,7.9118898835891756,1.4984938182634422,-15.902272340452576,5.782022747296265
1123,7.919085104109975,1.5169524211034726,-15.835494498526877,5.8860498591603525
1124,7.896611933670595,1.5180738571987107,-15.754411421057812,6.00110469059857
1125,7.877826059812198,1.523430830787225,-15.69312941904316,6.130810006850759
1126,7.885170608530518,1.549328314580574,-15.670418217577266,6.258354663833017
1127,7.861934287584246,1.599095088354246,-15.63477589298395,6.351559939817614
1128,7.747029907679371,1.6543354391388827,-15.523666242107959,6.379834521659934
1129,7.621933070815702,1.705533414123528,-15.332884245487882,6.372943248799326
1130,7.58874711325767,1.745244294975009,-15.08775091574356,6.373501652568939
1131,7.6127266279234584,1.7749073086596128,-14.830707595988288,6.352423314333098
1132,7.623228618760791,1.800153092778321,-14.602691310868678,6.272772853586026
1133,7.599861985351023,1.8194480765424335,-14.399082596739127,6.167858708365482
1134,7.537264430155142,1.8273985116847036,-14.191599519776007,6.081044120996145
1135,7.4602403462544995,1.8191762724938292,-13.954295407924073,6.0193215394835455
1136,7.405627227504487,1.7916080902798688,-13.67300801067673,5.9746340999482275
1137,7.348950065761957,1.740877432817718,-13.368213268275124,5.9063271176313465
1138,7.256494014585924,1.6705983202222414,-13.07753671767654,5.778256899073995
1139,7.1759097463214605,1.6083914776226298,-12.834914616589298,5.640934256975681
1140,7.1598552442256915,1.5786141406210588,-12.656281819655765,5.560745645601271
1141,7.1716549479030105,1.5849063056324493,-12.512776354893536,5.528854894092151
1142,7.158086836536298,1.605340202689307,-12.356580904022131,5.5100841867084
1143,7.116294959224652,1.6229376659452945,-12.153458559120308,5.4734764905952895
1144,7.058677646887826,1.6223697231341192,-11.88627302338766,5.3951808292575185
1145,7.013203921354283,1.6015766567195595,-11.57312401035993,5.3018506923453055
1146,7.007640001122193,1.5685125338116586,-11.247239674573546,5.237459819899475
1147,6.998329099180296,1.5326559233937587,-10.91699368861,5.195853985998145
1148,6.937256286836968,1.503006384866052,-10.583864350254828,5.162131163416924
1149,6.886389588991785,1.481502733768496,-10.262718784469342,5.166413093923221
1150,6.920463309312923,1.4667511214723967,-9.967895303359084,5.2380238815691476
1151,7.0174306544629,1.4632898573047208,-9.706533504148696,5.364454942534392
1152,0.13011332116655025,-13.375935697503303,-14.434658760864592,-1.3539195230413525
1153,0.05320585228019639,-13.927563095893573,-14.80937609720884,-1.3733643404477507
1154,-0.028489978541393984,-14.458813226856275,-15.135220252024466,-1.307773898216754
1155,-0.05390470583665832,-14.96527989257219,-15.457695759792154,-1.1636450149073312
1156,0.023696016396079683,-15.444351752056246,-15.820662996835788,-0.9671035755528189
1157,0.1422867785105942,-15.903930405767127,-16.230854797478035,-0.7692170520652749
1158,0.22285336281933363,-16.35426490794448,-16.67057657125335,-0.617056704232509
1159,0.272279429839078,-16.79969215912947,-17.106027566520527,-0.511648789553582
1160,0.3158605608445161,-17.241532038977077,-17.507026985374992,-0.4363675923064118
1161,0.3517378509276582,-17.680733100372485,-17.871505368118456,-0.3873315171725288
1162,0.3818172035387952,-18.113714210209203,-18.21659184741992,-0.3578184063698042
1163,0.39767318203308666,-18.528621958728138,-18.582711784684225,-0.33595448645597736
1164,0.39823294521255714,-18.91328950423379,-19.00069735609702,-0.3078017070272
1165,0.4521764972863711,-19.262660325176213,-19.436652675259015,-0.24966823983766792
1166,0.6126562444496122,-19.575647015450233,-19.848438927474565,-0.14425924513591964
1167,0.8099906192597746,-19.855772454707285,-20.245426574735163,0.0063657821955129534
1168,0.9545606679032381,-20.108133667121432,-20.65046787773356,0.18354801917761585
1169,1.0310932559747499,-20.330279580270037,-21.083761566545796,0.3487137438285681
1170,1.0555491327416995,-20.525988161661036,-21.55169676467256,0.4702077939167051
1171,1.061658667158463,-20.705941649375468,-22.013086749335766,0.5463984998053775
1172,1.095781164609491,-20.89204964648349,-22.41488402862795,0.6034657516717296
1173,1.1808623124535622,-21.10817040958609,-22.73197273385304,0.7046061737984686
1174,1.3225589799461643,-21.360830543302207,-22.959721010592713,0.9065389116671193
1175,1.5322036060149937,-21.635157704125557,-23.11924076987568,1.2096179211387887
1176,1.8031471776040158,-21.90663350349116,-23.24242601842373,1.5806030843801715
1177,2.0818182474990654,-22.15880736352235,-23.345604225036237,1.9665615822397373
1178,2.316473703293594,-22.382891310300298,-23.44040349675406,2.316783470676249
1179,2.5056584796044334,-22.580394979591695,-23.535537630549726,2.6196412162531053
1180,2.664853274159017,-22.7582469915698,-23.641950003406304,2.8840096954988343
1181,2.8109220974547333,-22.92225684316488,-23.795564493159226,3.123837256686965
1182,2.9587255008843703,-23.073184773772983,-24.019147112629383,3.350463621485133
1183,3.077535146391458,-23.199225353463625,-24.28205662087163,3.543236171790145
1184,3.144858901925698,-23.288783118809253,-24.53027895873374,3.681049161897288
1185,3.2379767081057804,-23.333738359583982,-24.708462661282013,3.7913811065914973
1186,3.429055823504821,-23.337086695825494,-24.778607061826843,3.907453901372574
1187,3.6748429901246937,-23.307708027946127,-24.739424077496853,4.023541753225424
1188,3.908675228887989,-23.246928154841516,-24.625673609050732,4.131734439245913
1189,4.095651629044557,-23.150391922577494,-24.51854566277174,4.2441646607340155
1190,4.22874402591147,-23.012103439742468,-24.487512223965314,4.377378596388015
1191,4.386255953780362,-22.833421786316407,-24.5195866441191,4.560974383136852
1192,4.649352558724733,-22.6194672778247,-24.565282811047542,4.812493772096091
1193,4.971328455606454,-22.378747874537165,-24.58019264443605,5.094062499539004
1194,5.284556485163862,-22.11546363644818,-24.52651676451212,5.360325622236142
1195,5.615484010166698,-21.828714942198467,-24.395709150000478,5.608792087250462
1196,6.000388083525093,-21.507677617595476,-24.1988245416672,5.856248286478261
1197,6.4262075010191975,-21.135342731084695,-23.94438288436233,6.123655073090505
1198,6.873904016515163,-20.704656958621246,-23.643320870714643,6.435531160795467
1199,7.327466120949143,-20.217586175368826,-23.307481822283528,6.811770021392234
1200,7.769135709590381,-19.676489221436594,-22.945775083660955,7.25422632115447
1201,8.209642139384057,-19.093345794136106,-22.56851810055162,7.735066587624968
1202,8.659779148445878,-18.47963747518135,-22.177639240224128,8.217839683448249
1203,9.068162131048021,-17.83901493824524,-21.759205605073227,8.676005484493157
1204,9.396993025250056,-17.171691007874664,-21.291796930234387,9.097479026092776
1205,9.719154056125275,-16.47851280719747,-20.745546862235862,9.499369644054177
1206,10.116177815059775,-15.759595310781828,-20.101934472055117,9.90613696108898
1207,10.579640822450624,-15.015037387103646,-19.383788772249257,10.317830353694978
1208,11.0778852087343,-14.247922615590412,-18.6239810917678,10.728923147025087
1209,11.586096280943874,-13.454803667894499,-17.831982012856432,11.142224603766596
1210,12.082088739164623,-12.63991793049812,-17.010332197059967,11.558779164884003
1211,12.602043030641658,-11.810215230115332,-16.159782373503134,11.986307530198129
1212,13.185594890639381,-10.990768783492964,-15.32688789234081,12.405771486731085
1213,13.67198791760239,-10.219571445522734,-14.616707724514939,12.764268890599475
1214,13.93177702167665,-9.519811454817441,-14.13408163965289,13.001603341025762
1215,14.034319902593875,-8.893229703336207,-13.841277494972154,13.130782307823099
1216,14.109410689544955,-8.33050128455279,-13.627502813223396,13.193375183063937
1217,14.227278690795927,-7.824013512301314,-13.400060938719378,13.209050753217044
1218,14.421105888172507,-7.356248348894075,-13.09415925556161,13.192340369592088
1219,14.644594559322906,-6.914268089270113,-12.708831679399374,13.16712494472126
1220,14.852275323929906,-6.352052362802276,-12.149668276362016,13.113028025579448
1221,15.045317816622159,-5.7950382537524785,-11.625298246309015,13.066902250647493
1222,15.272439006982406,-5.244412515956973,-11.176988598605158,13.017104438682349
1223,15.48182386700875,-4.695849866133404,-10.797986229883296,12.951984014567362
1224,15.615475023656057,-4.143142882628602,-10.448431109898886,12.86709612312577
1225,15.711508567863785,-3.583028846884859,-10.072557888291797,12.78950502659164
1226,15.831380026740344,-3.0160687535684203,-9.627028684962937,12.751553670091205
1227,16.020264048426892,-2.450070395159555,-9.126192627440668,12.761069459892274
1228,16.298308409619946,-1.8950309295511114,-8.613250618008204,12.805236150329574
1229,16.588749264390106,-1.3580843786442436,-8.127977654585715,12.838473878548726
1230,16.797813095497684,-0.8417089194452549,-7.697015019217408,12.813946065171892
1231,16.95081491725316,-0.33714214972061946,-7.299958607344463,12.733770360263739
1232,17.106697092214205,0.16313697301609792,-6.899848613106164,12.62444925466515
1233,17.2603248106876,0.6621774182616273,-6.496403743605707,12.513737418958547
1234,17.393264491929965,1.1505226206896355,-6.102031759341757,12.427126481569276
1235,17.494888988431466,1.6133461801832216,-5.717326035311376,12.360066416090623
1236,17.552969598767504,2.0447252237789457,-5.3422639850958324,12.295915351599255
1237,17.587907804974503,2.443246548909864,-4.978622659343246,12.250344533625983
1238,17.625384932412285,2.8037540605359044,-4.6225739884521175,12.237555463903355
1239,17.628168035197213,3.126454095958731,-4.261973851430723,12.222278871283601
1240,17.55641994136245,3.4269731903875487,-3.88562742331736,12.164240816680385
1241,17.460182694698183,3.723147896429452,-3.4901150506518777,12.065933289968424
1242,17.400771162140394,4.030072889351584,-3.082842619214625,11.94572345490375
1243,17.358756751295438,4.340712410644708,-2.687643567875667,11.818582700612948
1244,17.29639759407028,4.639229734259188,-2.332458677318567,11.700639669146637
1245,17.201458562419905,4.919197550700253,-2.035464123994204,11.594240295403873
1246,17.072129279727825,5.177802023323269,-1.7992354364910803,11.493068480784897
1247,16.95144614181346,5.4147847837033805,-1.6037422104237713,11.411629108653694
1248,16.88113096215411,5.6307764586649816,-1.415157079579256,11.355723904415362
1249,16.798074421812125,5.819085817272232,-1.196285323663575,11.27086456243349
1250,16.623096375142783,5.971052839515705,-0.9203353827110966,11.09809489084684
1251,16.38647007215678,6.082686911869811,-0.587912834853435,10.845559363457653
1252,16.142728881516614,6.154671632715454,-0.21976224270392766,10.545666262964938
1253,15.887646637391738,6.193164122586072,0.15114422041048758,10.211481736393178
1254,15.605363783268908,6.2078421629405565,0.49157917709726395,9.85505925562079
1255,15.276082783448164,6.211433826147025,0.7894464375593281,9.491275410436018
1256,14.885315283188529,6.209354344292538,1.0452722231745069,9.128215516996338
1257,14.488678140065442,6.201454628734,1.2582985821036707,8.772119791637312
1258,14.147954335441442,6.175668757396259,1.4315566770309505,8.425040909790962
1259,13.820164756767904,6.1164656692853425,1.5707359874119473,8.073952612711942
1260,13.442299691332606,6.024009981908624,1.684059707868778,7.706183270516343
1261,13.034401224344009,5.915460346971322,1.7887090395528222,7.330466780001875
1262,12.63340593988093,5.804777320969849,1.9021540189204946,6.961021596686121
1263,12.246755823643271,5.697602797380664,2.0309052931744342,6.606063547026942
1264,11.872745510215077,5.595063100001103,2.174633212443491,6.269635673683003
1265,11.472913848410448,5.506762392444856,2.33123088077546,5.932811901898262
1266,11.00991290074635,5.441221699514842,2.496767042765495,5.580379436636468
1267,10.539996072457987,5.397446054885816,2.6608304950489425,5.254203187682482
1268,10.134348541256365,5.369473390937098,2.814852636035701,5.003248166701471
1269,9.759498201865307,5.347760736075197,2.9750548661979255,4.814389314101734
1270,9.36307448591783,5.321859736731225,3.152467297483955,4.652599096193586
1271,8.97008085182507,5.286221572305814,3.30761537933083,4.507502169890645
1272,8.61463551207863,5.238344478054969,3.3931731305029564,4.365312188603873
1273,8.297591780641381,5.177435042191575,3.3967961307621595,4.18670786505918
1274,8.004262991493148,5.1031813664963614,3.3302938931766803,3.938831103121296
1275,7.67193510203052,5.010181527674338,3.234677102743746,3.6159732841841556
1276,7.242660916215889,4.89415192055551,3.156767716545747,3.233803707430046
1277,6.767568552407997,4.761658739544013,3.110989319184828,2.8387232906857713
1278,6.3260636156127426,4.623101513999482,3.0871168726390756,2.481257339209454
1279,5.917933652942953,4.48427259448531,3.055044805051973,2.170358065192999
1280,8.940431328266884,-8.327583482735228,-15.838097863416705,6.404821702523139
1281,9.013057944230738,-8.247461944283891,-15.908279695186616,6.8516135490052585
1282,9.088903564692254,-8.156548210155538,-15.96853644547052,7.23755115260487
1283,9.207275634844333,-8.059686258299642,-15.998805587139161,7.603506887043653
1284,9.403808743338217,-7.959393920761175,-15.982231661460304,7.996498627086203
1285,9.621290572369807,-7.85673053589774,-15.9082684008529,8.406257177157823
1286,9.79726067185681,-7.7506893844209825,-15.797478219734256,8.811486046361216
1287,9.975193065698255,-7.638752894651273,-15.680389609051925,9.223559407706363
1288,10.20597822115115,-7.52132439224482,-15.583563856400486,9.653041476269038
1289,10.465039363221834,-7.395145721750637,-15.493500192314501,10.093549038342065
1290,10.71259398939957,-7.263512292510227,-15.38441986175164,10.533815948827023
1291,10.90562808472256,-7.136497793139154,-15.246525372001301,10.950686473832555
1292,11.017452577119254,-7.015606539463501,-15.078542183795951,11.32562398729488
1293,11.116899017692315,-6.891713001902342,-14.890184331251957,11.674821320529837
1294,11.274234342159156,-6.762578494176947,-14.69411185848036,12.02195855684197
1295,11.425557438657354,-6.630268334647795,-14.490798042043764,12.363057975809545
1296,11.496144708506836,-6.496842220084194,-14.273939226968695,12.69044309661844
1297,11.521323881413915,-6.357013343941057,-14.017440779262925,13.01661828155267
1298,11.552977061834921,-6.201292479003795,-13.704043246559738,13.346113644863511
1299,11.612038411073055,-6.027328909193928,-13.333559306240646,13.65714607200789
1300,11.696934358178753,-5.8341809736183325,-12.911178313246591,13.918541701614377
1301,11.733562098599505,-5.63459214644463,-12.475852410225258,14.094062889869887
1302,11.647755281046976,-5.456950393809226,-12.115784371876844,14.161027291360808
1303,11.477211009967514,-5.31618841120929,-11.897963058479208,14.137323550710125
1304,11.287436436181725,-5.204729240968574,-11.807114265809263,14.060734586725909
1305,11.079767051331803,-5.09284283708342,-11.775856981508277,13.967815284944969
1306,10.855375659867384,-4.949925684657292,-11.709552876950509,13.89162285361738
1307,10.656880014368257,-4.763154320032042,-11.551551338240394,13.846676950413162
1308,10.519716310598042,-4.5438515515000875,-11.279472655289464,13.83499273027277
1309,10.464525934265382,-4.302627361627122,-10.905811918617276,13.870641381829008
1310,10.488203031352354,-4.049113726935104,-10.463888382425074,13.954481749213608
1311,10.50703583069525,-3.776296644814531,-9.98035062818172,14.036957950993532
1312,10.445528281200488,-3.4735955838694497,-9.473844694949907,14.069912670417068
1313,10.36716867614721,-3.126340770853985,-8.950413236255667,14.061580571567447
1314,10.351372586630937,-2.734879981766913,-8.410042613146835,14.035527060596833
1315,10.36056284600618,-2.3139593454386,-7.860959860979958,13.999365678171635
1316,10.343486530413562,-1.8749928492204475,-7.308699914587637,13.956867616918188
1317,10.301652030747798,-1.4237487391057426,-6.754019150186153,13.897668747992265
1318,10.251562971960261,-0.9642945190628085,-6.189740216483325,13.809405387525304
1319,10.247899558702148,-0.5091893784230396,-5.578148374353532,13.710263384475654
1320,10.329813134410143,-0.06959588060061382,-4.895962868578536,13.615898140448444
1321,10.419248821768987,0.3526565806344005,-4.1652347265643686,13.50049974501847
1322,10.420108765601737,0.761785753127085,-3.4336566222498823,13.333319996058918
1323,10.332911732824549,1.1650880971195552,-2.724116818725436,13.10655135663998
1324,10.181009710004517,1.5737811399991783,-2.0269630909418,12.824425940656033
1325,9.955405387988383,1.9945238782953523,-1.3351717028501395,12.508348342631898
1326,9.654984024447923,2.4315092482946503,-0.6588303415963468,12.181943571864078
1327,9.286135906559695,2.8762537529403738,0.007520528091571221,11.841792637423412
1328,8.860648933362267,3.307023637586487,0.6705609264975991,11.477227939742484
1329,8.436991526094804,3.708056566533427,1.3471419604531754,11.094902253516608
1330,8.058117508151515,4.082509134484764,2.0566819739831823,10.7002500718183
1331,7.656641262895819,4.445124110884489,2.8118659407452578,10.283294165890087
1332,7.157766957994974,4.807485702200118,3.615811942560067,9.83345221562516
1333,6.590883528384595,5.177191953366966,4.45769076423348,9.347570283860774
1334,6.007422046203453,5.554658148794596,5.32100560116389,8.826995036696106
1335,5.4236306630458335,5.936664296720695,6.191179286774526,8.279920433302589
1336,4.847391630774594,6.317282685242578,7.060250227275173,7.716115133763306
1337,4.256418942534335,6.687586928740743,7.936763486788401,7.1379032847832775
1338,3.6278828259319646,7.04284060112006,8.831862742565649,6.542732698923965
1339,3.0145364681504967,7.391144266913069,9.742905116283074,5.930540676550646
1340,2.4902959042250252,7.714989006370404,10.619551084709975,5.299876037432532
1341,2.0002392867186987,7.97051878503779,11.359948682695155,4.642892664895465
1342,1.50205400552536,8.131987127233774,11.914518552443555,3.964085618354481
1343,1.030071465063751,8.211044364716923,12.328814323511205,3.331234427099613
1344,0.6265358630061645,8.231012466714265,12.656937039070856,2.8095964514059046
1345,0.308416278322864,8.218946176523032,12.906770213377214,2.3769788183608065
1346,0.07354008834330691,8.193939054703925,13.095992821952182,1.9991207617963518
1347,-0.14231627192555732,8.167807825212595,13.267846027032492,1.6154773561316151
1348,-0.6291748350602363,8.062278883691976,13.370580701795289,0.9577473724076069
1349,-1.103454108533076,7.939772244712479,13.492455590706227,0.2951927178771719
1350,-1.5023003958006709,7.794825453785742,13.607646560152851,-0.3651903312990501
1351,-1.8672354015778645,7.623639127316434,13.701232236252848,-1.0181645962616417
1352,-2.255818323352534,7.426800850685597,13.754959108138358,-1.656678766632682
1353,-2.637242528129428,7.2110642980631106,13.771725732247356,-2.2694393086038924
1354,-2.971178214019629,6.984562617614203,13.740648690634725,-2.853997627482254
1355,-3.26712167789275,6.7635979273156,13.645218195415545,-3.42719423015618
1356,-3.552398931313015,6.553874516844472,13.47330405858541,-4.013507337288024
1357,-3.8871106366136425,6.350489200785788,13.24666980739106,-4.638879488852026
1358,-4.322724241554807,6.141358010409843,12.99583180041041,-5.319748108009807
1359,-4.805879978539567,5.9183178497147235,12.733975758378337,-6.036756635434764
1360,-5.258259306921731,5.673640042862462,12.462953035724942,-6.760492735207145
1361,-5.688215849930738,5.394119404606525,12.168315912238112,-7.493182803838978
1362,-6.126070415494522,5.068954685578844,11.83267563527642,-8.230232344490494
1363,-6.570847303147055,4.701378603446963,11.462124765908833,-8.999868484303416
1364,-7.013594286985388,4.295974610292887,11.072954585126208,-9.794007713537699
1365,-7.4209749141996575,3.8574286933397413,10.676461926791148,-10.555572093653728
1366,-7.757376229969972,3.3855863583243893,10.280647938780431,-11.274327240027409
1367,-8.05031018111199,2.8900463294445515,9.883333517649124,-12.009308228727473
1368,-8.343840083963368,2.3950044046414094,9.475111962902098,-12.776913939140705
1369,-8.609890551480298,1.9176997221341714,9.055022997724386,-13.541879058648318
1370,-8.81588996879323,1.4567623551081197,8.61804338601457,-14.248012736998415
1371,-9.031519844568763,1.001417345341101,8.160108180658504,-14.912036633929242
1372,-9.31922271855119,0.5477128302153653,7.676890226294937,-15.539038491563023
1373,-9.604257692265257,0.12366754731202814,7.183606737901412,-16.113281096299545
1374,-9.777255472925749,-0.2117036334219392,6.732814494769797,-16.56243687876673
1375,-9.783030450750509,-0.41844747558707257,6.374832803342419,-16.830890046843102
1376,-9.60862987419792,-0.504915754613734,6.115196786665737,-16.93597702706094
1377,-9.31913179325569,-0.5127194757095851,5.9322053733638835,-16.926872291220654
1378,-9.017301746090492,-0.4916901306843708,5.802076688578592,-16.87440163435513
1379,-8.749998241749314,-0.47014915538558816,5.694396422445069,-16.798599250546406
1380,-8.54250504301754,-0.4585191154838915,5.569108807680076,-16.696837875625256
1381,-8.455840338377387,-0.46048433866053123,5.421663719587696,-16.583585731191704
1382,-8.52909541526298,-0.4741535618322357,5.264133116528682,-16.470304283399678
1383,-8.720238382644142,-0.5030577523375993,5.120614317564062,-16.363657765242017
1384,-8.963300091415288,-0.5529541073545268,5.014920497356378,-16.266087514928977
1385,-9.225947377817938,-0.6263404051022124,4.943554897412269,-16.151932253005675
1386,-9.491229232064324,-0.7210944595780506,4.8879195620862745,-15.99480437713686
1387,-9.748712706836955,-0.8249215884207186,4.837204233455236,-15.81421342171606
1388,-10.001186672173677,-0.9220139615765088,4.772598597030064,-15.637417212971208
1389,-10.25465251040071,-1.0019459203917513,4.688798294502245,-15.456274549359405
1390,-10.509880980762038,-1.0599409991216115,4.570067968402452,-15.252071341595135
1391,-10.766980421816273,-1.0992428457207053,4.398894135685391,-15.00508085757841
1392,-11.009751347803434,-1.127776368711637,4.191523362687345,-14.703555431179774
1393,-11.182819725640265,-1.1513993042209292,3.9821543922247713,-14.378367713665515
1394,-11.231035750526715,-1.1743459294901029,3.8080302027810884,-14.071900678937059
1395,-11.130359822105598,-1.200199891968803,3.6713983968545096,-13.785835609379005
1396,-10.893213550284182,-1.231024941570643,3.555926481775565,-13.509575973875661
1397,-10.60903662563586,-1.2659444254978163,3.4450635585247267,-13.254905452858269
1398,-10.372580674851926,-1.3045574043056327,3.3241413982563515,-13.028241606123338
1399,-10.169510103727463,-1.3536583518356344,3.19031825818235,-12.812080778350268
1400,-9.94940489047438,-1.419640193469589,3.0497285331665553,-12.582267324268269
1401,-9.702493347915016,-1.4978069912616674,2.915740998365367,-12.306187927842494
1402,-9.434268850419441,-1.5797445752055301,2.7966640327611594,-11.962512364110665
1403,-9.18777377365955,-1.6610417808360396,2.6726460640016683,-11.587120176839907
1404,-9.009249594946615,-1.739016500224693,2.523820451394848,-11.22925764382906
1405,-8.851155404265524,-1.8121253255603702,2.333959047965754,-10.88428447746417
1406,-8.65114506091747,-1.880850367830934,2.1183001027513897,-10.534283215044244
1407,-8.451170472368865,-1.9474521884361409,1.9060146260958943,-10.1934379404348
1408,-7.865248697273914,-7.5926914369723955,-9.854050344381573,-10.391028767984137
1409,-8.210051327114869,-7.840259149690232,-10.228221247284461,-10.671876093708262
1410,-8.609180008215878,-8.078466806356934,-10.600764897387318,-10.94965030069898
1411,-9.009951349021303,-8.336765305333623,-10.969961647918653,-11.234567973007264
1412,-9.36047929187788,-8.645528635084787,-11.335448403938074,-11.542257060681138
1413,-9.715237197172799,-9.014576301605732,-11.703390614903627,-11.918416493072055
1414,-10.1407614782049,-9.4314922025912,-12.072695626489091,-12.389699619660979
1415,-10.596693478721193,-9.873131299908207,-12.43719674466738,-12.896992057795922
1416,-11.034348367704201,-10.31155897856599,-12.781450752026945,-13.367409342196098
1417,-11.488685816237037,-10.730107908123111,-13.105387544122793,-13.78616992414151
1418,-11.994028620497462,-11.121057825957505,-13.428159390187076,-14.15862434818603
1419,-12.535003927304281,-11.482235301272642,-13.761324857798321,-14.495984219699388
1420,-13.079588253916587,-11.813939722935208,-14.094616198111304,-14.810981922832019
1421,-13.56041617982424,-12.120169137191956,-14.401563282967638,-15.08376470095083
1422,-13.929723634107047,-12.399388849230267,-14.662409898260503,-15.29317805473969
1423,-14.257525350328004,-12.645881032927385,-14.867044155732511,-15.45995339963375
1424,-14.62830770041775,-12.859167328683212,-15.018454374552864,-15.614099276278438
1425,-15.028415643958803,-13.040432979368909,-15.124263942749582,-15.767370250043966
1426,-15.41504029880982,-13.193288832471692,-15.199865867296005,-15.925134898559483
1427,-15.756354389305585,-13.324591819355613,-15.27604520900297,-16.08807741096143
1428,-16.024854401271188,-13.438348527376238,-15.373140461807138,-16.248556362476197
1429,-16.237301504217307,-13.533666258120636,-15.491980257471676,-16.395533090640942
1430,-16.423368367112026,-13.608655704612048,-15.614099545215941,-16.516952000481655
1431,-16.5542035838202,-13.667963980941462,-15.71741984626397,-16.599033312209272
1432,-16.609397875209066,-13.72856153777357,-15.802541176270866,-16.633850452515876
1433,-16.663610852935953,-13.811921465904526,-15.884096653890014,-16.628392906078417
1434,-16.78743298473232,-13.922291200188171,-15.98232962169239,-16.597441940722494
1435,-16.953457543537784,-14.0461500095447,-16.100573969087122,-16.551080539653864
1436,-17.108778801770164,-14.164691853114233,-16.231772937410074,-16.501718619667834
1437,-17.21597952314608,-14.267875272396486,-16.363533709084688,-16.473220072752785
1438,-17.25079819621929,-14.355938609556189,-16.48355221857095,-16.477374538721477
1439,-17.250823909514523,-14.427686020599968,-16.58428512165028,-16.504102631375044
1440,-17.260792832656904,-14.480865559956262,-16.667901280455755,-16.52534971684889
1441,-17.232489736273845,-14.505823641663552,-16.76053597343827,-16.471666319687962
1442,-17.119526435397564,-14.494554678697263,-16.879649241908258,-16.306499801213945
1443,-16.98572046249958,-14.457586103293941,-17.018969911278763,-16.048269533746847
1444,-16.902451765422,-14.419412954613922,-17.14985001124163,-15.77232042598554
1445,-16.86978689177951,-14.391421046258056,-17.255873225623557,-15.548215612748983
1446,-16.863219690126716,-14.361931999090535,-17.34373566878445,-15.36931063417683
1447,-16.83042971680879,-14.309785732115904,-17.424466257665937,-15.167162420548012
1448,-16.728194788488242,-14.22677602552707,-17.496631245148187,-14.93595565623275
1449,-16.613189370577775,-14.121017418753027,-17.55011241102143,-14.713416891909942
1450,-16.552899070565818,-14.002841274757772,-17.576010425143696,-14.547965026851314
1451,-16.506246657960133,-13.875504758638572,-17.580185348359038,-14.405341880696245
1452,-16.423318871809904,-13.73776477665353,-17.575746967071872,-14.23564863687384
1453,-16.33449852484292,-13.586732830269346,-17.565050518493994,-14.029268173554843
1454,-16.27598029323082,-13.417214593648858,-17.53132603431733,-13.79081231761138
1455,-16.26471686757023,-13.227136480964559,-17.45161123297178,-13.548337303327767
1456,-16.29609982653056,-13.015255209187819,-17.335137355452716,-13.327207667095413
1457,-16.27547315889428,-12.771846288222685,-17.222293793350197,-13.089587780941612
1458,-16.122439867486943,-12.496735463626756,-17.120617356183704,-12.792209927773836
1459,-15.921802056334002,-12.194961473939951,-16.995416478368217,-12.453560492040506
1460,-15.779852788810247,-11.882934338711356,-16.821676211792884,-12.089200048522308
1461,-15.685796711329353,-11.58375824937136,-16.60364431663736,-11.741656495302792
1462,-15.596163915186281,-11.288849640151543,-16.3637753249262,-11.398978204594137
1463,-15.461250186537299,-10.957776695878103,-16.122919178006462,-10.990812766340715
1464,-15.242214483693447,-10.583319800452989,-15.884522640038034,-10.49279646164922
1465,-15.001752971764372,-10.20089454287522,-15.637684836604313,-9.918566376010524
1466,-14.809921949380064,-9.825471239338581,-15.375372713188865,-9.313489370672759
1467,-14.600258961683146,-9.437613439640657,-15.100737190486544,-8.72550973902783
1468,-14.306547267169407,-9.034524817469851,-14.802511670125584,-8.213784772592513
1469,-14.013233935013622,-8.642756259259313,-14.458736878953792,-7.842413183633297
1470,-13.80611072376364,-8.278924139915668,-14.077159047381448,-7.612347670773458
1471,-13.578989308024154,-7.944484854608621,-13.698573110614555,-7.424096136008354
1472,-13.21467811563297,-7.627150176398703,-13.357879683255712,-7.183466398470868
1473,-12.782016512797577,-7.32167195606492,-13.043843795368353,-6.899544892449405
1474,-12.386368773055606,-7.021015178579538,-12.701206008658746,-6.653949200818493
1475,-12.07192806894881,-6.7293151722713525,-12.253957855820836,-6.504177690477155
1476,-12.226867568435322,-6.425366169424444,-12.104056609138551,-6.813208875220629
1477,-12.41712237568057,-6.13877889983421,-12.008302967836778,-7.131363822487319
1478,-12.5764947101116,-5.8746674676184245,-11.977857984320423,-7.452708815723819
1479,-12.738488670228817,-5.629185756463675,-11.978146657076284,-7.770271724895206
1480,-12.955067992204114,-5.390323231946285,-11.961442370514979,-8.075641508953442
