,TP9,AF7,AF8,TP10
0,-7.5323605866926675,-5.874491673718028,-21.679774488368157,-10.753530924574646
1,-7.797108443881058,-5.960951946420836,-22.225649988543026,-11.135512559254048
2,-8.067759833481173,-6.091188321781189,-22.755597431780046,-11.520187382647036
3,-8.357516389448532,-6.294373222647788,-23.256394015815083,-11.90412540891146
4,-8.671489033078833,-6.55823328260146,-23.71685633518486,-12.27820806944464
5,-8.966086389048375,-6.841894454687954,-24.127227400598453,-12.632079709992132
6,-9.20158349067657,-7.111216129186168,-24.489622574627806,-12.957492518346289
7,-9.432043986556522,-7.353258829156383,-24.8269549062565,-13.25645391018493
8,-9.712999771078483,-7.570657672909177,-25.171128266911637,-13.535928499328556
9,-9.998982722967488,-7.771829700068403,-25.554732888537288,-13.799178752994676
10,-10.230313516526483,-7.956813594395771,-25.999079155855352,-14.047674409262052
11,-10.39624171770053,-8.115729183309018,-26.497371500299398,-14.285270757698186
12,-10.50437115547939,-8.250819621259835,-27.02581555860865,-14.504993509625107
13,-10.595935867756927,-8.379765690291574,-27.56030504694768,-14.699590136795893
14,-10.711129369510472,-8.515304595622576,-28.074420753567793,-14.848319128014618
15,-10.808330526989046,-8.660990829661145,-28.537461139950608,-14.92927788178856
16,-10.839610688722091,-8.813690218382614,-28.930627479767896,-14.947152077855971
17,-10.853620574894139,-8.969578486817106,-29.257903266167457,-14.92554344298964
18,-10.903351139428695,-9.123402664316826,-29.535222481843174,-14.893590167298381
19,-10.9542979302436,-9.268556432630643,-29.7880276780516,-14.860513612636655
20,-10.968623093819138,-9.402357166302453,-30.029534838841816,-14.82696807655305
21,-10.956098327546494,-9.529745697899495,-30.258584052935753,-14.784355417228356
22,-10.942174716148523,-9.657449338636978,-30.454481851025765,-14.727249947780026
23,-10.994019979877812,-9.791933860204717,-30.597653039207458,-14.688239970586233
24,-11.15395869915765,-9.930736268289687,-30.7023905101396,-14.685588779964611
25,-11.320958039884069,-10.063712000729028,-30.80922218534043,-14.70478794899925
26,-11.379871809573899,-10.171682803659829,-30.95460430991467,-14.696771240967843
27,-11.347230252771816,-10.240481279199512,-31.111124131089696,-14.62300219175956
28,-11.277518120557312,-10.274697181236036,-31.238976380942322,-14.492366589588755
29,-11.193360329430567,-10.292154938589562,-31.30812531354237,-14.334964312738723
30,-11.118750780088343,-10.309152920171595,-31.3185880007041,-14.19459860961244
31,-11.068346982448992,-10.337014226568488,-31.274395732247935,-14.092659736448143
32,-11.045205121428284,-10.37819968446117,-31.1852292081281,-14.032127285011086
33,-11.074263522940566,-10.433762209392041,-31.04007139838447,-14.00177626297005
34,-11.169135950893489,-10.495281778098846,-30.82522106626199,-13.982084580158876
35,-11.27841553932169,-10.555248313050217,-30.544997032759174,-13.953784020760004
36,-11.349463033148739,-10.606267827610793,-30.208609507978576,-13.904653479038263
37,-11.401692379143686,-10.643819879872199,-29.827527666935065,-13.844622046400284
38,-11.463034677041177,-10.665893730357618,-29.407936077938906,-13.779374233229767
39,-11.516732577713318,-10.668757982459256,-28.933793735400464,-13.695421378431456
40,-11.538627387236469,-10.651574413414458,-28.394283991825656,-13.567027026917721
41,-11.502456372407433,-10.624263694776715,-27.76659449640486,-13.377789433313241
42,-11.394033342232865,-10.594853835251762,-27.064618084555985,-13.137285335370452
43,-11.264055765772758,-10.564304437575316,-26.33687136608918,-12.869917913607987
44,-11.167012468249577,-10.525625494733161,-25.60747601587003,-12.58141350333705
45,-11.07266469071287,-10.477975240409735,-24.874230988086772,-12.254302482421238
46,-10.946106501030139,-10.424006217531504,-24.11341553651216,-11.893153866036776
47,-10.827587436258982,-10.371754282691462,-23.296505035729794,-11.528955107508025
48,-10.766249342725756,-10.32632602051776,-22.40572162147705,-11.194596833568234
49,-10.778868765081722,-10.280972030326021,-21.418517060185966,-10.891435861317364
50,-10.861603999860074,-10.212217588662774,-20.355538461915497,-10.605322623968974
51,-10.973430995135262,-10.096305996686306,-19.25796150528016,-10.307074803959337
52,-11.062511322417205,-9.935513055312036,-18.171619087594035,-9.979273071484737
53,-11.108732993678315,-9.754707235683185,-17.111152557656034,-9.631663721091762
54,-11.107631611253685,-9.57697534912342,-16.07522383097805,-9.300150690277961
55,-11.053929272156118,-9.411305661245406,-15.064725972231853,-9.003230588489863
56,-10.949737320604612,-9.250358796076494,-14.069914317092131,-8.731305860597612
57,-10.804114267565378,-9.078190421006116,-13.070083502000152,-8.472679767722571
58,-10.618681003125994,-8.890028732652162,-12.04198383954419,-8.203671623164784
59,-10.387804198606831,-8.700502977076383,-10.950429554155688,-7.897789595946077
60,-10.083532113870902,-8.532205705424463,-9.838997634387805,-7.558921624540053
61,-9.646378039483496,-8.414047293737644,-8.851401525407114,-7.2310378706839815
62,-9.03744389581602,-8.354264930714287,-8.102440397574593,-6.949883302859487
63,-8.374218489061619,-8.324847625132833,-7.571276775194802,-6.724535060734099
64,-7.799319709876738,-8.29517286350521,-7.177634933368153,-6.558755367475784
65,-7.306405504052429,-8.259982503437174,-6.8131261945960615,-6.457911076609997
66,-6.843075666447554,-8.234438073988057,-6.38789208931844,-6.3996960067536826
67,-6.408121895739338,-8.232800370655212,-5.889798893391894,-6.374038005460791
68,-5.937353970588127,-8.291941427664524,-5.204085182121305,-6.081754788545017
69,-5.504283290531562,-8.361614706667847,-4.516681008710375,-5.782107376478828
70,-5.1123104948159535,-8.456668329334246,-3.8136566801923153,-5.481213256536587
71,-4.722842854314488,-8.577682867264482,-3.0998555236941696,-5.191151070129455
72,-4.296791955080574,-8.701479922931167,-2.4117985895986367,-4.925835862049756
73,-3.8704814122073827,-8.798768434596678,-1.7816851963587312,-4.702775502952565
74,-3.4956158885613196,-8.85352203758949,-1.2188967487630264,-4.532473465051457
75,-3.1664367698961557,-8.86372032170496,-0.7259667712658662,-4.4027608522630794
76,-2.861226721081405,-8.829856291831303,-0.29076592522272643,-4.2923677902161215
77,-2.568569174191395,-8.755568611321449,0.10514370759366973,-4.185915134047765
78,-2.2801954736937167,-8.651606796510041,0.47876795204232125,-4.072787949953464
79,-2.017915899503239,-8.538300596323483,0.8362514393081996,-3.9541780808022273
80,-1.8084094128888053,-8.442888129090544,1.1787072601137807,-3.8362601249142103
81,-1.620323436833916,-8.384318033551214,1.5086995776827663,-3.709805432985378
82,-1.4154154147854583,-8.364954461079531,1.829963056433199,-3.570091990211941
83,-1.2293826931081815,-8.3781524666689,2.154726574027674,-3.416800351900378
84,-1.1018884211634943,-8.412873309131752,2.4930785822196255,-3.264252950600452
85,-0.9977589843556538,-8.457209158418687,2.833392095404075,-3.114448867556934
86,-0.8649887375758167,-8.50303412669156,3.1583075251968937,-2.946313408436527
87,-0.6715235836106334,-8.57249626056476,3.463498777960799,-2.7516369110099537
88,-0.4064134888776046,-8.719000946424673,3.749239351525625,-2.530201058929966
89,-0.12563891238144193,-8.934225398655006,4.017107723572138,-2.3074666346545785
90,0.10244979702557282,-9.1211168075825,4.267756871011045,-2.1165832855219104
91,0.2931702332034185,-9.200385023874487,4.49335789591929,-1.9740749493167709
92,0.4861658498126953,-9.171071054671291,4.683841579218903,-1.878900146296156
93,0.6778999118183083,-9.07683368265508,4.830200102256603,-1.805599588390888
94,0.857282848543211,-8.954150315318335,4.932441322391023,-1.7179748862940056
95,1.0139853262232588,-8.812906704022652,5.0156797308827406,-1.5932456928399295
96,1.1405045508177667,-8.65080926461057,5.11041357596996,-1.4229135479409696
97,1.2743261148214409,-8.468951975954882,5.229319198062511,-1.2080217765766714
98,1.4551526193186648,-8.27575786406949,5.371178782327296,-0.9652171238176998
99,1.6493390972817679,-8.083178280733177,5.518951678978919,-0.7351534812420376
100,1.8091170232908507,-7.898781162478175,5.657265021436071,-0.5493048761260195
101,1.9458119741617046,-7.727102288979665,5.758771183722468,-0.42885952619040146
102,2.085904456372525,-7.568457351580568,5.824191863303789,-0.356835490844258
103,2.235713105701026,-7.427620133477306,5.888327556763799,-0.28605346278847743
104,2.3995736697914585,-7.303938107347999,5.9650374483901345,-0.18648595053186173
105,2.5713708973690363,-7.185425693249448,6.050940527222091,-0.0712776858095987
106,2.740166019990035,-7.053228910937668,6.1324776328361965,0.02567675946082998
107,2.932496277150322,-6.897125643915859,6.217052387825589,0.09006258549521276
108,3.168786803435721,-6.719439128831101,6.31541431836711,0.11790548566792491
109,3.3827972793591377,-6.525792336598406,6.421565494689535,0.1160884010226666
110,3.501873039831787,-6.327076811386801,6.525168455049436,0.09861691841803322
111,3.55039331623213,-6.134626999286951,6.621997545069022,0.0716244046350264
112,3.581356639371294,-5.956308014263243,6.706078776898169,0.03785574051746332
113,3.616023882167058,-5.795571146760708,6.76529347973691,-0.0036962184829957834
114,3.664965941283579,-5.649807687479262,6.788377709321385,-0.05120589451969443
115,3.7080591984985496,-5.513771372114219,6.7678929838527555,-0.07861962228673303
116,3.719197623528711,-5.381949545541382,6.703101557544341,-0.06422540033389684
117,3.7401084813372183,-5.255458172449505,6.606433709911584,-0.00693167720901583
118,3.819893211495079,-5.148295062671715,6.494942175007894,0.06770347259648529
119,3.9226023251699327,-5.076594697592817,6.378869252246192,0.15072387270017934
120,3.997887841384422,-5.041400104490872,6.2618792289164364,0.23765461919331993
121,4.056609257583206,-5.020369832565939,6.1406518260618075,0.3348215893444917
122,4.123748368267344,-4.970006445975282,6.004354306708075,0.4530776827587345
123,4.216081436473437,-4.852027091110488,5.8389838250264905,0.5920836296295744
124,4.3442034974414145,-4.667296691826072,5.630427752466369,0.7449836011675826
125,4.467138423823597,-4.4488879774913235,5.363969380641191,0.902179491849062
126,4.540757405705025,-4.228972866329523,5.035720465798812,1.0546196054371446
127,4.615585497094475,-4.022436548887349,4.664304165382766,1.2028860699590131
128,-28.77479660686501,-29.23664845095104,-0.6355409209062463,-19.223671185750245
129,-29.178065085834398,-29.816536418644503,-0.7129949176276817,-19.548560131874165
130,-29.52129632867575,-30.371513294742705,-0.7888571547017502,-19.833210272916183
131,-29.81200167025399,-30.88873801091395,-0.8712751696669502,-20.06560271107133
132,-30.05193589144366,-31.35281233313786,-0.9634707460962273,-20.236199180305107
133,-30.23034446136227,-31.752556967021988,-1.0609793180658607,-20.344786378387496
134,-30.336787974014044,-32.079757934973145,-1.1563075028022918,-20.395722806256856
135,-30.405720419731562,-32.32337143599593,-1.2432869386761727,-20.38693297715546
136,-30.469257947358688,-32.480878513413955,-1.3201447910032234,-20.317992624731822
137,-30.48447728993009,-32.57063370416591,-1.3938921114394491,-20.20192771089661
138,-30.407096119013318,-32.614791905686666,-1.4743785950275337,-20.04963407297831
139,-30.275414737705756,-32.62734371148654,-1.5692528061217828,-19.85419145429135
140,-30.129972078937957,-32.6133804241346,-1.6818594083551857,-19.60666997899166
141,-29.949816143006128,-32.55718879853722,-1.8051197577002354,-19.306797528475048
142,-29.69754125874104,-32.44680314994151,-1.9312214907527216,-18.961349854025325
143,-29.325719498187024,-32.2842439145574,-2.064191399300894,-18.591920798761215
144,-28.806375415393447,-32.08933846945056,-2.2124429387396636,-18.22130064008094
145,-28.196896488280803,-31.876095464043203,-2.380819602941733,-17.85009816957454
146,-27.571559679664013,-31.640878857092893,-2.572837479327532,-17.474238706758637
147,-26.938959822567032,-31.370250740885524,-2.7936261884802285,-17.106806415064046
148,-26.286442520689278,-31.069457055193823,-3.0410966971107363,-16.756946853080073
149,-25.61326361066855,-30.75329342135124,-3.297967742281396,-16.412210922262457
150,-24.91047352981019,-30.4377064918585,-3.5457820630542103,-16.054551437812535
151,-24.164624356217665,-30.116606392108555,-3.7734265505983897,-15.668894026237949
152,-23.36787616083515,-29.77364047043926,-3.982203469676794,-15.24432335123199
153,-22.504162745071454,-29.392450198710282,-4.197990115913378,-14.783116817800474
154,-21.571251974455805,-28.957474463245866,-4.44878490254104,-14.290701614941765
155,-20.629220246070627,-28.46148361962139,-4.739902286392811,-13.766251320694586
156,-19.736100482518395,-27.906101043326537,-5.061978257125435,-13.209011149516602
157,-18.853718656000932,-27.29336188702862,-5.393653753444509,-12.607950084621793
158,-17.93903988703776,-26.63718476657766,-5.710363617794486,-11.964707507354907
159,-17.04751697777612,-25.958213816663328,-6.001615967578862,-11.338167094220955
160,-16.23386393562367,-25.281269457792373,-6.265609890115198,-10.78321476409408
161,-15.478352966366222,-24.620952352171024,-6.501522787939426,-10.280663506603922
162,-14.73387949977916,-23.960569797241895,-6.7147125833828385,-9.79133879607606
163,-13.920051555242113,-23.262242007650187,-6.917108461006936,-9.295918150151678
164,-12.97449754452139,-22.52117731077235,-7.122765199113239,-8.783416168822717
165,-11.95784638293171,-21.771546074414015,-7.3476658103556804,-8.2716992626452
166,-10.95133906005666,-21.030432859132734,-7.602914559528529,-7.779166150416695
167,-9.9327401832328,-20.284333777152476,-7.884237886672685,-7.271161190779445
168,-8.8681516168073,-19.51478104822806,-8.18022110232846,-6.710758699135191
169,-7.7716925483404395,-18.719733569172924,-8.486587877659675,-6.1093480640035445
170,-6.669102529600583,-17.911534869569824,-8.795591584418549,-5.491874215055242
171,-5.626797529264369,-17.092256550407125,-9.080889820237635,-4.882246743745575
172,-4.685723076249406,-16.246749931691422,-9.320780735398793,-4.294542485585324
173,-3.7421332506827705,-15.367967881477139,-9.52217618606182,-3.7019299373134658
174,-2.6774191573220905,-14.448606815145656,-9.700048344768048,-3.0682593971546575
175,-1.498685475461156,-13.489761842637366,-9.86211236575285,-2.3894640995420606
176,-0.2525313510402539,-12.496567341754613,-10.013242722044838,-1.6723047906440753
177,1.027891014346225,-11.468733125846558,-10.148831211281522,-0.9193461347850099
178,2.3124408346897796,-10.408239634346142,-10.265931198240477,-0.13817042890076464
179,3.6140139923864534,-9.308735829675072,-10.381100128151774,0.6635433578200841
180,4.9601039416618145,-8.170874116016439,-10.514559798517112,1.477058482846791
181,6.3252232290173565,-7.004367590281383,-10.676057192165187,2.2790615148272653
182,7.681600035176638,-5.803724341182783,-10.865660909718562,3.050591174986643
183,9.077086641030608,-4.552617758067188,-11.070251461964705,3.807220651470836
184,10.54590304448976,-3.240517352833761,-11.267689512757737,4.567941949538769
185,12.003669667188502,-1.895388127958233,-11.434665445769584,5.315672262623352
186,13.368048440460031,-0.544060609678656,-11.551368055095944,6.0357516597244185
187,14.665424447871342,0.7972206942302603,-11.607467012097386,6.750367130711445
188,15.974852543820107,2.103844108647446,-11.62685194936357,7.4952333410371486
189,17.303365310125272,3.3219201477585942,-11.664795907993238,8.27282905213545
190,18.653586843188528,4.4219659906525655,-11.758793018612929,9.07188659890815
191,19.86295496822503,5.428681027094167,-11.939813396882363,9.779350353872431
192,20.783957810049603,6.35965242749576,-12.239185453772242,10.287545126443666
193,21.566322593449527,7.217167469559809,-12.637735616980013,10.670602644725058
194,22.39755971150046,7.982383085737898,-13.092059331781675,11.009265149788636
195,23.222247175558447,8.63366172853467,-13.524438316511581,11.338626942328654
196,23.928325803493138,9.297207013753187,-13.803164679237984,11.612140821529163
197,24.518734607704907,9.86009527557656,-13.935290303028099,11.811080694559386
198,24.990620084193115,10.316192483383688,-13.941046954817155,11.928621009380574
199,25.35333933883039,10.669290481758903,-13.857668676609673,11.985668578674314
200,25.616206362222968,10.928580907754421,-13.734177749607737,12.004533230499721
201,25.736213867005866,11.109674215253634,-13.575307145783409,11.964834615989808
202,25.668733964930503,11.226393652092877,-13.364382789686838,11.838392056198243
203,25.443545540985074,11.269113483272974,-13.10166695155974,11.631839486003706
204,25.112852829941655,11.231638866714363,-12.794841540412676,11.360629009766969
205,24.691271500998354,11.124630065541737,-12.45339825821731,11.022672727698948
206,24.191275465101942,10.978313206269577,-12.097352619804413,10.620468407838164
207,23.643644918131923,10.811233144822602,-11.764029335346773,10.176894940687301
208,23.079531737919496,10.621523022361748,-11.482704114510735,9.72244151714912
209,22.54397673376056,10.407394910967593,-11.247669005269367,9.290773281584787
210,22.069886808226016,10.177107082584726,-11.030310493386127,8.912421443090873
211,21.616914392767995,9.937018779076553,-10.785653963976634,8.595787615463307
212,21.1355677814404,9.690440300606104,-10.471406840894115,8.337480088332953
213,20.65133878640998,9.451161737998257,-10.080416115943944,8.14819497460533
214,20.211534545620097,9.238558071575763,-9.628184244473976,8.02969084773804
215,19.847498568222054,9.057080231783807,-9.135127410940772,7.941060240025056
216,19.57107721264906,8.887597271604736,-8.617870857942261,7.834202645073914
217,19.32818927445803,8.707912337196356,-8.123650333263525,7.695295149085447
218,19.04831257622339,8.497977229817733,-7.673598157230516,7.525167012797696
219,18.733163968996724,8.265744379595887,-7.251853830017205,7.321881326059875
220,18.408686585394516,8.030309102908788,-6.869860791288554,7.090084680687321
221,18.062095151127135,7.798814463314831,-6.562622251188063,6.839158861629937
222,17.68104049433136,7.571632301467056,-6.354245523829599,6.578547298886843
223,17.289837805766133,7.340278307724983,-6.176199630855333,6.324113306409416
224,16.908288860984392,7.093002912500839,-5.951359313156506,6.0860415730140325
225,16.521526318454306,6.830613072718949,-5.623379916816341,5.848494813082395
226,16.103574646930333,6.5598461481934205,-5.205730276163958,5.590138453425537
227,15.615665889804188,6.283155748635848,-4.762345829591095,5.30872964404774
228,15.035716241929224,6.004916042087384,-4.346562154200411,5.0115601830685055
229,14.426702473680963,5.734794456109034,-3.978535428328729,4.710383281910037
230,13.868314612845182,5.482649184444067,-3.65152145114782,4.418621508562472
231,13.358911822910374,5.257943234575472,-3.3792035934776066,4.1411222577784175
232,12.870092809704891,5.064874726682787,-3.1570251674995644,3.8778496027755645
233,12.396342060758476,4.894814011293889,-2.9638554647502517,3.6258175118696454
234,11.933403492577531,4.734752417546125,-2.75702191301869,3.3825545895588496
235,11.492697610715684,4.573563300231017,-2.514442313581718,3.1631099063071075
236,11.085967172556744,4.406793267581033,-2.262852821167776,2.981335349138965
237,10.67075994622994,4.249865047357718,-2.0537476689248644,2.8147812271729546
238,10.203280263047322,4.121737867414286,-1.9012501153942112,2.6376880468822383
239,9.714398683813231,4.02031316082872,-1.7810656323437528,2.462609788082975
240,9.25607337407159,3.934446731601392,-1.6447507122285916,2.3134272382970167
241,8.84676406809943,3.856888192339915,-1.465722455055505,2.2027825525230407
242,8.493762841910055,3.7806781264094504,-1.2344951701868874,2.1366485505960524
243,8.193138624989007,3.6999739251137016,-0.9607241085986766,2.106603636811647
244,7.932194770771055,3.6144829229063102,-0.6680568852523991,2.097722358878548
245,7.725107957108804,3.530945562341351,-0.3755450787949204,2.1032751755742365
246,7.583361999202144,3.4600350763724412,-0.09732353101903927,2.1235040197384465
247,7.459037600086762,3.41276689234428,0.15540768455157233,2.168858664756849
248,7.299338625017236,3.3979476977208893,0.37903298691153164,2.250582038991868
249,7.1158920168424435,3.4196045100573302,0.5785776443927682,2.364176817791214
250,6.938719443684023,3.4754485529450894,0.7623895773795418,2.496965595366264
251,6.7746372641350705,3.5554172337861596,0.9377693460338192,2.635790563429919
252,6.625358068055902,3.644619110477375,1.1080477320782218,2.7679273923624446
253,6.479207073322229,3.730056249972619,1.2688118495168106,2.88878237015839
254,6.322811672457846,3.799795562994468,1.411626271727769,2.998249665746343
255,6.189438457459099,3.837025641717125,1.5281537691748837,3.089542852228805
256,-3.2161025423146192,-17.323474353750516,-2.5564587743726035,-3.8571837999539094
257,-3.128310603611522,-17.838802636089024,-2.723024696079554,-3.7840733112933527
258,-3.0863924545335815,-18.369875949320768,-2.8979740583954046,-3.7192030211129943
259,-3.0712331334041365,-18.89822448523435,-3.095044085380867,-3.6621768460133195
260,-3.0522596217760514,-19.398782224962023,-3.3238493472819695,-3.6071679004461203
261,-3.0248718706760718,-19.863845915220512,-3.5851810617421394,-3.5563001349894647
262,-2.992966774625001,-20.29668101027293,-3.8720962138303188,-3.515916329537113
263,-2.9810214737998857,-20.71601407223789,-4.174384310972257,-3.4975897804097347
264,-3.0145638087493865,-21.143124929992165,-4.480412660781013,-3.515583255602629
265,-3.0748975506712757,-21.579805234778075,-4.781377613036904,-3.5855728470678576
266,-3.139074716048221,-22.015960081274308,-5.070244332462624,-3.7115924224680827
267,-3.230995330990776,-22.446026608940596,-5.337625666240908,-3.8712096821634274
268,-3.373604364131431,-22.85954675990295,-5.577811510711671,-4.033030759070243
269,-3.5488842511544294,-23.218691945739124,-5.795836164701271,-4.172668818505181
270,-3.729487359623373,-23.51358314259953,-6.000284833120498,-4.278056829981054
271,-3.8870446860532746,-23.75747827095557,-6.196069510682678,-4.35783553550645
272,-4.002540168565529,-24.01166431918517,-6.3892475923162895,-4.434250021398918
273,-4.106347491277826,-24.305961142562115,-6.585871305055968,-4.531928128555072
274,-4.230134146141349,-24.610067375003815,-6.791447641905847,-4.667302594803068
275,-4.3358118795228275,-24.904529199974338,-7.023091465286602,-4.841328765764994
276,-4.377001071340519,-25.16116739049701,-7.28655253053909,-5.031988933989221
277,-4.372172928089443,-25.365912637817047,-7.546471435579425,-5.193971319333992
278,-4.346128573666707,-25.52187884123107,-7.76603288295601,-5.281836243711946
279,-4.273308816081125,-25.636697189878124,-7.937092135438491,-5.251411046107647
280,-4.143646571384852,-25.72341026063015,-8.076714675187663,-5.104958177485523
281,-3.991355511154019,-25.814492110179955,-8.23881041083496,-4.946385486211655
282,-3.8649553453680743,-25.924727524083245,-8.47361301428335,-4.880303969330951
283,-3.876551651636073,-26.001983193898376,-8.784228005802653,-4.9993897177623925
284,-4.075743006970516,-25.987655987905207,-9.133992897820892,-5.274928673819776
285,-4.250704037346074,-25.87837679741062,-9.446113040073064,-5.546700249695015
286,-4.1760442443487324,-25.69569598574844,-9.641576698061032,-5.636022000255399
287,-3.8656130015365524,-25.46795561004067,-9.683611306681115,-5.503711249281891
288,-3.4339874687569365,-25.227453010041575,-9.580009047129854,-5.196311413912741
289,-3.0274335615835675,-24.99312357003823,-9.38788989236531,-4.813043565614196
290,-2.7804742656689827,-24.76569083784922,-9.184515828458714,-4.470708632651925
291,-2.689983571383877,-24.529099271940357,-9.032609894906862,-4.23076808610079
292,-2.685417243789565,-24.258016875808384,-8.967875175002638,-4.104468630411537
293,-2.723716140524222,-23.925358123528213,-8.977862924178723,-4.064925611543887
294,-2.7699868325091126,-23.515056463959368,-9.027951466467957,-4.063349103751691
295,-2.80461211087414,-23.03547273659473,-9.10237246754303,-4.0630871298944555
296,-2.8291800032719134,-22.50754667254359,-9.189222769264472,-4.04214337948845
297,-2.857492404012068,-21.953772092429094,-9.26476991948064,-3.9956142663858736
298,-2.89813479815958,-21.390742865805286,-9.314885239018187,-3.9355043793662654
299,-2.927984638791854,-20.8155892605781,-9.34778549615104,-3.87290658035691
300,-2.925531067517015,-20.21564307899907,-9.377739849605442,-3.8392400624537095
301,-2.900603861778254,-19.582086511988386,-9.418721575623422,-3.854762137684052
302,-2.8775870434801236,-18.90538002365306,-9.47718588211486,-3.962081753439202
303,-2.905763184373901,-18.17582679578068,-9.533189665663889,-4.18231789163813
304,-3.014911172591582,-17.385515276871352,-9.566019672650075,-4.472963870668116
305,-3.1464454294938156,-16.52217615110843,-9.585251966751436,-4.777932323960747
306,-3.228969427145165,-15.579956748230895,-9.60969171020336,-5.040542141019506
307,-3.247862496480454,-14.574211303919977,-9.651234451639892,-5.254350538566999
308,-3.2207811525726857,-13.524322681229021,-9.715235800479677,-5.43851492051876
309,-3.2083612413568257,-12.435664795058567,-9.79607178438137,-5.6056422982558995
310,-3.2680297972839023,-11.306755108814682,-9.879689517463978,-5.7664082064397935
311,-3.372620533303124,-10.134781253966876,-9.941378298101636,-5.93077701196941
312,-3.4696295945754603,-8.910609090781856,-9.966317792656527,-6.092205616636763
313,-3.550381180171438,-7.618868889656835,-9.9797268138046,-6.2144259690802075
314,-3.6112148266348845,-6.245765599735135,-10.012898745853418,-6.261332340512666
315,-3.6290203851369216,-4.781272817032864,-10.06802469084484,-6.224268443315503
316,-3.5764182631741246,-3.2608614252941313,-10.164694718145585,-6.124062196657702
317,-3.4708901519610302,-1.7887444596082893,-10.307810790622776,-6.007894914393519
318,-3.3373558413547886,-0.4440162914334461,-10.51513480382433,-5.932478426618423
319,-3.2725600023744814,0.7543591354117622,-10.768073203705198,-5.954307327832559
320,-3.365015535978979,1.8383660547232668,-11.033582269571149,-6.086617212448502
321,-3.5671025747327434,2.8371010492548336,-11.315035959190379,-6.29689910376869
322,-3.792010148600577,3.7746543880430723,-11.614955599668196,-6.5157130631998585
323,-4.021673052772204,4.6622733580464875,-11.885957618448062,-6.674800680262719
324,-4.581147665982564,5.4572126591269035,-11.81524256070514,-7.112164227080889
325,-5.092905587985642,6.220680361667207,-11.697635532519389,-7.500978262202056
326,-5.557659634802059,6.959796716725359,-11.554599378677475,-7.864490151473867
327,-6.00212467422735,7.668096783937203,-11.401250422222594,-8.211955103772798
328,-6.459844417234889,8.332643070620879,-11.250078265639903,-8.54777631261559
329,-6.980654617948636,8.942527650813977,-11.107432474272452,-8.890264196689404
330,-7.586247791279777,9.493937232407273,-10.971783002672316,-9.245997127951464
331,-8.180667464027868,9.992264771278034,-10.838951432473088,-9.578299211217333
332,-8.654125136499907,10.455744855134146,-10.701213319121273,-9.846852228529857
333,-9.01824901249385,10.924225662605716,-10.543458032028532,-10.043960462777152
334,-9.331466114124801,11.434372835967702,-10.35277610397561,-10.18734761973753
335,-9.649787384730148,11.98984322225178,-10.128613678647413,-10.332639847835045
336,-10.014168350465447,12.571682130218376,-9.875612867022014,-10.536400696277902
337,-10.366086040660319,13.146475981458073,-9.603189229712617,-10.794960410261753
338,-10.624766223856986,13.678251831052483,-9.318333186219672,-11.072638860839708
339,-10.824067847933353,14.149563286437358,-9.002179692328648,-11.339597389270551
340,-11.026856312341582,14.56055147868132,-8.638942023946896,-11.567024725319055
341,-11.226205156129884,14.926009465788848,-8.25773762750492,-11.725197143621143
342,-11.4009322243541,15.268131885690325,-7.901159402018199,-11.807843262087719
343,-11.550402183045597,15.603234351697155,-7.593281398984611,-11.855786850469233
344,-11.668865550873617,15.94084240789247,-7.342235818715172,-11.920017243364214
345,-11.75399329463074,16.281830630641426,-7.136493504618914,-12.030820014445318
346,-11.804869817731705,16.622084706375528,-6.9472943621242775,-12.189940446855594
347,-11.779442455192651,16.96327595973339,-6.732416992152843,-12.335565426144546
348,-11.647697623503651,17.306536917374224,-6.459506506302193,-12.3968560858918
349,-11.48693556404262,17.642310855113053,-6.13800932489074,-12.38096725806986
350,-11.389756587023347,17.9582476975129,-5.799042257068704,-12.327935793846041
351,-11.345497333734414,18.248611089155357,-5.470848832005507,-12.259065817237648
352,-11.312690247616015,18.508030715659253,-5.177884556743895,-12.1951392719706
353,-11.278409170232008,18.725151042126928,-4.927782703747289,-12.15397378724037
354,-11.237457287987283,18.889941428242356,-4.715809871748436,-12.14263983909033
355,-11.22112910606837,18.999717489845295,-4.545606196573285,-12.171177464715099
356,-11.262433393063922,19.05820264037583,-4.415263676713554,-12.23993641398493
357,-11.308688015525714,19.07407768797486,-4.295241616571852,-12.316447059980291
358,-11.292694381516796,19.05957321723332,-4.155000249672243,-12.361641438057013
359,-11.235616881605095,19.032112829904477,-3.9921793169330115,-12.362737204364109
360,-11.17943290306679,19.002576454423327,-3.8172302331211254,-12.321029354163729
361,-11.113258911030538,18.958829682475564,-3.6417956827873805,-12.23513916185876
362,-11.022067788799816,18.87970057425827,-3.4769280869651373,-12.112165571572966
363,-10.919012523829462,18.75089601854602,-3.3237829717062186,-11.982043528181316
364,-10.818603185575437,18.563762375838188,-3.177075254689856,-11.869219714912932
365,-10.741190634744218,18.32073494057006,-3.02768077971006,-11.760050246066958
366,-10.695988549102191,18.030910441905036,-2.8705338820198527,-11.625079243805475
367,-10.627783534723743,17.696157995503924,-2.7224371391497204,-11.440797845037665
368,-10.477544043884917,17.320325602463512,-2.603199472766382,-11.193138883316806
369,-10.268551050425732,16.919971625274812,-2.5100213349803715,-10.887818233681923
370,-10.051272243416141,16.51381943574583,-2.4297570989281527,-10.54727906715462
371,-9.852834334204346,16.118528429570286,-2.3493155915933803,-10.207323696628197
372,-9.689569833027303,15.74207855162522,-2.25745731118806,-9.90142440104545
373,-9.542972414056877,15.36877239454778,-2.1502284539052714,-9.631164003635842
374,-9.384833224477118,14.976765787442096,-2.0332576092144614,-9.385639947102204
375,-9.247118377653281,14.557654101166424,-1.9267927217137075,-9.176018542666668
376,-9.167233513626107,14.11307963606052,-1.8496519391726005,-9.012428707674163
377,-9.1032985717619,13.662410905505164,-1.7962878665299766,-8.874887308978654
378,-9.002787727686567,13.224671984536611,-1.7491872706955678,-8.740253095116085
379,-8.879951353789117,12.786066956333,-1.6928510765699032,-8.609206212507273
380,-8.764362284800239,12.322835890751122,-1.6136789241622902,-8.48837866191321
381,-8.662560511895247,11.825855018665322,-1.5056075898942294,-8.376797744873427
382,-8.57278586930675,11.29647027443603,-1.3703568718517753,-8.268588716664123
383,-8.47038138885566,10.753246350137939,-1.2139308968205231,-8.151081711679234
384,-38.84941947442453,-30.31957654182019,-235.54038541888386,-43.44611686411249
385,-39.78475554624506,-31.139338047556503,-248.96584558328522,-44.58687717669162
386,-40.684286236642805,-31.92979060783174,-262.71123792690787,-45.603727595895506
387,-41.558899585668364,-32.65261526977634,-276.86874429291123,-46.60027232394746
388,-42.40634974216018,-33.28612584605512,-291.4860745894987,-47.59541148126702
389,-43.21769596126905,-33.81573850616151,-306.5757422492505,-48.52375608004785
390,-43.989820930163305,-34.24572272968037,-322.0611806409674,-49.36627567348919
391,-44.76982171855444,-34.59433860079555,-337.7745234193831,-50.17893359285787
392,-45.60395951656681,-34.88471395784351,-353.48976998857916,-50.97907798213626
393,-46.47074653652542,-35.153944436787526,-368.98440846052944,-51.79608830177668
394,-47.325679066262495,-35.41494944944677,-384.1516403842443,-52.62734746849455
395,-48.149560773471954,-35.65538758057955,-398.9978551861184,-53.410254635671535
396,-48.91577679767344,-35.831814226699784,-413.4660610074364,-54.07146380284722
397,-49.56215280713915,-35.93761794959686,-427.3994249008134,-54.57568736861178
398,-50.039990808601466,-36.01410645765193,-440.62740746893763,-54.91658033540858
399,-50.35530944477577,-36.07588774069123,-453.14207659586367,-55.12121325048739
400,-50.5382022772066,-36.088236413527056,-464.95334146940667,-55.2276228455572
401,-50.62402098080484,-36.03940672297817,-475.94156521406387,-55.26085213277458
402,-50.65051272838225,-35.916566649889994,-485.97330252894653,-55.23202615340645
403,-50.628065282786956,-35.72687226342672,-494.9955101852589,-55.10641685940615
404,-50.56096721989099,-35.4884032378703,-502.97909906963537,-54.88396974082559
405,-50.49867480632331,-35.215664571481234,-509.84084111096735,-54.59340463524947
406,-50.47039896986115,-34.916595272377116,-515.5492149855892,-54.33283435228006
407,-50.410024153938934,-34.57837034375841,-520.1639248670824,-54.131274684814386
408,-50.23781381255398,-34.186145727862765,-523.7354862888869,-53.92037401494014
409,-49.92669605773549,-33.75515565584314,-526.2627890803549,-53.65230227164751
410,-49.48227239580305,-33.30145252409402,-527.7420032735492,-53.34627010545084
411,-48.95466500531325,-32.80914829390989,-528.168488625071,-52.98948830931654
412,-48.401883423730766,-32.258534742144896,-527.5003598913387,-52.57827388787292
413,-47.82579691776927,-31.649986378477852,-525.6761206683419,-52.11935559012045
414,-47.20711736100479,-30.989981711280105,-522.6836128627976,-51.576140852886674
415,-46.542710892951185,-30.281047471872142,-518.5657984380696,-50.88220187561497
416,-45.82626826547962,-29.530310916901236,-513.3541112292586,-49.948061538970165
417,-45.047314845811485,-28.75689331061453,-507.0557591224451,-48.77768155408004
418,-44.1989722015702,-27.973491374712445,-499.66925963441696,-47.49219270945046
419,-43.262199277254865,-27.170818386087106,-491.22455108354245,-46.18768733884123
420,-42.226434741055506,-26.33160565866592,-481.73955585019377,-44.94035410063517
421,-41.1359748313098,-25.43593493546427,-471.2325129826848,-43.7315872248193
422,-40.02998291893704,-24.473886948152977,-459.693866220489,-42.49459922795176
423,-38.86142534970339,-23.468920514877578,-447.10673445273517,-41.18377411519728
424,-37.58170605098823,-22.451656445552704,-433.5048485370713,-39.77082054089011
425,-36.22110842479544,-21.42934805664465,-418.95442830416727,-38.248324174009205
426,-34.828074221875994,-20.39869316690509,-403.51983076960755,-36.63577698134682
427,-33.44308968725337,-19.3543789051568,-387.23272365300977,-34.98048819254159
428,-32.08541416531222,-18.286423794922047,-370.13792109745066,-33.31703195258725
429,-30.69595541998793,-17.18467369199228,-352.3729051197329,-31.6234802919935
430,-29.20433545433923,-16.045142695060882,-334.19745855676126,-29.85454303226466
431,-27.623339933346074,-14.870431112850344,-315.84346479040187,-27.96662351317962
432,-25.983902516397304,-13.670786442125793,-297.337378218601,-25.93333632367613
433,-24.270535071668927,-12.469660157687882,-278.5394899774995,-23.777119300540882
434,-22.469522844663878,-11.284964037651935,-259.2273997862391,-21.539960995567995
435,-20.59759121866146,-10.109531204399298,-239.26161120461074,-19.25072573795933
436,-18.67074449479091,-8.924878722188797,-218.59331271425796,-16.923405631209434
437,-16.69911215274135,-7.709477307766264,-197.24311379504545,-14.544680528158372
438,-14.684219327710982,-6.4490332675196305,-175.28305722585793,-12.092592829863992
439,-12.585324717795848,-5.152529007863209,-152.74320817546857,-9.55638900289058
440,-10.367361437507856,-3.837808244685847,-129.54106630219627,-6.938140313865956
441,-8.079608238970524,-2.5220861033506052,-105.55715971889721,-4.273128749369841
442,-5.772505537116202,-1.2119550262396506,-80.77433912572891,-1.5905388749865348
443,-3.400656596127819,0.12123090626853816,-55.287402442997184,1.1441205359210866
444,-0.9965968117377607,1.4506367741555573,-29.120729777235788,3.877294282276602
445,1.3448392540106369,2.648208190392304,-2.163633375126965,6.407330025660371
446,3.4812131115249256,3.6465616196863184,25.71519451391761,8.649536477890019
447,5.393621610155518,4.486570374921182,54.56323196564961,10.62990366129705
448,7.143189092469989,5.222462394785462,84.27732132149602,12.484409125864966
449,8.847373576934025,5.936217148555555,114.64301880162972,14.324932050815795
450,10.602488081775343,6.661766515568602,145.55799044421522,16.202573255088158
451,12.354578892668957,7.3698240716655,177.2529754264607,18.038465126338277
452,14.52018960608692,8.370944984906577,217.88807178227046,20.29754653892482
453,16.50567393437756,9.2085398914274,258.1730848512818,22.359000401679257
454,18.318964325790372,9.899708729387651,297.95092258822467,24.281509596803684
455,20.007152207551375,10.496403002033315,337.09870679705256,26.110494002553395
456,21.629361456825382,11.065265822641274,375.49154083749914,27.88104936745281
457,23.20827672308143,11.67042534317937,412.6633260390844,29.627789682510258
458,24.740947036383023,12.333962464394276,447.8397865858789,31.32595081379304
459,26.17387899969837,12.959610624600641,480.45345075158986,32.89880645882227
460,27.462656430860758,13.451945459587517,510.3416748776734,34.244341164092496
461,28.69973144671299,13.761027312299378,537.477327320552,35.4038823981812
462,29.983048250792542,13.9430677798178,561.9549092303414,36.573079916716146
463,31.26369537201978,14.119792781822303,584.1667820239944,37.835164423697215
464,32.43259633961366,14.351544192280132,604.6328648331685,39.089708246108884
465,33.3466025774796,14.609233746322522,623.7480117833635,40.204667655471106
466,33.9144841402035,14.833413651400482,641.7282636598835,41.11201186128803
467,34.271248746732226,15.012673080531329,658.6491285034459,41.82798403589778
468,34.63550627021702,15.196163031307682,674.5092163591681,42.438627070573645
469,35.14226914448152,15.37699739917377,689.2768109448436,42.99526010588166
470,35.85057892934355,15.533355037281783,702.9244870242698,43.529464106357075
471,36.67475646627382,15.62161304081421,715.4304776484422,44.05152746725835
472,37.47269919308999,15.605950666294763,726.7878363498747,44.55044672839804
473,38.2224586062882,15.42137439111699,736.9945787776243,45.02148558331709
474,38.935183017672514,15.09006825900153,746.0524474760355,45.4543175775376
475,39.58535476569139,14.709458155053957,753.9645523237564,45.83669513573423
476,40.136940396053745,14.396642230342515,760.7332426370857,46.14795311710365
477,40.45942653578038,14.178290215506106,766.3605118315323,46.307790558811206
478,40.45853833624929,14.031956159283517,770.8477651984266,46.28059758387893
479,40.31269019319604,13.927946315230088,774.1963058155555,46.0933446482101
480,40.260268116181656,13.826234321159362,776.4074076049834,45.89350771826197
481,40.35974546770747,13.702387092131806,777.4823079049625,45.75283657276868
482,40.57174501174029,13.54796722108631,777.4218588934451,45.70006252190987
483,40.77169162450817,13.35377342398976,776.2283954449023,45.65891542738096
484,40.81442527278896,13.11916537912144,773.9055299350241,45.51873009838234
485,40.69242070268778,12.859619591893278,770.4498209490981,45.25695728790626
486,40.474293798476076,12.597517608495947,765.8680334731677,44.897473739409065
487,40.216298967539046,12.34773129705571,760.1822124623321,44.48157304002164
488,39.96728703359029,12.121968524818204,753.4377848616995,44.051748204883346
489,39.75084960998236,11.95069192630041,745.6601289022956,43.58781557952217
490,39.545671213150584,11.837789216051085,736.8794290866923,43.04735907693554
491,39.270722175100566,11.765040039897567,727.2332189088727,42.4237496098017
492,38.848707138713465,11.669373045739148,716.9816500533015,41.730206180627086
493,38.27620193008889,11.520118045409179,706.3224919954163,41.00019444660515
494,37.598181576804386,11.343594502176225,695.233985546754,40.267137322335245
495,36.921014155716655,11.15726934720684,683.565505754516,39.54403289701513
496,36.34113209434075,10.945251157266634,671.1728598350094,38.82058154218366
497,35.786690888942246,10.707965560207809,657.9446632545588,38.01373673293786
498,35.15028661151472,10.476482611281448,643.8221393781338,37.08288165788202
499,34.49044761098654,10.246510027219404,628.7491848174911,36.08714427893513
500,33.894443906395715,9.964243650930344,612.6997119582668,35.17681245230223
501,33.339685662228476,9.614551727167918,595.6815567999045,34.45297587900585
502,32.7733380470394,9.263801108922529,577.7473809297016,33.87625126045511
503,32.14355837089533,8.99725300730256,559.0232078567404,33.319130807602086
504,31.406164212181615,8.841953501321976,539.6866759026763,32.641668642691656
505,30.58617060989823,8.781512546995492,519.9321559444013,31.8045775652223
506,29.735605894375105,8.759892448421391,499.97220378326693,30.872637536533166
507,28.868382525909265,8.740460282530789,480.02737538585023,29.947994822587717
508,27.986291113834046,8.698070966744327,460.2971870319588,29.058580381533236
509,27.08379803907637,8.611157697339328,440.9642828844758,28.14473475209809
510,26.160428396827296,8.475442743810683,422.1310957129869,27.186263580222096
511,25.26995738658698,8.301805915157546,403.8024604090172,26.241023163266558
512,5.491652067803907,1.6185769518021471,61.25258001642168,2.84180756508912
513,5.414865524377983,1.6537343308290002,60.606954860615765,2.6964871629614455
514,5.281943721759313,1.6808925770659133,59.790472755451546,2.535418378460898
515,5.128165121485223,1.6991148846314994,58.7903674900476,2.3592963785356234
516,4.989140393043295,1.7063040756781123,57.650871117223126,2.1715546065388684
517,4.840905781553399,1.7117724449147447,56.43593940396097,1.9714623648541059
518,4.652756133769946,1.7158015693982647,55.201636283066804,1.7569020767309294
519,4.421633844582307,1.7230344445273638,53.99338200269761,1.5374977663454557
520,4.155997565021422,1.710914052010295,52.83631053412715,1.3080031605879536
521,3.8884909181359895,1.6545544432867336,51.71099459576438,1.0530836540097042
522,3.6473381818493786,1.5367364873952734,50.550516887808236,0.7424274302676417
523,3.4009715079032166,1.38095450484809,49.2760784271407,0.3840544189816272
524,3.105130085359427,1.2180480603265447,47.85770570020938,0.029516245909295497
525,2.770562217956017,1.0520852280303923,46.32293766044249,-0.2958092410460527
526,2.409585773548351,0.877767387326948,44.733850056480264,-0.6068641223298756
527,1.972943306614396,0.6816346600116436,43.15329100722224,-0.958497424960017
528,1.4289266066886632,0.46208261623011326,41.58899393278673,-1.3913549346387202
529,0.8279104545651227,0.24013857450853038,39.994664206725545,-1.896594158524167
530,0.240850303913198,0.056523521495935404,38.30970659648622,-2.407947475039927
531,-0.25861041015339226,-0.06501165040563195,36.47930341311401,-2.87499184726788
532,-0.6340586859495262,-0.1350705877674174,34.47845920174606,-3.2959640899326406
533,-0.9811235110263667,-0.1683232614337752,32.338142375907466,-3.710430914493706
534,-1.4087442288130179,-0.18808073787544444,30.124864834579743,-4.163547395569303
535,-1.8890942925788798,-0.21326029962766427,27.894791178164247,-4.662546911676603
536,-2.359204343194553,-0.2509494213651099,25.708288845348772,-5.170082786427499
537,-2.8095153366813888,-0.29137406369299923,23.62437897410376,-5.671177968997376
538,-3.235525847763117,-0.3211671422905097,21.62146073196275,-6.152680227969753
539,-3.6315957028266577,-0.3323961086719594,19.602539025017407,-6.613905860818634
540,-4.004215826404721,-0.3298580605887459,17.48201560216909,-7.063391908553174
541,-4.341020436390597,-0.348398135770197,15.20792780615693,-7.5017622454012445
542,-4.6416634778987635,-0.4227347334554757,12.751310066237984,-7.929629558238441
543,-4.982242638008944,-0.5504966986585738,10.137375667732995,-8.356661455129338
544,-5.42884399538012,-0.7142812333078742,7.452996437979205,-8.792370505684323
545,-5.934418097943062,-0.899450857578193,4.797116613283967,-9.239642535356985
546,-6.432596863125689,-1.0911422915852884,2.2170758516177504,-9.69956912509754
547,-6.91646583749628,-1.2820723977510409,-0.33571284756510333,-10.172166652086199
548,-7.39459530177619,-1.4699024394748685,-2.9635570611244137,-10.654374524380147
549,-7.898543109816348,-1.649746173704918,-5.717145335259398,-11.147441698679948
550,-8.447891606809225,-1.817846133428168,-8.577839391558351,-11.645735333529375
551,-8.95878535489345,-1.9717323612697613,-11.523258363388502,-12.115102576297714
552,-9.349794178576955,-2.112548167068201,-14.551201321342576,-12.525256539904442
553,-9.672679875393474,-2.251772708127233,-17.637017924608074,-12.885445079548958
554,-10.00848868378103,-2.402199897218287,-20.72863262616557,-13.216005365804131
555,-10.378542202642,-2.566481816265991,-23.80306499266177,-13.528997514851982
556,-10.790560965692153,-2.744095975181933,-26.880291675485175,-13.829309990473375
557,-11.240226035011366,-2.937843852984754,-29.99715533690558,-14.09878637781433
558,-11.713592768244103,-3.148148996242907,-33.18906766513429,-14.317921499564696
559,-12.241217696869695,-3.371267333513347,-36.483132076059796,-14.498377344395546
560,-12.84180035145222,-3.6010970651329344,-39.88684107533948,-14.659908641573628
561,-13.432260777428095,-3.827340009550094,-43.37571188911034,-14.809728095436984
562,-13.932226455965727,-4.042560883015269,-46.902880511475615,-14.952012776602409
563,-14.373282926723624,-4.248368291606779,-50.4327800484746,-15.088991148262814
564,-14.81480033056074,-4.450816491500612,-53.97462940442793,-15.217854297859022
565,-15.283487388586765,-4.662655281122754,-57.57933737484472,-15.363897037054898
566,-15.792898264410022,-4.890464456000855,-61.29314403854642,-15.539537436289327
567,-16.320020127466357,-5.113250816825491,-65.11294387174429,-15.751444737314275
568,-16.829651322888772,-5.307546426200635,-68.99039051671478,-16.01513555657638
569,-17.340087777856795,-5.47415612328875,-72.86423506576473,-16.319444927939387
570,-17.867219546076722,-5.622119666361849,-76.70004396871998,-16.611361730830282
571,-18.346377391833077,-5.7612819937973105,-80.508726167808,-16.85320036423817
572,-18.694806534673983,-5.901932549698844,-83.72335969443024,-16.99886908859337
573,-18.945455852445672,-6.048358120003724,-85.11373851173566,-17.01547821612434
574,-19.137654801506443,-6.203161919924309,-84.14086222229587,-16.92919043674972
575,-19.310033229659876,-6.379342074361454,-81.28709811034734,-16.804217286025192
576,-19.500626166981114,-6.5889545047545335,-77.28769137814304,-16.685491360329248
577,-19.68703203132238,-6.8374290745131105,-72.72237393141475,-16.618161876784956
578,-19.833399020495786,-7.111407623505584,-67.90913202647465,-16.596475547096457
579,-19.984840940931456,-7.413774237513003,-63.04090903830863,-16.639688922759476
580,-20.424332973347266,-7.794725415888388,-58.96213476805668,-16.92429328245209
581,-20.858563809802817,-8.165923663857411,-55.209959212358285,-17.211693207479918
582,-21.227232273546594,-8.51130602533041,-51.98726943163854,-17.475307268522453
583,-21.53741100903722,-8.81338539314311,-49.40068580792473,-17.691681935899165
584,-21.805540024640056,-9.057135092636033,-47.45001252974927,-17.833069003891517
585,-22.014284301010925,-9.252376089398522,-46.08534313870783,-17.877854659857398
586,-22.139226746441537,-9.418012717638641,-45.22170866542054,-17.819352170106633
587,-22.14120816600352,-9.561838137246498,-44.71091916000307,-17.67112202636634
588,-21.995121059692824,-9.686290295833103,-44.41578171306,-17.460233572403833
589,-21.75274866837643,-9.79088037698814,-44.26327989943497,-17.220989282162797
590,-21.49188897390515,-9.872486544346673,-44.21557277242088,-16.98224308436255
591,-21.245681525310108,-9.928520407912957,-44.205814646271506,-16.751897695340958
592,-21.029368210223183,-9.959662845077963,-44.14031650884801,-16.522098843059915
593,-20.861541438538858,-9.977559199404874,-43.979001470828905,-16.27451820916132
594,-20.741235406972958,-9.992826135527249,-43.769070770762276,-15.989750390674146
595,-20.651458954528525,-9.99546094125878,-43.591010575074314,-15.665004242716112
596,-20.56143599210727,-9.97037002660118,-43.490085219983804,-15.30794899179217
597,-20.39631978605311,-9.91443317406014,-43.462857570849906,-14.924002744559582
598,-20.095364063509127,-9.82982749870899,-43.48825752637755,-14.522277079865045
599,-19.703094496659027,-9.723938311108167,-43.555329476035425,-14.122221855804058
600,-19.29563940889258,-9.604024413810214,-43.6659242702778,-13.742440131097993
601,-18.89133169305061,-9.465379585994407,-43.81830456459637,-13.387393868272497
602,-18.48697656373726,-9.299811174925308,-44.003481178065975,-13.057360382228538
603,-18.07528983428502,-9.101245059097238,-44.19270865766273,-12.757416928653159
604,-17.64096593596124,-8.871114552934761,-44.34124616037631,-12.490515876216508
605,-17.192640291931394,-8.633970423316816,-44.41164399020755,-12.263070985610282
606,-16.747084471631876,-8.41775091992865,-44.38288029668919,-12.06647191968747
607,-16.283549004106288,-8.2260316560594,-44.24840825387027,-11.878970521893272
608,-15.785361073405191,-8.04959686264276,-44.028427898302695,-11.660334953837458
609,-15.299972209376811,-7.877524682909236,-43.74648747968462,-11.400474288422597
610,-14.87936523207433,-7.697053006809075,-43.41113899237931,-11.129632079087143
611,-14.52141591283837,-7.499318230869339,-43.032390680047506,-10.868447670366253
612,-14.200155117891557,-7.283595312298462,-42.62814453549526,-10.611515440304055
613,-13.864777585253796,-7.058062771317531,-42.20757824014101,-10.354661905559857
614,-13.474177154539914,-6.836024144027808,-41.76279731313557,-10.113320957061816
615,-13.080277433294759,-6.632051998267757,-41.27964944289699,-9.892793390902069
616,-12.75558636433897,-6.454599251016362,-40.758915382275305,-9.695002665144228
617,-12.489500676836974,-6.29926680701782,-40.217155413486616,-9.500073625190614
618,-12.24377292573699,-6.151514838445109,-39.66573961911538,-9.281821579500244
619,-12.001869976189637,-5.98767454685907,-39.107055943499475,-9.025819535668145
620,-11.748186284124007,-5.788399532770205,-38.54030323922396,-8.731661156353937
621,-11.478581980530128,-5.554537092916383,-37.97014911874117,-8.422450253809373
622,-11.198145951101678,-5.302900545692609,-37.39966499602207,-8.129658553940367
623,-10.885212026982671,-5.0639334164320555,-36.812612713727745,-7.8698983217926415
624,-10.52438078481768,-4.868002191303428,-36.17270954069991,-7.647187128381388
625,-10.16497850350256,-4.725432044685524,-35.45735285180546,-7.454568766813492
626,-9.862549450292,-4.630327774975236,-34.67510088571746,-7.277023127683383
627,-9.60711224692019,-4.564725352897601,-33.85017736969161,-7.098369425974347
628,-9.367404661143043,-4.505686629828386,-33.0036410716546,-6.908215996066271
629,-9.126577459525619,-4.439643663842195,-32.15398999949883,-6.7110281086535215
630,-8.873183101778155,-4.361101157127241,-31.335473092268497,-6.518218501991407
631,-8.622407743876513,-4.2681833615503075,-30.58448356597523,-6.337424762067816
632,-8.39644224860426,-4.163964725036782,-29.890008627286466,-6.172904207718302
633,-8.170480369090958,-4.05660556605745,-29.176558289583248,-6.022346574482451
634,-7.914845180111015,-3.954451332499274,-28.360422059102405,-5.8806950120281005
635,-7.661517837509967,-3.856797018095724,-27.4107430231592,-5.748705199060323
636,-7.448619173614287,-3.7614992598479926,-26.354721212993425,-5.630166983885713
637,-7.255854948100443,-3.678412926187771,-25.247124323691033,-5.524903235055716
638,-7.051680240395058,-3.609208073303296,-24.144395674247885,-5.431080950660848
639,-6.829114807649261,-3.560427745173244,-23.101122315043558,-5.359215965036171
640,-11.179443043609425,-7.567460396945047,-9.080079355845477,-13.488876091680835
641,-11.592723801960126,-7.744451602221922,-9.51012022995238,-13.948654504604695
642,-12.101198606689858,-7.897664692946817,-9.908436670746331,-14.45953713439868
643,-12.634458817972485,-8.05317656822027,-10.279226366019373,-14.989652404247247
644,-13.102916597918446,-8.23949407668398,-10.629065948575727,-15.489610335494827
645,-13.522383785600717,-8.466147670577366,-10.92098405087357,-15.937455694176315
646,-13.928039292031272,-8.730354673367136,-11.120742984609237,-16.324760822879743
647,-14.308997218766997,-9.016381708069243,-11.237759108780953,-16.658913741003886
648,-14.655837717465937,-9.302170137355887,-11.298224835031668,-16.960757095427176
649,-14.964144221058643,-9.572677207951951,-11.325784687953439,-17.24987270424035
650,-15.236596726912165,-9.818476027180479,-11.336707133056741,-17.539831837990782
651,-15.529764229803407,-10.033515992758138,-11.353169064036782,-17.837630389441866
652,-15.890681107823601,-10.217899686534526,-11.355891692434406,-18.138822998271838
653,-16.262272468362088,-10.376440956000101,-11.309430997685743,-18.419936033564092
654,-16.57651915262741,-10.515847930952834,-11.160401882429124,-18.658592900186346
655,-16.855691666057933,-10.647259933676144,-10.970726214437917,-18.856441837710733
656,-17.13645132138418,-10.777170879792703,-10.924949040810223,-19.023120875873417
657,-17.413745687665628,-10.89432490787275,-11.118608404570086,-19.16685641803892
658,-17.678074339711745,-10.991228437261709,-11.492128611596145,-19.29308640361181
659,-17.91293176799092,-11.06135053233171,-11.927327026858123,-19.386728734753145
660,-18.10471828505075,-11.121620805815583,-12.323505094031143,-19.43665826790046
661,-18.297534508853253,-11.193954431486194,-12.598202715012535,-19.471570539157018
662,-18.527682193048655,-11.294542635766945,-12.727614479098781,-19.523925229059454
663,-18.72430443514279,-11.410369490705639,-12.758800071677282,-19.595199201839797
664,-18.814793504806126,-11.51691660367115,-12.743448957065137,-19.673070395972704
665,-18.837415175148127,-11.589314087646722,-12.715740191362784,-19.740868352124387
666,-18.85004565479077,-11.619482583384997,-12.660935226696012,-19.77822489750617
667,-18.86594966314252,-11.621496048742042,-12.570679307306316,-19.76721309936835
668,-18.883759805226553,-11.630473771120489,-12.480995292618628,-19.70042259546777
669,-18.868206013192818,-11.671787481993796,-12.406965400113227,-19.59090729762019
670,-18.787832593952217,-11.74023549922616,-12.356441184750821,-19.45691808809929
671,-18.693894641415334,-11.823991230856906,-12.293928521452502,-19.301676474439585
672,-18.64466014935707,-11.905065068146298,-12.17452528446403,-19.125309177358687
673,-18.619654851655756,-11.98399350751122,-11.988071096358063,-18.93530775784812
674,-18.582004282286324,-12.066883957506343,-11.740560856850859,-18.73740247157144
675,-18.51980763193675,-12.147084424408197,-11.442719555528926,-18.53449651685346
676,-18.42820737491902,-12.218831196383961,-11.112307638664428,-18.32529465687094
677,-18.32735697717809,-12.286595524330279,-10.761402345355206,-18.096295707042994
678,-18.23728581830643,-12.356578344838779,-10.40014593856529,-17.836921012188807
679,-18.122122456156152,-12.433951409079565,-10.048138496929203,-17.552627416688296
680,-17.943138305325963,-12.520415115643079,-9.717773412491887,-17.257141734613676
681,-17.726684953764675,-12.608911915528095,-9.40357622623389,-16.97594199141196
682,-17.505242280340376,-12.687726445333382,-9.091473789069944,-16.72482515937467
683,-17.259265331902967,-12.744821108252205,-8.755486697135439,-16.47584857375423
684,-16.966650512078008,-12.770509059644008,-8.39238091689103,-16.19161897011769
685,-16.637267647604702,-12.762122519555014,-8.004221932683558,-15.863132138656315
686,-16.285254953833075,-12.721649269027823,-7.638159615635274,-15.489629834618277
687,-15.927156556516604,-12.652354705393654,-7.349967994005388,-15.070169274832248
688,-15.571564317313527,-12.559825105552498,-7.143269444024665,-14.607341039931633
689,-15.180393851342002,-12.448994089273134,-6.983397181322815,-14.090546060493839
690,-14.717859384209271,-12.325695605658263,-6.816931403848559,-13.515708551725165
691,-14.2175578219266,-12.203505851747131,-6.619848956626882,-12.920279728671515
692,-13.72191157295808,-12.08994506882545,-6.387240616630873,-12.341494084635292
693,-13.223361072547483,-11.971635289034964,-6.125345357678863,-11.769225644065545
694,-12.703607882625676,-11.827655499836055,-5.850155087683164,-11.180438090740036
695,-12.151345850743352,-11.6412282374162,-5.579701725644507,-10.570193755675055
696,-11.555979542879424,-11.402096667210627,-5.322528155625702,-9.932957973988753
697,-10.934707565342435,-11.110036936797234,-5.063529733820519,-9.25389645637391
698,-10.302269085951222,-10.775890233991783,-4.779984077169894,-8.521972181283866
699,-9.60803593559931,-10.42272018151937,-4.4664742388395995,-7.734011943634955
700,-8.856750231205321,-10.09846784029531,-4.153394937685072,-6.94260214926734
701,-8.17286912413591,-9.862935409145209,-3.8931014829574884,-6.280211487787987
702,-7.696926665272018,-9.725640867126465,-3.716547080775869,-5.839516116922339
703,-7.392740071628369,-9.633683625076277,-3.6381101209963718,-5.5734929479184325
704,-7.149839630645988,-9.534113897086492,-3.675418130556788,-5.357394518557151
705,-6.873247764716255,-9.398370694244628,-3.8195831005404943,-5.120314603581209
706,-6.4983932774409405,-9.22852629684628,-4.044296674131839,-4.829022054617725
707,-6.065208177838157,-9.046660751174487,-4.2747022626087325,-4.491231562318781
708,-5.7666086246086,-8.849570976304273,-4.386307567948679,-4.1783383093744035
709,-5.494088369573371,-8.68622196251846,-4.401606074918321,-3.8648123232049003
710,-5.233983753382325,-8.554693356408194,-4.328104277092053,-3.550834614694759
711,-4.984337574264521,-8.435583500631775,-4.219102201402521,-3.252067964841671
712,-4.7383878678505855,-8.30471323982679,-4.137644231739919,-2.97628379450798
713,-4.491827234507063,-8.152151978667696,-4.098807728776482,-2.6967967940069975
714,-4.245052220012571,-7.97844264716682,-4.100939163925408,-2.386260813697549
715,-3.984609935332441,-7.793856701128133,-4.100690883303396,-2.049174267442698
716,-3.7002495744282586,-7.6104198843585324,-4.086662201028995,-1.7035231719374986
717,-3.422322626292129,-7.4267835603690795,-4.061208555198053,-1.3815291382465604
718,-3.1803087894712254,-7.234208759295833,-4.03928471046168,-1.105710438043056
719,-2.9415806859291287,-7.021687592895079,-4.0068153449081905,-0.832820029495385
720,-2.6609024779038797,-6.779773064558474,-3.9468915437455645,-0.5086121266625854
721,-2.3375990807759273,-6.51354640081632,-3.879769150014538,-0.14107914257752044
722,-1.983929450088674,-6.232519762634584,-3.82715099441895,0.23659678010079005
723,-1.6082598567313773,-5.933473948810231,-3.772547941713578,0.5927857530025217
724,-1.2207821094969518,-5.612675235265264,-3.6903215414788337,0.9010063411443733
725,-0.8042817060056485,-5.275615967284232,-3.569456799766032,1.1681296941740351
726,-0.34357419682064433,-4.932219858333145,-3.4106474156011783,1.4191700044215978
727,0.10404044509629484,-4.602650186335506,-3.2305307285210128,1.6690850026193969
728,0.4793787219342621,-4.303732803884783,-3.0580193343184714,1.927131125160452
729,0.8215477944187602,-4.023287999369471,-2.9304410423703557,2.195678551106665
730,1.1906008774192842,-3.7445907459562378,-2.874344981102275,2.4687887192770233
731,1.5897839372844664,-3.4538226967381807,-2.8769614778645134,2.739945127718692
732,2.000605606604406,-3.1579102887183192,-2.906667124012469,3.0014278617089216
733,2.3843313077590906,-2.8560834938145114,-2.941082299364136,3.2412184532380577
734,2.7012684269948086,-2.55169094088526,-2.961733451183221,3.4501257401391747
735,2.9772820953478085,-2.244005259951874,-2.9548307734195842,3.6286757285472317
736,3.2543654219022735,-1.9346160851271363,-2.916502009577649,3.7831316046008316
737,3.508879769998485,-1.6462416493379701,-2.8465920905630715,3.9213080273584078
738,3.7076844802948092,-1.4015136224887235,-2.7529818487039184,4.050472231282286
739,3.868519894226027,-1.1958173880242686,-2.6628759772216597,4.17496400692397
740,4.016024948105219,-1.0133735262144348,-2.6050597346393185,4.293262763280147
741,4.1594345428447035,-0.8394120094189638,-2.5860444660604807,4.394960243095499
742,4.297582215905521,-0.6617219966892782,-2.60198358379146,4.467954196519907
743,4.384442333964863,-0.4845684281978635,-2.653913951117777,4.503198336097755
744,4.375739273442828,-0.3182372413632378,-2.739508718501932,4.497306688941037
745,4.316960009778827,-0.15783793612926514,-2.8449464174254473,4.467528161209953
746,4.272728570180234,0.003363081330810286,-2.9552213142659918,4.431938185405105
747,4.2346707049062635,0.16000117858789348,-3.068621647576006,4.369339756913303
748,4.175455805307772,0.30511817951025255,-3.183204702295461,4.255612080701361
749,4.0936089184980435,0.4329420147752652,-3.279264756827574,4.114856319761553
750,3.991156723783803,0.5432646362479838,-3.338519879554583,3.9806183931175463
751,3.8819938506472176,0.6554453674966826,-3.3559699911760803,3.859183619612049
752,3.7844006597148647,0.7921123837906652,-3.3406543328837377,3.746942905099113
753,3.674689150385958,0.9569062384199254,-3.334179820868343,3.6272653428569877
754,3.5281607569218885,1.142595688583301,-3.3756648841589163,3.4847973065705267
755,3.3995365856501962,1.3380045033743753,-3.449793296750634,3.3467662055358924
756,3.344696200311195,1.5285054317754434,-3.5167990743049584,3.2463422640487565
757,3.316642054077069,1.7008207887371614,-3.54562002401857,3.173278279763733
758,3.2491732412290566,1.8458343207704737,-3.511886368328455,3.1052479528691093
759,3.1300515451415976,1.9646866258191051,-3.405020277775216,3.0249610302189436
760,2.974788408110674,2.061904951410544,-3.231624584016257,2.9256983042100426
761,2.8530516948819176,2.1278461078111226,-3.0193173239788624,2.8489144717887642
762,2.8322246967351363,2.1568945649838667,-2.7989123635882587,2.839332252522937
763,2.854781286415552,2.173047031706514,-2.5671048100763816,2.874697320034657
764,2.8312295697536927,2.2073391952107086,-2.317384075647858,2.908999409055443
765,2.771073403975669,2.2753981266285757,-2.08946722914585,2.9177403230818784
766,2.7070768771094995,2.381687177897632,-1.9267937802411415,2.8870760515947103
767,2.6278537797762502,2.516761918401977,-1.8321211766301375,2.8184134435757424
768,-15.107062176622497,-8.574259357423436,-13.69775126478497,-10.658271555500097
769,-15.39867226385351,-8.866203387484198,-14.168718271485643,-11.08612759688186
770,-15.529366591666818,-9.129005997511678,-14.611761570297766,-11.562243739970306
771,-15.510113009439468,-9.370065155081479,-15.037930922607815,-12.078038451332809
772,-15.393875067237685,-9.586739254280007,-15.45700542183555,-12.611649158633696
773,-15.302153077152886,-9.774624513931363,-15.857444780119078,-13.141100410183176
774,-15.335975062051997,-9.934490351134047,-16.225284406363485,-13.644404699527925
775,-15.457953310065612,-10.094663118739529,-16.56476482529486,-14.102911263450467
776,-15.586115655065472,-10.28223833964133,-16.883750759856483,-14.511843003390224
777,-15.678901122214569,-10.495349449251968,-17.188580941152768,-14.893470808477424
778,-15.714274403417809,-10.717240334947096,-17.483947434751013,-15.272232078860814
779,-15.716346015866012,-10.921822729953604,-17.755539349235086,-15.647410996766357
780,-15.719832355146773,-11.08483829869154,-17.995002304032777,-16.00628289535575
781,-15.6917638844377,-11.204538244595438,-18.23791461155687,-16.333703262396117
782,-15.594397920290886,-11.291695641759487,-18.52035375346403,-16.614436175214255
783,-15.457356178561996,-11.357227382094278,-18.835021775741197,-16.842710498415673
784,-15.320322450632963,-11.413727215444904,-19.15692534580212,-17.023464083725226
785,-15.188085114913708,-11.471584245178441,-19.46141088065923,-17.166349692994874
786,-15.060389680865397,-11.536689408052695,-19.7229676835076,-17.286954862170713
787,-14.941632028762305,-11.612681370350098,-19.922977534818457,-17.4141333958039
788,-14.830746119443967,-11.698050751404141,-20.058734514757404,-17.565728536193735
789,-14.735552528857887,-11.782978724957617,-20.14557006219305,-17.72265203178155
790,-14.65695376457139,-11.855345722838736,-20.208324033954188,-17.854798813549067
791,-14.550163212108423,-11.907095175340432,-20.27817098621934,-17.939218386344642
792,-14.37814089538017,-11.933473018055864,-20.37462601080191,-17.967092421147655
793,-14.177961918595752,-11.932123008679225,-20.481295642095265,-17.965041769133574
794,-13.997986417178812,-11.905936923442349,-20.569754929790157,-17.967178882982545
795,-13.840327774368147,-11.863018287356027,-20.63088869882957,-17.977851162851163
796,-13.692971237604567,-11.813310016301283,-20.665981365422578,-17.98866182860468
797,-13.537116467542559,-11.769320236416807,-20.667488493804854,-17.99341597698861
798,-13.35317192637861,-11.736453233775338,-20.64699198644013,-17.980178136635512
799,-13.160883289131952,-11.702117400286184,-20.67240283009789,-17.933127963536965
800,-12.981780489003206,-11.649316041688987,-20.800637621276916,-17.842370905219912
801,-12.774436989641847,-11.564773262895494,-21.013995841048867,-17.702553585293956
802,-12.504813812654126,-11.445383297296734,-21.258746236336364,-17.52227964968111
803,-12.224166757355897,-11.315021892356368,-21.462311021706732,-17.34203762233978
804,-11.994822750061862,-11.195785320816386,-21.563484391212445,-17.201667210993687
805,-11.831190876322239,-11.098685454913497,-21.56812169256036,-17.10538182582754
806,-11.728679089115749,-11.010861904191014,-21.50907257578714,-17.04147926745713
807,-11.65746022516477,-10.918090166381734,-21.400780037168744,-16.993245584126484
808,-11.584795354810778,-10.81981421928287,-21.24798440017522,-16.944938890149555
809,-11.539117609641217,-10.71208111948893,-21.042921378142303,-16.90182064000412
810,-11.54866419571034,-10.594530772903846,-20.771313346656196,-16.87208726110994
811,-11.551160023133319,-10.461477753558205,-20.419761925478305,-16.845983969455233
812,-11.482203457673608,-10.307458619319343,-19.99349931482779,-16.806656776907452
813,-11.372530636043152,-10.135702649174712,-19.54391996070541,-16.731364824010598
814,-11.261737611852283,-9.951376709864414,-19.12676809122491,-16.602550058037355
815,-11.125046167499711,-9.755003520309812,-18.755668563589484,-16.429328578575863
816,-10.931279351826607,-9.54638052265457,-18.419808218866173,-16.229156766561808
817,-10.665367610326657,-9.326680012228433,-18.09683494722177,-16.00390600232946
818,-10.324383805954888,-9.095223486583622,-17.754952648722394,-15.75132089687436
819,-9.959254653787022,-8.849260461951133,-17.36189650570121,-15.478558783743058
820,-9.615199202864002,-8.583344622758476,-16.899649640461206,-15.185139526322029
821,-9.238475643983122,-8.287332105086719,-16.37909375249265,-14.845863659416814
822,-8.76736090044113,-7.952673773020165,-15.821908358174056,-14.437152877458452
823,-8.226249812333279,-7.57727044428562,-15.241464924006593,-13.960227876213345
824,-7.659142083679105,-7.166252199358115,-14.645235831390984,-13.429655159594553
825,-7.092560146636294,-6.735256804240887,-14.027199482140112,-12.86800967939303
826,-6.545554709699485,-6.301616551135924,-13.376166666902188,-12.29739729907137
827,-5.99155986641332,-5.872566781506665,-12.703139551396665,-11.725669730667283
828,-5.457120434916097,-5.4848650952635465,-12.05059183758928,-11.190328235795032
829,-5.098514776675733,-5.2145043797944135,-11.422592031016435,-10.720305197169028
830,-5.065655265524966,-5.085857879721354,-10.850006261156269,-10.357414379378724
831,-5.238688627611149,-5.043603258326346,-10.370153551629164,-10.082655215523662
832,-5.409659887092154,-5.030635402350079,-10.01127411374334,-9.847228645774468
833,-5.488438972708359,-5.027027996180639,-9.817062037980211,-9.62620668744283
834,-5.449652059304271,-5.025177369723697,-9.799823331396546,-9.39988571311615
835,-5.344653468696088,-4.999536915716961,-9.88868083183518,-9.139424255506711
836,-5.45118724118308,-4.8913381021452835,-9.729350797517663,-8.92170684777558
837,-5.546461224254177,-4.747645537226737,-9.524013292504328,-8.676360251498197
838,-5.589912310235976,-4.593439600747286,-9.214352733774335,-8.439118941380098
839,-5.614760753402919,-4.4613738736766395,-8.796209732397669,-8.247220367306888
840,-5.663518292004946,-4.361262574046437,-8.302435944931117,-8.12342185814659
841,-5.732582821222845,-4.28062226870467,-7.785971607809761,-8.055149268820724
842,-5.803568583886031,-4.209721191046635,-7.3036542710909655,-8.01157575147923
843,-5.8490912107914195,-4.132918596480546,-6.893380891128178,-7.967476983653679
844,-5.842185436360419,-4.039639996877599,-6.559764905346994,-7.902825993259145
845,-5.796206012411432,-3.9234653782026956,-6.262475205387457,-7.8051747704134655
846,-5.736606897730774,-3.785339859183235,-5.946280456033394,-7.67081117916735
847,-5.650986589162638,-3.643876471779591,-5.560578440514318,-7.505859921792625
848,-5.523311208027274,-3.51769290435071,-5.087744324362004,-7.315900160718005
849,-5.372117188030165,-3.3974375939132027,-4.607207388114662,-7.084478440747595
850,-5.219308781645505,-3.2668008670893394,-4.211032644013403,-6.795318629954438
851,-5.0765470780867,-3.1271181323062187,-3.890808639877588,-6.465673000102609
852,-4.949471326773631,-2.9859875269253333,-3.59334219542696,-6.124172604742656
853,-4.797711328318152,-2.8524023075261384,-3.254717618826573,-5.784391127819919
854,-4.590716421468856,-2.734730759792458,-2.8263467449336654,-5.457137730655153
855,-4.4236676623648,-2.630773290908645,-2.3537542290416185,-5.16147582342807
856,-4.401631480189858,-2.532859521700478,-1.915148480400458,-4.910723403144421
857,-4.4794525453385665,-2.434490165733289,-1.5356712568726851,-4.69816617076859
858,-4.569697817878318,-2.33277620167315,-1.2113199030167536,-4.50974023681422
859,-4.649856721144625,-2.232556494364632,-0.9071017525795309,-4.342491126739139
860,-4.716557498437662,-2.1418919797300324,-0.5798764528002188,-4.191730176037924
861,-4.785708031724402,-2.072690112829781,-0.24078705309654944,-4.0344885273264195
862,-4.884219017942983,-2.029957153141014,0.07929778794595443,-3.8493368514997814
863,-4.983674698928343,-1.987432883385265,0.3778350190878669,-3.6332190445274515
864,-5.050324363691944,-1.9204705943822962,0.6589262849191064,-3.3954768007144125
865,-5.13480937266346,-1.8249644515134544,0.9246347688103914,-3.1611682622210906
866,-5.296794334879527,-1.7220220256514454,1.1785770284395687,-2.9560080149363914
867,-5.51480405782769,-1.6350397234765959,1.4114511812163977,-2.779985345262787
868,-5.7470580471304675,-1.5684616442049768,1.6118582297418724,-2.6224171334993036
869,-5.9815323362929025,-1.5205384788954956,1.7858256665385281,-2.4793412287950165
870,-6.21544953020642,-1.4808307774552225,1.9411839647106273,-2.350900324548291
871,-6.463755338591543,-1.4445278292069381,2.0780546236154422,-2.245043890353536
872,-6.743548477285289,-1.4116898861880096,2.189531832013053,-2.173041912700661
873,-7.029853432182636,-1.3857805116430015,2.245239299457265,-2.14064895375315
874,-7.280751627627768,-1.3712147130525625,2.22119430188144,-2.1438401343276223
875,-7.482817972736632,-1.3713571251311167,2.1445861677282174,-2.167222746376551
876,-7.623727914557222,-1.384163147094163,2.062496335116847,-2.1876646146779453
877,-7.650382028700173,-1.391762018042225,2.010486274683585,-2.1719830929920536
878,-7.520805745493449,-1.3764635631679898,2.012301754204881,-2.1005805033564062
879,-7.267394937268054,-1.3429327845732602,2.063388715257971,-1.9954361315571334
880,-6.946661429605179,-1.3049389175509083,2.1432623188695454,-1.8979327244471795
881,-6.585059393253163,-1.2729730523483296,2.2446258712777203,-1.8565188713749248
882,-6.196774728504779,-1.2531819254053758,2.3637391751180608,-1.9022754789238852
883,-5.792473443678215,-1.2402853196547454,2.4855136613415474,-1.9983308173557912
884,-5.370918610823226,-1.2216925390646753,2.598516028372607,-2.086462271262009
885,-4.923918044560615,-1.1841675019158406,2.712419325545539,-2.1507865935345687
886,-4.449951974129592,-1.1186619913261568,2.838513275934451,-2.1933564954551157
887,-3.9555544623309453,-1.0289447190296048,2.9660671383502346,-2.2239569118214626
888,-3.4660984156057952,-0.9223712932532331,3.0795470280151407,-2.2530184409741536
889,-3.046598116704533,-0.8203505799115051,3.173727332245065,-2.2574841365433564
890,-2.755543168677994,-0.7336141703406023,3.248246752547648,-2.2063889181984093
891,-2.605693867739352,-0.6571132179872797,3.3128175722221935,-2.0986249041106944
892,-2.5642998678498086,-0.595623190555126,3.377599682456851,-1.9481579609110096
893,-2.516616981963164,-0.556470463533901,3.431337169316011,-1.7721909860854528
894,-2.34955907083589,-0.5423647866981962,3.4581808278669097,-1.5913524035229432
895,-2.081833991898055,-0.5262140214152634,3.4595034339112387,-1.4263570512649095
896,-11.848630500028792,-12.41880196338562,-14.349519450225191,-12.650877100611536
897,-12.274732896930082,-12.937824517052604,-14.654424103724157,-13.063957337633285
898,-12.741733561663672,-13.434529052832376,-14.940449612520878,-13.458628365590073
899,-13.239378728220812,-13.907153644205746,-15.221952900352731,-13.834977858753913
900,-13.748286106783295,-14.362816391078956,-15.5135609289155,-14.197455322230438
901,-14.283552186330398,-14.807312711943371,-15.812803205101476,-14.54858244594795
902,-14.854396144901479,-15.237134364419274,-16.116074032717837,-14.891687701366685
903,-15.39986724330877,-15.64109420142011,-16.434198984848553,-15.224543771599333
904,-15.863766849694088,-16.007505079369885,-16.776420161109897,-15.546259239635786
905,-16.272632577475147,-16.335585547072103,-17.14900073123949,-15.879814321744398
906,-16.669401858547417,-16.63304173200767,-17.54000885172933,-16.240931782722836
907,-17.066534583872915,-16.912615429974675,-17.91731031703105,-16.59350803119709
908,-17.46010430955232,-17.185889915535547,-18.238518441830593,-16.900620531923845
909,-17.811230352676077,-17.45324962350761,-18.501680534541403,-17.174336857468667
910,-18.077212403127824,-17.7006742312518,-18.74684296049689,-17.43852617748967
911,-18.268488947557856,-17.910579262472734,-19.0011800230191,-17.714054481521
912,-18.408616821290757,-18.07740570287235,-19.262645935569438,-18.008978563338307
913,-18.48974954280496,-18.212064714714835,-19.516591260209882,-18.27629750270478
914,-18.506635994832983,-18.331899076448117,-19.747606715703817,-18.467294731923822
915,-18.475433573571305,-18.440826330757254,-19.960659527025737,-18.60609242790166
916,-18.41761128495611,-18.527580789061595,-20.177845702400365,-18.729425218615045
917,-18.366587423455695,-18.593229871936426,-20.39915118599635,-18.830342599044133
918,-18.347577099543738,-18.655700877168655,-20.597719122737743,-18.895884098536854
919,-18.33490902355581,-18.72627126252799,-20.757899227753974,-18.918468981702468
920,-18.297781561935228,-18.804599079451403,-20.884031319217705,-18.895833195216465
921,-18.260547447128875,-18.88271941247649,-20.977199520983152,-18.861087501030866
922,-18.24992343850272,-18.950434203891653,-21.029020238133207,-18.841944076783975
923,-18.244633490789845,-19.001852550928707,-21.039143775973628,-18.80807434976642
924,-18.21535173886645,-19.039627032308477,-21.02123022250056,-18.718973222423685
925,-18.147729021446843,-19.066944598182733,-20.97860815005665,-18.556885781448624
926,-18.03248100189658,-19.078461794256754,-20.916889806183704,-18.325568179766314
927,-17.88126041172809,-19.064754982602842,-20.8460274569532,-18.07781149920172
928,-17.70815675260957,-19.014374727135216,-20.773754566760218,-17.868230024905085
929,-17.483766671791884,-18.91909048026603,-20.701549428257643,-17.68614891810628
930,-17.186448562617066,-18.778025263276998,-20.62736154945007,-17.499260667246624
931,-16.868402028622274,-18.60325958905573,-20.54801911725616,-17.29746645754942
932,-16.585808555423,-18.410564159179966,-20.457440966550333,-17.073436363221703
933,-16.332118842212246,-18.207447508502273,-20.34679144393293,-16.811305760097742
934,-16.078342601033413,-17.99432006446028,-20.207985136909606,-16.505848139090045
935,-15.79934517441235,-17.761162557903543,-20.03391886071962,-16.18082267960381
936,-15.465259004030925,-17.49132001570867,-19.822538827486003,-15.855577519341434
937,-15.056268675034426,-17.151931419317258,-19.59700444149422,-15.510943561552608
938,-14.569685814300852,-16.71104491852696,-19.37513630936871,-15.119387628590259
939,-13.992481339015201,-16.17689924887357,-19.16706835824562,-14.662963914829605
940,-13.350226956718478,-15.59054052930805,-18.97768037935921,-14.137280337106139
941,-12.706654888263254,-15.004142785778102,-18.771727535130264,-13.576291106224339
942,-12.143184676942205,-14.462757650043883,-18.481862369099655,-13.014889961741066
943,-11.65121966887845,-13.959198720334234,-18.091120371209957,-12.441756594157734
944,-11.116890759618757,-13.429718889307944,-17.64230937508585,-11.832924022106523
945,-10.454125635468973,-12.819534382634696,-17.161270134737123,-11.16629251782604
946,-9.67226438246806,-12.118382542182749,-16.631787189534986,-10.42876363830623
947,-8.830298835610481,-11.341743282596992,-16.03063308419944,-9.668010982433008
948,-7.979427410602119,-10.519071197781987,-15.34930879464861,-8.908480962374856
949,-7.102264802824436,-9.660221646518146,-14.598217871123586,-8.131046804252547
950,-6.124657859536441,-8.743368337651251,-13.760245436827562,-7.2661192679803674
951,-5.080407101908504,-7.804280856821074,-12.706903131103898,-6.32049614174271
952,-4.122330892768424,-6.943297996378774,-11.276186170747403,-5.391797103654827
953,-3.2828272676680905,-6.172757380238209,-9.448235058651907,-4.537259206763942
954,-2.437845594374083,-5.398515844624474,-7.342357685932796,-3.732388217571926
955,-1.5139718445970272,-4.573521547094521,-5.066051801483932,-2.973434957903232
956,-0.6219377667478482,-3.768166178185694,-2.6630685554120164,-2.2803200721047556
957,0.005731000474686887,-3.093527676525943,-0.18211812729372445,-1.709836930271028
958,0.26203482447932025,-2.59183258326806,2.3661132352860434,-1.2680039394947218
959,0.22833825594162294,-2.2385343687108095,5.085710905609265,-0.9666090400201385
960,0.0770671292244326,-1.9968351225243186,8.096344779432538,-0.7590722550509313
961,-0.1461511739542216,-1.8282539046826096,11.414141801293368,-0.6680785680439488
962,-0.36327367148013345,-1.7227304174171825,14.956524944357724,-0.6806952027963449
963,-0.5155710874312671,-1.7268870204034217,18.552890477547933,-0.7359592353021811
964,-1.3860576159166165,-1.7736101445920112,15.852096026528038,-1.728149371462362
965,-2.219809190187274,-1.8088204962295007,13.136398586200942,-2.719205804703926
966,-2.9812746718868026,-1.8367809122781573,10.410710470003242,-3.709523394907962
967,-3.7090871573192508,-1.8648379738831387,7.693025147307505,-4.688217513130378
968,-4.453494551716206,-1.8884170450735787,4.98443991147501,-5.635206158673575
969,-5.20341100320513,-1.8889054833682775,2.268522931492504,-6.512883207044765
970,-5.929914470986475,-1.8625644724893597,-0.436746121716987,-7.293069762288153
971,-6.618884136979647,-1.8270065490790033,-3.067734818437864,-8.009009776556931
972,-7.258372515630974,-1.7942862546180072,-5.580268501143938,-8.70628008674759
973,-7.84614794644165,-1.7624055081897094,-7.988134207066679,-9.369673279117396
974,-8.390182241584917,-1.728404232173048,-10.337935995110007,-9.974550035607312
975,-8.89252812780204,-1.6950196822551864,-12.650210129484888,-10.537236975333894
976,-9.359521764011467,-1.6656937949275759,-14.905522947293338,-11.086284903013697
977,-9.821128762751822,-1.6392424786476472,-17.089720961964797,-11.65966847812036
978,-10.308524599180316,-1.6146455931227002,-19.20938168407037,-12.28722980578392
979,-10.824283958709625,-1.5900172548235176,-21.27282960389713,-12.940413172647148
980,-11.361751362534756,-1.567554668175485,-23.27785486355676,-13.574577944293528
981,-11.92609231386238,-1.5655352878865338,-25.23385547565217,-14.189823200564689
982,-12.518438007830802,-1.6027579925943072,-27.145494087620023,-14.799636396984718
983,-13.134505128231632,-1.6843453398884722,-29.018236795206157,-15.405831143288319
984,-13.763114323984404,-1.8032701680931464,-30.849136443468208,-16.006427197284737
985,-14.354908350165225,-1.95170911016177,-32.60519526409768,-16.586203952032395
986,-14.868339783405098,-2.121944387974901,-34.25578960617447,-17.12473472819949
987,-15.350198729810902,-2.3094514234563435,-35.803091234538996,-17.615383255788178
988,-15.863535714603701,-2.51589176481798,-37.272829794854786,-18.06174343911219
989,-16.398482036729874,-2.740174626111449,-38.729498009372776,-18.470292313747283
990,-16.923709620542947,-2.9757577134317037,-40.22117967835001,-18.854628445290498
991,-17.41610627298251,-3.219908500754559,-41.732694508634665,-19.24192829809468
992,-17.860769589162445,-3.476063864982995,-43.197076721660785,-19.65331658861774
993,-18.303402502816585,-3.746827376030697,-44.55867428299091,-20.08360932855174
994,-18.79517879503941,-4.032078877347136,-45.80331244443112,-20.514120246295413
995,-19.284873236333336,-4.332917599642662,-46.93903103086314,-20.915714188228915
996,-19.704846335324827,-4.651745441163347,-47.977313949801626,-21.266699641340868
997,-20.079484777024366,-4.982677382255169,-48.94212290928576,-21.592351305570723
998,-20.439174695660274,-5.309800784334838,-49.88033694043865,-21.928737438016746
999,-20.843539047426393,-5.6230216028887545,-50.83316584356702,-22.271465962848637
1000,-21.279603003375154,-5.924379775318367,-51.78600022602699,-22.603352530949735
1001,-21.719126322177885,-6.218488592560674,-52.68601668383337,-22.914395506234566
1002,-22.12022818015607,-6.504251409304276,-53.47165988568264,-23.19794152512889
1003,-22.499954715008066,-6.7767217442041545,-54.14554214120263,-23.469577725035695
1004,-22.889955429289667,-7.031726003720913,-54.7376693707005,-23.746518998629067
1005,-23.269232900906463,-7.265775055194646,-55.288230051320866,-24.010674916633867
1006,-23.606954315711935,-7.476239240168588,-55.81902358086635,-24.235522077832563
1007,-23.904764443653786,-7.663299235198784,-56.33536728154034,-24.4097983419263
1008,-24.16902886448747,-7.833130496711548,-56.82599872479214,-24.534624604458333
1009,-24.400208836277617,-7.995622201431793,-57.28713726627258,-24.639137414015813
1010,-24.600346186048483,-8.152041767448493,-57.71513668175228,-24.755951871826408
1011,-24.750874312082097,-8.284852820953466,-58.09797901483778,-24.878749455211278
1012,-24.840105392964745,-8.378760509690755,-58.425841374470004,-24.985234231978563
1013,-24.92557144366683,-8.437613790520103,-58.69763526170713,-25.06376252514065
1014,-25.06695208505561,-8.481846461391438,-58.91800978726633,-25.106165262985968
1015,-25.23388760635885,-8.522054839931073,-59.096857193632985,-25.10796371724547
1016,-25.367752620737843,-8.551673723099942,-59.244555938036825,-25.072527803798046
1017,-25.443515897651377,-8.567009713467897,-59.36644302701297,-25.010816820816615
1018,-25.446542611673216,-8.574241397691312,-59.46153743451493,-24.93374940912201
1019,-25.378268447170516,-8.575437146178437,-59.51680756292972,-24.841895118526082
1020,-25.2510650503785,-8.563352084022238,-59.516493614818984,-24.731108116463155
1021,-25.04259657095964,-8.53093645281867,-59.46072568416622,-24.598574102283457
1022,-24.733680355860066,-8.480144028891988,-59.3510446946766,-24.440121745070613
1023,-24.37896714120545,-8.421759635466284,-59.173707198455475,-24.256951425249774
1024,-32.20658549567982,-10.613409726642699,-183.59694437295596,-35.46096017005118
1025,-32.76113015074823,-11.17482121809867,-186.82001444622128,-36.04318329941311
1026,-33.219178782473605,-11.715021259850946,-189.62158747828707,-36.4357228132753
1027,-33.534916321370915,-12.248650261452843,-191.9891019937919,-36.634788028626524
1028,-33.69303475295122,-12.790910533467798,-193.922231870276,-36.68790177370085
1029,-33.75473061523259,-13.344431507577493,-195.45029622563197,-36.65146858402739
1030,-33.79861193800323,-13.904770300735116,-196.60453335297623,-36.58117396565368
1031,-33.83942467377276,-14.469385524088286,-197.37280124379387,-36.506073360760055
1032,-33.87471120159263,-15.036108279258041,-197.72474507386204,-36.436195506284946
1033,-33.93583501780632,-15.604271320071264,-197.66474428480103,-36.389516410815844
1034,-34.03335148072953,-16.17537052780792,-197.20115996514974,-36.3649667000553
1035,-34.12308586265704,-16.751428758247183,-196.3825069137315,-36.31705202144571
1036,-34.147859632181486,-17.33373645212901,-195.315645902008,-36.19326159395887
1037,-34.04496997423336,-17.922810222037192,-194.24051325718779,-35.957923232258764
1038,-33.78282557514897,-18.516776123317943,-193.54466322893913,-35.59922652952625
1039,-33.43451392117998,-19.10794626244526,-193.4969832235129,-35.155375050388784
1040,-33.09073690834324,-19.68926552290954,-193.97992266178028,-34.677779992468
1041,-32.74753429931826,-20.262217299884494,-194.62764725228615,-34.17403013190618
1042,-32.379075980920994,-20.830508504112203,-195.226443651009,-33.64260409173475
1043,-32.00827010002912,-21.393897143300507,-195.8298754201187,-33.1140093584444
1044,-31.649871434674566,-21.95030072040882,-196.44117262580104,-32.60776225719442
1045,-31.27748712871955,-22.49771929645347,-196.78790774953222,-32.09950645923084
1046,-30.86405053345252,-23.032094897049525,-196.54330314507936,-31.55537661644058
1047,-30.388971959660285,-23.543153419019877,-195.53768559558875,-30.94773870429114
1048,-29.847466757929276,-24.023176766970458,-193.6865702789613,-30.263220060365832
1049,-29.29693720733622,-24.477108493201676,-190.9767115932294,-29.529857425718152
1050,-28.784022758287932,-24.91009338766799,-187.39974172212996,-28.779426049423847
1051,-28.247984634340707,-25.320217886675703,-182.82802047457488,-28.004149067279602
1052,-27.608717381642236,-25.69776616084015,-176.98354257497567,-27.17822058466554
1053,-26.846876614069167,-26.014749281010012,-169.69659229125745,-26.26681504649951
1054,-25.96728636792321,-26.247398740608165,-161.0681303327084,-25.24120640831646
1055,-24.998967328605605,-26.403451406403843,-151.2416843316736,-24.108803965116145
1056,-23.977430481887158,-26.501884855880483,-140.12518735170687,-22.89197355022969
1057,-22.886232156013165,-26.55926647319784,-127.58205212956877,-21.607722682095055
1058,-21.706409222194377,-26.58593663058659,-113.78033249143041,-20.268153818471365
1059,-20.483289926230245,-26.568593498161352,-99.11645913063576,-18.86426985346828
1060,-19.26379286159864,-26.49061155303429,-83.99461371464251,-17.38699859780601
1061,-18.04202373963412,-26.358947570738056,-68.59511006342987,-15.862882467809593
1062,-16.795017898069695,-26.186348993099894,-52.85237532174219,-14.321519703694095
1063,-15.496670480475995,-25.98018996367239,-36.66495545014299,-12.76107118498024
1064,-14.119660918712015,-25.74218006278043,-20.054091497487114,-11.17203672233098
1065,-12.66864700423606,-25.458527868660845,-3.07341992887929,-9.554866066737247
1066,-11.154621224151352,-25.113685736150366,14.341853434153368,-7.910324076434583
1067,-9.536772882741618,-24.70576148690873,32.35049278587678,-6.236058829509444
1068,-7.790115072832862,-24.243283799237414,51.042207221288926,-4.533523284384037
1069,-5.993280040770952,-23.74764706897038,70.43875432623267,-2.8131374807937495
1070,-4.230747103370149,-23.241401822221157,90.4634875788026,-1.0842084956044706
1071,-2.4933267908816967,-22.727677087262478,110.94861919037336,0.6570903427045126
1072,-0.7474922379214858,-22.199811631780758,131.6686773487835,2.418716285928004
1073,1.0151123945951506,-21.6602702240247,152.4043237922615,4.201178623002432
1074,2.8033743957677917,-21.102681190078226,172.94341619732742,6.007159576279166
1075,4.615878984417936,-20.48933867783836,193.07641805716045,7.849615092113726
1076,6.447701806228816,-19.789512785484817,212.6622252801014,9.738113738863975
1077,8.333686437715595,-19.012904428045115,231.65111160537933,11.675280032766041
1078,10.298006861512599,-18.188773565883043,250.10357941480456,13.653790076884722
1079,12.283372249355875,-17.356997092641816,268.1582332866067,15.638690242847233
1080,14.23293804785499,-16.547946338293706,285.9772493182189,17.6043863240077
1081,16.165265589148703,-15.753142457631634,303.62950111132994,19.57867954558351
1082,18.125133106179618,-14.942410398868716,321.0105424708194,21.605361872889496
1083,20.16876754527928,-14.077879954112934,337.9255705061506,23.713678037302042
1084,22.20996362011783,-13.141650111812497,353.62824083419144,25.82645576064013
1085,23.935817270181648,-12.148589114763857,366.7951395943668,27.736115316491095
1086,25.222344925921618,-11.134958289627937,377.000264214346,29.327203830699993
1087,26.310350986766828,-10.107920547146614,384.98401479897547,30.612998996873156
1088,27.355868786337044,-9.063297537019821,391.8968088627973,31.602702729531373
1089,28.317425937489286,-8.008873435951816,398.7786793850296,32.32080103780168
1090,29.117841764814667,-6.946021148901764,406.14224295360106,32.83025229033516
1091,29.74403508228243,-5.851547825073868,413.91991150440623,33.19939170837387
1092,30.502975216354336,-4.620734914261482,419.9174494802901,33.64473323783455
1093,31.205239210540146,-3.360561581509487,425.88371854608874,33.99189127769599
1094,31.86741334050023,-2.096042200431119,431.5938029899907,34.29048202038075
1095,32.506967089041815,-0.8397293077388222,436.80177500865017,34.61807471372622
1096,33.13555898262274,0.4020089055719163,441.3267113614951,34.97591493332126
1097,33.77424889440659,1.623892628963533,445.0607354118687,35.2824957964166
1098,34.43540052072155,2.825651918623133,447.9329541146873,35.51306999732582
1099,35.09626011658736,4.015269908901565,449.8541821129427,35.73542468245287
1100,35.7151006049193,5.194001273177537,450.7872614257911,35.93696393290354
1101,36.24931085326478,6.343890633358623,450.8289934796432,35.98259692446254
1102,36.661157717145244,7.436958918747518,450.13889405105243,35.83750578540264
1103,36.92759074664696,8.431432176275752,448.8094956408019,35.621337236124546
1104,37.078596989023765,9.307624043608984,446.8848686867931,35.400123131972116
1105,37.06552578372249,10.0687692061688,444.3182398413139,35.123789967544134
1106,36.92956856200171,10.75306586971563,440.90451994939735,34.78596287023219
1107,36.8311308232368,11.422487449291465,436.4369107132048,34.47279088651492
1108,36.82103312724839,12.07828740474098,430.9632034818759,34.23510249140396
1109,36.83126856278993,12.647416221764331,424.74052280839334,34.06660653658714
1110,36.74877374245079,13.102008163883573,417.9638641125188,33.97187458564107
1111,36.590111529731594,13.491210722234737,410.72930802713734,33.90381737773309
1112,36.40962786868748,13.854600925849487,403.04249911686014,33.80084106659845
1113,36.207263159356486,14.191759913014359,394.9532860694213,33.59361362107507
1114,35.97314142794036,14.483478688280528,386.5015449159863,33.23780562910047
1115,35.68751256856972,14.731100393868294,377.66212209927124,32.76338360580771
1116,35.3320986684072,14.940275824620697,368.42349658297064,32.23189016246804
1117,34.93904487376899,15.113107130414852,358.86942444837604,31.6991546119745
1118,34.552670715316474,15.255627861994544,349.1134412019771,31.19717847174201
1119,34.194423223610336,15.38432633548489,339.21367773058154,30.674778695081045
1120,33.86520439209202,15.51279022868049,329.2073738680735,30.0826268957263
1121,33.49924473244009,15.629441882411223,319.17249977909535,29.40852686333175
1122,33.03434559908723,15.728858831756396,309.14833785473166,28.7288876125269
1123,32.54345125428829,15.806137559546737,299.0231184469329,28.09659849439382
1124,32.09893408526296,15.891887127024992,288.6878791078991,27.553900934804343
1125,31.751684530335854,15.995856894281902,278.07655191807703,27.052685126552362
1126,31.442881500230175,16.1184273190247,267.24970170407244,26.53699762495765
1127,31.062740537690864,16.240800387608807,256.32317431177216,25.985061402604025
1128,30.565108707166914,16.331141327639383,245.35670317689954,25.430133729982003
1129,29.984748661100415,16.35493881421633,234.39065280542505,24.85337583140417
1130,29.33791932434291,16.297625371593945,223.49840618461522,24.15748420819001
1131,28.58907617651434,16.144370950215503,212.7043534825219,23.30710547989522
1132,27.793481102698728,15.921920534421194,201.93817448082333,22.39900873641165
1133,27.058780551062593,15.694136706067958,191.12912335301144,21.56618994367231
1134,26.484341889658225,15.49778621150871,180.29139549206857,20.853404824184196
1135,26.02305217037213,15.335000884608593,169.4739534113127,20.21635049236254
1136,25.569030553104387,15.202215091508913,158.7051615456419,19.619958592756
1137,25.047466185493484,15.076681409721875,148.03288495153365,19.0732789050107
1138,24.414812916748314,14.916750002980233,137.5144210247372,18.556746339986912
1139,23.705088015840285,14.697385297478421,127.15112051475712,18.005686132132602
1140,22.991741664982722,14.43712163001761,116.85439492827608,17.38602752335892
1141,22.301462506801574,14.157595489782299,106.4900403981258,16.760057082993193
1142,21.64171064842204,13.880570529409658,96.01095737033242,16.24142867873748
1143,21.03823550871995,13.58569281419302,85.48590682516989,15.86811862379365
1144,20.495705755922092,13.239371988136467,74.97788508811898,15.565434244383283
1145,19.972458007878075,12.837749170679698,64.48404189131068,15.229121263502776
1146,19.413049232098817,12.390247128800597,53.968388655605544,14.785668484112673
1147,18.761450565194064,11.910176471366034,43.41686658237575,14.210017714486204
1148,17.985854030619617,11.413940314017104,32.82551540800565,13.530280495392358
1149,17.133448866151088,10.90707373782348,22.221343034444867,12.79072784862237
1150,16.27972847714898,10.388180791786176,11.637461338137724,12.04354918182749
1151,15.444130731109492,9.857466726786463,1.0645439679622313,11.32131992343341
1152,-3.175665851462703,-7.223570479069838,9.250251535725925,-3.0346053987080763
1153,-3.352442408623733,-7.38875584630728,8.872857213171258,-3.242143380816149
1154,-3.400476940067486,-7.544698200375698,8.517603792898544,-3.421608247613025
1155,-3.3079511085855713,-7.693703137883923,8.19755983049034,-3.5412027233518364
1156,-3.1017006338802413,-7.8391908283518665,7.911421452633908,-3.5873926438714188
1157,-2.8622986130336665,-7.984460046276256,7.6607020693723955,-3.5925292242725693
1158,-2.679670806617199,-8.132701399796938,7.44125744300196,-3.61026744765225
1159,-2.5751870129708743,-8.28800422196888,7.232309929154278,-3.6891737681433905
1160,-2.5473704678770863,-8.452916227974951,7.020323471082193,-3.8612361201973924
1161,-2.6363566882099687,-8.624284770529039,6.811833685619249,-4.118524271823848
1162,-2.8583769105755295,-8.79758314515831,6.620370685539006,-4.430866741207023
1163,-3.1486650536418836,-8.973388534743695,6.482391052587862,-4.774360950400064
1164,-3.4287368987909423,-9.150098305812207,6.406593852214315,-5.121022893626866
1165,-3.6503159096750513,-9.318297251087225,6.29630685667076,-5.436079093615321
1166,-3.7934795905049707,-9.46740717804226,6.050242089640495,-5.690607035909764
1167,-3.896698737907481,-9.585699185368343,5.658248909420251,-5.858031639054277
1168,-4.012722517299969,-9.669196138292303,5.160159945755416,-5.933170129395035
1169,-4.133764101166711,-9.736891994679398,4.639097904214946,-5.957762988680523
1170,-4.241432223063872,-9.810100556001595,4.172654143649865,-5.984018296191336
1171,-4.367967078422092,-9.89295344111676,3.755671742070245,-6.045579515052854
1172,-4.538965502820173,-9.980469951680364,3.34011122319591,-6.155160505204199
1173,-4.726706807377248,-10.055460457355718,2.870622954655139,-6.280749026083943
1174,-4.900976571685128,-10.104105080612767,2.305754680934141,-6.385571464614465
1175,-5.052185786855927,-10.14389115459153,1.661067850692865,-6.487912985964916
1176,-5.192161858009998,-10.196568508929273,0.9862387086819226,-6.615024947450846
1177,-5.3900286865276446,-10.259781204177353,0.33195473172879225,-6.760839972090321
1178,-5.7067986624666664,-10.323055077513049,-0.25714413507105827,-6.911501016648511
1179,-6.107309770472453,-10.373424577604517,-0.7555602672674704,-7.047361673967761
1180,-6.5276544543108646,-10.400173950556521,-1.1656563003478684,-7.155803814233969
1181,-6.940165735400437,-10.41135004900203,-1.5215380576773312,-7.264035325091571
1182,-7.328262262084343,-10.418762081092073,-1.8684827249705858,-7.403081521287089
1183,-7.6792633644097,-10.41972432737907,-2.237984575731449,-7.571638126333861
1184,-7.994382127549103,-10.40746382048126,-2.6481063135581446,-7.752260352660971
1185,-8.283848503304533,-10.376004048470293,-3.1063941592597795,-7.910592339487092
1186,-8.549257515443262,-10.321630373587745,-3.6056408561104454,-8.017229488204048
1187,-8.781781875809267,-10.25098943464371,-4.119290127951202,-8.088496835353281
1188,-8.958822715993056,-10.173325491059023,-4.621834427616881,-8.154559202714923
1189,-9.012752762386175,-10.09064589810558,-5.11236342805127,-8.219404032524102
1190,-8.901159981045556,-10.00166789243471,-5.595709412598366,-8.284153079036058
1191,-8.700733299257347,-9.903523064526674,-6.066835965657965,-8.365535851559882
1192,-8.508347364895396,-9.792330358364293,-6.514697281290175,-8.473856700781614
1193,-8.350761933973681,-9.667011085720373,-6.918001200973001,-8.601205041545937
1194,-8.222531896767315,-9.527902703422017,-7.258122839518795,-8.732552443031572
1195,-8.077221162772313,-9.373868554247126,-7.533956751503663,-8.845766526565923
1196,-7.870598097275325,-9.204902498032405,-7.7608020420471515,-8.92198652129713
1197,-7.657319041181339,-9.024999952050148,-7.971465234678203,-8.97060872774274
1198,-7.503780582595224,-8.838839986684835,-8.201885280126247,-9.004286309801156
1199,-7.3789861022073175,-8.647159938674722,-8.47356700371425,-9.001706210184317
1200,-7.2408666606471375,-8.450382481528466,-8.789761753999825,-8.945862606630758
1201,-7.104380562455621,-8.253913455158575,-9.139409546540175,-8.861634816618489
1202,-6.992234278608132,-8.06039404977051,-9.498868925073001,-8.782915266498478
1203,-6.929157806489698,-7.863032875717948,-9.818428032425004,-8.732025630986398
1204,-6.928200645981666,-7.652463709061441,-10.06908222070664,-8.721055839102366
1205,-6.928445217859072,-7.419196775233505,-10.30619125197673,-8.734859158854023
1206,-6.86952293983247,-7.158983052749308,-10.599287362471761,-8.749983931105156
1207,-6.802879379557849,-6.88351052383338,-10.959469405918789,-8.771436691932234
1208,-6.790602961565773,-6.607625357394389,-11.374993432864132,-8.803850637605256
1209,-6.791812308436068,-6.333572009232326,-11.827464671127517,-8.816564605639654
1210,-6.75960199386993,-6.059165988781053,-12.294029142674894,-8.783798785260549
1211,-6.721505123744512,-5.784743801667328,-12.77381120828958,-8.716989785805879
1212,-6.711716295462223,-5.529822357745059,-13.198356239624022,-8.640461586402497
1213,-6.747140119374645,-5.330806807222455,-13.369610718813059,-8.63695242580736
1214,-6.827774965442243,-5.225836201139483,-13.143660955534884,-8.768746063177527
1215,-6.8745039797201795,-5.201778884318889,-12.585615164493932,-9.022294544154233
1216,-6.812460809283391,-5.216507002080816,-11.877794637316748,-9.345605986876132
1217,-6.713918326846893,-5.235354208712938,-11.13916087592098,-9.704097077802412
1218,-6.672637267802303,-5.231511806162523,-10.444962307401394,-10.064675609544611
1219,-6.663241100870881,-5.193620481512077,-9.814437112360125,-10.3896611167913
1220,-6.704144862061942,-5.022088336487732,-9.362169880104448,-10.59096445243844
1221,-6.737552264004054,-4.84820470741749,-8.912605273044486,-10.772237345485683
1222,-6.781818595142732,-4.690584008437108,-8.466308065945833,-10.968681234802245
1223,-6.911914514209116,-4.557141912025191,-8.057950224801411,-11.226320849630287
1224,-7.1873712036822335,-4.449573307335125,-7.737000465329529,-11.571191203684974
1225,-7.511448103124056,-4.373604547305681,-7.533526383008019,-11.959398424783561
1226,-7.757510283167802,-4.330487865188624,-7.451670570106701,-12.3253345338195
1227,-7.944205152048336,-4.312585702898562,-7.4516497390118985,-12.647955348222084
1228,-8.129037017930694,-4.305322037593269,-7.477356368673888,-12.923615783038944
1229,-8.300839836812303,-4.281588306633848,-7.502759182850455,-13.140200003454618
1230,-8.44510535891368,-4.216824322455834,-7.518884263286618,-13.294764385318407
1231,-8.566696290643447,-4.11091304938826,-7.51913463802408,-13.39834874128691
1232,-8.674051115961113,-3.977307996932555,-7.505386635880703,-13.463788576385625
1233,-8.819961245394975,-3.828576998670209,-7.483882583665218,-13.50157813847447
1234,-9.047842399555972,-3.678150437259111,-7.4568550212198215,-13.517773831961811
1235,-9.290631537939937,-3.5416328271964566,-7.421165303734798,-13.507304252192268
1236,-9.458763027105215,-3.426198477683548,-7.365633397460797,-13.464291627055431
1237,-9.548789338332485,-3.3191695043813323,-7.264698585961294,-13.3926071816398
1238,-9.588854780352563,-3.2024277156511216,-7.094786781602951,-13.304168999649953
1239,-9.603037056521519,-3.067036981524399,-6.857069090903061,-13.224618027916694
1240,-9.618014566302168,-2.91241514750642,-6.572982995102629,-13.17551311944525
1241,-9.622686140643356,-2.75259722337737,-6.267049535668679,-13.149026698768182
1242,-9.593364976778325,-2.604541393006211,-5.976609219932419,-13.121602011693962
1243,-9.569047461080057,-2.4670104639242854,-5.773293216701268,-13.067310114093642
1244,-9.585485430984352,-2.3307879259180555,-5.708232946031441,-12.966440175771204
1245,-9.571618969071997,-2.192131305526577,-5.759110185772474,-12.815937894489576
1246,-9.450096689358624,-2.0482850659553082,-5.855935154120964,-12.62745328418011
1247,-9.250184062753824,-1.894688010129238,-5.8833404685172335,-12.440229380487585
1248,-9.037577236398992,-1.7322410579662961,-5.743892167488213,-12.286295668530117
1249,-8.873164581082332,-1.5725476809222463,-5.458934078694241,-12.126415997814796
1250,-8.803384385302436,-1.4303578242864923,-5.113079554067097,-11.91288648100616
1251,-8.785091243896629,-1.3178724788136307,-4.782153604842545,-11.6624457491296
1252,-8.753718841718019,-1.2396408848058222,-4.531817923408325,-11.419533765133803
1253,-8.754920674247407,-1.1853478222897644,-4.400499852440956,-11.247045483123257
1254,-8.851155712223942,-1.1370674501753786,-4.3865268795946335,-11.192104072813585
1255,-8.998664888384399,-1.0750353517022295,-4.439227285225957,-11.208581295291912
1256,-9.135493187431566,-0.9862237794269461,-4.499123006698475,-11.215659809415643
1257,-9.265092736964917,-0.8802737869661997,-4.560492936927163,-11.178694399804156
1258,-9.399848275892387,-0.7742900266977853,-4.637007466638395,-11.085244356949945
1259,-9.534617626263591,-0.674011759839838,-4.7184349277859265,-10.935906637462988
1260,-9.654928068791898,-0.5785760316289541,-4.791032584042793,-10.750025626687199
1261,-9.704207387949708,-0.47674413819773287,-4.843398330683945,-10.5403322335401
1262,-9.627637123679948,-0.35788956187776527,-4.867940388691486,-10.319967232216756
1263,-9.447303711331822,-0.2348827604045958,-4.875045503285111,-10.131923796501338
1264,-9.213403945678825,-0.12710687413270302,-4.884915802020589,-10.008635771611415
1265,-8.94768386243924,-0.040927706660043056,-4.916657539146103,-9.9189728252307
1266,-8.662745227288868,0.024886513193108584,-4.980258530039014,-9.81370072779878
1267,-8.366452549332546,0.08146630178148331,-5.069707297953765,-9.668899788087314
1268,-8.055402276113536,0.14253112142840094,-5.162069750668382,-9.476650514835534
1269,-7.731109394179555,0.2078614038915497,-5.21031547043639,-9.26344531278398
1270,-7.3977901269458055,0.2708327115742263,-5.17213152673833,-9.062056044188761
1271,-7.039016305048135,0.32860952038328795,-5.048897440359598,-8.848115106861712
1272,-6.653960318424095,0.3785947371786644,-4.86719707220746,-8.590022446965905
1273,-6.308379267622514,0.417807555493877,-4.659400809247115,-8.309672167222969
1274,-6.079396978722784,0.4453849905606265,-4.459380789792226,-8.047349278785308
1275,-6.001838246070194,0.4628008160314469,-4.2847092224640715,-7.842086757598107
1276,-6.072526982522467,0.47309274518003475,-4.14000503472535,-7.719195516125403
1277,-6.227194851516153,0.47975240115633133,-4.033233997026229,-7.657444072059625
1278,-6.378719378704551,0.48676831787144237,-3.967023592301312,-7.607726948666262
1279,-6.499000861294965,0.4997529822399583,-3.92576769545359,-7.517469897379065
1280,-16.135298606085687,-11.158846933709281,-9.497764965007446,-16.096254233121428
1281,-16.684921961674764,-11.52906090276023,-9.697159725921436,-16.702584197036956
1282,-17.218156821948014,-11.897588610487047,-9.843152344201608,-17.303707686598244
1283,-17.73966216660658,-12.264290019394357,-9.912712900646982,-17.872643765302662
1284,-18.253560212297106,-12.622267220146995,-9.915597881296774,-18.389724609677927
1285,-18.736563894658083,-12.956391914349174,-9.873472084749576,-18.834609544010302
1286,-19.16459895277668,-13.251965950891615,-9.82134826446623,-19.2032843277289
1287,-19.506992463753463,-13.504584939984795,-9.789339732560839,-19.50084659956345
1288,-19.748909157002423,-13.71747561633304,-9.799927838810106,-19.743248590411262
1289,-19.946463814005696,-13.901580214925259,-9.870364599143427,-19.971281073012687
1290,-20.158663155760255,-14.068001866992837,-10.006835757696935,-20.21986247037566
1291,-20.357288378646018,-14.216932190282703,-10.19584596552132,-20.481928376536565
1292,-20.504269609627862,-14.344327362357449,-10.422057669430947,-20.733763775721158
1293,-20.6251834845105,-14.447756620514072,-10.69021011027393,-20.96228506422722
1294,-20.753872619941724,-14.52713041726467,-11.006277545947269,-21.15355328190384
1295,-20.907409602013797,-14.589077153027914,-11.360121373957577,-21.287508006576616
1296,-21.091215290998974,-14.642766925907381,-11.734312371835145,-21.35645178737586
1297,-21.263582766748264,-14.693243204810175,-12.10923154015365,-21.369250150790126
1298,-21.382163441458612,-14.742837586142345,-12.46603123373639,-21.349059011304703
1299,-21.48337510326428,-14.792972573750925,-12.787635566633842,-21.347003336147655
1300,-21.60692087075829,-14.840752932761792,-13.071589261383506,-21.40010386360277
1301,-21.711209562592554,-14.877448100072861,-13.344854294202587,-21.480142175179857
1302,-21.74630281496302,-14.893428297948676,-13.63392366064915,-21.537598831119464
1303,-21.70793566936886,-14.880348459327184,-13.967711872783356,-21.539094162599135
1304,-21.60650710129852,-14.836362243209974,-14.336639912643978,-21.466171899671913
1305,-21.47570079301641,-14.772631303079244,-14.706038333865333,-21.335646534136476
1306,-21.347929986080832,-14.704608106084859,-15.034033319676753,-21.17772962370455
1307,-21.18504672060647,-14.644350001566323,-15.309827935938516,-20.99631006155631
1308,-20.954134538917682,-14.597342236967126,-15.540799584764178,-20.794079058289395
1309,-20.725398507702785,-14.55631965792761,-15.732814197893614,-20.5955391541677
1310,-20.574675893653307,-14.508626424674242,-15.905588845825488,-20.426192233067432
1311,-20.50164902453206,-14.446439205866309,-16.08550260569562,-20.303393217569866
1312,-20.47276606664263,-14.365973143305817,-16.29720507826207,-20.23338082118841
1313,-20.4240456087767,-14.267617253107511,-16.534494148273318,-20.20027597209908
1314,-20.295513335779965,-14.158910712198278,-16.75707835738294,-20.175948461979175
1315,-20.10368274819097,-14.052044778045076,-16.92606528839875,-20.13551766664663
1316,-19.888091635441228,-13.962699920503963,-17.04667828839737,-20.056648907215813
1317,-19.64334079817035,-13.913785179403078,-17.157952991424477,-19.91532896039332
1318,-19.35806563540737,-13.91898819361594,-17.305773158473613,-19.699500366094473
1319,-19.047189490960974,-13.96494320063665,-17.48576000017429,-19.426199117293745
1320,-18.71689424800658,-14.025470837779423,-17.67406021472221,-19.11723841775323
1321,-18.34602404802938,-14.075191588695118,-17.826559274153873,-18.77212737288661
1322,-17.91603556565986,-14.092692369232703,-17.915972411699496,-18.386296100179024
1323,-17.411419699458502,-14.065524114633819,-17.931922230474353,-17.964129047002928
1324,-16.84055513509432,-13.993252625383368,-17.872898574461185,-17.513964022904254
1325,-16.297330820786534,-13.891689391349132,-17.764853044900658,-17.05227566157104
1326,-15.864035517428027,-13.77789319743405,-17.667527162990876,-16.5959965961521
1327,-15.481993493957795,-13.651444764283465,-17.633069133731095,-16.147269741996475
1328,-15.064071747780535,-13.507151608344172,-17.66250025121756,-15.700039693771204
1329,-14.60800566616137,-13.344917344687381,-17.71717944142958,-15.252789836164116
1330,-14.12479442641218,-13.167684017492423,-17.733450515282545,-14.79407255092158
1331,-13.602918923451982,-12.986457389330265,-17.662897089976518,-14.28674347937958
1332,-13.031765538220387,-12.809840672252509,-17.474194885723243,-13.693798519603959
1333,-12.377585853203394,-12.632990635035922,-17.15630445675294,-13.002055955157251
1334,-11.617214939027065,-12.441637623609854,-16.721670888611403,-12.214907283951344
1335,-10.804848118028268,-12.209911396768709,-16.19989096389178,-11.34980069331008
1336,-10.002544118084463,-11.91605045528816,-15.629204220406375,-10.434937686472548
1337,-9.198785570364862,-11.564210153502225,-15.049032493630657,-9.494526832305528
1338,-8.37053451562433,-11.16891288069798,-14.48905954010682,-8.548927743974637
1339,-7.531093398956096,-10.739202286978028,-13.963037410246203,-7.625278140222202
1340,-6.741176006323393,-10.297383814182576,-13.513430950851816,-6.75155645042596
1341,-6.049374735743748,-9.867181107035595,-13.208862576976012,-5.932880401951039
1342,-5.512133232372426,-9.47551508021573,-13.043030512092482,-5.168244754215913
1343,-5.036408734209853,-9.131940984044112,-12.91629939285274,-4.428274443616044
1344,-4.501918535054069,-8.831519474106587,-12.767684744514021,-3.6797440888994406
1345,-3.9556740533268133,-8.561523889052552,-12.579029072549687,-2.9389004367626113
1346,-3.474612226432166,-8.305912986270013,-12.33489959009007,-2.2290515891253198
1347,-3.0113890281648246,-8.050526736059554,-12.029872008518307,-1.5338951236888374
1348,-2.400349809693889,-7.674853534568905,-11.640224331872457,-0.9205390002122309
1349,-1.750646001441301,-7.276650514004135,-11.26995164455619,-0.27652280287952663
1350,-1.0766708962411906,-6.8437260805194216,-10.94949720080778,0.40664359430859454
1351,-0.4173283066515126,-6.372576708133749,-10.69646262079774,1.1063277220845877
1352,0.18875364697033378,-5.87051341751486,-10.509453581410158,1.7900755384615241
1353,0.7739148942250198,-5.3586283031508675,-10.358830185174961,2.45502040726149
1354,1.3857801119771251,-4.860648020603141,-10.206819915084473,3.1008232163339167
1355,2.005443121870892,-4.390087886933621,-10.036387406019639,3.684531602765505
1356,2.5957864755898803,-3.951957428288803,-9.841188842945835,4.167726403204661
1357,3.1437442394998594,-3.5425441032874847,-9.639696450205177,4.570772646361827
1358,3.642144761920964,-3.1544404151417123,-9.4508909575834,4.931624421813192
1359,4.099079251114529,-2.7874859990898084,-9.305127008251038,5.276151954401596
1360,4.529692783754923,-2.4452424696724044,-9.243692398410886,5.618209607953416
1361,4.915176745229951,-2.12858563136059,-9.247733347153465,5.929827283033805
1362,5.238536842287786,-1.8393361901131662,-9.214834388110303,6.179819072980189
1363,5.5452500114886885,-1.5828398734718108,-9.053410563652378,6.3923215617185845
1364,5.886948009314561,-1.36235183125035,-8.758952534317734,6.609999497343319
1365,6.25298037524709,-1.1757750148582398,-8.395581132637409,6.87243513910526
1366,6.610321120246242,-1.0156456958741085,-8.042455177287371,7.195396888719632
1367,6.940107757253419,-0.8664881952711352,-7.73814500361115,7.512877814818078
1368,7.221169565557139,-0.7127182847425708,-7.486827384447285,7.7363110119486524
1369,7.432254891524413,-0.5490215048606348,-7.276103463099983,7.839728389713116
1370,7.5585255579444075,-0.37850458796672637,-7.083372557453319,7.829331799736057
1371,7.576818675112623,-0.20951899822795664,-6.9039169442728765,7.723064931477236
1372,7.476404383397589,-0.053499702353183354,-6.742958642793555,7.554154330671054
1373,7.2981167350504865,0.07561493792691391,-6.60223370304696,7.340468395885256
1374,7.097369977819391,0.17053659298332008,-6.4830847457173135,7.098911378757005
1375,6.88861305911316,0.24482020191732912,-6.375115387871274,6.884293995259733
1376,6.679311589665291,0.31772097235414365,-6.270806874773794,6.746360088745137
1377,6.5101038769238775,0.3956513309191244,-6.171465504610111,6.68121355451872
1378,6.416114727646379,0.47886144825174365,-6.085935390940146,6.6617995954373885
1379,6.4014204641678445,0.5613874675837948,-6.0063908884796655,6.65689845843756
1380,6.448379622316602,0.6371228881609445,-5.8982870202348465,6.639393709353797
1381,6.500679693489922,0.7184836623004964,-5.733650537090786,6.621358143230322
1382,6.501006685452291,0.8199542764324383,-5.532483903347982,6.624075797822221
1383,6.461092512645525,0.9345886892195412,-5.351471891670121,6.63009937432314
1384,6.413981415951298,1.0487845817474042,-5.192608227359201,6.613025339601306
1385,6.350001349337318,1.1546650623537882,-4.972281032710298,6.5582067916200995
1386,6.255563273169312,1.248159586623034,-4.60937517586808,6.464049058630872
1387,6.136487268553214,1.3349192739650675,-4.120990394172018,6.366742850770856
1388,6.006662495949184,1.4250503168216115,-3.6002447931325836,6.308465622479299
1389,5.911313385547868,1.5214592598569623,-3.1226677793020055,6.290730782946518
1390,5.891125328708047,1.6238826498903811,-2.701186197211027,6.2946543315600065
1391,5.908913399867206,1.7345716090467507,-2.3114039341923127,6.292465938923143
1392,5.909410165789141,1.8545686701753537,-1.9361275304806265,6.2577481721283394
1393,5.904289337157832,1.9791003871279682,-1.5673070714673503,6.200038035385889
1394,5.916682848001358,2.1040371772180255,-1.2117966898235621,6.137890064538928
1395,5.928714170889808,2.2357527458266855,-0.8677239133539387,6.062577137458108
1396,5.917295502698246,2.3812570090268417,-0.5324243499221302,5.960221328637113
1397,5.860944874883321,2.535748080475378,-0.21273374022954042,5.810435759937233
1398,5.750788433155504,2.691599639426804,0.08590713830850066,5.608944312284958
1399,5.640266912098351,2.845291641867429,0.3787099100375723,5.431790897829329
1400,5.592161116334932,2.997005191697556,0.6702853184152349,5.361489957306299
1401,5.592241831533243,3.154773970961223,0.9430686288107676,5.3795716802560545
1402,5.603597654317466,3.3279752673935494,1.15474370496264,5.429828172162875
1403,5.633258363958155,3.519010104691324,1.2708114842602807,5.48769261291083
1404,5.688665304686122,3.723125451566614,1.2874716249421374,5.53203150778879
1405,5.748447452281194,3.9256014010046396,1.2144674017277073,5.537400782280973
1406,5.7864679662384075,4.109582194662741,1.078879999437875,5.492096865364681
1407,5.765027926249551,4.266652037695676,0.9079737427368377,5.3929395728946625
1408,-11.318902587793932,-9.561039654839842,-16.685783867051402,-12.94581611658384
1409,-11.544837321833974,-9.813415451175922,-17.13234040296657,-13.199413069816108
1410,-11.665368769689765,-10.054711717340966,-17.59916260039303,-13.407236260219944
1411,-11.755639571313628,-10.288515849629002,-18.05495686368252,-13.58556757624121
1412,-11.893992378974875,-10.518404861502269,-18.465046198709654,-13.758733377090868
1413,-12.064626503650976,-10.749055854796074,-18.819104831142873,-13.922531576526973
1414,-12.226075868622148,-10.983100775231163,-19.120504022221432,-14.078853249787416
1415,-12.346775954712559,-11.218834414331003,-19.367419144138342,-14.228676716794403
1416,-12.406157332907135,-11.449569005086301,-19.56987751694366,-14.38998582144391
1417,-12.44971611517549,-11.661374733011929,-19.763703402623587,-14.555535532963017
1418,-12.525388360068249,-11.84290500704798,-19.98356338686006,-14.681666385246992
1419,-12.577636058390596,-11.992856809181728,-20.245490902445397,-14.738293905385762
1420,-12.547391666777578,-12.12005705284048,-20.544742064578113,-14.733832484571936
1421,-12.479081515040658,-12.248619642574141,-20.844905883364333,-14.68694555002595
1422,-12.432068414422039,-12.400839301322502,-21.104459560437192,-14.626555884655053
1423,-12.418667309304576,-12.57641625101647,-21.305273318187687,-14.562465416843645
1424,-12.435178475055126,-12.763144308667163,-21.449111560584427,-14.495133881218262
1425,-12.447835537178255,-12.946489165155047,-21.563018918781466,-14.427041081667884
1426,-12.421908969136268,-13.111052343815645,-21.677425200769584,-14.360332733506024
1427,-12.3945644137808,-13.246505543782183,-21.796788013541452,-14.29929535199544
1428,-12.40639393062703,-13.349347020777836,-21.91429190164688,-14.24957022757683
1429,-12.40894361768552,-13.42371360485639,-22.01569422362135,-14.216032368799839
1430,-12.350745993331625,-13.476688535112107,-22.092975222037328,-14.196142287790755
1431,-12.259857573037724,-13.511388637980238,-22.17829511923214,-14.176961448157776
1432,-12.174689781997424,-13.532863885268418,-22.302798367445643,-14.138658478006395
1433,-12.103389690857398,-13.539456478484906,-22.445841154088903,-14.048537186972288
1434,-12.040812120405953,-13.537724254115453,-22.571160150007586,-13.886626841962292
1435,-11.945518841908003,-13.54305119447528,-22.6598502752272,-13.679403982330102
1436,-11.782068185305418,-13.560489936298401,-22.69699933507227,-13.465315921947191
1437,-11.592919409410813,-13.585624207657068,-22.66550513613745,-13.262054587280417
1438,-11.435162063352855,-13.607496982465642,-22.561559486507246,-13.075392372368476
1439,-11.31251577172408,-13.617268780526649,-22.405958792603812,-12.895177785521147
1440,-11.218166594618655,-13.607870092964413,-22.222973015981275,-12.706717982435888
1441,-11.154509485244636,-13.571477580429011,-22.02256646407233,-12.51378699308407
1442,-11.12079865495451,-13.507520998035448,-21.807297527106858,-12.325962641762747
1443,-11.141423827779853,-13.430899462078685,-21.567354681221158,-12.147779624817806
1444,-11.227169454339348,-13.355562478912136,-21.295123862922978,-11.983666386484089
1445,-11.299304827258435,-13.293950094265144,-21.01729773502101,-11.827961088136874
1446,-11.282989413148695,-13.239167828003861,-20.760110528001064,-11.676798667792706
1447,-11.21739144089205,-13.170531008514184,-20.50360924800361,-11.5573537960598
1448,-11.16393637738249,-13.064375837614921,-20.222602472311507,-11.48709888140402
1449,-11.125204497153025,-12.913663171117388,-19.924363544581666,-11.426704884456754
1450,-11.089423839568484,-12.721415637681082,-19.619753201189045,-11.3251808057156
1451,-11.041775143332384,-12.49516671544223,-19.310152529905505,-11.155912543685496
1452,-10.95894988534478,-12.245812222578522,-18.987481602554197,-10.909249220957795
1453,-10.847066395606136,-11.981921342481893,-18.62265730321116,-10.603656187644566
1454,-10.710971117792576,-11.708629570750682,-18.18720947857872,-10.266254002479917
1455,-10.484545408231297,-11.42898281030106,-17.66807532186211,-9.900322509557698
1456,-10.12243522093866,-11.143712082204736,-17.077891764729383,-9.501811975285321
1457,-9.708365306261504,-10.84977024362822,-16.479432163434144,-9.071639961628417
1458,-9.341632155260449,-10.545890023853262,-15.933139592112315,-8.612936710893571
1459,-9.042589492737648,-10.239424299750716,-15.444942154037564,-8.14174880585512
1460,-8.79208126697463,-9.937552667331332,-14.985568678460323,-7.674267380966814
1461,-8.520147872063449,-9.639773539590164,-14.486874945606488,-7.203202185865181
1462,-8.154453389437608,-9.339152200530549,-13.885883088882592,-6.717584536809158
1463,-7.725954253261422,-9.020961979438697,-13.199486548748938,-6.227256975127946
1464,-7.285639505760704,-8.669098741846215,-12.46789080850894,-5.739601427094178
1465,-6.790737895463489,-8.274453357496585,-11.68735647323351,-5.239548511437503
1466,-6.204636566404977,-7.83540776494067,-10.851996594677548,-4.708166776325192
1467,-5.58889860208907,-7.356836619952031,-9.979502484448266,-4.133237710751524
1468,-5.046211288688152,-6.874228122432718,-9.1412183621658,-3.547671946802025
1469,-4.609473883300099,-6.457551581828277,-8.42231760086196,-3.0417638755778698
1470,-4.303761290334649,-6.141356075489209,-7.914015517665744,-2.6633393575345616
1471,-4.0413318183100895,-5.907719853367796,-7.578318564293481,-2.3985903439219727
1472,-3.720669470379026,-5.723797911102338,-7.315273491303127,-2.1863322428828393
1473,-3.4166545321648427,-5.565921485012423,-7.058507732359574,-1.99820458432093
1474,-3.226921578857835,-5.420244130452849,-6.766409646272825,-1.8227987027608914
1475,-3.08170000080821,-5.275362847490782,-6.428640795148623,-1.6547916791608883
1476,-2.6848343227017835,-5.149865258484286,-6.1069156836332406,-1.3896079975060283
1477,-2.268222082107505,-5.013857150526056,-5.793036572198777,-1.1541979780853413
1478,-1.866428423768332,-4.875291037059261,-5.514755681207768,-0.9486191561684384
1479,-1.518796153585099,-4.747703168040504,-5.2620327193356,-0.7693017445043133
