timestamps,TP9,AF7,AF8,TP10,Right AUX
1727534959.630,-9.766,-47.852,-24.902,-11.230,0.000
1727534959.634,86.426,-45.898,-26.367,22.949,0.000
1727534959.638,53.711,-47.852,-32.227,5.859,0.000
1727534959.642,-67.383,-52.246,-30.762,-34.668,0.000
1727534959.645,-158.691,-51.270,-28.809,-62.988,0.000
1727534959.649,-29.785,-58.105,-40.039,-19.043,0.000
1727534959.653,79.590,-63.965,-49.805,18.555,0.000
1727534959.657,55.176,-59.082,-48.828,9.766,0.000
1727534959.661,-59.570,-53.223,-32.227,-26.855,0.000
1727534959.665,-161.133,-52.246,-28.320,-53.711,0.000
1727534959.669,-37.109,-56.641,-42.969,-12.695,0.000
1727534959.673,89.844,-58.594,-42.480,29.297,0.000
1727534959.677,72.266,-58.594,-30.273,21.973,0.000
1727534959.681,-31.738,-58.105,-24.902,-23.438,0.000
1727534959.685,-161.621,-62.500,-29.297,-74.707,0.000
1727534959.688,-65.918,-65.430,-39.551,-40.527,0.000
1727534959.692,68.359,-58.105,-40.527,9.277,0.000
1727534959.696,52.246,-57.129,-12.207,4.395,0.000
1727534959.700,-28.320,-55.664,-13.672,-19.043,0.000
1727534959.704,-149.902,-48.828,-49.316,-63.477,0.000
1727534959.708,-87.891,-47.363,-52.734,-42.480,0.000
1727534959.712,54.688,-55.176,-14.160,9.766,0.000
1727534959.716,64.941,-60.059,15.137,3.418,0.000
1727534959.720,-12.695,-56.152,10.742,-17.578,0.000
1727534959.724,-144.043,-53.711,4.395,-57.617,0.000
1727534959.727,-105.957,-60.547,-0.488,-53.223,0.000
1727534959.731,42.969,-63.477,-17.090,-7.812,0.000
1727534959.735,66.895,-56.641,-26.855,-2.930,0.000
1727534959.739,12.207,-53.223,-28.320,-22.461,0.000
1727534959.743,-126.465,-49.316,-43.457,-63.965,0.000
1727534959.747,-129.395,-48.340,-44.922,-63.965,0.000
1727534959.751,36.133,-57.129,-54.199,3.906,0.000
1727534959.755,65.918,-68.359,-51.758,24.414,0.000
1727534959.759,1.953,-66.406,-21.484,-14.648,0.000
1727534959.763,-125.000,-60.547,-5.859,-62.012,0.000
1727534959.767,-155.273,-66.895,-15.625,-70.312,0.000
1727534959.770,5.859,-60.547,-60.547,-8.789,0.000
1727534959.774,77.637,-52.734,-61.523,15.137,0.000
1727534959.778,28.809,-61.035,-25.391,-18.555,0.000
1727534959.782,-104.492,-62.500,-7.324,-60.059,0.000
1727534959.786,-158.203,-64.941,6.348,-69.824,0.000
1727534959.790,-12.207,-68.359,-27.344,-24.414,0.000
1727534959.794,75.195,-56.641,-59.082,5.859,0.000
1727534959.798,42.969,-47.852,-29.785,0.977,0.000
1727534959.802,-86.914,-50.781,-2.930,-54.199,0.000
1727534959.806,-165.527,-54.199,5.859,-78.613,0.000
1727534959.809,-23.438,-57.129,-1.953,-16.602,0.000
1727534959.813,79.590,-62.012,-32.227,10.254,0.000
1727534959.817,56.641,-54.688,-44.434,1.465,0.000
1727534959.821,-52.246,-46.875,-31.738,-35.645,0.000
1727534959.825,-160.156,-48.340,-17.578,-70.312,0.000
1727534959.829,-37.598,-41.992,-9.277,-9.277,0.000
1727534959.833,85.938,-35.645,-11.230,36.133,0.000
1727534959.837,50.781,-45.898,-20.508,7.324,0.000
1727534959.841,-47.852,-56.152,-38.086,-42.969,0.000
1727534959.845,-162.109,-52.734,-50.781,-81.543,0.000
1727534959.849,-69.336,-46.875,-51.758,-51.758,0.000
1727534959.852,69.336,-46.875,-36.621,-9.766,0.000
1727534959.856,69.824,-49.316,-16.113,-10.254,0.000
1727534959.860,-13.672,-47.852,-13.672,-39.062,0.000
1727534959.864,-157.715,-55.176,-21.973,-76.660,0.000
1727534959.868,-88.867,-67.871,-24.902,-38.086,0.000
1727534959.872,72.754,-77.148,-23.438,11.719,0.000
1727534959.876,68.848,-78.613,-26.855,4.395,0.000
1727534959.880,-5.371,-69.336,-32.227,-19.531,0.000
1727534959.884,-135.254,-70.801,-38.574,-67.383,0.000
1727534959.888,-106.934,-79.102,-39.062,-54.688,0.000
1727534959.891,45.410,-82.031,-29.297,3.906,0.000
1727534959.895,73.730,-78.613,-28.320,7.812,0.000
1727534959.899,4.395,-70.312,-27.832,-24.902,0.000
1727534959.903,-147.461,-63.965,-21.973,-70.312,0.000
1727534959.907,-133.789,-60.547,-24.414,-53.223,0.000
1727534959.911,27.832,-64.941,-25.391,4.883,0.000
1727534959.915,72.266,-65.918,-29.297,13.184,0.000
1727534959.919,21.973,-68.359,-31.738,-14.160,0.000
1727534959.923,-116.699,-67.871,-31.250,-64.941,0.000
1727534959.927,-128.418,-59.082,-34.668,-50.781,0.000
1727534959.930,50.781,-54.688,-26.855,35.156,0.000
1727534959.934,88.867,-57.617,-14.648,43.457,0.000
1727534959.938,9.277,-54.199,-8.789,1.953,0.000
1727534959.942,-126.953,-51.270,2.441,-67.871,0.000
1727534959.946,-175.781,-57.617,7.324,-85.938,0.000
1727534959.950,-11.719,-56.152,1.465,-23.926,0.000
1727534959.954,73.730,-49.316,-9.277,-2.441,0.000
1727534959.958,33.691,-45.898,-29.297,-15.625,0.000
1727534959.962,-83.984,-52.246,-38.574,-54.199,0.000
1727534959.966,-168.457,-55.176,-18.555,-78.125,0.000
1727534959.970,-29.785,-51.270,-13.672,-30.762,0.000
1727534959.973,75.195,-48.340,-23.438,9.766,0.000
1727534959.977,41.016,-55.664,-15.137,-2.441,0.000
1727534959.981,-67.871,-57.617,-16.113,-45.410,0.000
1727534959.985,-156.738,-49.805,-38.086,-70.312,0.000
1727534959.989,-31.250,-48.340,-29.297,-21.484,0.000
1727534959.993,71.289,-55.176,-5.859,9.766,0.000
1727534959.997,41.504,-63.965,0.977,-2.441,0.000
1727534960.001,-52.246,-66.406,11.230,-37.598,0.000
1727534960.005,-167.480,-69.336,10.254,-82.031,0.000
1727534960.009,-76.172,-74.219,-0.977,-37.598,0.000
1727534960.013,51.758,-74.219,-9.277,9.766,0.000
1727534960.016,68.359,-63.477,-81.055,10.742,0.000
1727534960.020,-15.137,-61.523,-89.355,-18.066,0.000
1727534960.024,-166.016,-78.125,-2.930,-80.566,0.000
1727534960.028,-96.191,-78.125,18.066,-52.246,0.000
1727534960.032,58.594,-77.148,4.883,0.977,0.000
1727534960.036,62.012,-78.125,5.371,3.418,0.000
1727534960.040,-13.672,-70.312,0.977,-16.602,0.000
1727534960.044,-142.578,-69.336,-22.461,-72.266,0.000
1727534960.048,-95.703,-67.383,-23.926,-51.270,0.000
1727534960.052,63.965,-71.289,-17.578,9.277,0.000
1727534960.056,86.426,-71.777,-18.555,10.254,0.000
1727534960.059,8.301,-64.941,-16.113,-10.254,0.000
1727534960.063,-136.230,-56.152,-16.113,-49.316,0.000
1727534960.067,-122.070,-50.293,-31.738,-39.062,0.000
1727534960.071,47.852,-49.316,-52.246,16.113,0.000
1727534960.075,92.773,-51.270,-21.484,21.973,0.000
1727534960.079,27.344,-62.988,10.742,-6.836,0.000
1727534960.083,-114.746,-71.777,12.207,-52.246,0.000
1727534960.087,-140.137,-67.871,8.789,-57.129,0.000
1727534960.091,11.230,-55.176,-12.207,6.348,0.000
1727534960.095,70.312,-50.293,-24.414,25.879,0.000
1727534960.098,29.785,-56.641,-23.926,-3.906,0.000
1727534960.102,-110.840,-63.965,-18.066,-51.758,0.000
1727534960.106,-160.156,-64.941,-8.301,-67.871,0.000
1727534960.110,2.930,-59.570,-13.184,-6.348,0.000
1727534960.114,84.473,-58.105,-7.324,26.367,0.000
1727534960.118,29.785,-59.570,-2.930,1.953,0.000
1727534960.122,-104.004,-62.988,-7.324,-43.945,0.000
1727534960.126,-164.062,-62.500,-15.137,-51.758,0.000
1727534960.130,-14.648,-55.664,-31.738,0.977,0.000
1727534960.134,86.914,-46.387,-39.062,16.113,0.000
1727534960.138,54.199,-41.992,-44.434,-3.418,0.000
1727534960.141,-62.988,-46.387,-47.852,-37.109,0.000
1727534960.145,-162.109,-49.316,-44.922,-64.941,0.000
1727534960.149,-33.691,-45.898,-28.320,-20.996,0.000
1727534960.153,77.148,-52.734,-8.789,20.508,0.000
1727534960.157,57.617,-63.477,0.488,7.812,0.000
1727534960.161,-39.062,-63.965,-1.465,-38.574,0.000
1727534960.165,-155.273,-56.152,-21.973,-72.754,0.000
1727534960.169,-45.410,-44.922,-65.918,-25.879,0.000
1727534960.173,117.188,-48.828,-64.453,43.945,0.000
1727534960.177,120.117,-61.035,-19.043,64.453,0.000
1727534960.181,2.441,-55.664,7.324,5.371,0.000
1727534960.184,-148.438,-50.781,16.602,-81.543,0.000
1727534960.188,-68.359,-46.387,1.465,-60.547,0.000
1727534960.192,77.637,-39.062,-12.207,-2.930,0.000
1727534960.196,34.668,-50.781,-0.488,-7.812,0.000
1727534960.200,-70.801,-59.082,1.465,-48.828,0.000
1727534960.204,-207.520,-65.918,-6.348,-112.305,0.000
1727534960.208,-170.898,-74.219,-18.066,-87.891,0.000
1727534960.212,-20.996,-73.242,-20.508,-39.062,0.000
1727534960.216,1.465,-69.336,-1.465,-31.250,0.000
1727534960.220,-50.781,-66.895,-2.930,-46.875,0.000
1727534960.223,-198.730,-73.730,1.953,-128.418,0.000
1727534960.227,-204.590,-88.379,51.758,-134.766,0.000
1727534960.231,-43.945,-99.121,73.730,-74.707,0.000
1727534960.235,-9.277,-96.680,33.691,-56.152,0.000
1727534960.239,-66.406,-94.727,15.625,-61.523,0.000
1727534960.243,-185.547,-91.797,17.578,-87.891,0.000
1727534960.247,-200.195,-95.703,32.715,-89.844,0.000
1727534960.251,-36.133,-93.750,23.926,-43.457,0.000
1727534960.255,31.250,-79.102,-28.320,-22.949,0.000
1727534960.259,-22.949,-76.660,1.465,-40.527,0.000
1727534960.263,-151.855,-80.078,43.457,-73.730,0.000
1727534960.266,-180.176,-80.078,36.621,-74.219,0.000
1727534960.270,-1.953,-67.383,20.020,-21.973,0.000
1727534960.274,70.801,-69.336,15.625,-5.371,0.000
1727534960.278,18.555,-82.520,57.617,-20.996,0.000
1727534960.282,-121.582,-81.543,64.941,-64.941,0.000
1727534960.286,-194.824,-71.777,33.691,-81.543,0.000
1727534960.290,-30.273,-57.129,-22.461,-20.996,0.000
1727534960.294,69.336,-57.129,-21.484,11.719,0.000
1727534960.298,33.691,-70.312,35.156,3.906,0.000
1727534960.302,-86.914,-76.660,53.223,-28.320,0.000
1727534960.306,-179.199,-77.148,43.945,-62.012,0.000
1727534960.309,-32.227,-64.941,20.996,-14.160,0.000
1727534960.313,86.914,-45.898,15.625,32.227,0.000
1727534960.317,61.035,-53.223,26.855,24.414,0.000
1727534960.321,-42.480,-52.734,-17.578,-0.977,0.000
1727534960.325,-165.527,-45.898,-41.016,-38.086,0.000
1727534960.329,-62.988,-67.383,5.859,-20.508,0.000
1727534960.333,75.195,-70.801,15.137,9.277,0.000
1727534960.337,62.988,-61.523,11.230,4.395,0.000
1727534960.341,-33.203,-53.223,30.273,-27.344,0.000
1727534960.345,-167.480,-48.340,20.996,-75.684,0.000
1727534960.349,-87.402,-50.781,-18.066,-41.016,0.000
1727534960.352,85.938,-41.016,-76.660,29.785,0.000
1727534960.356,94.727,-33.691,-98.145,43.457,0.000
1727534960.360,-11.719,-53.711,-0.977,-9.277,0.000
1727534960.364,-162.109,-68.359,81.055,-77.148,0.000
1727534960.368,-121.094,-61.523,73.242,-53.223,0.000
1727534960.372,32.715,-57.129,22.949,-3.906,0.000
1727534960.376,57.129,-55.664,0.977,-5.371,0.000
1727534960.380,-3.418,-60.547,7.324,-25.879,0.000
1727534960.384,-133.789,-54.688,-28.809,-61.035,0.000
1727534960.388,-112.793,-42.480,-30.273,-47.852,0.000
1727534960.392,47.852,-43.457,6.836,3.418,0.000
1727534960.395,72.266,-46.875,11.230,22.949,0.000
1727534960.399,12.207,-45.898,3.906,6.836,0.000
1727534960.403,-121.094,-48.828,23.926,-47.363,0.000
1727534960.407,-145.508,-59.082,28.320,-53.223,0.000
1727534960.411,25.391,-50.781,7.812,13.672,0.000
1727534960.415,95.703,-38.574,-6.836,33.203,0.000
1727534960.419,44.922,-40.039,-46.387,11.719,0.000
1727534960.423,-101.562,-35.156,-60.059,-36.621,0.000
1727534960.427,-159.180,-38.574,-10.742,-70.801,0.000
1727534960.431,-3.418,-43.945,-1.465,-27.344,0.000
1727534960.435,63.965,-42.480,-33.691,-1.465,0.000
1727534960.438,41.016,-41.016,-14.648,3.906,0.000
1727534960.442,-58.105,-35.156,-3.418,-29.785,0.000
1727534960.446,-144.043,-35.645,-31.738,-56.152,0.000
1727534960.450,-5.859,-35.156,-24.902,-4.883,0.000
1727534960.454,83.008,-34.180,4.883,19.043,0.000
1727534960.458,45.898,-34.668,-16.602,8.789,0.000
1727534960.462,-64.941,-33.203,-18.555,-31.738,0.000
1727534960.466,-149.902,-28.809,3.906,-59.082,0.000
1727534960.470,-20.996,-32.715,-7.324,-12.207,0.000
1727534960.474,84.961,-43.457,-23.438,16.113,0.000
1727534960.477,68.848,-37.598,-46.387,16.602,0.000
1727534960.481,-32.227,-31.250,-22.949,-12.695,0.000
1727534960.485,-145.020,-37.598,11.230,-59.570,0.000
1727534960.489,-46.387,-42.480,18.555,-32.715,0.000
1727534960.493,62.988,-41.992,16.602,-1.465,0.000
1727534960.497,50.781,-32.715,-22.461,-0.488,0.000
1727534960.501,-33.691,-22.949,-82.520,-27.344,0.000
1727534960.505,-155.273,-26.855,-57.617,-64.453,0.000
1727534960.509,-71.777,-29.785,-15.625,-25.391,0.000
1727534960.513,62.988,-44.922,8.789,11.719,0.000
1727534960.517,64.941,-49.316,23.438,2.441,0.000
1727534960.520,-10.254,-41.992,9.766,-23.438,0.000
1727534960.524,-134.277,-35.645,-12.207,-56.641,0.000
1727534960.528,-81.543,-27.344,-12.207,-34.180,0.000
1727534960.532,62.012,-37.109,20.508,0.977,0.000
1727534960.536,69.336,-43.457,0.000,-0.488,0.000
1727534960.540,3.906,-37.109,-34.180,-20.508,0.000
1727534960.544,-125.488,-35.156,-11.230,-69.824,0.000
1727534960.548,-108.887,-42.969,8.789,-48.828,0.000
1727534960.552,37.598,-59.082,-4.395,6.348,0.000
1727534960.556,67.871,-61.035,-3.906,13.672,0.000
1727534960.559,18.066,-42.480,-11.230,-6.348,0.000
1727534960.563,-102.539,-34.180,-43.457,-51.270,0.000
1727534960.567,-109.375,-34.668,-37.598,-45.410,0.000
1727534960.571,30.762,-48.340,-2.930,12.695,0.000
1727534960.575,72.754,-56.641,13.672,22.949,0.000
1727534960.579,35.156,-48.340,2.441,-2.930,0.000
1727534960.583,-89.844,-42.969,-10.742,-46.387,0.000
1727534960.587,-135.742,-41.504,-9.766,-53.711,0.000
1727534960.591,4.395,-37.109,-11.719,4.395,0.000
1727534960.595,60.059,-38.086,-16.113,3.906,0.000
1727534960.599,21.973,-42.480,-16.602,-27.832,0.000
1727534960.602,-86.426,-33.691,-43.945,-57.129,0.000
1727534960.606,-161.133,-38.086,-64.941,-75.195,0.000
1727534960.610,-24.414,-49.805,-50.781,-20.996,0.000
1727534960.614,71.289,-55.664,-21.973,2.930,0.000
1727534960.618,40.039,-53.223,-11.230,-4.883,0.000
1727534960.622,-76.660,-46.387,-34.668,-38.574,0.000
1727534960.626,-164.062,-49.316,-52.246,-64.941,0.000
1727534960.630,-33.691,-50.293,-43.945,-18.555,0.000
1727534960.634,78.125,-50.781,-12.695,11.719,0.000
1727534960.638,62.500,-44.434,-14.160,8.301,0.000
1727534960.641,-51.758,-39.551,-24.414,-33.203,0.000
1727534960.645,-171.875,-39.551,-10.742,-67.383,0.000
1727534960.649,-58.594,-34.668,-33.691,-20.020,0.000
1727534960.653,75.195,-35.645,-27.832,11.230,0.000
1727534960.657,55.176,-37.598,5.859,-12.695,0.000
1727534960.661,-42.969,-46.875,17.090,-57.617,0.000
1727534960.665,-163.086,-42.969,-48.828,-93.750,0.000
1727534960.669,-73.730,-29.297,-115.234,-36.133,0.000
1727534960.673,77.148,-28.809,-56.152,30.273,0.000
1727534960.677,78.613,-23.926,-3.906,22.461,0.000
1727534960.680,-25.391,-37.598,21.973,-30.273,0.000
1727534960.684,-168.457,-46.387,18.555,-92.773,0.000
1727534960.688,-99.121,-44.922,0.488,-67.383,0.000
1727534960.692,59.082,-49.316,-33.691,1.465,0.000
1727534960.696,75.684,-36.133,-43.457,13.184,0.000
1727534960.700,16.113,-32.715,16.113,-16.113,0.000
1727534960.704,-109.863,-40.527,41.992,-54.199,0.000
1727534960.708,-114.746,-45.410,25.879,-52.734,0.000
1727534960.712,20.996,-49.316,9.766,-21.973,0.000
1727534960.716,49.805,-45.898,-24.902,-14.160,0.000
1727534960.720,8.301,-33.691,-47.852,-11.230,0.000
1727534960.723,-113.281,-34.180,-37.598,-37.109,0.000
1727534960.727,-135.254,-41.016,-28.809,-47.363,0.000
1727534960.731,7.324,-54.199,-15.137,-20.020,0.000
1727534960.735,44.922,-58.594,-16.602,-12.207,0.000
1727534960.739,-7.324,-55.176,12.207,-34.180,0.000
1727534960.743,-166.016,-59.570,21.484,-101.562,0.000
1727534960.747,-213.379,-40.527,-16.113,-106.445,0.000
1727534960.751,-17.578,-33.203,-9.277,-14.160,0.000
1727534960.755,76.660,-38.086,-25.879,29.785,0.000
1727534960.759,48.340,-35.156,-46.875,19.531,0.000
1727534960.763,-65.918,-31.738,-36.621,-24.414,0.000
1727534960.766,-169.434,-39.062,-47.363,-83.984,0.000
1727534960.770,-59.570,-34.668,-7.812,-78.125,0.000
1727534960.774,25.391,-28.809,64.453,-68.359,0.000
1727534960.778,8.301,-54.199,44.922,-60.059,0.000
1727534960.782,-52.734,-59.082,-82.520,-38.086,0.000
1727534960.786,-126.953,-40.527,-86.426,-45.410,0.000
1727534960.790,-35.156,-51.758,53.223,-28.320,0.000
1727534960.794,38.574,-71.289,51.270,-17.578,0.000
1727534960.798,3.418,-53.711,-12.207,-32.227,0.000
1727534960.802,-107.422,-12.695,4.883,-95.215,0.000
1727534960.806,-186.523,-15.137,20.996,-112.793,0.000
1727534960.809,-44.434,-37.109,-40.039,-18.066,0.000
1727534960.813,107.422,-43.945,-55.664,73.242,0.000
1727534960.817,116.211,-48.340,-20.996,66.406,0.000
1727534960.821,1.953,-35.156,-124.023,1.465,0.000
1727534960.825,-183.594,-29.297,-151.367,-84.961,0.000
1727534960.829,-134.766,-60.547,77.148,-86.426,0.000
1727534960.833,50.781,-40.527,118.164,10.254,0.000
1727534960.837,87.891,-3.418,-80.566,40.527,0.000
1727534960.841,-60.059,-20.020,-7.324,-38.574,0.000
1727534960.845,-177.246,-30.273,137.207,-65.430,0.000
1727534960.848,-62.012,-24.414,157.715,-21.484,0.000
1727534960.852,-5.859,-37.109,138.672,-69.824,0.000
1727534960.856,14.160,-79.590,119.141,-55.176,0.000
1727534960.860,0.488,-50.293,81.543,-21.973,0.000
1727534960.864,-163.086,-34.180,16.113,-83.496,0.000
1727534960.868,-78.125,-66.406,-179.688,-15.625,0.000
1727534960.872,116.699,-41.992,-218.262,83.008,0.000
1727534960.876,33.691,-41.992,64.453,-1.953,0.000
1727534960.880,-79.590,-136.719,230.957,-77.148,0.000
1727534960.884,-195.801,-229.980,266.602,-107.910,0.000
1727534960.888,-205.566,-248.535,111.816,-106.934,0.000
1727534960.891,9.766,-353.027,-130.859,-5.859,0.000
1727534960.895,76.172,-410.645,0.488,25.391,0.000
1727534960.899,-16.113,-429.688,191.895,-33.691,0.000
1727534960.903,-195.801,-507.812,124.512,-111.328,0.000
1727534960.907,-273.438,-603.027,-32.227,-145.508,0.000
1727534960.911,-117.676,-675.293,-8.789,-83.496,0.000
1727534960.915,-58.594,-731.934,102.539,-63.965,0.000
1727534960.919,2.930,-860.840,-116.211,-20.508,0.000
1727534960.923,-114.258,-976.074,-57.129,-72.266,0.000
1727534960.927,-321.777,-1000.000,139.160,-220.703,0.000
1727534960.930,-189.453,-997.070,144.043,-176.758,0.000
1727534960.934,-100.586,-1000.000,237.793,-130.859,0.000
1727534960.938,-136.230,-1000.000,131.836,-142.578,0.000
1727534960.942,-253.418,-1000.000,-41.504,-183.105,0.000
1727534960.946,-347.656,-1000.000,-99.121,-209.473,0.000
1727534960.950,-213.867,-1000.000,38.086,-166.016,0.000
1727534960.954,-111.816,-1000.000,128.906,-146.973,0.000
1727534960.958,-140.625,-1000.000,52.246,-171.875,0.000
1727534960.962,-227.051,-1000.000,-32.227,-192.871,0.000
1727534960.966,-319.336,-1000.000,-40.527,-189.941,0.000
1727534960.970,-212.891,-1000.000,11.719,-140.625,0.000
1727534960.973,-144.531,-1000.000,61.035,-152.832,0.000
1727534960.977,-176.758,-1000.000,114.746,-176.758,0.000
1727534960.981,-233.887,-1000.000,60.547,-172.852,0.000
1727534960.985,-327.148,-1000.000,27.832,-186.035,0.000
1727534960.989,-236.328,-1000.000,56.152,-150.879,0.000
1727534960.993,-56.152,-1000.000,-82.520,-74.219,0.000
1727534960.997,-33.203,-1000.000,-77.148,-30.273,0.000
1727534961.001,-168.457,-1000.000,34.668,-95.215,0.000
1727534961.005,-306.152,-1000.000,131.348,-160.156,0.000
1727534961.009,-239.746,-1000.000,183.105,-150.391,0.000
1727534961.012,-159.180,-1000.000,77.637,-178.711,0.000
1727534961.016,-126.465,-1000.000,66.406,-155.273,0.000
1727534961.020,-140.625,-1000.000,36.133,-120.117,0.000
1727534961.024,-274.414,-1000.000,-47.852,-166.016,0.000
1727534961.028,-255.371,-1000.000,-28.809,-163.086,0.000
1727534961.032,-109.375,-1000.000,80.566,-100.586,0.000
1727534961.036,-42.480,-1000.000,-1.465,-59.570,0.000
1727534961.040,-104.492,-1000.000,-136.230,-92.285,0.000
1727534961.044,-274.414,-1000.000,9.277,-169.434,0.000
1727534961.048,-315.918,-1000.000,157.715,-196.289,0.000
1727534961.051,-139.648,-1000.000,144.531,-103.027,0.000
1727534961.055,-40.527,-1000.000,125.488,-29.785,0.000
1727534961.059,-109.375,-1000.000,115.723,-87.402,0.000
1727534961.063,-247.070,-1000.000,63.965,-140.137,0.000
1727534961.067,-243.652,-1000.000,12.695,-115.723,0.000
1727534961.071,-112.793,-1000.000,-28.809,-77.148,0.000
1727534961.075,-68.848,-1000.000,-6.348,-79.590,0.000
1727534961.079,-73.730,-1000.000,5.371,-71.777,0.000
1727534961.083,-203.125,-1000.000,21.484,-118.164,0.000
1727534961.087,-270.996,-1000.000,107.422,-145.508,0.000
1727534961.091,-165.527,-1000.000,107.910,-140.625,0.000
1727534961.094,-125.977,-1000.000,49.805,-166.016,0.000
1727534961.098,-92.285,-1000.000,22.461,-103.516,0.000
1727534961.102,-183.105,-1000.000,-22.461,-109.375,0.000
1727534961.106,-309.570,-999.512,-18.066,-164.062,0.000
1727534961.110,-148.926,-1000.000,35.156,-100.586,0.000
1727534961.114,-36.621,-999.023,21.484,-73.730,0.000
1727534961.118,-77.148,-962.891,-2.930,-96.191,0.000
1727534961.122,-182.617,-930.176,5.859,-142.090,0.000
1727534961.126,-275.879,-916.504,1.953,-149.902,0.000
1727534961.130,-147.461,-916.504,-46.875,-88.379,0.000
1727534961.134,-19.043,-894.043,-4.883,-52.246,0.000
1727534961.137,-50.781,-878.906,81.543,-74.707,0.000
1727534961.141,-154.785,-841.309,65.918,-117.188,0.000
1727534961.145,-286.621,-735.840,38.574,-162.109,0.000
1727534961.149,-173.340,-681.152,-11.230,-116.211,0.000
1727534961.153,18.066,-683.594,-33.203,-33.691,0.000
1727534961.157,-2.930,-635.254,25.879,-23.438,0.000
1727534961.161,-104.492,-566.895,34.668,-59.570,0.000
1727534961.165,-212.402,-513.672,22.949,-97.168,0.000
1727534961.169,-143.555,-468.262,56.641,-71.777,0.000
1727534961.173,4.883,-402.344,45.898,-15.625,0.000
1727534961.177,23.926,-328.125,2.441,-7.812,0.000
1727534961.180,-28.809,-304.199,41.504,-18.066,0.000
1727534961.184,-150.879,-262.695,48.340,-48.340,0.000
1727534961.188,-111.328,-199.707,13.672,-34.668,0.000
1727534961.192,43.457,-119.141,29.297,11.230,0.000
1727534961.196,69.336,-63.965,53.223,19.043,0.000
1727534961.200,25.391,-53.711,96.680,4.395,0.000
1727534961.204,-110.840,-5.371,54.688,-52.734,0.000
1727534961.208,-102.051,21.973,62.500,-49.316,0.000
1727534961.212,69.336,21.484,107.910,20.508,0.000
1727534961.216,98.633,51.758,95.215,30.762,0.000
1727534961.220,51.758,95.703,89.355,12.207,0.000
1727534961.223,-96.191,164.062,56.641,-40.039,0.000
1727534961.227,-148.926,221.191,41.992,-41.992,0.000
1727534961.231,18.066,262.207,50.293,25.879,0.000
1727534961.235,110.840,291.016,4.883,62.988,0.000
1727534961.239,78.125,316.406,-18.066,51.758,0.000
1727534961.243,-59.082,381.836,54.199,-20.996,0.000
1727534961.247,-112.305,437.500,93.750,-46.875,0.000
1727534961.251,46.387,482.910,76.660,26.855,0.000
1727534961.255,108.398,539.551,47.852,66.406,0.000
1727534961.259,66.406,624.023,39.062,37.598,0.000
1727534961.262,-42.480,729.980,51.758,-1.465,0.000
1727534961.266,-118.164,790.527,65.430,-23.926,0.000
1727534961.270,24.414,807.617,54.688,13.184,0.000
1727534961.274,127.930,877.930,7.812,53.711,0.000
1727534961.278,126.465,963.867,-8.789,62.012,0.000
1727534961.282,1.465,969.238,41.992,1.953,0.000
1727534961.286,-120.605,965.820,77.148,-60.059,0.000
1727534961.290,6.836,969.238,68.359,-16.113,0.000
1727534961.294,129.395,968.262,63.965,37.109,0.000
1727534961.298,137.207,968.262,62.012,65.918,0.000
1727534961.302,48.828,968.262,27.344,54.688,0.000
1727534961.305,-64.453,968.262,4.883,12.695,0.000
1727534961.309,46.875,968.262,5.859,45.898,0.000
1727534961.313,156.738,968.262,43.457,69.824,0.000
1727534961.317,137.695,968.262,27.344,61.523,0.000
1727534961.321,55.176,968.262,-16.113,39.062,0.000
1727534961.325,-90.820,967.773,43.457,-22.461,0.000
1727534961.329,-39.551,967.773,79.590,-14.160,0.000
1727534961.333,116.699,968.262,98.145,45.410,0.000
1727534961.337,112.793,968.262,103.027,49.316,0.000
1727534961.341,17.578,968.262,48.828,22.949,0.000
1727534961.344,-88.867,968.262,21.484,-11.230,0.000
1727534961.348,-37.598,968.262,21.484,6.836,0.000
1727534961.352,113.770,968.262,5.859,65.430,0.000
1727534961.356,125.000,968.262,-17.578,63.965,0.000
1727534961.360,48.828,968.262,-33.203,35.156,0.000
1727534961.364,-81.543,968.262,0.000,-1.465,0.000
1727534961.368,-62.988,968.262,52.246,10.254,0.000
1727534961.372,92.285,968.262,73.730,53.711,0.000
1727534961.376,141.602,968.262,50.293,67.383,0.000
1727534961.380,108.398,968.262,6.836,67.871,0.000
1727534961.384,-18.066,968.262,5.371,25.879,0.000
1727534961.387,-49.805,968.262,48.828,23.926,0.000
1727534961.391,91.309,968.262,63.965,75.684,0.000
1727534961.395,136.230,968.262,60.547,71.289,0.000
1727534961.399,81.055,968.262,49.316,49.805,0.000
1727534961.403,-35.645,968.262,44.922,0.000,0.000
1727534961.407,-80.078,968.262,40.039,-18.066,0.000
1727534961.411,64.453,968.262,26.855,53.223,0.000
1727534961.415,139.648,968.262,16.113,78.125,0.000
1727534961.419,104.492,968.262,8.301,47.363,0.000
1727534961.423,0.977,968.262,9.277,10.742,0.000
1727534961.427,-72.754,968.262,0.000,-5.371,0.000
1727534961.430,44.922,968.262,-17.090,37.598,0.000
1727534961.434,125.000,968.262,-17.578,69.336,0.000
1727534961.438,113.281,968.262,-13.672,66.895,0.000
1727534961.442,4.395,968.262,13.672,26.855,0.000
1727534961.446,-106.934,968.262,14.648,-5.371,0.000
1727534961.450,26.367,968.262,2.930,43.945,0.000
1727534961.454,131.348,968.262,8.789,63.477,0.000
1727534961.458,110.352,968.262,3.418,54.199,0.000
1727534961.462,10.254,968.262,44.922,23.438,0.000
1727534961.466,-119.141,968.262,62.500,-37.598,0.000
1727534961.470,-31.738,968.262,31.250,-9.766,0.000
1727534961.473,113.770,967.285,27.344,41.504,0.000
1727534961.477,105.469,966.797,18.066,43.457,0.000
1727534961.481,11.230,970.703,12.695,15.625,0.000
1727534961.485,-95.215,924.805,6.348,-23.438,0.000
1727534961.489,-3.418,892.578,-4.395,16.602,0.000
1727534961.493,151.855,930.664,-11.719,69.824,0.000
1727534961.497,147.461,910.156,-14.648,52.246,0.000
1727534961.501,46.387,844.238,0.000,1.953,0.000
1727534961.505,-102.051,788.086,31.738,-51.758,0.000
1727534961.509,-52.734,771.484,43.457,-26.367,0.000
1727534961.512,101.074,773.438,14.648,29.297,0.000
1727534961.516,118.652,774.902,9.766,36.621,0.000
1727534961.520,59.082,785.156,-10.254,28.320,0.000
1727534961.524,-72.754,792.480,-37.598,-21.484,0.000
1727534961.528,-69.824,787.109,-23.926,-23.438,0.000
1727534961.532,81.543,763.184,19.043,19.043,0.000
1727534961.536,113.770,720.215,50.781,28.320,0.000
1727534961.540,63.477,670.410,35.156,22.461,0.000
1727534961.544,-61.523,630.371,-2.441,-22.949,0.000
1727534961.548,-80.078,597.168,-6.836,-21.484,0.000
1727534961.552,60.547,588.867,-31.738,50.781,0.000
1727534961.555,101.562,613.281,-57.617,67.383,0.000
1727534961.559,75.684,612.793,7.812,50.781,0.000
1727534961.563,-42.480,586.914,46.875,-6.836,0.000
1727534961.567,-96.191,602.539,8.789,-34.668,0.000
1727534961.571,69.824,614.258,5.859,28.320,0.000
1727534961.575,148.926,583.984,30.273,52.246,0.000
1727534961.579,108.887,546.875,1.465,54.199,0.000
1727534961.583,-6.836,512.207,-18.555,32.715,0.000
1727534961.587,-78.125,477.051,20.020,2.930,0.000
1727534961.591,55.176,439.941,62.012,43.945,0.000
1727534961.595,140.137,403.809,52.246,67.871,0.000
1727534961.598,115.723,382.324,39.551,43.945,0.000
1727534961.602,6.348,364.746,44.922,15.625,0.000
1727534961.606,-86.426,337.891,24.902,-2.930,0.000
1727534961.610,35.156,333.496,9.766,27.832,0.000
1727534961.614,145.020,356.445,-7.324,59.082,0.000
1727534961.618,132.324,359.375,-20.508,64.453,0.000
1727534961.622,22.461,344.238,14.160,27.344,0.000
1727534961.626,-96.680,327.637,21.973,-15.137,0.000
1727534961.630,-0.488,303.711,3.906,18.066,0.000
1727534961.634,114.258,268.555,22.461,45.410,0.000
1727534961.637,101.562,251.465,47.363,41.992,0.000
1727534961.641,22.949,263.184,43.945,21.973,0.000
1727534961.645,-94.727,266.602,-3.906,-17.578,0.000
1727534961.649,-25.391,252.441,-42.969,10.742,0.000
1727534961.653,107.910,238.770,-14.160,44.434,0.000
1727534961.657,113.770,237.305,20.996,37.109,0.000
1727534961.661,41.992,223.633,4.883,18.555,0.000
1727534961.665,-92.285,204.102,-21.484,-18.555,0.000
1727534961.669,-59.082,204.102,-15.625,0.488,0.000
1727534961.673,82.520,214.355,2.930,41.992,0.000
1727534961.677,106.445,228.516,-13.672,47.363,0.000
1727534961.680,38.574,246.094,-21.973,23.438,0.000
1727534961.684,-94.727,244.141,-13.672,-30.762,0.000
1727534961.688,-69.336,235.840,-12.695,-19.531,0.000
1727534961.692,91.309,234.863,-20.020,39.551,0.000
1727534961.696,119.629,229.980,-20.508,48.340,0.000
1727534961.700,71.289,223.145,-0.977,41.504,0.000
1727534961.704,-45.898,215.820,-9.277,1.953,0.000
1727534961.708,-56.152,214.355,-24.902,-3.906,0.000
1727534961.712,95.215,220.703,-15.625,47.363,0.000
1727534961.716,132.812,205.566,0.977,58.105,0.000
1727534961.719,83.008,187.988,5.371,34.668,0.000
1727534961.723,-50.293,190.918,0.977,-15.625,0.000
1727534961.727,-89.355,197.754,1.465,-24.414,0.000
1727534961.731,65.430,195.801,0.977,32.227,0.000
1727534961.735,134.766,186.035,-16.113,59.082,0.000
1727534961.739,111.816,186.035,-44.434,56.152,0.000
1727534961.743,-2.441,174.805,-27.344,19.531,0.000
1727534961.747,-83.496,157.715,1.465,-2.441,0.000
1727534961.751,47.852,153.809,-11.719,44.434,0.000
1727534961.755,130.859,151.367,-20.996,62.500,0.000
1727534961.759,98.145,148.438,-14.648,43.457,0.000
1727534961.762,-7.324,134.277,-3.906,6.836,0.000
1727534961.766,-98.633,120.605,18.555,-41.016,0.000
1727534961.770,16.113,127.930,18.066,6.348,0.000
1727534961.774,147.949,135.742,-26.367,77.637,0.000
1727534961.778,127.441,134.277,-34.180,67.383,0.000
1727534961.782,-10.742,138.184,-5.371,-7.812,0.000
1727534961.786,-129.395,155.273,5.371,-60.547,0.000
1727534961.790,-20.996,175.781,6.836,-20.508,0.000
1727534961.794,105.469,167.969,0.977,20.508,0.000
1727534961.798,91.309,139.160,-31.738,26.367,0.000
1727534961.801,6.836,123.047,-46.387,6.836,0.000
1727534961.805,-107.422,113.281,-35.156,-26.855,0.000
1727534961.809,-19.043,107.422,-21.973,0.977,0.000
1727534961.813,110.352,100.098,-20.508,41.504,0.000
1727534961.817,104.980,90.332,-23.926,38.086,0.000
1727534961.821,25.879,82.031,5.859,6.348,0.000
1727534961.825,-105.469,73.730,11.230,-52.734,0.000
1727534961.829,-52.246,66.406,0.977,-30.762,0.000
1727534961.833,78.613,58.594,-16.113,14.160,0.000
1727534961.837,103.516,54.199,-41.504,23.438,0.000
1727534961.841,38.574,60.547,-56.152,11.719,0.000
1727534961.844,-100.586,65.430,-70.312,-32.715,0.000
1727534961.848,-56.152,52.734,-98.633,-21.484,0.000
1727534961.852,76.660,37.109,-67.871,1.953,0.000
1727534961.856,106.445,41.016,-24.902,18.555,0.000
1727534961.860,43.457,40.527,-25.391,1.465,0.000
1727534961.864,-109.375,40.527,-9.277,-78.125,0.000
1727534961.868,-114.746,57.617,-26.855,-84.473,0.000
1727534961.872,26.367,59.082,-38.086,-27.344,0.000
1727534961.876,79.590,67.383,-20.508,3.906,0.000
1727534961.880,44.922,82.031,-14.160,15.137,0.000
1727534961.884,-87.402,75.195,-15.625,-29.297,0.000
1727534961.887,-134.766,80.566,-37.109,-18.066,0.000
1727534961.891,20.508,98.633,-84.473,57.617,0.000
1727534961.895,119.141,91.797,-60.547,48.828,0.000
1727534961.899,59.570,69.824,8.789,3.906,0.000
1727534961.903,-88.379,62.012,12.695,-32.715,0.000
1727534961.907,-130.859,79.590,-3.906,-39.551,0.000
1727534961.911,11.719,102.539,-23.438,11.230,0.000
1727534961.915,70.312,103.027,-51.270,58.594,0.000
1727534961.919,51.758,100.098,-54.199,57.129,0.000
1727534961.923,-72.754,71.289,-27.344,0.000,0.000
1727534961.926,-173.828,42.969,-64.453,-35.156,0.000
1727534961.930,-36.621,26.855,-92.773,27.344,0.000
1727534961.934,48.340,13.184,-16.602,53.223,0.000
1727534961.938,30.273,41.992,28.809,29.297,0.000
1727534961.942,-71.777,86.426,7.324,2.441,0.000
1727534961.946,-189.941,107.910,-25.391,-35.156,0.000
1727534961.950,-83.984,132.324,-33.203,5.859,0.000
1727534961.954,38.574,156.250,-61.523,56.641,0.000
1727534961.958,38.574,163.086,-77.148,51.758,0.000
1727534961.962,-33.691,189.453,-64.941,14.648,0.000
1727534961.966,-157.715,218.750,-38.086,-41.016,0.000
1727534961.969,-109.863,219.727,-2.930,-23.926,0.000
1727534961.973,25.391,245.605,-33.203,29.297,0.000
1727534961.977,33.203,253.418,-64.941,34.668,0.000
1727534961.981,-50.293,229.492,-43.457,-1.465,0.000
1727534961.985,-181.641,216.797,-13.184,-53.223,0.000
1727534961.989,-145.508,226.074,-30.273,-29.785,0.000
1727534961.993,8.789,242.188,-66.406,32.715,0.000
1727534961.997,26.855,241.699,-44.922,24.414,0.000
1727534962.001,-58.105,245.117,-9.277,-20.996,0.000
1727534962.005,-184.082,271.484,-41.504,-65.918,0.000
1727534962.009,-146.973,290.039,-53.223,-47.363,0.000
1727534962.012,-5.859,298.828,-4.883,-5.859,0.000
1727534962.016,14.160,303.223,3.906,-14.648,0.000
1727534962.020,-35.156,308.105,-8.301,-29.297,0.000
1727534962.024,-166.016,320.312,-27.832,-77.637,0.000
1727534962.028,-166.016,331.543,-58.594,-78.125,0.000
1727534962.032,-20.996,319.336,-49.805,-26.855,0.000
1727534962.036,11.719,305.176,-67.871,-25.391,0.000
1727534962.040,-36.621,300.781,-85.449,-41.992,0.000
1727534962.044,-155.273,290.527,-12.695,-89.844,0.000
1727534962.048,-186.523,270.996,12.207,-113.281,0.000
1727534962.052,-43.457,257.324,-8.301,-53.711,0.000
1727534962.055,23.926,258.301,-49.805,-14.648,0.000
1727534962.059,-0.977,249.023,-87.402,-22.461,0.000
1727534962.063,-108.398,234.375,-48.340,-77.148,0.000
1727534962.067,-186.035,220.215,-25.879,-103.027,0.000
1727534962.071,-58.594,212.891,-23.926,-53.223,0.000
1727534962.075,25.879,216.309,-37.598,-35.645,0.000
1727534962.079,-3.418,205.078,-61.035,-76.172,0.000
1727534962.083,-110.840,175.781,-71.777,-139.160,0.000
1727534962.087,-166.504,188.965,-85.449,-140.625,0.000
1727534962.091,-28.320,188.477,-55.176,-78.125,0.000
1727534962.094,38.574,148.926,-2.441,-79.102,0.000
1727534962.098,9.277,123.535,22.949,-105.469,0.000
1727534962.102,-88.379,102.051,0.977,-123.535,0.000
1727534962.106,-189.453,85.449,-75.195,-141.602,0.000
1727534962.110,-68.359,76.172,-78.613,-89.355,0.000
1727534962.114,49.316,81.055,-57.129,-46.875,0.000
1727534962.118,24.414,73.730,-37.109,-61.523,0.000
1727534962.122,-75.684,53.223,20.508,-111.816,0.000
1727534962.126,-173.828,51.270,15.625,-145.020,0.000
1727534962.130,-76.660,50.293,0.000,-102.051,0.000
1727534962.134,44.434,44.922,-13.672,-59.082,0.000
1727534962.137,27.832,38.574,-35.645,-52.246,0.000
1727534962.141,-56.641,32.227,-44.922,-68.848,0.000
1727534962.145,-150.879,26.855,-59.082,-103.516,0.000
1727534962.149,-85.449,28.320,-62.012,-75.195,0.000
1727534962.153,38.086,33.691,-52.246,-36.133,0.000
1727534962.157,34.180,33.203,-52.734,-50.293,0.000
1727534962.161,-33.691,27.832,-53.711,-67.383,0.000
1727534962.165,-147.461,23.438,-22.461,-98.145,0.000
1727534962.169,-127.441,22.949,-4.395,-77.148,0.000
1727534962.173,15.625,21.973,-28.320,-19.531,0.000
1727534962.176,44.434,20.508,-38.086,-20.508,0.000
1727534962.180,3.906,20.996,-49.805,-32.227,0.000
1727534962.184,-110.840,22.461,-40.039,-52.246,0.000
1727534962.188,-141.113,16.602,-2.441,-76.172,0.000
1727534962.192,-11.230,4.395,-14.160,-52.734,0.000
1727534962.196,37.598,0.488,-39.551,-31.250,0.000
1727534962.200,-16.602,2.441,-41.016,-45.410,0.000
1727534962.204,-153.809,4.395,-51.758,-90.332,0.000
1727534962.208,-166.016,10.254,-98.633,-81.543,0.000
1727534962.212,0.488,24.902,-108.398,-16.602,0.000
1727534962.216,44.922,32.227,-27.344,-5.371,0.000
1727534962.219,7.324,28.809,19.531,-40.039,0.000
1727534962.223,-103.027,28.320,-1.953,-83.984,0.000
1727534962.227,-177.734,30.273,-33.691,-88.867,0.000
1727534962.231,-35.156,27.832,-41.504,-33.691,0.000
1727534962.235,53.711,27.344,-16.602,-4.883,0.000
1727534962.239,23.926,34.180,-9.277,-20.020,0.000
1727534962.243,-72.266,34.668,-32.715,-59.082,0.000
1727534962.247,-155.762,26.855,-56.152,-75.195,0.000
1727534962.251,-23.926,34.668,-49.316,-16.113,0.000
1727534962.255,83.008,33.203,-29.297,13.184,0.000
1727534962.259,47.852,21.973,-43.457,-9.277,0.000
1727534962.262,-61.035,23.438,-70.801,-37.109,0.000
1727534962.266,-146.973,37.109,-64.453,-56.152,0.000
1727534962.270,-42.969,35.645,-34.668,-18.066,0.000
1727534962.274,73.730,20.508,-30.273,15.625,0.000
1727534962.278,72.754,20.996,-38.086,6.348,0.000
1727534962.282,-33.203,26.855,-14.648,-35.156,0.000
1727534962.286,-166.992,20.020,-3.906,-63.965,0.000
1727534962.290,-62.012,14.160,-9.766,-9.277,0.000
1727534962.294,85.449,16.113,-47.363,35.645,0.000
1727534962.298,64.453,13.672,-80.078,21.973,0.000
1727534962.302,-16.602,14.160,-53.223,-7.324,0.000
1727534962.305,-141.113,11.719,-31.250,-69.336,0.000
1727534962.309,-75.195,9.277,-16.602,-41.992,0.000
1727534962.313,66.895,3.418,-20.020,31.738,0.000
1727534962.317,67.871,-6.348,-30.273,20.020,0.000
1727534962.321,6.348,-2.441,-15.625,-12.695,0.000
1727534962.325,-121.582,11.230,-17.578,-49.316,0.000
1727534962.329,-83.496,9.277,-43.945,-32.227,0.000
1727534962.333,78.613,-2.441,-76.660,25.879,0.000
1727534962.337,83.984,-2.441,-90.820,30.273,0.000
1727534962.341,16.602,-11.719,-63.965,-2.441,0.000
1727534962.344,-106.934,-16.602,-27.344,-49.316,0.000
1727534962.348,-121.582,-13.184,-19.043,-56.152,0.000
1727534962.352,31.738,-9.277,-59.570,-7.812,0.000
1727534962.356,84.961,-4.883,-62.500,15.625,0.000
1727534962.360,43.457,-9.277,-20.996,-1.465,0.000
1727534962.364,-85.938,-11.719,-23.438,-39.062,0.000
1727534962.368,-110.840,-8.789,-24.414,-38.086,0.000
1727534962.372,37.598,-11.230,-33.691,4.395,0.000
1727534962.376,90.332,-15.137,-51.758,28.320,0.000
1727534962.380,51.758,-20.996,-62.988,20.996,0.000
1727534962.384,-71.289,-23.926,-81.055,-40.039,0.000
1727534962.387,-120.117,-29.785,-50.781,-55.176,0.000
1727534962.391,38.086,-41.016,-3.906,12.207,0.000
1727534962.395,94.727,-41.992,10.742,34.180,0.000
1727534962.399,53.711,-35.156,-9.766,27.344,0.000
1727534962.403,-58.105,-41.504,-24.902,-15.625,0.000
1727534962.407,-148.438,-50.781,-34.180,-47.852,0.000
1727534962.411,0.488,-55.176,-62.988,0.000,0.000
1727534962.415,112.305,-53.711,-77.637,27.832,0.000
1727534962.419,76.172,-49.316,-65.918,16.602,0.000
1727534962.423,-38.086,-42.480,-33.203,-9.766,0.000
1727534962.426,-140.625,-47.363,-27.344,-59.082,0.000
1727534962.430,-31.738,-51.270,-56.152,-22.461,0.000
1727534962.434,90.820,-37.109,-53.223,33.203,0.000
1727534962.438,81.543,-40.039,-20.996,23.438,0.000
1727534962.442,-23.926,-43.457,-27.832,-19.043,0.000
1727534962.446,-151.367,-38.086,-45.898,-64.941,0.000
1727534962.450,-67.383,-43.457,-44.922,-18.066,0.000
1727534962.454,66.895,-44.434,-74.219,29.785,0.000
1727534962.458,78.125,-46.387,-62.500,8.789,0.000
1727534962.462,-10.742,-57.617,-18.555,-29.297,0.000
1727534962.466,-132.324,-60.059,-13.672,-62.988,0.000
1727534962.470,-70.801,-55.176,-20.508,-40.039,0.000
1727534962.473,71.777,-56.152,-34.180,6.348,0.000
1727534962.477,74.219,-53.711,-63.477,21.484,0.000
1727534962.481,-12.207,-49.316,-90.332,-21.484,0.000
1727534962.485,-137.695,-54.199,-55.664,-84.473,0.000
1727534962.489,-109.375,-59.082,-25.391,-68.848,0.000
1727534962.493,29.297,-63.477,-33.203,-16.602,0.000
1727534962.497,65.430,-55.664,-65.430,-8.789,0.000
1727534962.501,8.301,-44.434,-79.590,-13.184,0.000
1727534962.505,-128.418,-61.523,-56.641,-53.711,0.000
1727534962.509,-125.000,-73.730,-49.805,-57.129,0.000
1727534962.512,11.719,-73.242,-41.992,0.977,0.000
1727534962.516,43.945,-63.965,-27.344,-5.859,0.000
1727534962.520,-15.625,-50.293,-27.832,-32.715,0.000
1727534962.524,-131.348,-40.039,-27.832,-62.012,0.000
1727534962.528,-135.254,-36.133,-33.203,-55.176,0.000
1727534962.532,20.508,-37.109,-52.734,-0.977,0.000
1727534962.536,79.102,-33.691,-83.984,20.508,0.000
1727534962.540,39.062,-33.203,-83.496,2.441,0.000
1727534962.544,-90.332,-44.434,-64.453,-48.828,0.000
1727534962.548,-149.414,-57.617,-40.039,-57.129,0.000
1727534962.551,2.441,-48.828,-28.320,-2.930,0.000
1727534962.555,90.820,-42.969,-32.227,20.996,0.000
1727534962.559,52.246,-46.875,-18.066,10.254,0.000
1727534962.563,-75.684,-37.109,-27.344,-33.203,0.000
1727534962.567,-142.578,-29.297,-38.086,-45.898,0.000
1727534962.571,-11.230,-35.156,-53.711,-0.977,0.000
1727534962.575,72.266,-50.781,-61.035,23.926,0.000
1727534962.579,65.918,-39.062,-50.293,12.695,0.000
1727534962.583,-32.715,-18.555,-43.945,-27.344,0.000
1727534962.587,-126.953,-17.578,-29.297,-57.129,0.000
1727534962.591,-12.207,-25.879,-9.766,-2.930,0.000
1727534962.594,76.660,-37.109,-18.066,23.438,0.000
1727534962.598,56.641,-46.387,-32.715,3.906,0.000
1727534962.602,-34.668,-47.363,-19.043,-16.602,0.000
1727534962.606,-142.090,-50.781,-28.320,-55.176,0.000
1727534962.610,-50.293,-55.664,-40.527,-26.367,0.000
1727534962.614,89.844,-50.293,-36.133,27.344,0.000
1727534962.618,86.426,-55.664,-31.738,28.809,0.000
1727534962.622,-9.766,-58.594,-28.809,-22.949,0.000
1727534962.626,-120.117,-50.293,-26.367,-65.430,0.000
1727534962.630,-47.363,-50.293,-20.020,-18.066,0.000
1727534962.634,82.031,-50.293,-32.227,25.391,0.000
1727534962.637,101.074,-38.086,-48.828,5.859,0.000
1727534962.641,20.508,-45.410,-54.199,-20.020,0.000
1727534962.645,-119.629,-47.363,-50.781,-50.781,0.000
1727534962.649,-81.543,-40.527,-21.973,-29.297,0.000
1727534962.653,60.059,-46.387,1.465,26.855,0.000
1727534962.657,76.172,-49.316,-9.766,20.996,0.000
1727534962.661,-3.906,-51.270,-14.648,-10.742,0.000
1727534962.665,-110.840,-43.457,-30.762,-49.316,0.000
1727534962.669,-87.891,-33.203,-82.520,-29.785,0.000
1727534962.673,55.664,-32.227,-66.406,18.555,0.000
1727534962.677,80.566,-39.551,-16.602,4.883,0.000
1727534962.680,23.438,-49.805,-4.395,-8.301,0.000
1727534962.684,-89.355,-48.828,-1.953,-43.457,0.000
1727534962.688,-116.699,-45.898,-20.996,-52.734,0.000
1727534962.692,23.926,-50.293,-39.062,-8.301,0.000
1727534962.696,84.961,-54.688,-33.203,20.508,0.000
1727534962.700,50.293,-57.617,-37.598,8.301,0.000
1727534962.704,-63.965,-40.039,-48.340,-41.992,0.000
1727534962.708,-104.004,-23.438,-60.547,-45.898,0.000
1727534962.712,18.066,-39.551,-61.035,11.719,0.000
1727534962.716,99.609,-49.805,-43.457,27.344,0.000
1727534962.719,68.359,-42.480,-32.227,9.277,0.000
1727534962.723,-61.035,-40.039,-31.738,-29.297,0.000
1727534962.727,-122.070,-49.316,-41.016,-38.086,0.000
1727534962.731,2.441,-55.664,-44.922,13.672,0.000
1727534962.735,83.984,-46.875,-14.160,37.109,0.000
1727534962.739,59.570,-43.945,-7.812,29.785,0.000
1727534962.743,-54.688,-49.805,-20.996,-31.250,0.000
1727534962.747,-146.484,-54.199,-26.855,-79.102,0.000
1727534962.751,-32.227,-58.594,-40.039,-5.371,0.000
1727534962.755,74.707,-52.734,-95.703,31.738,0.000
1727534962.759,57.617,-48.828,-111.816,14.160,0.000
1727534962.762,-38.086,-53.223,-28.809,-27.344,0.000
1727534962.766,-134.766,-57.617,-4.395,-78.613,0.000
1727534962.770,-37.109,-63.965,-21.973,-22.461,0.000
1727534962.774,70.312,-61.523,-27.832,16.113,0.000
1727534962.778,55.176,-60.547,-35.645,4.395,0.000
1727534962.782,-29.785,-67.871,-39.062,-23.926,0.000
1727534962.786,-150.391,-69.336,-41.504,-69.824,0.000
1727534962.790,-56.641,-52.734,-41.504,-29.785,0.000
1727534962.794,96.191,-46.387,-33.203,9.766,0.000
1727534962.798,95.215,-57.129,-38.574,9.277,0.000
1727534962.801,4.883,-52.246,-64.941,-0.977,0.000
1727534962.805,-129.883,-43.945,-39.551,-69.336,0.000
1727534962.809,-82.520,-42.480,-16.113,-52.246,0.000
1727534962.813,54.688,-43.945,-33.691,13.184,0.000
1727534962.817,50.781,-45.898,-46.875,10.742,0.000
1727534962.821,-4.883,-57.129,-44.434,-9.277,0.000
1727534962.825,-122.070,-60.547,-61.035,-47.852,0.000
1727534962.829,-89.844,-44.922,-60.059,-36.133,0.000
1727534962.833,63.965,-42.480,-40.527,2.930,0.000
1727534962.837,87.402,-48.340,-46.875,14.648,0.000
1727534962.841,35.645,-55.176,-26.367,11.719,0.000
1727534962.844,-102.051,-68.848,-14.160,-38.086,0.000
1727534962.848,-114.746,-64.941,-14.160,-47.363,0.000
1727534962.852,35.156,-53.711,-0.977,1.465,0.000
1727534962.856,83.008,-43.945,-7.812,12.695,0.000
1727534962.860,50.781,-42.480,-22.949,4.395,0.000
1727534962.864,-68.359,-46.875,-23.438,-36.133,0.000
1727534962.868,-117.676,-48.340,-29.297,-49.805,0.000
1727534962.872,24.414,-57.617,-25.879,20.508,0.000
1727534962.876,96.191,-56.641,-36.133,35.645,0.000
1727534962.880,62.988,-46.387,-59.570,12.695,0.000
1727534962.883,-51.758,-45.410,-69.336,-13.184,0.000
1727534962.887,-117.676,-52.246,-74.219,-38.086,0.000
1727534962.891,16.602,-62.988,-56.641,-6.348,0.000
1727534962.895,96.680,-70.801,-16.113,14.160,0.000
1727534962.899,52.246,-70.801,0.977,4.395,0.000
1727534962.903,-45.410,-70.801,-30.273,-30.762,0.000
1727534962.907,-131.348,-82.520,-47.852,-59.570,0.000
1727534962.911,-28.320,-87.891,-30.762,-16.113,0.000
1727534962.915,84.961,-72.754,-27.344,25.879,0.000
1727534962.919,72.754,-67.871,-52.734,20.020,0.000
1727534962.922,-24.414,-73.730,-53.711,-19.043,0.000
1727534962.926,-132.812,-77.637,-41.992,-58.594,0.000
1727534962.930,-22.461,-73.730,-56.641,-22.461,0.000
1727534962.934,93.262,-58.594,-56.641,33.203,0.000
1727534962.938,82.031,-48.340,-28.809,24.902,0.000
1727534962.942,-12.207,-52.734,-17.090,-19.043,0.000
1727534962.946,-137.695,-61.523,-21.484,-64.941,0.000
1727534962.950,-44.922,-50.781,-52.734,-18.066,0.000
1727534962.954,91.309,-41.992,-59.570,39.551,0.000
1727534962.958,88.867,-44.922,-32.227,26.855,0.000
1727534962.962,-1.953,-53.223,-18.555,-18.066,0.000
1727534962.965,-116.211,-65.918,-41.992,-70.801,0.000
1727534962.969,-66.406,-58.594,-69.824,-36.133,0.000
1727534962.973,69.336,-52.246,-37.598,11.230,0.000
1727534962.977,91.309,-58.105,-16.602,9.277,0.000
1727534962.981,12.695,-65.430,-12.695,-25.391,0.000
1727534962.985,-120.117,-62.500,0.977,-72.266,0.000
1727534962.989,-76.660,-58.594,-21.973,-37.598,0.000
1727534962.993,77.637,-62.012,-38.086,13.672,0.000
1727534962.997,77.637,-52.734,-57.617,17.578,0.000
1727534963.001,21.484,-43.457,-98.633,-3.418,0.000
1727534963.005,-99.121,-43.457,-52.734,-50.293,0.000
1727534963.008,-108.887,-43.457,-2.441,-48.340,0.000
1727534963.012,36.621,-55.664,1.465,10.254,0.000
1727534963.016,65.918,-69.336,-13.672,19.531,0.000
1727534963.020,15.625,-64.453,-26.855,-14.160,0.000
1727534963.024,-82.520,-53.223,-19.043,-48.828,0.000
1727534963.028,-109.375,-56.152,-41.504,-44.434,0.000
1727534963.032,28.809,-53.223,-48.340,4.395,0.000
1727534963.036,82.031,-47.363,-24.414,26.855,0.000
1727534963.040,42.480,-39.062,-6.836,19.043,0.000
1727534963.044,-59.082,-35.156,-0.488,-39.551,0.000
1727534963.048,-128.906,-50.781,-18.066,-53.223,0.000
1727534963.051,15.625,-45.898,-40.527,17.090,0.000
1727534963.055,114.258,-34.180,-39.551,36.133,0.000
1727534963.059,76.660,-34.668,-34.668,23.438,0.000
1727534963.063,-46.387,-43.457,-48.340,-10.254,0.000
1727534963.067,-117.188,-57.617,-39.551,-30.762,0.000
1727534963.071,16.602,-53.223,-18.555,8.301,0.000
1727534963.075,99.609,-38.086,-14.160,14.160,0.000
1727534963.079,70.801,-40.527,-1.953,7.812,0.000
1727534963.083,-38.574,-46.387,-2.930,-15.137,0.000
1727534963.087,-136.230,-37.598,-41.504,-59.082,0.000
1727534963.091,-12.695,-33.203,-55.664,-14.160,0.000
1727534963.094,116.699,-39.551,-51.270,28.809,0.000
1727534963.098,86.914,-41.992,-42.969,19.043,0.000
1727534963.102,-36.621,-47.363,-38.574,-11.719,0.000
1727534963.106,-151.367,-49.316,-29.785,-48.340,0.000
1727534963.110,-47.363,-53.711,-14.160,-15.137,0.000
1727534963.114,96.680,-57.617,-13.184,24.414,0.000
1727534963.118,78.125,-47.363,-18.555,7.324,0.000
1727534963.122,-4.883,-40.527,-33.691,-18.066,0.000
1727534963.126,-120.605,-36.621,-41.504,-58.105,0.000
1727534963.130,-67.871,-40.039,-21.973,-27.832,0.000
1727534963.133,79.590,-44.434,-14.648,39.551,0.000
1727534963.137,99.121,-38.086,-38.574,54.199,0.000
1727534963.141,21.484,-42.969,-49.316,18.066,0.000
1727534963.145,-104.004,-54.688,-34.180,-40.527,0.000
1727534963.149,-67.871,-57.617,-20.020,-33.203,0.000
1727534963.153,78.613,-53.711,-4.883,29.785,0.000
1727534963.157,93.750,-56.641,-12.207,39.551,0.000
1727534963.161,40.039,-60.059,-17.578,7.812,0.000
1727534963.165,-96.680,-59.082,-7.324,-46.387,0.000
1727534963.169,-101.074,-60.059,-6.348,-37.598,0.000
1727534963.173,75.195,-58.105,-10.742,17.578,0.000
1727534963.176,90.332,-59.082,-24.414,25.391,0.000
1727534963.180,34.180,-61.035,-40.527,18.066,0.000
1727534963.184,-65.918,-66.895,-36.133,-26.367,0.000
1727534963.188,-75.195,-65.430,-19.531,-26.855,0.000
1727534963.192,65.430,-58.105,-21.484,26.855,0.000
1727534963.196,117.188,-54.199,-36.133,44.434,0.000
1727534963.200,80.078,-50.293,-37.598,20.020,0.000
1727534963.204,-51.758,-55.176,-25.391,-30.762,0.000
1727534963.208,-109.375,-52.734,-16.602,-38.574,0.000
1727534963.212,27.832,-53.711,-9.766,15.625,0.000
1727534963.215,109.375,-61.035,-0.488,58.105,0.000
1727534963.219,83.496,-56.641,-19.043,50.781,0.000
1727534963.223,-10.742,-48.340,-47.363,5.859,0.000
1727534963.227,-88.867,-58.105,-43.945,-33.691,0.000
1727534963.231,9.277,-66.406,-20.508,-1.953,0.000
1727534963.235,104.980,-64.453,3.418,38.086,0.000
1727534963.239,76.172,-79.590,7.324,27.832,0.000
1727534963.243,-41.016,-77.637,1.953,-6.348,0.000
1727534963.247,-120.605,-59.570,-8.789,-40.527,0.000
1727534963.251,0.488,-47.852,-29.297,-2.441,0.000
1727534963.254,110.840,-46.387,-30.762,38.574,0.000
1727534963.258,85.449,-48.828,-45.898,31.738,0.000
1727534963.262,-6.836,-41.016,-44.434,3.906,0.000
1727534963.266,-108.887,-40.527,-10.254,-34.668,0.000
1727534963.270,-24.414,-46.875,-8.301,1.953,0.000
1727534963.274,103.027,-44.922,-0.977,50.293,0.000
1727534963.278,107.910,-50.293,8.789,47.852,0.000
1727534963.282,32.715,-52.734,-24.414,17.578,0.000
1727534963.286,-104.004,-43.945,-50.781,-28.320,0.000
1727534963.290,-49.805,-37.109,-28.320,-2.441,0.000
1727534963.294,74.707,-44.434,-9.277,48.828,0.000
1727534963.297,82.520,-42.480,-11.230,34.180,0.000
1727534963.301,19.531,-37.109,-9.766,-7.324,0.000
1727534963.305,-107.910,-55.664,-19.531,-42.480,0.000
1727534963.309,-70.312,-63.965,-24.902,-27.832,0.000
1727534963.313,77.637,-51.270,-13.184,22.461,0.000
1727534963.317,102.539,-34.668,-6.348,40.527,0.000
1727534963.321,46.387,-34.180,-12.695,18.555,0.000
1727534963.325,-70.801,-45.898,-23.926,-24.414,0.000
1727534963.329,-67.871,-41.016,-13.184,-12.207,0.000
1727534963.333,58.594,-38.574,-13.672,38.086,0.000
1727534963.337,102.051,-38.574,-11.230,51.270,0.000
1727534963.340,60.547,-43.457,-3.906,22.949,0.000
1727534963.344,-74.219,-42.480,-14.648,-26.367,0.000
1727534963.348,-84.961,-29.297,-44.922,-22.949,0.000
1727534963.352,80.078,-34.180,-50.293,27.832,0.000
1727534963.356,130.371,-42.969,-52.246,53.223,0.000
1727534963.360,81.055,-36.133,-70.312,41.992,0.000
1727534963.364,-45.898,-31.738,-50.293,-7.324,0.000
1727534963.368,-109.863,-43.457,-1.465,-17.090,0.000
1727534963.372,29.785,-55.176,28.809,18.066,0.000
1727534963.376,107.910,-52.246,20.996,31.250,0.000
1727534963.380,84.961,-49.805,-0.977,27.344,0.000
1727534963.383,-24.902,-55.176,-27.344,-10.254,0.000
1727534963.387,-120.117,-51.758,-27.344,-39.551,0.000
1727534963.391,3.906,-53.223,-20.020,20.508,0.000
1727534963.395,110.840,-50.781,-29.785,54.199,0.000
1727534963.399,92.285,-35.156,-22.461,43.945,0.000
1727534963.403,-14.160,-36.621,-20.508,3.418,0.000
1727534963.407,-107.910,-51.270,-34.668,-23.926,0.000
1727534963.411,0.977,-53.223,-24.414,33.691,0.000
1727534963.415,106.445,-41.992,-12.207,56.641,0.000
1727534963.419,89.844,-38.086,0.977,37.109,0.000
1727534963.422,9.766,-45.898,-4.395,6.836,0.000
1727534963.426,-96.680,-50.293,-20.996,-41.504,0.000
1727534963.430,-13.672,-50.781,-6.836,-3.906,0.000
1727534963.434,119.141,-44.922,-9.766,40.527,0.000
1727534963.438,107.422,-40.039,-27.832,48.828,0.000
1727534963.442,12.207,-42.969,-49.316,23.926,0.000
1727534963.446,-102.539,-47.852,-59.570,-25.391,0.000
1727534963.450,-42.969,-55.176,-22.461,-3.418,0.000
1727534963.454,87.402,-60.059,11.719,49.805,0.000
1727534963.458,95.215,-51.270,23.926,60.547,0.000
1727534963.462,19.531,-41.992,16.602,18.066,0.000
1727534963.465,-100.098,-46.875,7.324,-36.133,0.000
1727534963.469,-30.273,-48.828,-14.160,-6.836,0.000
1727534963.473,110.352,-49.805,-51.758,53.711,0.000
1727534963.477,119.141,-55.664,-46.387,56.641,0.000
1727534963.481,65.918,-54.199,-9.766,26.367,0.000
1727534963.485,-68.848,-58.105,-1.465,-27.344,0.000
1727534963.489,-59.570,-57.617,-15.137,-16.113,0.000
1727534963.493,97.656,-53.711,-4.883,53.223,0.000
1727534963.497,121.582,-64.453,7.324,62.500,0.000
1727534963.501,54.199,-70.312,-13.184,40.039,0.000
1727534963.505,-60.059,-54.688,0.488,7.324,0.000
1727534963.508,-56.641,-47.852,24.414,3.906,0.000
1727534963.512,81.543,-41.504,21.484,54.688,0.000
1727534963.516,131.836,-21.973,35.645,72.754,0.000
1727534963.520,85.449,-13.184,45.410,50.781,0.000
1727534963.524,-44.922,-17.090,36.621,-2.930,0.000
1727534963.528,-84.961,-15.625,18.066,-9.766,0.000
1727534963.532,60.547,-18.555,-0.977,44.922,0.000
1727534963.536,128.906,-25.391,-2.930,59.082,0.000
1727534963.540,107.910,-24.414,0.488,39.062,0.000
1727534963.544,0.000,-19.531,4.395,-4.883,0.000
1727534963.547,-90.332,-21.973,9.766,-14.648,0.000
1727534963.551,26.367,-23.926,18.066,34.668,0.000
1727534963.555,118.652,-20.996,14.648,49.805,0.000
1727534963.559,95.215,-18.555,5.371,36.133,0.000
1727534963.563,-2.441,-13.672,-3.418,11.230,0.000
1727534963.567,-85.449,-16.602,-10.742,-13.184,0.000
1727534963.571,25.391,-19.531,8.789,31.738,0.000
1727534963.575,132.324,-17.090,28.320,60.059,0.000
1727534963.579,102.051,-18.555,32.227,48.340,0.000
1727534963.583,15.137,-14.648,33.203,41.992,0.000
1727534963.586,-96.680,-15.625,30.762,-2.930,0.000
1727534963.590,-9.277,-19.531,13.672,22.461,0.000
1727534963.594,110.840,-25.391,0.488,75.684,0.000
1727534963.598,110.352,-18.066,-17.090,66.406,0.000
1727534963.602,23.926,-3.906,-15.137,27.344,0.000
1727534963.606,-108.398,-7.812,-16.113,-35.645,0.000
1727534963.610,-23.438,-18.066,-25.879,-9.277,0.000
1727534963.614,109.863,-25.879,2.441,48.828,0.000
1727534963.618,97.656,-36.133,19.531,41.016,0.000
1727534963.622,20.020,-42.969,4.883,10.254,0.000
1727534963.626,-104.004,-40.039,2.441,-32.227,0.000
1727534963.629,-49.316,-25.879,-5.371,-5.859,0.000
1727534963.633,93.262,-20.508,-22.949,49.316,0.000
1727534963.637,93.262,-28.809,-18.066,48.828,0.000
1727534963.641,28.320,-26.367,-21.973,14.160,0.000
1727534963.645,-86.426,-18.066,-19.531,-27.832,0.000
1727534963.649,-62.012,-13.184,10.254,-12.207,0.000
1727534963.653,83.984,-16.602,30.273,34.180,0.000
1727534963.657,104.492,-14.160,18.066,35.156,0.000
1727534963.661,54.199,-12.207,-26.855,25.391,0.000
1727534963.665,-67.871,-12.695,-51.270,-3.906,0.000
1727534963.668,-83.496,-17.578,-22.461,-10.742,0.000
1727534963.672,67.383,-35.156,-5.859,33.203,0.000
1727534963.676,110.352,-37.598,3.906,35.156,0.000
1727534963.680,61.035,-27.832,17.090,29.785,0.000
1727534963.684,-62.988,-15.625,-6.836,-5.859,0.000
1727534963.688,-111.816,-8.789,-38.086,-31.250,0.000
1727534963.692,28.320,-15.625,-18.066,22.461,0.000
1727534963.696,100.098,-19.043,-32.715,39.551,0.000
1727534963.700,59.082,-32.715,-42.480,23.926,0.000
1727534963.704,-58.594,-44.922,5.371,-9.766,0.000
1727534963.708,-108.887,-32.227,13.184,-36.133,0.000
1727534963.711,29.297,-23.438,6.348,-0.977,0.000
1727534963.715,109.375,-24.902,0.488,29.297,0.000
1727534963.719,67.383,-27.832,-2.930,20.508,0.000
1727534963.723,-40.527,-26.855,-7.324,-1.465,0.000
1727534963.727,-115.723,-21.484,-41.992,-24.414,0.000
1727534963.731,14.648,-31.738,-52.734,-6.348,0.000
1727534963.735,113.770,-46.387,-45.410,32.227,0.000
1727534963.739,81.543,-41.016,-38.086,37.109,0.000
1727534963.743,-17.090,-39.551,-4.883,-12.207,0.000
1727534963.747,-117.188,-38.574,10.742,-51.270,0.000
1727534963.751,-27.832,-37.109,12.207,-2.930,0.000
1727534963.754,88.867,-37.109,7.324,45.898,0.000
1727534963.758,86.914,-41.016,-0.488,45.410,0.000
1727534963.762,-1.465,-45.410,-12.695,18.066,0.000
1727534963.766,-106.934,-38.574,-21.484,-25.391,0.000
1727534963.770,-32.227,-37.598,-35.156,-5.371,0.000
1727534963.774,78.613,-49.316,-66.895,40.527,0.000
1727534963.778,73.242,-50.293,-42.480,37.598,0.000
1727534963.782,-17.578,-43.457,-2.441,1.953,0.000
1727534963.786,-127.441,-49.316,-14.160,-41.992,0.000
1727534963.790,-62.988,-52.734,-17.090,-14.648,0.000
1727534963.793,59.082,-44.434,-3.418,34.180,0.000
1727534963.797,68.848,-38.086,-1.953,35.645,0.000
1727534963.801,2.441,-36.621,-12.207,8.301,0.000
1727534963.805,-120.117,-24.414,-23.438,-38.574,0.000
1727534963.809,-88.867,0.488,-28.809,-27.344,0.000
1727534963.813,64.941,3.906,-44.922,20.020,0.000
1727534963.817,79.102,0.000,-57.617,34.668,0.000
1727534963.821,8.789,-0.488,-37.598,5.859,0.000
1727534963.825,-116.699,-9.277,-11.719,-42.969,0.000
1727534963.829,-121.094,-9.766,-29.785,-44.434,0.000
1727534963.833,40.039,-7.324,-40.039,-1.465,0.000
1727534963.836,76.172,-14.648,-25.391,16.113,0.000
1727534963.840,33.691,-3.418,-7.324,-1.465,0.000
1727534963.844,-78.613,3.418,-14.160,-53.711,0.000
1727534963.848,-113.281,-6.836,-32.227,-61.035,0.000
1727534963.852,22.461,-2.930,-13.184,6.348,0.000
1727534963.856,76.172,-1.953,-4.883,37.598,0.000
1727534963.860,41.992,-6.836,-26.367,11.230,0.000
1727534963.864,-73.730,-11.719,-41.992,-41.992,0.000
1727534963.868,-123.047,-14.648,-21.973,-56.152,0.000
1727534963.872,8.301,-18.066,-6.836,-13.184,0.000
1727534963.876,79.590,-19.043,-35.645,19.043,0.000
1727534963.879,53.223,-19.531,-62.012,38.086,0.000
1727534963.883,-55.176,-23.926,-32.227,-10.742,0.000
1727534963.887,-136.230,-26.855,5.859,-55.664,0.000
1727534963.891,-17.578,-33.691,20.020,-10.742,0.000
1727534963.895,80.078,-34.180,12.207,20.996,0.000
1727534963.899,66.895,-28.320,-21.484,19.043,0.000
1727534963.903,-33.203,-21.484,-39.062,-11.230,0.000
1727534963.907,-126.465,-24.414,-58.594,-48.828,0.000
1727534963.911,-15.137,-27.344,-52.734,-14.160,0.000
1727534963.915,87.891,-26.855,-6.348,24.414,0.000
1727534963.918,68.359,-30.762,-18.066,17.578,0.000
1727534963.922,-23.926,-28.320,-9.766,-18.555,0.000
1727534963.926,-136.230,-24.902,20.508,-57.129,0.000
1727534963.930,-49.805,-29.785,-14.648,-38.574,0.000
1727534963.934,79.102,-32.227,-55.176,-0.488,0.000
1727534963.938,78.613,-35.156,-38.574,20.020,0.000
1727534963.942,-3.906,-35.645,-7.324,-14.160,0.000
1727534963.946,-137.695,-33.203,-25.879,-56.641,0.000
1727534963.950,-62.500,-27.344,-63.477,-9.277,0.000
1727534963.954,70.312,-27.344,-74.219,33.691,0.000
1727534963.958,58.594,-28.320,-28.320,14.648,0.000
1727534963.961,-2.930,-27.344,8.789,-18.555,0.000
1727534963.965,-119.141,-37.109,6.836,-68.359,0.000
1727534963.969,-94.727,-52.734,18.555,-57.129,0.000
1727534963.973,41.504,-57.617,-11.230,-9.766,0.000
1727534963.977,73.242,-53.711,-43.457,7.812,0.000
1727534963.981,9.277,-45.898,-18.555,-9.766,0.000
1727534963.985,-122.070,-46.387,-26.367,-61.035,0.000
1727534963.989,-110.352,-50.781,-59.082,-56.152,0.000
1727534963.993,47.363,-50.293,-56.641,-14.648,0.000
1727534963.997,74.219,-48.828,-33.691,-10.742,0.000
1727534964.000,6.836,-49.805,-13.672,-15.625,0.000
1727534964.004,-104.980,-54.199,-9.766,-47.363,0.000
1727534964.008,-98.145,-44.434,-5.371,-35.645,0.000
1727534964.012,48.828,-41.992,-25.391,27.344,0.000
1727534964.016,76.660,-48.340,-27.832,30.762,0.000
1727534964.020,17.090,-54.199,-7.812,3.418,0.000
1727534964.024,-81.543,-52.734,-41.992,-39.551,0.000
1727534964.028,-119.141,-45.410,-57.129,-44.434,0.000
1727534964.032,2.441,-46.875,-17.578,0.977,0.000
1727534964.036,70.801,-49.316,-3.418,6.836,0.000
1727534964.039,38.574,-48.340,-12.207,-5.371,0.000
1727534964.043,-66.406,-46.875,-7.812,-35.645,0.000
1727534964.047,-140.625,-46.387,4.395,-47.363,0.000
1727534964.051,-7.324,-44.922,3.906,6.348,0.000
1727534964.055,97.656,-41.504,-17.090,40.039,0.000
1727534964.059,73.242,-36.133,-46.875,35.156,0.000
1727534964.063,-23.926,-36.621,-45.410,-6.836,0.000
1727534964.067,-120.605,-34.668,-21.973,-43.457,0.000
1727534964.071,-17.090,-32.227,-20.020,0.000,0.000
1727534964.075,87.402,-31.250,-20.020,31.250,0.000
1727534964.079,73.730,-22.949,-18.555,21.973,0.000
1727534964.082,-26.855,-30.273,-0.488,-11.230,0.000
1727534964.086,-160.156,-41.992,21.973,-62.012,0.000
1727534964.090,-70.801,-38.574,-2.930,-19.531,0.000
1727534964.094,83.008,-22.461,-67.871,42.969,0.000
1727534964.098,77.637,-17.090,-114.258,39.062,0.000
1727534964.102,-29.785,-33.691,-24.902,-4.883,0.000
1727534964.106,-152.344,-41.992,57.129,-62.012,0.000
1727534964.110,-101.562,-33.691,19.531,-69.336,0.000
1727534964.114,43.945,-12.207,-19.531,-20.508,0.000
1727534964.118,88.379,-11.230,-45.898,17.090,0.000
1727534964.122,25.879,-32.715,-20.508,-2.930,0.000
1727534964.125,-107.422,-30.273,10.254,-59.570,0.000
1727534964.129,-93.262,-20.996,8.789,-53.711,0.000
1727534964.133,24.902,-32.715,-12.207,-6.836,0.000
1727534964.137,26.367,-27.832,-82.520,-29.297,0.000
1727534964.141,-32.227,-19.531,-70.801,-43.945,0.000
1727534964.145,-100.586,-34.668,-2.930,-37.109,0.000
1727534964.149,-72.266,-27.832,-87.402,-13.672,0.000
1727534964.153,49.805,-12.695,-119.629,25.391,0.000
1727534964.157,57.617,-31.738,41.504,-3.906,0.000
1727534964.161,-0.977,-57.129,132.812,-28.809,0.000
1727534964.165,-132.324,-51.758,76.660,-67.871,0.000
1727534964.168,-139.160,-48.340,26.855,-53.711,0.000
1727534964.172,18.066,-14.160,-1.953,4.883,0.000
1727534964.176,57.617,-3.906,-78.125,3.906,0.000
1727534964.180,58.105,-63.477,-117.676,23.438,0.000
1727534964.184,-67.383,-69.336,-90.820,-14.648,0.000
1727534964.188,-144.043,-32.227,-38.086,-71.777,0.000
1727534964.192,-33.691,-21.484,48.828,-58.105,0.000
1727534964.196,41.016,-69.336,66.406,-11.719,0.000
1727534964.200,24.902,-106.934,88.379,-8.301,0.000
1727534964.204,-85.938,-64.941,6.348,-38.086,0.000
1727534964.208,-158.203,-47.363,-88.379,-34.180,0.000
1727534964.211,-35.645,-112.305,-65.430,-10.742,0.000
1727534964.215,67.383,-136.719,-30.762,15.625,0.000
1727534964.219,17.578,-126.465,117.676,-12.207,0.000
1727534964.223,-139.160,-197.266,138.184,-97.168,0.000
1727534964.227,-203.125,-313.965,120.605,-109.375,0.000
1727534964.231,-24.902,-328.613,113.770,-31.738,0.000
1727534964.235,50.781,-293.457,51.270,1.953,0.000
1727534964.239,-0.977,-346.191,1.465,-25.391,0.000
1727534964.243,-95.703,-437.988,-13.672,-58.594,0.000
1727534964.247,-193.848,-443.848,-53.223,-72.266,0.000
1727534964.250,-105.469,-429.688,-62.012,-49.316,0.000
1727534964.254,-24.902,-483.398,5.371,-31.250,0.000
1727534964.258,-32.715,-632.812,73.242,-49.316,0.000
1727534964.262,-123.047,-852.539,-32.227,-112.793,0.000
1727534964.266,-207.031,-1000.000,-91.309,-120.605,0.000
1727534964.270,-166.016,-997.070,11.719,-115.723,0.000
1727534964.274,-45.410,-997.559,69.336,-81.055,0.000
1727534964.278,-55.664,-1000.000,40.527,-83.984,0.000
1727534964.282,-182.617,-1000.000,-1.953,-149.414,0.000
1727534964.286,-318.359,-1000.000,-50.293,-223.633,0.000
1727534964.290,-247.559,-1000.000,-96.191,-160.645,0.000
1727534964.294,-54.688,-1000.000,-88.867,-48.828,0.000
1727534964.297,-44.434,-1000.000,-123.535,-62.500,0.000
1727534964.301,-140.137,-1000.000,-113.281,-141.602,0.000
1727534964.305,-327.148,-1000.000,-43.945,-243.652,0.000
1727534964.309,-331.543,-1000.000,-51.758,-247.070,0.000
1727534964.313,-193.359,-1000.000,-141.113,-190.918,0.000
1727534964.317,-160.156,-1000.000,-219.727,-150.391,0.000
1727534964.321,-174.316,-1000.000,-163.574,-141.602,0.000
1727534964.325,-292.480,-1000.000,-63.477,-202.148,0.000
1727534964.329,-300.781,-1000.000,-163.574,-183.105,0.000
1727534964.333,-161.133,-1000.000,-231.445,-124.023,0.000
1727534964.336,-157.227,-1000.000,-74.219,-164.062,0.000
1727534964.340,-259.766,-1000.000,-83.496,-229.492,0.000
1727534964.344,-369.629,-1000.000,-102.051,-272.949,0.000
1727534964.348,-352.539,-1000.000,-104.980,-255.371,0.000
1727534964.352,-190.430,-1000.000,-198.242,-164.551,0.000
1727534964.356,-94.727,-1000.000,-140.625,-95.215,0.000
1727534964.360,-117.676,-1000.000,-74.707,-100.098,0.000
1727534964.364,-241.699,-1000.000,-97.656,-146.973,0.000
1727534964.368,-343.750,-1000.000,-100.586,-205.078,0.000
1727534964.372,-230.957,-1000.000,-129.883,-194.336,0.000
1727534964.375,-98.145,-1000.000,-129.883,-124.023,0.000
1727534964.379,-133.301,-1000.000,-111.328,-124.512,0.000
1727534964.383,-293.945,-1000.000,-156.250,-208.984,0.000
1727534964.387,-315.430,-1000.000,-173.828,-153.809,0.000
1727534964.391,-155.273,-1000.000,-93.262,-97.168,0.000
1727534964.395,-90.820,-1000.000,-63.477,-140.137,0.000
1727534964.399,-135.742,-1000.000,-79.590,-124.023,0.000
1727534964.403,-215.820,-1000.000,-68.848,-123.535,0.000
1727534964.407,-258.301,-1000.000,-49.316,-136.719,0.000
1727534964.411,-147.949,-1000.000,-69.824,-95.703,0.000
1727534964.415,-56.152,-1000.000,-156.738,-67.383,0.000
1727534964.418,-61.523,-1000.000,-149.902,-76.172,0.000
1727534964.422,-160.156,-1000.000,-67.383,-119.629,0.000
1727534964.426,-297.363,-1000.000,-92.773,-159.668,0.000
1727534964.430,-194.824,-1000.000,-89.844,-108.398,0.000
1727534964.434,-50.781,-1000.000,-24.414,-54.199,0.000
1727534964.438,-43.457,-1000.000,-76.172,-73.242,0.000
1727534964.442,-95.215,-1000.000,-109.863,-92.773,0.000
1727534964.446,-249.512,-1000.000,-94.727,-147.461,0.000
1727534964.450,-190.918,-1000.000,-105.957,-109.375,0.000
1727534964.454,0.488,-1000.000,-82.520,-27.344,0.000
1727534964.458,-6.836,-1000.000,-68.359,-44.922,0.000
1727534964.461,-92.285,-1000.000,-56.641,-72.266,0.000
1727534964.465,-210.449,-999.512,-43.457,-122.070,0.000
1727534964.469,-197.266,-1000.000,-49.805,-128.418,0.000
1727534964.473,-37.598,-976.562,-80.566,-46.875,0.000
1727534964.477,17.578,-943.848,-83.984,-3.906,0.000
1727534964.481,-44.434,-924.316,-68.848,-37.109,0.000
1727534964.485,-177.734,-879.883,-82.520,-89.844,0.000
1727534964.489,-186.523,-797.363,-73.730,-86.426,0.000
1727534964.493,-19.531,-781.250,-61.523,-10.742,0.000
1727534964.497,53.223,-773.926,-78.125,15.137,0.000
1727534964.500,-9.766,-698.730,-38.086,-26.367,0.000
1727534964.504,-144.043,-640.625,18.066,-62.500,0.000
1727534964.508,-162.109,-569.824,-10.742,-52.246,0.000
1727534964.512,-14.160,-493.164,-45.410,0.977,0.000
1727534964.516,54.688,-414.062,-59.570,19.043,0.000
1727534964.520,21.973,-375.488,-55.176,9.766,0.000
1727534964.524,-81.543,-340.820,-46.875,-1.953,0.000
1727534964.528,-142.578,-284.668,-35.645,-17.578,0.000
1727534964.532,-35.645,-246.094,-12.695,-2.930,0.000
1727534964.536,63.965,-209.961,-43.457,16.602,0.000
1727534964.540,49.805,-151.855,-72.266,11.719,0.000
1727534964.543,-75.195,-89.844,-49.805,-40.527,0.000
1727534964.547,-190.918,-44.922,-37.598,-79.590,0.000
1727534964.551,-70.801,33.691,-47.363,-39.062,0.000
1727534964.555,47.363,123.535,-66.895,8.301,0.000
1727534964.559,41.504,213.379,-69.824,9.766,0.000
1727534964.563,-56.641,311.035,-73.730,-24.902,0.000
1727534964.567,-160.156,382.812,-77.148,-57.617,0.000
1727534964.571,-64.941,541.016,-57.129,-35.156,0.000
1727534964.575,32.227,786.133,-36.621,0.977,0.000
1727534964.579,37.598,947.754,-51.758,8.789,0.000
1727534964.583,-20.020,968.750,-72.266,-4.883,0.000
1727534964.586,-126.465,963.867,-67.871,-41.016,0.000
1727534964.590,-48.828,968.750,-47.852,13.184,0.000
1727534964.594,93.262,968.262,-18.555,57.129,0.000
1727534964.598,121.582,968.262,-12.207,41.992,0.000
1727534964.602,60.547,968.262,-37.109,35.645,0.000
1727534964.606,-70.312,968.262,-19.043,12.695,0.000
1727534964.610,-18.066,968.262,29.785,36.133,0.000
1727534964.614,122.070,968.262,24.902,79.590,0.000
1727534964.618,123.535,968.262,-9.766,90.820,0.000
1727534964.622,71.777,968.262,-20.020,66.406,0.000
1727534964.625,-37.109,968.262,-19.531,33.203,0.000
1727534964.629,3.906,968.262,-0.977,55.176,0.000
1727534964.633,147.461,968.262,33.691,94.238,0.000
1727534964.637,185.059,968.262,27.832,114.746,0.000
1727534964.641,157.227,967.773,20.996,114.746,0.000
1727534964.645,30.762,968.262,30.762,62.012,0.000
1727534964.649,12.695,968.262,55.664,56.152,0.000
1727534964.653,144.043,968.262,77.148,102.051,0.000
1727534964.657,174.316,968.262,65.918,112.305,0.000
1727534964.661,118.164,968.262,42.969,103.516,0.000
1727534964.665,-1.465,968.262,11.719,54.688,0.000
1727534964.668,-13.672,968.262,20.996,52.246,0.000
1727534964.672,144.531,968.262,41.016,114.258,0.000
1727534964.676,196.289,968.262,49.316,112.793,0.000
1727534964.680,155.273,968.262,32.227,101.074,0.000
1727534964.684,22.461,968.262,40.527,59.082,0.000
1727534964.688,-35.645,968.262,76.660,32.227,0.000
1727534964.692,104.492,968.262,69.336,90.332,0.000
1727534964.696,176.270,968.262,43.945,120.117,0.000
1727534964.700,143.555,968.262,28.320,100.586,0.000
1727534964.704,53.223,968.262,-20.020,64.941,0.000
1727534964.707,-15.625,968.262,-7.324,46.387,0.000
1727534964.711,114.746,968.262,71.289,84.473,0.000
1727534964.715,213.867,968.262,102.539,119.141,0.000
1727534964.719,174.805,968.262,98.145,122.559,0.000
1727534964.723,72.266,968.262,84.961,82.520,0.000
1727534964.727,-26.367,968.262,75.195,49.805,0.000
1727534964.731,85.449,968.262,83.496,96.680,0.000
1727534964.735,211.914,968.262,80.078,139.160,0.000
1727534964.739,197.754,968.262,69.336,132.324,0.000
1727534964.743,103.516,968.262,40.039,96.191,0.000
1727534964.747,8.301,968.262,0.488,71.289,0.000
1727534964.750,90.332,968.262,19.043,110.840,0.000
1727534964.754,197.266,968.262,52.246,135.742,0.000
1727534964.758,182.617,967.773,83.496,116.211,0.000
1727534964.762,88.379,968.262,104.004,95.215,0.000
1727534964.766,-40.039,968.262,97.168,64.941,0.000
1727534964.770,20.996,967.285,80.078,83.984,0.000
1727534964.774,175.781,970.215,46.387,124.512,0.000
1727534964.778,201.660,959.961,17.090,124.512,0.000
1727534964.782,127.441,956.055,13.184,101.562,0.000
1727534964.786,-9.766,960.938,27.832,57.617,0.000
1727534964.789,38.086,940.918,41.016,71.289,0.000
1727534964.793,181.152,916.504,56.641,118.652,0.000
1727534964.797,180.176,878.418,78.613,116.699,0.000
1727534964.801,133.789,837.402,96.680,93.262,0.000
1727534964.805,-2.441,799.316,98.145,52.246,0.000
1727534964.809,-6.348,784.668,74.707,59.570,0.000
1727534964.813,162.109,777.344,41.504,106.934,0.000
1727534964.817,188.477,740.234,28.320,117.188,0.000
1727534964.821,129.395,707.031,39.551,101.074,0.000
1727534964.825,8.789,681.641,22.461,50.781,0.000
1727534964.829,-9.277,643.066,19.043,44.922,0.000
1727534964.832,138.184,612.305,58.594,104.980,0.000
1727534964.836,197.266,585.449,73.730,127.930,0.000
1727534964.840,149.902,554.688,59.082,104.004,0.000
1727534964.844,10.742,522.461,31.250,52.246,0.000
1727534964.848,-47.363,489.746,13.184,30.762,0.000
1727534964.852,98.145,470.215,13.184,83.496,0.000
1727534964.856,191.406,458.984,20.508,122.559,0.000
1727534964.860,152.832,446.777,33.203,100.098,0.000
1727534964.864,28.809,422.363,34.180,43.457,0.000
1727534964.868,-41.504,393.555,30.273,38.086,0.000
1727534964.872,79.102,366.699,34.668,81.543,0.000
1727534964.875,159.180,352.539,24.902,102.051,0.000
1727534964.879,148.438,350.586,21.973,101.074,0.000
1727534964.883,58.105,345.215,26.367,59.082,0.000
1727534964.887,-49.316,361.816,-8.301,6.836,0.000
1727534964.891,74.219,378.906,-14.648,53.711,0.000
1727534964.895,173.340,347.168,39.062,92.773,0.000
1727534964.899,132.812,312.500,70.801,68.848,0.000
1727534964.903,45.898,302.246,60.547,47.363,0.000
1727534964.907,-58.105,279.785,26.367,13.184,0.000
1727534964.911,49.316,272.461,25.391,61.035,0.000
1727534964.914,168.457,296.387,16.113,95.703,0.000
1727534964.918,154.297,286.621,-21.973,74.707,0.000
1727534964.922,89.844,269.531,0.000,61.035,0.000
1727534964.926,-36.621,265.137,7.324,16.113,0.000
1727534964.930,8.301,258.789,-1.953,34.668,0.000
1727534964.934,135.254,257.812,22.461,69.336,0.000
1727534964.938,152.832,259.766,0.488,82.520,0.000
1727534964.942,81.055,256.348,-25.879,80.566,0.000
1727534964.946,-48.340,241.211,12.207,33.691,0.000
1727534964.950,-5.859,229.004,36.133,42.969,0.000
1727534964.954,134.766,226.562,30.273,91.309,0.000
1727534964.957,148.438,222.656,24.902,104.980,0.000
1727534964.961,90.332,216.309,0.488,88.867,0.000
1727534964.965,-22.949,219.238,-40.039,45.410,0.000
1727534964.969,-14.648,200.195,-31.250,50.781,0.000
1727534964.973,113.281,174.805,0.000,104.492,0.000
1727534964.977,132.812,179.688,10.254,92.773,0.000
1727534964.981,99.121,176.270,17.578,50.781,0.000
1727534964.985,-16.602,168.457,17.090,9.766,0.000
1727534964.989,-37.598,166.992,10.254,16.602,0.000
1727534964.993,118.652,169.434,16.113,92.285,0.000
1727534964.997,166.504,168.457,7.324,101.562,0.000
1727534965.000,110.352,161.621,-11.230,84.473,0.000
1727534965.004,-14.648,144.531,1.465,48.340,0.000
1727534965.008,-57.617,146.484,3.906,11.230,0.000
1727534965.012,85.449,184.570,-6.348,55.664,0.000
1727534965.016,154.297,203.613,-26.855,85.938,0.000
1727534965.020,112.305,201.172,-45.410,67.383,0.000
1727534965.024,-7.812,187.500,-22.949,22.461,0.000
1727534965.028,-69.336,185.547,-2.930,17.090,0.000
1727534965.032,64.453,181.641,-10.254,60.059,0.000
1727534965.036,146.973,163.086,-11.719,65.918,0.000
1727534965.039,114.258,146.973,-5.859,54.688,0.000
1727534965.043,18.066,127.441,-6.836,28.809,0.000
1727534965.047,-62.012,123.535,0.977,11.719,0.000
1727534965.051,48.340,138.672,5.859,57.617,0.000
1727534965.055,147.949,149.414,-5.371,86.426,0.000
1727534965.059,117.188,150.879,-15.137,80.078,0.000
1727534965.063,28.320,149.414,-12.695,35.645,0.000
1727534965.067,-68.848,139.160,-5.371,0.488,0.000
1727534965.071,22.461,124.023,-28.809,43.457,0.000
1727534965.075,148.438,110.352,-58.594,73.242,0.000
1727534965.079,142.578,103.516,-46.875,71.777,0.000
1727534965.082,50.293,95.215,-18.555,40.039,0.000
1727534965.086,-63.477,83.008,-1.465,0.488,0.000
1727534965.090,16.113,83.008,0.000,41.016,0.000
1727534965.094,151.855,81.543,-8.789,90.332,0.000
1727534965.098,151.367,78.125,-20.996,85.938,0.000
1727534965.102,68.848,70.801,-10.254,53.711,0.000
1727534965.106,-55.176,48.828,-3.418,-1.465,0.000
1727534965.110,-1.465,37.109,-45.410,32.715,0.000
1727534965.114,145.020,35.645,-64.941,83.984,0.000
1727534965.118,150.879,25.879,-44.922,77.148,0.000
1727534965.121,78.125,12.695,-33.203,52.734,0.000
1727534965.125,-55.664,2.441,-21.484,12.695,0.000
1727534965.129,-37.109,-4.883,1.465,33.203,0.000
1727534965.133,122.070,-3.906,13.184,73.730,0.000
1727534965.137,162.109,0.488,2.930,88.379,0.000
1727534965.141,108.887,-3.418,-4.883,75.684,0.000
1727534965.145,-30.762,-9.277,-17.578,15.625,0.000
1727534965.149,-45.898,-7.324,-34.180,-2.930,0.000
1727534965.153,108.887,-4.883,-50.293,44.434,0.000
1727534965.157,148.926,-8.301,-48.828,52.246,0.000
1727534965.161,94.727,-8.789,-46.387,33.203,0.000
1727534965.164,-33.691,-9.766,-63.965,0.000,0.000
1727534965.168,-78.613,-9.277,-50.781,-4.395,0.000
1727534965.172,68.359,-3.906,-43.457,56.152,0.000
1727534965.176,134.766,-6.836,-43.945,72.754,0.000
1727534965.180,96.191,-16.602,-18.066,49.805,0.000
1727534965.184,2.930,-8.789,-11.719,24.902,0.000
1727534965.188,-52.246,-3.418,-24.902,5.859,0.000
1727534965.192,73.242,-13.184,-22.949,45.410,0.000
1727534965.196,145.996,-19.531,-1.953,76.172,0.000
1727534965.200,116.211,-15.625,-5.859,58.105,0.000
1727534965.203,19.531,-11.719,-62.500,23.926,0.000
1727534965.208,-63.965,-6.836,-63.965,13.672,0.000
1727534965.211,46.875,9.277,-4.395,52.734,0.000
1727534965.215,141.113,15.137,-10.742,78.125,0.000
1727534965.219,115.234,3.906,-36.621,72.754,0.000
1727534965.223,8.301,2.930,-17.090,27.832,0.000
1727534965.227,-89.355,14.648,-27.344,1.953,0.000
1727534965.231,19.043,21.973,-47.363,43.457,0.000
1727534965.235,142.090,18.555,-19.531,68.359,0.000
1727534965.239,132.812,25.879,-6.836,65.918,0.000
1727534965.243,28.320,41.992,-11.230,32.715,0.000
1727534965.247,-83.984,47.363,-14.648,-4.883,0.000
1727534965.251,12.207,50.781,-20.020,28.809,0.000
1727534965.254,138.672,57.617,-16.602,84.473,0.000
1727534965.258,129.395,54.199,-29.297,82.520,0.000
1727534965.262,56.641,41.992,-52.734,42.480,0.000
1727534965.266,-55.176,27.344,-51.270,2.930,0.000
1727534965.270,-4.395,23.926,-37.598,28.320,0.000
1727534965.274,128.906,30.273,-13.672,69.336,0.000
1727534965.278,145.508,35.645,2.441,71.289,0.000
1727534965.282,65.430,30.762,5.859,46.875,0.000
1727534965.286,-75.684,25.879,7.812,-9.766,0.000
1727534965.290,-46.875,25.391,16.602,10.254,0.000
1727534965.294,109.863,37.109,2.441,78.613,0.000
1727534965.297,144.531,51.758,-33.691,73.730,0.000
1727534965.301,82.520,39.551,-15.137,38.574,0.000
1727534965.305,-49.316,24.414,13.184,-3.418,0.000
1727534965.309,-53.223,14.648,0.977,-1.465,0.000
1727534965.313,99.609,22.949,-18.066,48.340,0.000
1727534965.317,129.395,43.457,-12.207,77.148,0.000
1727534965.321,70.801,36.133,-0.488,66.895,0.000
1727534965.325,-33.691,16.602,-7.812,-0.488,0.000
1727534965.329,-62.988,6.836,-11.230,-17.578,0.000
1727534965.333,72.754,3.906,-23.926,52.734,0.000
1727534965.337,141.602,1.465,-46.875,76.172,0.000
1727534965.340,112.305,2.441,-30.273,50.293,0.000
1727534965.344,-27.832,-3.418,-5.371,-6.836,0.000
1727534965.348,-84.961,-5.371,-8.789,-25.391,0.000
1727534965.352,58.105,-8.301,-25.879,27.832,0.000
1727534965.356,124.023,-7.812,-29.785,56.152,0.000
1727534965.360,102.051,-4.883,-14.648,53.223,0.000
1727534965.364,1.953,-4.883,-22.949,11.719,0.000
1727534965.368,-93.262,-4.883,-19.043,-25.879,0.000
1727534965.372,13.184,-25.879,-0.977,9.766,0.000
1727534965.376,110.352,13.184,-37.598,48.828,0.000
1727534965.379,91.797,107.910,-41.504,36.621,0.000
1727534965.383,-17.090,124.512,-17.578,-10.742,0.000
1727534965.387,-117.188,117.676,-24.902,-50.781,0.000
1727534965.391,-19.531,128.418,-17.090,-4.883,0.000
1727534965.395,88.379,126.465,-14.160,28.809,0.000
1727534965.399,81.543,119.629,-46.875,16.113,0.000
1727534965.403,-10.742,109.863,-59.082,-5.371,0.000
1727534965.407,-135.254,91.797,-24.902,-40.527,0.000
1727534965.411,-59.082,82.031,-12.207,-9.277,0.000
1727534965.415,80.078,76.660,-20.996,27.832,0.000
1727534965.419,83.008,66.406,-29.297,6.836,0.000
1727534965.422,5.859,59.082,-47.363,-6.348,0.000
1727534965.426,-113.281,57.129,-72.754,-34.668,0.000
1727534965.430,-62.500,49.805,-52.246,-18.555,0.000
1727534965.434,85.449,41.016,-3.418,34.180,0.000
1727534965.438,103.027,33.203,7.812,28.320,0.000
1727534965.442,26.367,21.484,-12.207,6.348,0.000
1727534965.446,-98.145,17.090,-37.109,-38.086,0.000
1727534965.450,-61.523,13.184,-45.898,-21.973,0.000
1727534965.454,82.520,2.441,-34.180,34.180,0.000
1727534965.458,98.145,-0.977,-14.648,40.039,0.000
1727534965.461,41.016,-10.742,-7.324,12.207,0.000
1727534965.465,-83.008,-16.113,-14.648,-38.086,0.000
1727534965.469,-95.215,-6.348,-38.574,-22.461,0.000
1727534965.473,63.477,2.441,-55.176,32.227,0.000
1727534965.477,117.188,7.324,-33.691,51.270,0.000
1727534965.481,59.082,0.488,-2.441,25.391,0.000
1727534965.485,-71.777,-10.254,14.160,-38.086,0.000
1727534965.489,-100.586,-12.695,13.672,-47.852,0.000
1727534965.493,53.711,-13.672,9.277,10.742,0.000
1727534965.497,95.703,-25.391,-5.859,22.461,0.000
1727534965.500,55.176,-26.367,-28.809,11.719,0.000
1727534965.504,-45.898,-24.902,-32.715,-15.625,0.000
1727534965.508,-112.793,-32.227,-42.969,-44.434,0.000
1727534965.512,27.344,-28.320,-52.246,16.113,0.000
1727534965.516,90.820,-35.645,-53.711,48.340,0.000
1727534965.520,37.598,-56.152,-33.691,11.719,0.000
1727534965.524,-68.848,-65.918,-6.836,-37.598,0.000
1727534965.528,-129.883,-64.453,4.883,-58.105,0.000
1727534965.532,10.742,-58.594,-18.555,-15.137,0.000
1727534965.536,91.797,-56.641,-34.180,16.113,0.000
1727534965.540,60.547,-53.711,-11.719,1.953,0.000
1727534965.543,-42.969,-53.223,-22.949,-46.387,0.000
1727534965.547,-146.484,-56.152,-47.363,-81.055,0.000
1727534965.551,-33.691,-52.734,-49.316,-35.156,0.000
1727534965.555,68.848,-51.270,-39.551,18.066,0.000
1727534965.559,47.363,-58.594,-35.645,2.441,0.000
1727534965.563,-45.410,-62.988,-32.227,-56.641,0.000
1727534965.567,-167.480,-63.477,-30.273,-87.402,0.000
1727534965.571,-72.266,-69.336,-64.453,-50.781,0.000
1727534965.575,56.641,-71.289,-58.105,-14.160,0.000
1727534965.579,43.945,-64.941,-23.926,-16.602,0.000
1727534965.583,-41.992,-70.801,-12.207,-54.199,0.000
1727534965.586,-163.086,-75.195,-9.277,-98.633,0.000
1727534965.590,-93.750,-71.289,-33.203,-56.152,0.000
1727534965.594,48.828,-75.195,-47.363,-0.977,0.000
1727534965.598,44.434,-80.566,-42.969,-11.230,0.000
1727534965.602,-33.691,-75.684,-74.219,-27.344,0.000
1727534965.606,-154.785,-71.777,-89.844,-68.848,0.000
1727534965.610,-107.422,-76.172,-73.730,-65.918,0.000
1727534965.614,35.645,-74.219,-57.129,-15.137,0.000
1727534965.618,42.969,-71.777,-6.836,-7.324,0.000
1727534965.622,-20.508,-75.684,11.230,-36.621,0.000
1727534965.625,-142.090,-53.711,-4.395,-87.402,0.000
1727534965.629,-129.883,-19.043,-23.926,-79.102,0.000
1727534965.633,7.812,-12.695,-46.387,-28.320,0.000
1727534965.637,23.926,-16.113,-55.664,-18.066,0.000
1727534965.641,-20.020,-21.484,-57.129,-46.387,0.000
1727534965.645,-138.184,-28.809,-56.641,-109.375,0.000
1727534965.649,-155.762,-27.832,-61.523,-122.070,0.000
1727534965.653,-15.137,-36.133,-54.688,-56.641,0.000
1727534965.657,27.344,-42.480,-38.574,-36.133,0.000
1727534965.661,-5.371,-40.527,-41.992,-51.270,0.000
1727534965.665,-120.117,-39.062,-64.453,-85.449,0.000
1727534965.668,-157.715,-32.227,-71.777,-110.352,0.000
1727534965.672,-20.508,-33.203,-45.410,-55.664,0.000
1727534965.676,41.992,-40.039,-39.551,-25.391,0.000
1727534965.680,-3.906,-42.969,-44.434,-47.852,0.000
1727534965.684,-126.953,-45.410,-43.457,-96.680,0.000
1727534965.688,-184.570,-37.109,-49.805,-103.027,0.000
1727534965.692,-45.898,-33.203,-30.762,-47.363,0.000
1727534965.696,27.832,-41.992,-17.578,-35.156,0.000
1727534965.700,-18.066,-48.340,-22.461,-50.781,0.000
1727534965.704,-122.070,-53.711,-32.715,-86.914,0.000
1727534965.708,-205.078,-50.781,-51.758,-132.812,0.000
1727534965.711,-78.613,-44.434,-59.082,-85.449,0.000
1727534965.715,35.645,-46.875,-48.340,-44.434,0.000
1727534965.719,8.301,-43.457,-50.781,-60.059,0.000
1727534965.723,-88.379,-46.387,-61.035,-86.426,0.000
1727534965.727,-186.035,-51.270,-51.758,-115.723,0.000
1727534965.731,-91.797,-48.340,-38.574,-75.195,0.000
1727534965.735,25.879,-49.316,-33.203,-42.969,0.000
1727534965.739,10.742,-42.969,-24.902,-52.246,0.000
1727534965.743,-81.055,-37.598,-15.625,-71.777,0.000
1727534965.747,-205.078,-51.270,-38.086,-113.770,0.000
1727534965.751,-118.652,-50.293,-73.242,-92.285,0.000
1727534965.754,26.367,-40.039,-67.383,-46.875,0.000
1727534965.758,23.438,-39.062,-42.480,-44.434,0.000
1727534965.762,-52.246,-34.180,-28.809,-68.359,0.000
1727534965.766,-180.664,-32.227,-38.574,-102.539,0.000
1727534965.770,-128.906,-32.715,-38.086,-71.777,0.000
1727534965.774,24.902,-28.809,-27.832,-25.391,0.000
1727534965.778,37.598,-31.738,-31.738,-35.645,0.000
1727534965.782,-43.945,-38.574,-63.965,-73.242,0.000
1727534965.786,-175.781,-38.086,-91.309,-116.699,0.000
1727534965.790,-153.320,-43.945,-59.570,-108.398,0.000
1727534965.793,3.906,-45.410,-27.832,-61.523,0.000
1727534965.797,29.785,-44.434,-11.230,-44.922,0.000
1727534965.801,-30.762,-49.316,-8.301,-66.895,0.000
1727534965.805,-159.180,-50.293,-19.531,-113.770,0.000
1727534965.809,-163.574,-38.574,-25.879,-100.586,0.000
1727534965.813,-13.672,-28.809,-40.039,-49.316,0.000
1727534965.817,24.902,-27.832,-44.922,-41.016,0.000
1727534965.821,-10.254,-42.480,-42.480,-47.363,0.000
1727534965.825,-129.883,-43.945,-54.688,-90.332,0.000
1727534965.829,-177.734,-28.320,-51.270,-110.840,0.000
1727534965.833,-28.320,-29.785,-50.293,-61.523,0.000
1727534965.836,41.992,-27.832,-58.105,-41.504,0.000
1727534965.840,-5.371,-31.250,-20.996,-54.688,0.000
1727534965.844,-129.883,-38.574,5.371,-98.145,0.000
1727534965.848,-189.453,-33.203,-7.812,-112.793,0.000
1727534965.852,-63.477,-31.738,-29.297,-52.734,0.000
1727534965.856,13.184,-32.715,-46.875,-24.902,0.000
1727534965.860,-3.418,-37.109,-54.199,-37.598,0.000
1727534965.864,-112.793,-53.223,-55.176,-91.309,0.000
1727534965.868,-211.426,-52.246,-28.809,-125.000,0.000
1727534965.872,-78.125,-47.852,-4.395,-73.730,0.000
1727534965.875,22.949,-52.246,-14.160,-48.340,0.000
1727534965.879,-14.160,-44.434,-55.664,-54.199,0.000
1727534965.883,-114.746,-34.180,-61.523,-82.031,0.000
1727534965.887,-214.844,-38.574,-28.809,-118.164,0.000
1727534965.891,-106.934,-42.969,-5.371,-78.613,0.000
1727534965.895,10.254,-39.551,8.301,-45.898,0.000
1727534965.899,-1.953,-38.086,-9.766,-54.688,0.000
1727534965.903,-81.543,-31.250,-56.152,-78.613,0.000
1727534965.907,-196.777,-30.273,-69.336,-116.211,0.000
1727534965.911,-118.652,-36.621,-17.578,-85.938,0.000
1727534965.914,13.184,-36.621,20.996,-51.758,0.000
1727534965.918,4.883,-33.203,4.395,-60.547,0.000
1727534965.922,-67.871,-25.391,-20.508,-75.195,0.000
1727534965.926,-195.312,-21.484,-20.996,-120.117,0.000
1727534965.930,-152.344,-17.578,-9.277,-95.703,0.000
1727534965.934,3.418,-11.719,-12.695,-37.109,0.000
1727534965.938,25.391,-10.742,-21.973,-41.016,0.000
1727534965.942,-58.105,-24.414,-25.879,-73.242,0.000
1727534965.946,-197.754,-26.855,-25.391,-124.512,0.000
1727534965.950,-165.039,-24.902,-22.949,-96.680,0.000
1727534965.954,-13.672,-27.832,-26.855,-37.109,0.000
1727534965.957,14.160,-23.438,-24.902,-42.480,0.000
1727534965.961,-34.668,-24.902,-17.090,-65.430,0.000
1727534965.965,-161.133,-25.879,-25.391,-114.746,0.000
1727534965.969,-160.156,-26.367,-37.109,-109.375,0.000
1727534965.973,-0.488,-20.020,2.441,-57.617,0.000
1727534965.977,44.922,-11.719,26.855,-52.246,0.000
1727534965.981,-7.812,-22.949,8.301,-72.754,0.000
1727534965.985,-141.113,-33.691,-27.344,-105.469,0.000
1727534965.989,-179.199,-25.391,-48.828,-102.051,0.000
1727534965.993,-37.598,-26.855,-24.414,-51.270,0.000
1727534965.997,17.090,-27.344,-4.883,-39.551,0.000
1727534966.000,-16.602,-22.949,3.906,-49.805,0.000
1727534966.004,-136.719,-31.250,10.254,-85.449,0.000
1727534966.008,-191.406,-32.715,4.395,-102.539,0.000
1727534966.012,-49.805,-20.020,-11.230,-59.570,0.000
1727534966.016,27.344,-15.137,-24.902,-38.086,0.000
1727534966.020,-2.930,-22.461,-30.273,-50.293,0.000
1727534966.024,-124.023,-32.227,-24.902,-95.215,0.000
1727534966.028,-207.031,-34.180,-14.648,-117.188,0.000
1727534966.032,-66.895,-36.621,-38.086,-67.871,0.000
1727534966.036,35.156,-29.785,-63.477,-30.273,0.000
1727534966.040,5.859,-20.020,-35.156,-35.645,0.000
1727534966.043,-88.379,-26.855,-4.883,-69.336,0.000
1727534966.047,-193.359,-34.180,1.953,-102.051,0.000
1727534966.051,-83.496,-29.785,11.719,-79.590,0.000
1727534966.055,25.879,-31.738,-3.906,-66.406,0.000
1727534966.059,6.348,-41.016,-23.926,-77.637,0.000
1727534966.063,-79.590,-34.668,-27.832,-97.656,0.000
1727534966.067,-193.848,-32.715,-28.320,-128.906,0.000
1727534966.071,-98.633,-35.645,-28.320,-88.379,0.000
1727534966.075,26.367,-31.738,-50.781,-41.504,0.000
1727534966.079,24.414,-24.414,-67.871,-46.875,0.000
1727534966.082,-52.734,-22.949,-44.922,-69.824,0.000
1727534966.086,-195.312,-26.367,-23.926,-116.699,0.000
1727534966.090,-145.020,-28.809,-21.973,-108.398,0.000
1727534966.094,13.184,-33.691,-28.320,-61.523,0.000
1727534966.098,26.855,-33.203,-30.762,-47.363,0.000
1727534966.102,-44.434,-29.785,-28.809,-68.848,0.000
1727534966.106,-173.340,-34.180,-26.855,-119.629,0.000
1727534966.110,-149.902,-32.227,-47.363,-89.355,0.000
1727534966.114,4.395,-30.273,-53.223,-28.809,0.000
1727534966.118,36.133,-35.156,-16.602,-22.461,0.000
1727534966.122,-24.414,-36.621,1.953,-52.734,0.000
1727534966.125,-150.879,-33.203,-6.836,-103.027,0.000
1727534966.129,-144.531,-32.227,-27.832,-96.680,0.000
1727534966.133,5.859,-39.062,-62.988,-49.316,0.000
1727534966.137,29.297,-41.016,-54.688,-42.480,0.000
1727534966.141,-23.438,-48.340,-20.508,-57.617,0.000
1727534966.145,-137.207,-53.223,-4.883,-109.863,0.000
1727534966.149,-161.621,-43.457,-18.555,-114.258,0.000
1727534966.153,-7.812,-30.762,-28.320,-51.270,0.000
1727534966.157,50.293,-34.668,-8.301,-49.316,0.000
1727534966.161,-2.930,-43.945,-23.926,-77.148,0.000
1727534966.165,-123.047,-43.945,-41.016,-112.305,0.000
1727534966.168,-178.223,-41.992,-20.020,-113.770,0.000
1727534966.172,-41.016,-43.945,-9.277,-56.152,0.000
1727534966.176,31.250,-46.387,-12.695,-39.551,0.000
1727534966.180,5.859,-43.945,1.465,-64.453,0.000
1727534966.184,-107.910,-39.551,3.906,-100.586,0.000
1727534966.188,-195.312,-33.691,-3.906,-112.793,0.000
1727534966.192,-59.082,-29.785,-16.113,-71.289,0.000
1727534966.196,38.086,-40.527,-26.855,-40.039,0.000
1727534966.200,18.066,-49.316,-24.902,-47.852,0.000
1727534966.204,-95.703,-38.086,-15.137,-86.426,0.000
1727534966.207,-187.500,-31.250,-14.160,-113.770,0.000
1727534966.211,-56.152,-35.645,-19.531,-78.613,0.000
1727534966.215,54.199,-34.180,-22.949,-42.480,0.000
1727534966.219,28.809,-33.691,-26.367,-41.016,0.000
1727534966.223,-78.125,-39.551,-23.438,-80.566,0.000
1727534966.227,-187.500,-36.621,-19.043,-121.582,0.000
1727534966.231,-83.496,-31.250,-21.484,-81.543,0.000
1727534966.235,43.457,-35.645,-23.926,-44.922,0.000
1727534966.239,26.367,-37.598,-37.598,-53.711,0.000
1727534966.243,-64.453,-34.668,-35.645,-81.543,0.000
1727534966.246,-180.176,-29.297,-27.344,-124.023,0.000
1727534966.250,-104.980,-28.809,-40.039,-83.984,0.000
1727534966.254,26.855,-34.180,-31.738,-34.668,0.000
1727534966.258,19.531,-36.133,-21.484,-36.621,0.000
1727534966.262,-49.805,-35.645,-43.457,-49.805,0.000
1727534966.266,-165.527,-39.062,-34.668,-94.238,0.000
1727534966.270,-120.605,-48.828,-16.602,-80.078,0.000
1727534966.274,28.320,-47.363,-16.602,-38.086,0.000
1727534966.278,44.434,-39.062,-19.043,-39.062,0.000
1727534966.282,-45.410,-30.273,-38.574,-67.871,0.000
1727534966.286,-181.152,-34.180,-26.855,-118.164,0.000
1727534966.289,-150.391,-44.434,-4.883,-97.656,0.000
1727534966.293,-4.883,-41.016,-1.465,-52.734,0.000
1727534966.297,21.484,-32.715,-6.836,-46.875,0.000
1727534966.301,-19.531,-25.879,-26.367,-44.434,0.000
1727534966.305,-134.277,-28.320,-45.898,-82.031,0.000
1727534966.309,-153.320,-29.297,-41.504,-78.613,0.000
1727534966.313,-16.602,-27.832,-7.324,-27.344,0.000
1727534966.317,25.879,-31.738,4.395,-24.414,0.000
1727534966.321,-10.254,-33.203,-9.277,-42.969,0.000
1727534966.325,-127.930,-34.668,-32.227,-90.820,0.000
1727534966.328,-180.664,-30.273,-23.438,-104.980,0.000
1727534966.332,-44.434,-23.438,-9.766,-56.641,0.000
1727534966.336,32.227,-17.578,-31.738,-36.621,0.000
1727534966.340,9.766,-16.113,-25.391,-44.434,0.000
1727534966.344,-115.723,-21.973,-20.508,-91.797,0.000
1727534966.348,-187.500,-32.715,-20.020,-117.676,0.000
1727534966.352,-46.387,-35.156,-8.789,-70.312,0.000
1727534966.356,31.738,-29.785,-5.371,-42.480,0.000
1727534966.360,-4.883,-27.344,-6.348,-46.387,0.000
1727534966.364,-105.957,-21.973,-27.832,-79.102,0.000
1727534966.368,-186.523,-21.973,-69.336,-107.422,0.000
1727534966.372,-54.688,-20.996,-72.266,-59.570,0.000
1727534966.375,49.805,-21.484,-29.785,-15.625,0.000
1727534966.379,30.273,-26.855,-15.625,-27.832,0.000
1727534966.383,-73.730,-24.414,-12.695,-74.219,0.000
1727534966.387,-185.059,-21.484,-4.395,-109.863,0.000
1727534966.391,-78.613,-27.344,-7.812,-67.871,0.000
1727534966.395,37.598,-32.715,-13.184,-24.414,0.000
1727534966.399,37.598,-23.438,-5.859,-23.438,0.000
1727534966.403,-49.316,-24.414,-5.859,-58.105,0.000
1727534966.407,-171.387,-27.344,-22.461,-98.633,0.000
1727534966.411,-81.055,-29.785,-27.344,-74.707,0.000
1727534966.415,49.805,-36.621,-41.016,-44.434,0.000
1727534966.418,47.363,-36.133,-52.246,-47.852,0.000
1727534966.422,-31.738,-38.574,-45.898,-65.430,0.000
1727534966.426,-155.762,-37.109,-37.109,-103.516,0.000
1727534966.430,-100.098,-29.297,-37.109,-79.590,0.000
1727534966.434,34.668,-26.367,-60.059,-24.902,0.000
1727534966.438,32.715,-37.109,-52.734,-29.297,0.000
1727534966.442,-49.805,-46.387,-2.441,-63.965,0.000
1727534966.446,-176.758,-40.039,4.395,-113.281,0.000
1727534966.450,-140.625,-38.574,-13.184,-101.074,0.000
1727534966.454,16.113,-41.016,-27.832,-46.387,0.000
1727534966.458,34.668,-37.109,-39.062,-34.180,0.000
1727534966.461,-20.508,-38.574,-33.203,-58.594,0.000
1727534966.465,-147.461,-37.598,-30.762,-110.352,0.000
1727534966.469,-169.434,-34.180,-28.320,-107.422,0.000
1727534966.473,-13.184,-30.273,-15.137,-54.199,0.000
1727534966.477,36.621,-28.320,-39.551,-37.109,0.000
1727534966.481,-6.348,-33.691,-51.270,-50.293,0.000
1727534966.485,-131.348,-36.133,-21.484,-94.238,0.000
1727534966.489,-175.781,-36.133,-35.156,-99.609,0.000
1727534966.493,-29.297,-39.551,-45.410,-52.734,0.000
1727534966.497,38.574,-41.992,-18.555,-35.156,0.000
1727534966.500,6.348,-35.645,-12.207,-28.809,0.000
1727534966.504,-107.422,-31.250,-19.531,-65.918,0.000
1727534966.508,-174.316,-33.203,-26.855,-104.492,0.000
1727534966.512,-35.645,-38.574,-23.438,-59.082,0.000
1727534966.516,67.383,-47.852,-9.766,-16.113,0.000
1727534966.520,37.109,-46.875,-14.648,-20.020,0.000
1727534966.524,-122.559,-38.086,-32.715,-82.520,0.000
1727534966.528,-226.562,-36.133,-38.086,-122.559,0.000
1727534966.532,-84.473,-39.551,-47.852,-60.059,0.000
1727534966.536,30.273,-32.715,-52.734,-29.297,0.000
1727534966.540,9.277,-28.320,-41.992,-54.688,0.000
1727534966.543,-94.727,-31.250,-42.969,-92.285,0.000
1727534966.547,-198.242,-28.320,-54.688,-120.117,0.000
1727534966.551,-84.961,-26.855,-51.270,-96.680,0.000
1727534966.555,38.574,-35.645,-43.945,-72.754,0.000
1727534966.559,14.160,-49.805,-45.898,-59.082,0.000
1727534966.563,-85.938,-47.852,-49.805,-85.938,0.000
1727534966.567,-200.684,-39.062,-48.340,-119.629,0.000
1727534966.571,-105.469,-37.598,-48.828,-76.660,0.000
1727534966.575,29.785,-39.062,-70.801,-33.691,0.000
1727534966.579,28.809,-34.180,-71.289,-38.574,0.000
1727534966.582,-33.691,-29.785,-39.551,-66.895,0.000
1727534966.586,-166.016,-40.039,-15.137,-113.281,0.000
1727534966.590,-119.141,-55.664,-15.625,-86.426,0.000
1727534966.594,32.227,-54.199,-37.109,-34.180,0.000
1727534966.598,42.969,-46.875,-46.875,-37.598,0.000
1727534966.602,-34.180,-44.434,-55.176,-66.895,0.000
1727534966.606,-168.945,-44.434,-62.012,-115.234,0.000
1727534966.610,-138.672,-42.480,-46.875,-101.074,0.000
1727534966.614,16.113,-41.992,-36.133,-41.992,0.000
1727534966.618,44.922,-34.668,-28.320,-29.297,0.000
1727534966.622,-16.113,-43.457,-5.859,-52.246,0.000
1727534966.625,-153.320,-63.965,-15.137,-110.352,0.000
1727534966.629,-158.203,-58.105,-37.109,-101.562,0.000
1727534966.633,-10.742,-45.410,-47.363,-52.734,0.000
1727534966.637,24.902,-41.504,-58.594,-42.969,0.000
1727534966.641,-33.691,-47.852,-63.477,-50.781,0.000
1727534966.645,-162.109,-55.176,-81.055,-106.445,0.000
1727534966.649,-178.223,-60.059,-87.891,-108.398,0.000
1727534966.653,-29.785,-52.246,-38.574,-42.969,0.000
1727534966.657,31.250,-40.039,3.418,-26.855,0.000
1727534966.661,-4.883,-41.992,-1.465,-40.039,0.000
1727534966.664,-126.953,-51.270,-23.438,-83.496,0.000
1727534966.668,-194.336,-51.758,-36.621,-96.191,0.000
1727534966.672,-66.406,-49.805,-32.715,-50.293,0.000
1727534966.676,14.648,-43.945,-58.105,-43.457,0.000
1727534966.680,9.277,-36.621,-88.379,-42.480,0.000
1727534966.684,-107.422,-45.410,-57.617,-90.332,0.000
1727534966.688,-197.754,-59.082,-24.902,-137.207,0.000
1727534966.692,-64.941,-71.289,-13.672,-81.055,0.000
1727534966.696,21.484,-66.895,-15.625,-53.223,0.000
1727534966.700,-9.766,-57.617,-20.996,-60.059,0.000
1727534966.703,-114.258,-63.965,-28.809,-90.332,0.000
1727534966.707,-208.008,-70.312,-40.527,-125.000,0.000
1727534966.711,-85.938,-59.082,-56.152,-79.590,0.000
1727534966.715,29.785,-55.176,-63.965,-37.109,0.000
1727534966.719,20.020,-52.734,-48.828,-41.016,0.000
1727534966.723,-63.477,-43.945,-51.270,-66.895,0.000
1727534966.727,-185.059,-48.828,-61.035,-106.445,0.000
1727534966.731,-112.793,-62.012,-42.969,-77.637,0.000
1727534966.735,12.695,-65.430,-18.066,-37.109,0.000
1727534966.739,27.832,-70.312,-14.648,-32.715,0.000
1727534966.743,-47.363,-71.777,-33.203,-53.223,0.000
1727534966.747,-198.730,-60.547,-48.340,-125.488,0.000
1727534966.750,-142.578,-52.246,-38.086,-117.676,0.000
1727534966.754,20.996,-44.922,-27.344,-48.828,0.000
1727534966.758,37.109,-38.086,-30.762,-35.156,0.000
1727534966.762,-39.062,-39.062,-40.527,-67.383,0.000
1727534966.766,-159.180,-41.504,-43.457,-106.445,0.000
1727534966.770,-122.559,-41.504,-40.039,-77.637,0.000
1727534966.774,15.625,-49.316,-49.316,-29.297,0.000
1727534966.778,26.367,-50.293,-66.895,-28.809,0.000
1727534966.782,-36.621,-41.992,-71.289,-61.523,0.000
1727534966.786,-160.645,-40.039,-60.547,-108.887,0.000
1727534966.789,-161.621,-47.852,-57.129,-102.539,0.000
1727534966.793,-11.719,-49.316,-49.805,-54.199,0.000
1727534966.797,29.297,-45.410,-54.688,-32.227,0.000
1727534966.801,-20.020,-46.387,-76.660,-48.340,0.000
1727534966.805,-150.391,-49.316,-60.059,-100.098,0.000
1727534966.809,-173.340,-50.293,-33.691,-101.562,0.000
1727534966.813,-20.996,-49.805,-30.273,-46.387,0.000
1727534966.817,39.062,-40.527,-27.344,-27.344,0.000
1727534966.821,6.348,-40.039,-54.688,-40.527,0.000
1727534966.825,-125.488,-51.758,-65.918,-90.332,0.000
1727534966.829,-176.758,-59.082,-37.109,-105.957,0.000
1727534966.832,-34.180,-62.500,-23.926,-50.293,0.000
1727534966.836,33.691,-63.477,-23.926,-30.273,0.000
1727534966.840,6.348,-62.988,-28.320,-42.969,0.000
1727534966.844,-113.770,-59.570,-37.598,-74.707,0.000
1727534966.848,-200.195,-58.105,-45.898,-105.469,0.000
1727534966.852,-58.594,-57.617,-38.086,-66.895,0.000
1727534966.856,50.293,-51.270,-29.297,-24.902,0.000
1727534966.860,19.531,-53.223,-45.410,-24.414,0.000
1727534966.864,-95.215,-63.965,-48.340,-74.707,0.000
1727534966.868,-190.918,-72.754,-27.832,-112.793,0.000
1727534966.872,-64.941,-72.754,-49.805,-68.359,0.000
1727534966.875,46.875,-64.453,-72.754,-22.461,0.000
1727534966.879,20.508,-60.059,-53.711,-26.855,0.000
1727534966.883,-84.961,-56.641,-33.691,-73.730,0.000
1727534966.887,-184.082,-50.293,-35.645,-107.910,0.000
1727534966.891,-65.918,-50.293,-44.922,-69.824,0.000
1727534966.895,52.734,-53.223,-49.316,-21.973,0.000
1727534966.899,32.715,-54.199,-39.551,-25.391,0.000
1727534966.903,-69.824,-58.105,-25.391,-67.871,0.000
1727534966.907,-194.336,-60.547,-37.598,-109.375,0.000
1727534966.911,-115.234,-61.035,-47.363,-82.031,0.000
1727534966.914,17.090,-58.594,-40.527,-32.715,0.000
1727534966.918,18.555,-54.199,-60.547,-28.809,0.000
1727534966.922,-48.828,-51.758,-62.012,-61.523,0.000
1727534966.926,-164.551,-56.641,-33.203,-106.934,0.000
1727534966.930,-127.441,-63.477,-33.691,-105.469,0.000
1727534966.934,10.254,-58.105,-46.875,-53.711,0.000
1727534966.938,37.109,-50.781,-41.504,-39.551,0.000
1727534966.942,-20.508,-49.805,-35.645,-61.035,0.000
1727534966.946,-151.367,-48.340,-37.109,-109.375,0.000
1727534966.950,-155.762,-49.805,-46.875,-102.051,0.000
1727534966.954,-16.113,-47.852,-61.035,-39.551,0.000
1727534966.957,20.508,-48.828,-62.012,-29.297,0.000
1727534966.961,-25.391,-50.293,-63.477,-44.922,0.000
1727534966.965,-146.973,-51.758,-41.016,-92.285,0.000
1727534966.969,-157.715,-55.176,-19.043,-96.191,0.000
1727534966.973,-6.836,-58.594,-30.762,-47.852,0.000
1727534966.977,46.875,-55.176,-30.273,-38.086,0.000
1727534966.981,-0.488,-52.246,-30.762,-48.828,0.000
1727534966.985,-139.160,-62.988,-39.551,-94.238,0.000
1727534966.989,-170.898,-63.477,-40.039,-103.027,0.000
1727534966.993,-13.672,-49.316,-49.805,-44.434,0.000
1727534966.996,41.016,-46.387,-64.941,-30.273,0.000
1727534967.000,-0.488,-47.852,-65.918,-42.969,0.000
1727534967.004,-120.117,-47.363,-45.410,-74.707,0.000
1727534967.008,-186.523,-46.875,-28.809,-87.891,0.000
1727534967.012,-33.691,-44.922,-28.320,-25.879,0.000
1727534967.016,66.895,-45.410,-26.855,7.812,0.000
1727534967.020,56.641,-37.109,-33.203,7.812,0.000
1727534967.024,-58.105,-28.320,-42.969,-31.738,0.000
1727534967.028,-177.246,-39.551,-35.645,-82.031,0.000
1727534967.032,-60.547,-50.293,-21.484,-46.875,0.000
1727534967.035,56.641,-43.945,-22.461,-14.160,0.000
1727534967.039,31.250,-41.504,-41.992,-34.668,0.000
1727534967.043,-62.988,-45.898,-48.340,-63.477,0.000
1727534967.047,-165.039,-44.922,-42.480,-93.750,0.000
1727534967.051,-77.637,-42.969,-38.574,-63.477,0.000
1727534967.055,51.758,-41.016,-34.180,-6.348,0.000
1727534967.059,60.547,-39.551,-52.734,2.441,0.000
1727534967.063,-43.457,-40.527,-71.777,-32.715,0.000
1727534967.067,-178.711,-36.621,-62.500,-82.031,0.000
1727534967.071,-97.656,-40.039,-51.270,-59.082,0.000
1727534967.075,37.598,-43.945,-49.805,-12.207,0.000
1727534967.078,45.410,-35.645,-53.223,-19.531,0.000
1727534967.082,-34.668,-37.109,-51.758,-49.805,0.000
1727534967.086,-157.715,-37.109,-65.430,-90.820,0.000
1727534967.090,-110.840,-30.762,-75.195,-65.918,0.000
1727534967.094,18.066,-32.715,-65.918,-12.695,0.000
1727534967.098,35.645,-35.156,-50.781,-9.766,0.000
1727534967.102,-37.109,-43.945,-26.855,-40.527,0.000
1727534967.106,-160.645,-43.457,-34.668,-94.727,0.000
1727534967.110,-137.207,-41.992,-50.293,-85.938,0.000
1727534967.114,8.789,-44.922,-41.992,-23.926,0.000
1727534967.118,43.945,-36.621,-30.273,-2.930,0.000
1727534967.121,-22.461,-35.645,-40.039,-30.762,0.000
1727534967.125,-153.320,-38.086,-49.316,-80.078,0.000
1727534967.129,-144.043,-40.039,-36.621,-76.172,0.000
1727534967.133,4.395,-38.086,-33.691,-29.785,0.000
1727534967.137,54.688,-25.391,-27.344,-10.254,0.000
1727534967.141,17.090,-29.785,-51.758,-24.902,0.000
1727534967.145,-105.957,-37.598,-95.703,-64.941,0.000
1727534967.149,-142.090,-36.133,-85.938,-62.012,0.000
1727534967.153,0.000,-49.316,-35.645,-12.695,0.000
1727534967.157,67.383,-59.570,-9.766,-8.789,0.000
1727534967.161,32.227,-46.875,-13.184,-20.508,0.000
1727534967.164,-86.426,-29.297,-21.484,-60.547,0.000
1727534967.168,-157.715,-30.273,-32.715,-89.844,0.000
1727534967.172,-24.414,-33.691,-21.973,-25.879,0.000
1727534967.176,76.172,-24.902,-49.316,15.137,0.000
1727534967.180,43.945,-30.762,-63.477,4.395,0.000
1727534967.184,-87.891,-42.969,-32.715,-42.969,0.000
1727534967.188,-171.875,-43.945,-47.852,-74.219,0.000
1727534967.192,-45.898,-47.852,-43.457,-36.621,0.000
1727534967.196,41.992,-50.781,-21.973,-14.160,0.000
1727534967.200,26.855,-45.410,-34.180,-22.949,0.000
1727534967.204,-75.684,-45.410,-39.551,-58.594,0.000
1727534967.207,-181.641,-52.734,-33.691,-86.914,0.000
1727534967.211,-76.172,-58.105,-34.668,-44.434,0.000
1727534967.215,24.414,-53.223,-20.020,-22.461,0.000
1727534967.219,11.719,-44.922,-8.301,-23.438,0.000
1727534967.223,-65.430,-40.527,-32.227,-51.758,0.000
1727534967.227,-166.504,-30.273,-47.852,-102.539,0.000
1727534967.231,-77.148,-37.109,-41.016,-67.871,0.000
1727534967.235,44.922,-47.852,-29.785,-35.156,0.000
1727534967.239,33.203,-45.410,-23.438,-41.504,0.000
1727534967.243,-59.570,-46.875,-37.109,-61.035,0.000
1727534967.246,-182.129,-41.504,-58.594,-99.609,0.000
1727534967.250,-104.004,-35.645,-33.691,-57.129,0.000
1727534967.254,50.293,-40.527,-37.109,1.465,0.000
1727534967.258,47.363,-44.434,-58.105,-16.113,0.000
1727534967.262,-38.574,-42.480,-25.391,-48.340,0.000
1727534967.266,-162.598,-43.945,-11.230,-91.309,0.000
1727534967.270,-134.277,-47.363,-21.484,-74.707,0.000
1727534967.274,14.160,-43.457,-24.414,-12.695,0.000
1727534967.278,47.852,-41.504,-57.129,-3.418,0.000
1727534967.282,-20.020,-46.875,-93.750,-26.367,0.000
1727534967.286,-155.273,-58.105,-64.941,-80.566,0.000
1727534967.289,-142.090,-48.340,-26.367,-76.172,0.000
1727534967.293,15.137,-38.086,-19.531,-23.438,0.000
1727534967.297,47.363,-47.852,-31.250,-18.066,0.000
1727534967.301,1.465,-47.852,-41.016,-41.016,0.000
1727534967.305,-132.812,-49.316,-29.297,-97.168,0.000
1727534967.309,-170.898,-50.293,-20.508,-97.656,0.000
1727534967.313,-11.230,-46.875,-44.434,-34.180,0.000
1727534967.317,40.527,-41.992,-76.660,-7.812,0.000
1727534967.321,-9.766,-44.922,-58.594,-22.949,0.000
1727534967.325,-129.395,-57.129,-21.484,-81.055,0.000
1727534967.328,-183.105,-61.035,-22.461,-103.027,0.000
1727534967.332,-41.504,-50.293,-15.137,-43.945,0.000
1727534967.336,25.879,-48.828,-10.254,-28.809,0.000
1727534967.340,-2.441,-47.852,-24.902,-49.805,0.000
1727534967.344,-113.281,-41.992,-44.434,-75.684,0.000
1727534967.348,-186.035,-44.434,-69.336,-99.121,0.000
1727534967.352,-49.316,-41.992,-73.730,-55.664,0.000
1727534967.356,40.039,-42.969,-49.316,-20.996,0.000
1727534967.360,2.930,-57.617,-16.113,-36.621,0.000
1727534967.364,-115.234,-71.777,-13.672,-82.031,0.000
1727534967.368,-194.336,-62.988,-56.152,-106.934,0.000
1727534967.371,-68.359,-45.898,-67.383,-50.781,0.000
1727534967.375,36.621,-42.969,-58.594,-4.395,0.000
1727534967.379,26.367,-43.945,-56.152,-11.719,0.000
1727534967.383,-78.613,-53.223,-12.695,-64.941,0.000
1727534967.387,-195.801,-59.082,5.859,-106.934,0.000
1727534967.391,-83.008,-56.641,-3.906,-56.152,0.000
1727534967.395,46.875,-53.711,-12.207,-17.578,0.000
1727534967.399,23.926,-49.805,-31.738,-25.879,0.000
1727534967.403,-63.477,-46.875,-88.379,-47.852,0.000
1727534967.407,-172.852,-44.922,-86.914,-86.426,0.000
1727534967.410,-102.051,-56.152,-20.020,-73.242,0.000
1727534967.414,30.273,-65.430,-3.418,-30.762,0.000
1727534967.418,33.203,-59.570,-31.250,-22.949,0.000
1727534967.422,-45.898,-50.293,-37.598,-54.199,0.000
1727534967.426,-176.758,-45.410,-24.902,-105.469,0.000
1727534967.430,-132.812,-55.664,-12.695,-83.008,0.000
1727534967.434,12.207,-54.199,-31.250,-26.855,0.000
1727534967.438,35.156,-45.898,-100.586,-10.742,0.000
1727534967.442,-19.043,-52.246,-83.496,-40.039,0.000
1727534967.446,-139.648,-49.316,-9.277,-93.262,0.000
1727534967.449,-138.672,-52.246,15.137,-84.961,0.000
1727534967.453,-0.977,-62.012,0.000,-39.062,0.000
1727534967.457,49.316,-56.152,-22.461,-17.578,0.000
1727534967.461,5.371,-57.129,-28.809,-27.344,0.000
1727534967.465,-134.766,-62.012,-34.668,-80.566,0.000
1727534967.469,-148.438,-62.012,-60.059,-87.891,0.000
1727534967.473,23.926,-51.270,-73.242,-19.531,0.000
1727534967.477,68.848,-48.828,-29.785,-1.465,0.000
1727534967.481,17.578,-55.664,-14.160,-35.645,0.000
1727534967.485,-99.121,-51.758,-18.555,-80.566,0.000
1727534967.489,-144.531,-52.734,-13.184,-75.195,0.000
1727534967.492,-8.301,-60.547,-41.016,-20.020,0.000
1727534967.496,52.246,-66.895,-26.855,-7.324,0.000
1727534967.500,24.414,-69.336,-47.363,-24.902,0.000
1727534967.504,-66.406,-52.734,-145.020,-37.109,0.000
1727534967.508,-126.465,-43.945,-137.207,-42.480,0.000
1727534967.512,-21.484,-58.594,-10.254,-33.203,0.000
1727534967.516,54.199,-63.965,66.406,-11.230,0.000
1727534967.520,26.367,-65.430,44.434,-9.766,0.000
1727534967.524,-97.656,-64.941,-3.418,-52.246,0.000
1727534967.528,-171.875,-53.711,-36.133,-70.312,0.000
1727534967.532,-24.414,-38.086,-91.309,-16.602,0.000
1727534967.535,88.379,-14.648,-130.371,32.227,0.000
1727534967.539,41.992,-34.668,-44.434,9.277,0.000
1727534967.543,-77.148,-80.566,53.711,-60.547,0.000
1727534967.547,-169.922,-81.055,23.438,-80.566,0.000
1727534967.551,-69.824,-62.500,-13.184,-36.621,0.000
1727534967.555,37.598,-55.664,8.789,-18.066,0.000
1727534967.559,35.156,-49.805,-5.859,-20.508,0.000
1727534967.563,-50.781,-50.781,-57.129,-44.434,0.000
1727534967.567,-176.758,-53.223,-61.035,-88.379,0.000
1727534967.571,-96.680,-53.223,-16.113,-55.664,0.000
1727534967.575,34.180,-62.500,8.789,-8.789,0.000
1727534967.579,29.297,-60.059,-15.625,-20.996,0.000
1727534967.582,-62.500,-32.715,-67.383,-47.363,0.000
1727534967.586,-170.898,-6.836,-110.352,-67.871,0.000
1727534967.590,-120.605,-35.156,-38.086,-73.730,0.000
1727534967.594,-13.184,-56.641,30.762,-73.242,0.000
1727534967.598,31.738,-62.012,-0.488,-41.016,0.000
1727534967.602,-31.250,-62.012,-3.418,-62.012,0.000
1727534967.606,-207.520,-61.035,33.203,-144.531,0.000
1727534967.610,-179.199,-76.660,17.090,-118.652,0.000
1727534967.614,23.438,-49.805,-41.992,-17.578,0.000
1727534967.618,70.801,-40.527,-55.176,27.344,0.000
1727534967.622,6.348,-66.895,-62.012,1.465,0.000
1727534967.625,-116.211,-77.148,-72.266,-43.457,0.000
1727534967.629,-127.930,-84.473,-68.359,-47.852,0.000
1727534967.633,-32.227,-62.012,23.438,-56.152,0.000
1727534967.637,-66.895,-69.824,100.586,-119.629,0.000
1727534967.641,-87.402,-93.750,55.664,-109.863,0.000
1727534967.645,-140.625,-73.730,0.977,-89.355,0.000
1727534967.649,-144.531,-98.633,-98.633,-58.594,0.000
1727534967.653,-22.949,-117.676,-104.980,-13.184,0.000
1727534967.657,18.066,-135.254,-18.555,-13.672,0.000
1727534967.661,-39.551,-126.953,88.867,-53.223,0.000
1727534967.664,-218.750,-163.086,114.258,-131.836,0.000
1727534967.668,-262.695,-291.992,68.848,-128.906,0.000
1727534967.672,-120.117,-348.633,130.371,-83.008,0.000
1727534967.676,-50.781,-362.793,123.047,-86.426,0.000
1727534967.680,-27.344,-416.504,39.062,-65.430,0.000
1727534967.684,-95.215,-419.434,79.102,-48.340,0.000
1727534967.688,-192.383,-427.246,166.504,-76.660,0.000
1727534967.692,-99.121,-469.238,110.352,-67.383,0.000
1727534967.696,25.391,-531.250,58.105,-27.832,0.000
1727534967.700,0.488,-580.078,53.223,-30.762,0.000
1727534967.704,-129.395,-578.125,13.672,-75.195,0.000
1727534967.707,-198.242,-640.137,111.328,-88.379,0.000
1727534967.711,-63.965,-691.406,191.895,-34.668,0.000
1727534967.715,15.625,-684.570,127.930,-36.621,0.000
1727534967.719,16.602,-771.484,70.312,-17.578,0.000
1727534967.723,-50.781,-854.980,30.762,-9.277,0.000
1727534967.727,-178.223,-904.297,45.898,-73.730,0.000
1727534967.731,-107.422,-919.922,-10.254,-63.477,0.000
1727534967.735,17.578,-966.797,-15.137,-10.742,0.000
1727534967.739,20.996,-1000.000,185.547,-2.930,0.000
1727534967.743,-61.035,-998.047,216.309,-53.223,0.000
1727534967.746,-187.988,-1000.000,150.879,-100.098,0.000
1727534967.750,-107.910,-1000.000,5.371,-56.641,0.000
1727534967.754,77.637,-1000.000,-67.871,35.645,0.000
1727534967.758,53.711,-1000.000,115.234,13.672,0.000
1727534967.762,-27.832,-1000.000,140.137,-23.926,0.000
1727534967.766,-157.715,-1000.000,63.965,-81.543,0.000
1727534967.770,-136.230,-1000.000,67.383,-90.332,0.000
1727534967.774,26.855,-1000.000,-19.043,-19.531,0.000
1727534967.778,48.340,-1000.000,-53.711,-2.930,0.000
1727534967.782,-3.418,-1000.000,43.945,-9.766,0.000
1727534967.785,-137.207,-1000.000,31.250,-59.082,0.000
1727534967.789,-177.246,-1000.000,40.039,-83.984,0.000
1727534967.793,-26.855,-1000.000,116.211,-27.344,0.000
1727534967.797,35.156,-1000.000,121.582,8.789,0.000
1727534967.801,-27.344,-1000.000,82.031,-8.301,0.000
1727534967.805,-150.391,-1000.000,57.129,-58.105,0.000
1727534967.809,-176.270,-1000.000,46.387,-67.871,0.000
1727534967.813,-8.301,-1000.000,-48.340,-3.418,0.000
1727534967.817,93.262,-1000.000,-70.801,43.945,0.000
1727534967.821,31.738,-1000.000,46.387,9.766,0.000
1727534967.825,-140.137,-1000.000,37.109,-86.426,0.000
1727534967.828,-191.895,-1000.000,20.996,-95.703,0.000
1727534967.832,-44.434,-1000.000,64.453,-35.156,0.000
1727534967.836,37.109,-1000.000,30.762,-7.324,0.000
1727534967.840,10.254,-1000.000,-15.137,-5.371,0.000
1727534967.844,-85.938,-1000.000,12.695,-20.020,0.000
1727534967.848,-140.137,-1000.000,41.992,-27.344,0.000
1727534967.852,-57.129,-1000.000,76.660,-20.020,0.000
1727534967.856,30.762,-1000.000,55.176,4.395,0.000
1727534967.860,39.551,-1000.000,18.066,19.531,0.000
1727534967.864,-59.570,-1000.000,-19.531,-27.832,0.000
1727534967.868,-206.055,-1000.000,-22.461,-115.723,0.000
1727534967.871,-119.629,-1000.000,34.668,-85.449,0.000
1727534967.875,34.668,-1000.000,59.082,-2.930,0.000
1727534967.879,36.133,-1000.000,40.039,18.555,0.000
1727534967.883,-74.707,-1000.000,0.000,-23.926,0.000
1727534967.887,-203.125,-1000.000,-20.996,-74.219,0.000
1727534967.891,-92.773,-1000.000,-46.387,-24.414,0.000
1727534967.895,53.223,-1000.000,-89.844,20.020,0.000
1727534967.899,21.973,-1000.000,-85.449,1.465,0.000
1727534967.903,-53.223,-1000.000,-11.719,-2.930,0.000
1727534967.907,-157.227,-1000.000,37.598,-50.293,0.000
1727534967.911,-129.883,-1000.000,36.133,-64.941,0.000
1727534967.914,20.020,-1000.000,28.320,-13.184,0.000
1727534967.918,71.777,-1000.000,7.812,13.672,0.000
1727534967.922,1.465,-1000.000,-33.691,-11.230,0.000
1727534967.926,-145.508,-1000.000,-20.508,-69.336,0.000
1727534967.930,-105.469,-1000.000,-5.371,-42.480,0.000
1727534967.934,65.430,-1000.000,-11.719,31.250,0.000
1727534967.938,82.520,-998.535,7.324,34.180,0.000
1727534967.942,-9.766,-1000.000,2.441,-24.902,0.000
1727534967.946,-148.438,-977.539,-53.223,-71.777,0.000
1727534967.950,-110.352,-909.180,-41.992,-29.785,0.000
1727534967.954,59.082,-866.699,9.277,26.855,0.000
1727534967.957,97.656,-811.523,25.391,41.504,0.000
1727534967.961,32.715,-750.000,-0.977,17.090,0.000
1727534967.965,-102.051,-709.473,-27.832,-26.367,0.000
1727534967.969,-108.887,-636.719,-29.297,-29.785,0.000
1727534967.973,45.898,-572.754,-22.461,23.926,0.000
1727534967.977,60.059,-484.863,-4.883,33.203,0.000
1727534967.981,-2.930,-393.066,-20.996,-9.277,0.000
1727534967.985,-88.379,-369.141,-37.598,-47.363,0.000
1727534967.989,-114.746,-327.148,-7.324,-42.969,0.000
1727534967.993,27.832,-268.555,1.953,15.137,0.000
1727534967.996,88.379,-226.562,-23.926,29.785,0.000
1727534968.000,43.457,-185.059,-36.133,15.625,0.000
1727534968.004,-79.590,-163.086,-26.855,-28.809,0.000
1727534968.008,-158.691,-142.090,-47.852,-71.289,0.000
1727534968.012,-20.508,-114.746,-63.477,-20.020,0.000
1727534968.016,68.359,-83.496,-23.926,31.738,0.000
1727534968.020,53.223,-34.180,1.953,23.438,0.000
1727534968.024,-47.363,13.184,-15.137,-36.133,0.000
1727534968.028,-162.109,69.824,-33.691,-78.613,0.000
1727534968.032,-34.668,104.492,-41.016,-28.320,0.000
1727534968.036,97.656,126.465,-66.895,21.973,0.000
1727534968.039,86.914,149.902,-86.914,29.297,0.000
1727534968.043,-22.949,178.223,-59.570,-15.137,0.000
1727534968.047,-127.930,267.090,-30.273,-45.898,0.000
1727534968.051,-16.602,321.289,-13.672,-1.953,0.000
1727534968.055,100.586,383.301,-1.953,20.996,0.000
1727534968.059,83.984,519.531,-29.785,17.090,0.000
1727534968.063,-9.766,735.840,-64.941,-3.418,0.000
1727534968.067,-132.812,939.453,-59.570,-59.082,0.000
1727534968.071,-58.594,970.215,-50.781,-33.691,0.000
1727534968.075,74.219,962.891,-48.828,36.133,0.000
1727534968.078,86.914,969.238,-25.391,41.992,0.000
1727534968.082,12.695,968.262,-0.977,-6.348,0.000
1727534968.086,-120.117,967.773,-6.348,-63.477,0.000
1727534968.090,-78.613,968.262,-9.766,-40.527,0.000
1727534968.094,57.129,968.262,-8.789,6.836,0.000
1727534968.098,69.824,968.262,-20.508,-0.488,0.000
1727534968.102,12.695,968.262,-23.438,-19.531,0.000
1727534968.106,-102.539,968.262,-12.695,-42.969,0.000
1727534968.110,-84.473,968.262,-21.484,-22.949,0.000
1727534968.114,66.406,968.262,-51.758,20.996,0.000
1727534968.118,89.355,968.262,-64.453,20.020,0.000
1727534968.121,13.184,968.262,-55.664,-9.277,0.000
1727534968.125,-124.512,968.262,-60.059,-49.805,0.000
1727534968.129,-125.488,967.773,-52.246,-40.039,0.000
1727534968.133,31.738,968.262,-44.922,3.418,0.000
1727534968.137,66.406,968.262,-47.852,10.742,0.000
1727534968.141,16.602,968.262,-41.992,-6.836,0.000
1727534968.145,-106.934,968.262,-44.434,-62.988,0.000
1727534968.149,-146.973,968.262,-41.504,-79.102,0.000
1727534968.153,0.000,968.262,-18.555,-20.508,0.000
1727534968.157,56.641,968.262,-37.109,7.812,0.000
1727534968.160,29.297,968.262,-75.195,1.953,0.000
1727534968.164,-85.449,968.262,-45.898,-41.504,0.000
1727534968.168,-174.805,968.262,-22.461,-79.590,0.000
1727534968.172,-41.016,968.262,-41.016,-44.922,0.000
1727534968.176,43.457,968.262,-50.293,-17.090,0.000
1727534968.180,16.113,968.262,-40.527,-14.160,0.000
1727534968.184,-84.961,968.262,-45.898,-34.668,0.000
1727534968.188,-158.691,968.262,-62.012,-69.336,0.000
1727534968.192,-37.109,968.262,-65.430,-33.203,0.000
1727534968.196,60.059,968.262,-48.340,9.277,0.000
1727534968.199,59.082,968.262,-38.086,2.930,0.000
1727534968.203,-41.992,968.262,-42.969,-30.273,0.000
1727534968.207,-155.273,968.262,-65.430,-54.199,0.000
1727534968.211,-31.250,968.262,-84.473,-6.348,0.000
1727534968.215,94.238,968.262,-89.844,38.574,0.000
1727534968.219,65.430,968.262,-49.316,16.113,0.000
1727534968.223,-49.316,968.262,0.488,-24.902,0.000
1727534968.227,-169.922,968.262,-13.672,-45.410,0.000
1727534968.231,-75.195,968.262,-45.898,-15.625,0.000
1727534968.235,50.293,968.262,-57.617,13.184,0.000
1727534968.239,56.641,965.820,-74.707,17.090,0.000
1727534968.243,-10.254,972.168,-57.617,3.906,0.000
1727534968.246,-136.230,937.500,-33.203,-51.758,0.000
1727534968.250,-82.031,866.699,-37.109,-53.711,0.000
1727534968.254,51.270,855.957,-22.461,2.930,0.000
1727534968.258,48.340,854.492,-27.832,4.395,0.000
1727534968.262,-10.742,826.172,-30.762,-30.762,0.000
1727534968.266,-134.766,809.570,-57.617,-78.613,0.000
1727534968.270,-103.516,772.461,-62.988,-71.777,0.000
1727534968.274,44.922,714.844,-42.480,-22.461,0.000
1727534968.278,63.477,683.105,-57.129,-7.324,0.000
1727534968.282,3.906,661.133,-63.477,-17.578,0.000
1727534968.285,-138.184,631.348,-60.059,-57.617,0.000
1727534968.289,-146.973,632.812,-37.598,-56.152,0.000
1727534968.293,8.789,622.559,-23.926,-10.742,0.000
1727534968.297,67.871,587.402,-29.297,8.789,0.000
1727534968.301,8.789,564.453,-49.805,-5.371,0.000
1727534968.305,-128.906,543.457,-59.082,-60.547,0.000
1727534968.309,-150.879,522.949,-46.387,-62.012,0.000
1727534968.313,3.418,515.137,-55.664,3.418,0.000
1727534968.317,75.195,500.000,-72.266,29.785,0.000
1727534968.321,29.785,469.727,-85.449,11.230,0.000
1727534968.325,-109.375,441.406,-86.914,-42.480,0.000
1727534968.328,-158.691,423.340,-44.922,-53.223,0.000
1727534968.332,7.324,393.066,-3.906,2.441,0.000
1727534968.336,77.637,395.020,-2.930,21.973,0.000
1727534968.340,33.203,414.062,-32.227,-0.977,0.000
1727534968.344,-85.938,400.391,-39.062,-53.223,0.000
1727534968.348,-152.832,379.395,-45.898,-71.777,0.000
1727534968.352,-3.906,375.488,-65.430,-24.414,0.000
1727534968.356,84.961,386.719,-52.246,11.230,0.000
1727534968.360,53.711,398.438,-49.805,2.930,0.000
1727534968.364,-50.293,411.621,-42.969,-45.898,0.000
1727534968.368,-152.832,400.391,-25.391,-74.219,0.000
1727534968.371,-39.551,393.066,-33.691,-20.508,0.000
1727534968.375,74.707,401.367,-35.156,22.461,0.000
1727534968.379,47.363,384.277,-36.621,7.324,0.000
1727534968.383,-41.504,366.699,-45.898,-27.832,0.000
1727534968.387,-141.602,345.215,-77.637,-69.336,0.000
1727534968.391,-52.734,315.918,-97.168,-37.109,0.000
1727534968.395,72.754,297.363,-49.805,23.438,0.000
1727534968.399,73.242,270.508,-32.227,17.090,0.000
1727534968.403,-16.113,240.723,-45.410,-21.973,0.000
1727534968.407,-148.926,229.980,-30.273,-66.895,0.000
1727534968.411,-85.449,232.422,-28.809,-51.270,0.000
1727534968.414,62.500,228.027,-36.621,-11.719,0.000
1727534968.418,67.871,211.426,-32.715,-10.742,0.000
1727534968.422,-20.020,187.012,-32.227,-25.879,0.000
1727534968.426,-153.320,163.086,-43.457,-65.430,0.000
1727534968.430,-91.797,148.926,-59.082,-50.781,0.000
1727534968.434,56.641,141.602,-61.035,-2.441,0.000
1727534968.438,63.477,135.254,-69.824,2.930,0.000
1727534968.442,12.207,119.629,-75.195,-22.461,0.000
1727534968.446,-120.605,98.633,-51.758,-85.938,0.000
1727534968.450,-122.070,75.684,-40.527,-72.266,0.000
1727534968.453,20.508,50.781,-30.762,-21.973,0.000
1727534968.457,54.199,48.340,-29.785,-27.344,0.000
1727534968.461,15.137,45.898,-43.945,-36.621,0.000
1727534968.465,-107.422,41.992,-54.199,-83.008,0.000
1727534968.469,-122.559,37.598,-60.059,-83.008,0.000
1727534968.473,37.109,28.809,-45.410,-15.625,0.000
1727534968.477,91.309,38.086,-36.133,-6.348,0.000
1727534968.481,40.527,44.434,-41.992,-42.969,0.000
1727534968.485,-92.285,35.645,-39.062,-93.750,0.000
1727534968.489,-143.066,20.508,-43.457,-110.840,0.000
1727534968.492,6.836,21.973,-93.262,-53.711,0.000
1727534968.496,75.684,36.621,-108.887,-25.391,0.000
1727534968.500,24.902,33.691,-48.340,-54.199,0.000
1727534968.504,-97.168,23.926,-8.789,-111.816,0.000
1727534968.508,-158.691,26.367,-9.766,-128.418,0.000
1727534968.512,-7.812,35.156,-24.414,-49.316,0.000
1727534968.516,80.566,33.691,-26.855,-17.578,0.000
1727534968.520,36.621,22.461,-25.879,-47.852,0.000
1727534968.524,-93.750,33.203,-36.621,-82.031,0.000
1727534968.528,-171.875,44.922,-81.055,-89.844,0.000
1727534968.532,-36.133,30.273,-92.773,-40.039,0.000
1727534968.535,70.801,42.480,-33.203,-14.648,0.000
1727534968.539,52.734,51.758,-32.715,-27.832,0.000
1727534968.543,-50.293,50.781,-47.852,-68.848,0.000
1727534968.547,-148.926,57.617,-23.438,-99.121,0.000
1727534968.551,-53.223,48.340,-25.391,-59.570,0.000
1727534968.555,58.594,45.410,-47.363,-27.344,0.000
1727534968.559,56.152,51.758,-42.969,-27.832,0.000
1727534968.563,-21.973,60.547,-49.805,-56.152,0.000
1727534968.567,-152.344,60.059,-65.918,-102.051,0.000
1727534968.571,-82.031,54.199,-28.809,-73.242,0.000
1727534968.574,66.895,51.270,-6.836,-22.949,0.000
1727534968.578,71.777,53.223,-40.039,-24.902,0.000
1727534968.582,1.465,58.594,-53.223,-34.668,0.000
1727534968.586,-149.414,55.176,-23.926,-90.332,0.000
1727534968.590,-126.465,52.246,-14.160,-96.191,0.000
1727534968.594,19.043,52.734,-38.574,-41.016,0.000
1727534968.598,29.297,51.270,-64.941,-41.992,0.000
1727534968.602,-28.320,45.898,-47.852,-66.895,0.000
1727534968.606,-153.320,40.527,-32.227,-94.727,0.000
1727534968.610,-124.023,38.086,-41.504,-73.242,0.000
