timestamps,TP9,AF7,AF8,TP10,Right AUX
1727535085.617,-31.738,-44.434,-1.465,-28.809,0.000
1727535085.621,-133.301,-48.828,9.277,-57.617,0.000
1727535085.625,-79.102,-41.016,4.395,-40.039,0.000
1727535085.629,47.363,-34.668,-11.719,-10.254,0.000
1727535085.633,55.176,-27.832,-40.039,-9.766,0.000
1727535085.637,-8.301,-28.320,-30.273,-16.602,0.000
1727535085.641,-106.445,-38.574,-6.348,-36.621,0.000
1727535085.645,-75.684,-36.621,-13.672,-28.320,0.000
1727535085.648,28.809,-29.785,-20.996,-3.906,0.000
1727535085.652,61.523,-19.043,-26.367,9.766,0.000
1727535085.656,18.066,-22.461,-34.668,-12.207,0.000
1727535085.660,-93.750,-37.109,-52.734,-66.406,0.000
1727535085.664,-86.914,-33.691,-29.297,-59.570,0.000
1727535085.668,15.625,-33.203,9.277,-10.742,0.000
1727535085.672,36.621,-39.062,2.930,-4.395,0.000
1727535085.676,-5.371,-40.527,-1.465,-23.926,0.000
1727535085.680,-96.680,-40.527,-19.043,-54.199,0.000
1727535085.684,-106.445,-42.969,-55.176,-63.477,0.000
1727535085.688,-3.906,-42.480,-49.805,-28.809,0.000
1727535085.691,39.062,-33.203,-34.180,-12.695,0.000
1727535085.695,13.672,-28.320,-23.438,-17.578,0.000
1727535085.699,-87.891,-30.273,-15.137,-39.551,0.000
1727535085.703,-123.535,-33.203,-21.973,-43.457,0.000
1727535085.707,-1.953,-38.574,-20.020,-11.230,0.000
1727535085.711,52.734,-37.598,-59.082,-7.324,0.000
1727535085.715,17.578,-35.156,-57.617,-15.625,0.000
1727535085.719,-73.730,-35.645,2.930,-38.574,0.000
1727535085.723,-118.652,-30.762,23.438,-50.781,0.000
1727535085.727,-9.277,-36.621,-4.395,-12.207,0.000
1727535085.731,60.059,-37.109,-21.484,15.625,0.000
1727535085.734,40.039,-32.227,-11.719,2.930,0.000
1727535085.738,-51.270,-36.621,0.488,-31.250,0.000
1727535085.742,-118.652,-36.133,9.766,-33.691,0.000
1727535085.746,-11.719,-27.344,-4.883,-3.418,0.000
1727535085.750,62.988,-22.949,-40.527,-8.301,0.000
1727535085.754,34.668,-20.020,-54.199,-18.555,0.000
1727535085.758,-37.598,-25.879,-50.781,-41.992,0.000
1727535085.762,-115.234,-29.297,-34.180,-60.059,0.000
1727535085.766,-46.875,-23.926,-0.488,-30.273,0.000
1727535085.770,37.598,-24.414,-5.371,-1.953,0.000
1727535085.774,45.410,-18.555,-55.176,2.930,0.000
1727535085.777,2.441,-15.137,-57.129,-10.254,0.000
1727535085.781,-91.309,-20.996,-32.227,-41.992,0.000
1727535085.785,-44.922,-23.926,-13.184,-27.832,0.000
1727535085.789,54.199,-25.391,1.465,0.977,0.000
1727535085.793,50.293,-29.297,-15.625,-5.859,0.000
1727535085.797,-19.043,-35.645,-28.809,-25.391,0.000
1727535085.801,-104.492,-36.621,-39.551,-41.016,0.000
1727535085.805,-59.082,-35.156,-19.531,-26.367,0.000
1727535085.809,29.297,-49.316,-0.488,-17.090,0.000
1727535085.813,38.086,-59.082,3.418,-24.414,0.000
1727535085.816,-11.719,-53.711,19.531,-29.297,0.000
1727535085.820,-110.840,-47.363,11.719,-54.688,0.000
1727535085.824,-81.543,-42.480,-6.836,-41.504,0.000
1727535085.828,35.645,-41.992,-21.484,-10.254,0.000
1727535085.832,50.293,-41.992,-36.621,-0.977,0.000
1727535085.836,-19.531,-43.945,-25.391,-14.648,0.000
1727535085.840,-119.141,-40.039,-35.156,-56.152,0.000
1727535085.844,-97.656,-38.574,-59.570,-51.270,0.000
1727535085.848,11.719,-39.062,-18.555,-25.879,0.000
1727535085.852,28.809,-40.039,7.812,-25.879,0.000
1727535085.856,-0.977,-42.969,-36.621,-27.344,0.000
1727535085.859,-88.379,-37.109,-59.082,-53.711,0.000
1727535085.863,-111.816,-41.016,-27.344,-64.941,0.000
1727535085.867,3.906,-39.551,-24.414,-20.996,0.000
1727535085.871,41.992,-31.250,-40.527,-4.395,0.000
1727535085.875,6.348,-34.180,-44.922,-16.113,0.000
1727535085.879,-71.289,-30.762,-36.133,-34.668,0.000
1727535085.883,-109.863,-40.527,-17.090,-50.781,0.000
1727535085.887,-12.695,-53.711,3.418,-23.438,0.000
1727535085.891,38.574,-42.480,28.809,-13.672,0.000
1727535085.895,11.719,-40.039,17.090,-32.715,0.000
1727535085.898,-77.148,-43.945,-23.926,-51.270,0.000
1727535085.902,-130.371,-41.016,-47.852,-54.199,0.000
1727535085.906,-26.855,-41.016,-38.574,-15.625,0.000
1727535085.910,47.363,-43.457,-19.043,8.301,0.000
1727535085.914,32.715,-42.480,-8.301,0.977,0.000
1727535085.918,-53.223,-40.039,-20.508,-23.438,0.000
1727535085.922,-126.465,-39.551,-22.461,-30.762,0.000
1727535085.926,-39.062,-40.039,-17.578,1.465,0.000
1727535085.930,41.016,-48.340,-35.156,-2.930,0.000
1727535085.934,30.273,-53.223,-31.250,-26.367,0.000
1727535085.937,-51.758,-41.992,-23.438,-54.688,0.000
1727535085.941,-137.207,-32.227,-40.527,-64.453,0.000
1727535085.945,-57.617,-38.086,-28.320,-27.344,0.000
1727535085.949,46.387,-34.180,-5.371,-3.418,0.000
1727535085.953,47.363,-25.391,-40.039,4.883,0.000
1727535085.957,-21.484,-32.715,-38.086,-20.020,0.000
1727535085.961,-118.164,-40.527,6.836,-58.594,0.000
1727535085.965,-61.523,-39.551,18.066,-25.879,0.000
1727535085.969,44.434,-33.203,-18.066,13.672,0.000
1727535085.973,51.758,-31.738,-53.711,2.441,0.000
1727535085.976,-2.441,-33.203,-37.598,-24.414,0.000
1727535085.980,-108.398,-31.250,-23.438,-47.852,0.000
1727535085.984,-74.219,-27.344,-11.230,-32.227,0.000
1727535085.988,47.363,-25.391,-1.953,-5.859,0.000
1727535085.992,51.270,-32.227,-9.766,-12.207,0.000
1727535085.996,-11.230,-43.945,-13.672,-30.273,0.000
1727535086.000,-104.004,-48.340,-5.859,-48.340,0.000
1727535086.004,-82.031,-48.828,-11.230,-32.715,0.000
1727535086.008,32.227,-47.363,-15.137,5.859,0.000
1727535086.012,46.875,-40.527,-6.836,14.160,0.000
1727535086.016,-8.301,-37.598,-24.414,-16.602,0.000
1727535086.020,-106.445,-32.227,-48.828,-62.500,0.000
1727535086.023,-108.398,-33.691,-57.617,-58.105,0.000
1727535086.027,9.277,-41.016,-47.363,-14.160,0.000
1727535086.031,40.039,-40.039,-31.738,-13.672,0.000
1727535086.035,-7.812,-41.504,-30.762,-34.668,0.000
1727535086.039,-110.840,-44.922,-12.695,-64.453,0.000
1727535086.043,-127.930,-38.574,-21.484,-62.988,0.000
1727535086.047,-6.348,-37.109,-42.480,-18.555,0.000
1727535086.051,36.621,-47.852,-24.902,-20.020,0.000
1727535086.055,6.836,-48.340,-9.766,-32.227,0.000
1727535086.059,-85.938,-44.922,-2.930,-49.805,0.000
1727535086.063,-133.789,-49.316,-18.066,-67.383,0.000
1727535086.066,-11.719,-44.434,-25.879,-30.762,0.000
1727535086.070,59.570,-39.062,-16.113,-6.348,0.000
1727535086.074,41.504,-33.203,-44.434,-14.648,0.000
1727535086.078,-42.480,-28.809,-86.914,-34.180,0.000
1727535086.082,-120.117,-42.969,-52.246,-50.781,0.000
1727535086.086,-29.297,-41.016,-16.113,-32.227,0.000
1727535086.090,55.176,-30.273,-41.016,-8.789,0.000
1727535086.094,30.273,-24.902,-19.043,-16.602,0.000
1727535086.098,-59.570,-27.832,43.945,-47.852,0.000
1727535086.102,-132.324,-36.621,46.875,-65.918,0.000
1727535086.106,-53.711,-37.109,6.836,-40.527,0.000
1727535086.109,40.527,-28.320,-46.875,-10.742,0.000
1727535086.113,40.039,-20.508,-71.777,1.953,0.000
1727535086.117,-44.434,-29.785,-20.996,-22.461,0.000
1727535086.121,-122.070,-32.227,7.324,-46.875,0.000
1727535086.125,-38.574,-23.926,-38.086,-17.578,0.000
1727535086.129,63.477,-17.090,-84.961,12.695,0.000
1727535086.133,60.547,-21.973,-52.246,7.812,0.000
1727535086.137,-11.230,-34.180,-35.156,-16.602,0.000
1727535086.141,-110.352,-39.551,-68.848,-46.387,0.000
1727535086.145,-63.477,-41.992,-25.879,-36.133,0.000
1727535086.149,43.457,-43.457,51.270,-8.789,0.000
1727535086.152,36.133,-41.992,41.992,-16.602,0.000
1727535086.156,-9.766,-17.578,-36.621,-20.020,0.000
1727535086.160,-75.684,5.371,-114.258,-6.836,0.000
1727535086.164,-54.199,-15.625,-101.562,-2.930,0.000
1727535086.168,15.625,-47.852,52.734,-23.926,0.000
1727535086.172,20.508,-60.059,108.398,-41.016,0.000
1727535086.176,-20.996,-57.129,69.824,-47.852,0.000
1727535086.180,-105.469,-29.297,-48.340,-44.434,0.000
1727535086.184,-73.242,-22.949,-48.828,-18.066,0.000
1727535086.188,18.555,-56.152,97.168,-16.602,0.000
1727535086.191,17.090,-63.965,116.211,-44.922,0.000
1727535086.195,-11.719,-52.246,78.613,-52.734,0.000
1727535086.199,-89.355,-43.457,57.617,-57.617,0.000
1727535086.203,-95.215,-31.250,34.180,-45.898,0.000
1727535086.207,10.254,-27.832,1.465,0.000,0.000
1727535086.211,49.316,-22.461,-3.418,11.230,0.000
1727535086.215,28.320,-8.789,34.668,-4.883,0.000
1727535086.219,-58.594,-5.371,3.418,-22.949,0.000
1727535086.223,-93.262,-10.742,-38.574,-14.648,0.000
1727535086.227,-0.977,-19.043,30.762,-5.859,0.000
1727535086.231,45.898,-16.602,4.395,-13.184,0.000
1727535086.235,11.719,-0.488,-31.250,-23.926,0.000
1727535086.238,-74.219,-7.812,45.410,-50.293,0.000
1727535086.242,-85.938,-15.625,87.402,-30.762,0.000
1727535086.246,22.949,-20.996,104.980,2.441,0.000
1727535086.250,54.199,-33.203,103.027,-14.160,0.000
1727535086.254,12.695,-18.066,82.520,-39.551,0.000
1727535086.258,-55.176,-1.953,73.242,-54.688,0.000
1727535086.262,-112.305,0.488,53.711,-58.594,0.000
1727535086.266,6.348,15.625,17.090,11.230,0.000
1727535086.270,100.098,21.484,-27.832,57.617,0.000
1727535086.274,57.617,17.578,-21.973,36.621,0.000
1727535086.277,-48.828,4.395,41.016,-19.043,0.000
1727535086.281,-147.949,6.348,73.242,-71.777,0.000
1727535086.285,-78.613,18.066,55.176,-52.246,0.000
1727535086.289,27.344,14.648,64.941,-13.184,0.000
1727535086.293,40.527,14.160,6.348,2.930,0.000
1727535086.297,-15.137,30.762,-65.918,-16.113,0.000
1727535086.301,-88.379,29.297,68.359,-41.504,0.000
1727535086.305,-37.109,-5.859,167.969,-22.461,0.000
1727535086.309,43.945,-7.812,58.594,9.277,0.000
1727535086.313,42.480,7.812,10.742,13.672,0.000
1727535086.317,-13.672,20.508,-3.418,1.953,0.000
1727535086.320,-94.727,8.301,22.949,-27.832,0.000
1727535086.324,-122.559,-31.250,125.000,-104.492,0.000
1727535086.328,-30.273,-39.551,72.754,-89.355,0.000
1727535086.332,41.992,-23.438,0.000,-12.207,0.000
1727535086.336,-3.906,-67.871,-41.992,-2.441,0.000
1727535086.340,-92.285,-100.098,44.434,-19.043,0.000
1727535086.344,-58.594,-89.355,160.156,-23.926,0.000
1727535086.348,33.203,-148.438,167.969,-2.441,0.000
1727535086.352,34.180,-196.289,115.723,-9.766,0.000
1727535086.356,-21.484,-188.477,37.598,-49.805,0.000
1727535086.359,-156.738,-220.703,13.184,-111.328,0.000
1727535086.363,-137.207,-312.012,25.879,-90.820,0.000
1727535086.367,-64.941,-369.141,-69.824,-83.008,0.000
1727535086.371,-35.645,-422.852,-90.820,-76.660,0.000
1727535086.375,28.320,-498.535,-35.156,9.766,0.000
1727535086.379,-136.719,-597.168,-12.695,-60.059,0.000
1727535086.383,-254.395,-760.254,124.512,-141.602,0.000
1727535086.387,-117.188,-920.410,20.996,-110.840,0.000
1727535086.391,-73.242,-989.746,-170.898,-124.023,0.000
1727535086.395,-113.281,-1000.000,-23.926,-149.414,0.000
1727535086.399,-125.488,-998.535,176.270,-88.379,0.000
1727535086.402,-120.117,-1000.000,-48.340,-32.227,0.000
1727535086.406,-57.129,-1000.000,-64.453,-59.570,0.000
1727535086.410,-57.617,-1000.000,132.812,-109.863,0.000
1727535086.414,-136.719,-1000.000,66.895,-147.461,0.000
1727535086.418,-268.555,-1000.000,60.059,-207.031,0.000
1727535086.422,-270.020,-1000.000,53.223,-179.688,0.000
1727535086.426,-170.410,-1000.000,-53.223,-151.367,0.000
1727535086.430,-150.879,-1000.000,-140.625,-177.734,0.000
1727535086.434,-167.480,-1000.000,-125.000,-177.246,0.000
1727535086.438,-271.484,-1000.000,-121.582,-207.031,0.000
1727535086.442,-370.117,-1000.000,-87.402,-233.398,0.000
1727535086.445,-298.340,-1000.000,-76.660,-233.398,0.000
1727535086.449,-190.918,-1000.000,13.672,-215.820,0.000
1727535086.453,-174.805,-1000.000,22.461,-199.219,0.000
1727535086.457,-254.395,-1000.000,-94.727,-220.703,0.000
1727535086.461,-325.684,-1000.000,-81.055,-224.609,0.000
1727535086.465,-289.062,-1000.000,-12.207,-224.121,0.000
1727535086.469,-168.457,-1000.000,28.320,-169.434,0.000
1727535086.473,-150.879,-1000.000,-36.133,-155.762,0.000
1727535086.477,-217.285,-1000.000,-61.035,-161.133,0.000
1727535086.481,-283.203,-1000.000,-15.137,-179.199,0.000
1727535086.485,-240.234,-1000.000,-22.949,-208.496,0.000
1727535086.488,-145.508,-1000.000,-72.266,-187.500,0.000
1727535086.492,-114.746,-1000.000,-27.344,-131.348,0.000
1727535086.496,-168.457,-1000.000,-52.246,-126.465,0.000
1727535086.500,-215.332,-1000.000,-72.266,-128.906,0.000
1727535086.504,-164.551,-1000.000,21.484,-104.004,0.000
1727535086.508,-112.305,-1000.000,99.609,-104.004,0.000
1727535086.512,-89.355,-1000.000,91.797,-102.051,0.000
1727535086.516,-77.637,-1000.000,-4.883,-62.012,0.000
1727535086.520,-221.191,-1000.000,-64.941,-121.094,0.000
1727535086.524,-203.125,-1000.000,18.066,-137.695,0.000
1727535086.528,-48.828,-1000.000,58.105,-74.707,0.000
1727535086.531,-67.383,-1000.000,-7.324,-83.496,0.000
1727535086.535,-171.875,-1000.000,-32.227,-119.629,0.000
1727535086.539,-262.207,-1000.000,-10.742,-124.512,0.000
1727535086.543,-213.379,-1000.000,3.906,-84.473,0.000
1727535086.547,-95.215,-1000.000,12.207,-74.707,0.000
1727535086.551,-42.969,-1000.000,23.926,-81.055,0.000
1727535086.555,-78.613,-1000.000,-56.152,-101.562,0.000
1727535086.559,-142.090,-1000.000,-83.008,-106.445,0.000
1727535086.563,-137.695,-1000.000,68.359,-83.496,0.000
1727535086.567,-79.102,-1000.000,119.629,-87.891,0.000
1727535086.570,-40.039,-1000.000,23.438,-81.055,0.000
1727535086.574,-55.176,-1000.000,-37.109,-78.125,0.000
1727535086.578,-137.695,-1000.000,7.324,-93.262,0.000
1727535086.582,-146.973,-1000.000,76.172,-62.988,0.000
1727535086.586,-63.965,-1000.000,57.617,-41.016,0.000
1727535086.590,-20.020,-1000.000,-2.441,-43.945,0.000
1727535086.594,-16.113,-1000.000,-25.391,-40.527,0.000
1727535086.598,-75.684,-1000.000,26.367,-45.898,0.000
1727535086.602,-145.020,-1000.000,23.438,-61.035,0.000
1727535086.606,-52.734,-1000.000,16.113,-33.203,0.000
1727535086.610,3.906,-999.023,62.500,-48.828,0.000
1727535086.613,-21.973,-1000.000,85.938,-64.941,0.000
1727535086.617,-87.891,-998.535,57.129,-52.734,0.000
1727535086.621,-161.621,-945.312,12.695,-67.383,0.000
1727535086.625,-70.312,-877.441,56.641,-40.527,0.000
1727535086.629,-3.906,-810.547,79.102,-34.180,0.000
1727535086.633,-19.043,-736.328,45.410,-57.129,0.000
1727535086.637,-66.895,-628.418,42.969,-53.223,0.000
1727535086.641,-133.301,-524.902,59.570,-50.293,0.000
1727535086.645,-50.293,-462.402,86.914,-24.902,0.000
1727535086.649,42.969,-363.281,97.168,-8.301,0.000
1727535086.652,45.410,-335.449,81.055,3.906,0.000
1727535086.656,6.348,-355.469,96.191,15.625,0.000
1727535086.660,-94.727,-301.758,125.000,-7.324,0.000
1727535086.664,-68.848,-181.152,125.000,-18.555,0.000
1727535086.668,35.156,-62.500,123.047,0.488,0.000
1727535086.672,60.059,-26.367,94.727,37.109,0.000
1727535086.676,24.414,29.785,80.078,35.645,0.000
1727535086.680,-79.102,125.488,120.117,-10.254,0.000
1727535086.684,-36.133,120.605,155.273,16.113,0.000
1727535086.688,75.684,118.652,164.062,41.504,0.000
1727535086.691,87.402,167.969,136.719,31.250,0.000
1727535086.695,41.504,216.309,98.633,27.832,0.000
1727535086.699,-59.082,308.594,56.152,11.719,0.000
1727535086.703,-39.062,278.809,64.453,26.855,0.000
1727535086.707,72.266,185.059,116.699,53.223,0.000
1727535086.711,84.473,180.664,130.859,49.805,0.000
1727535086.715,28.320,189.453,129.883,29.297,0.000
1727535086.719,-54.199,220.703,102.051,-17.578,0.000
1727535086.723,-32.227,292.969,63.477,-24.902,0.000
1727535086.727,89.355,350.586,78.613,33.203,0.000
1727535086.730,112.305,464.844,130.371,39.062,0.000
1727535086.734,62.500,628.906,146.973,16.602,0.000
1727535086.738,-33.691,768.066,124.023,-6.348,0.000
1727535086.742,-59.570,923.340,100.098,-6.836,0.000
1727535086.746,63.477,973.145,86.914,31.738,0.000
1727535086.750,122.559,963.379,70.801,44.922,0.000
1727535086.754,84.473,968.750,52.246,27.832,0.000
1727535086.758,-21.484,968.262,30.273,-8.301,0.000
1727535086.762,-50.781,968.262,20.508,-11.719,0.000
1727535086.766,78.125,968.262,41.504,37.109,0.000
1727535086.770,117.188,968.262,64.453,40.039,0.000
1727535086.774,64.453,968.262,73.730,4.395,0.000
1727535086.777,-19.043,968.262,34.668,-17.090,0.000
1727535086.781,-53.711,968.262,3.906,-13.184,0.000
1727535086.785,50.293,968.262,71.777,31.738,0.000
1727535086.789,119.629,968.262,90.332,56.641,0.000
1727535086.793,104.492,968.262,42.480,51.270,0.000
1727535086.797,19.531,968.262,54.199,33.203,0.000
1727535086.801,-47.852,968.262,78.125,12.207,0.000
1727535086.805,40.039,968.262,73.730,18.555,0.000
1727535086.809,127.441,968.262,65.918,31.738,0.000
1727535086.813,125.977,968.262,54.688,38.086,0.000
1727535086.817,75.684,967.773,26.855,51.758,0.000
1727535086.820,-14.648,968.262,21.484,41.016,0.000
1727535086.824,24.902,968.262,80.078,35.156,0.000
1727535086.828,106.445,968.262,122.559,41.016,0.000
1727535086.832,98.633,968.262,127.441,33.691,0.000
1727535086.836,39.551,968.262,115.234,20.996,0.000
1727535086.840,-55.176,968.262,88.867,-4.395,0.000
1727535086.844,13.184,968.262,75.195,25.391,0.000
1727535086.848,130.859,968.262,75.684,79.102,0.000
1727535086.852,124.023,968.262,56.641,71.289,0.000
1727535086.856,66.406,968.262,54.199,44.922,0.000
1727535086.860,-35.156,968.262,59.570,15.137,0.000
1727535086.864,-7.812,967.773,42.480,22.949,0.000
1727535086.867,86.426,968.262,15.137,45.898,0.000
1727535086.871,104.004,968.262,36.621,46.387,0.000
1727535086.875,53.711,967.773,53.711,35.645,0.000
1727535086.879,-60.547,968.262,4.883,0.977,0.000
1727535086.883,-42.480,968.262,11.719,9.766,0.000
1727535086.887,79.102,968.262,-9.277,48.828,0.000
1727535086.891,116.211,968.262,-44.922,48.340,0.000
1727535086.895,66.895,967.773,48.340,22.461,0.000
1727535086.899,-52.246,968.262,100.098,-31.250,0.000
1727535086.903,-86.426,968.262,57.617,-60.547,0.000
1727535086.907,15.625,968.262,13.184,-26.855,0.000
1727535086.910,57.617,968.262,4.883,-2.930,0.000
1727535086.914,21.973,966.309,-4.883,-12.207,0.000
1727535086.918,-74.707,972.168,-50.781,-38.086,0.000
1727535086.922,-101.562,940.430,-29.785,-42.480,0.000
1727535086.926,11.719,883.789,-3.906,-6.348,0.000
1727535086.930,63.477,906.738,-35.156,17.578,0.000
1727535086.934,32.715,957.031,-21.973,5.859,0.000
1727535086.938,-69.824,938.477,8.789,-53.711,0.000
1727535086.942,-127.441,918.457,-19.531,-63.965,0.000
1727535086.946,-19.043,940.918,-65.918,-5.859,0.000
1727535086.949,54.199,955.078,-34.668,1.953,0.000
1727535086.953,38.574,923.340,16.113,-3.906,0.000
1727535086.957,-44.434,875.488,22.461,-11.230,0.000
1727535086.961,-107.422,831.055,-13.184,-29.785,0.000
1727535086.965,-16.113,784.180,-21.973,-19.531,0.000
1727535086.969,65.430,745.117,-4.883,3.418,0.000
1727535086.973,46.387,701.172,-7.812,5.371,0.000
1727535086.977,-42.969,656.250,9.766,-30.762,0.000
1727535086.981,-128.906,625.977,6.348,-50.293,0.000
1727535086.985,-36.133,582.031,-35.645,-10.742,0.000
1727535086.989,68.359,543.457,-59.570,20.020,0.000
1727535086.992,54.199,518.555,-31.250,21.484,0.000
1727535086.996,-25.391,475.586,-21.973,-18.555,0.000
1727535087.000,-117.188,436.523,-21.973,-47.363,0.000
1727535087.004,-39.551,395.996,-17.578,-2.441,0.000
1727535087.008,71.289,352.539,-20.020,26.855,0.000
1727535087.012,59.082,333.984,-22.461,9.766,0.000
1727535087.016,-0.977,312.500,-30.273,-11.230,0.000
1727535087.020,-99.609,296.875,-35.645,-34.180,0.000
1727535087.024,-68.359,307.129,-18.555,-21.484,0.000
1727535087.028,38.574,292.969,8.789,1.953,0.000
1727535087.031,43.945,259.766,-4.883,-7.324,0.000
1727535087.035,-18.066,242.676,-25.391,-17.578,0.000
1727535087.039,-120.605,236.328,-15.137,-40.527,0.000
1727535087.043,-81.543,217.773,-10.254,-25.879,0.000
1727535087.047,36.133,199.219,-54.688,19.043,0.000
1727535087.051,61.035,194.824,-66.406,19.531,0.000
1727535087.055,23.438,184.570,-22.461,-2.930,0.000
1727535087.059,-81.543,163.086,-27.344,-36.621,0.000
1727535087.063,-79.102,145.020,-55.176,-31.738,0.000
1727535087.067,46.875,152.344,-23.926,4.883,0.000
1727535087.070,79.590,149.414,-3.418,15.137,0.000
1727535087.074,30.273,115.234,-11.719,7.812,0.000
1727535087.078,-75.195,59.082,1.953,-23.926,0.000
1727535087.082,-82.520,13.672,10.254,-27.832,0.000
1727535087.086,39.551,4.883,-11.230,8.301,0.000
1727535087.090,75.195,14.160,-26.855,20.996,0.000
1727535087.094,20.996,27.344,-53.223,3.418,0.000
1727535087.098,-82.520,38.086,-57.129,-32.715,0.000
1727535087.102,-106.445,60.059,-24.414,-32.715,0.000
1727535087.106,15.625,98.145,-32.227,6.836,0.000
1727535087.109,62.012,113.770,-25.879,15.137,0.000
1727535087.113,37.109,103.516,3.418,-3.418,0.000
1727535087.117,-42.480,113.281,5.371,-28.809,0.000
1727535087.121,-106.445,102.539,-8.301,-41.992,0.000
1727535087.125,-8.301,53.223,-3.418,-10.254,0.000
1727535087.129,60.059,39.551,-14.648,3.418,0.000
1727535087.133,38.574,54.688,-43.945,-18.066,0.000
1727535087.137,-35.645,73.730,-62.012,-47.852,0.000
1727535087.141,-104.980,76.660,-66.406,-64.453,0.000
1727535087.145,-11.230,72.266,-69.336,-31.250,0.000
1727535087.149,74.219,89.844,-105.957,-7.324,0.000
1727535087.153,54.688,106.934,-106.445,15.137,0.000
1727535087.156,-30.762,83.008,-32.227,-2.441,0.000
1727535087.160,-119.141,57.617,19.531,-48.828,0.000
1727535087.164,-49.805,49.805,21.973,-20.508,0.000
1727535087.168,32.227,51.270,7.812,-3.418,0.000
1727535087.172,33.691,54.199,-16.602,-9.277,0.000
1727535087.176,-19.043,41.504,-14.648,-21.973,0.000
1727535087.180,-111.328,63.965,-34.668,-57.129,0.000
1727535087.184,-50.293,94.727,-72.754,-39.551,0.000
1727535087.188,36.133,97.168,-66.406,-17.090,0.000
1727535087.192,33.691,112.793,-44.922,-12.207,0.000
1727535087.196,-20.508,136.719,-40.039,-17.578,0.000
1727535087.199,-126.465,174.316,-35.156,-50.293,0.000
1727535087.203,-73.730,151.855,-21.484,-31.738,0.000
1727535087.207,40.527,90.820,-26.367,0.488,0.000
1727535087.211,55.176,57.617,-36.133,0.977,0.000
1727535087.215,5.371,30.762,-35.645,-10.742,0.000
1727535087.219,-96.191,34.180,-43.945,-42.480,0.000
1727535087.223,-59.082,30.762,-38.574,-17.578,0.000
1727535087.227,54.199,16.113,-24.414,32.715,0.000
1727535087.231,71.777,1.953,-27.832,25.879,0.000
1727535087.235,9.277,13.672,-25.391,-15.625,0.000
1727535087.239,-90.820,37.598,-18.066,-44.434,0.000
1727535087.242,-67.383,33.203,-17.578,-18.555,0.000
1727535087.246,50.781,25.391,-31.250,3.906,0.000
1727535087.250,76.172,27.832,-53.711,12.207,0.000
1727535087.254,23.438,13.184,-63.965,11.719,0.000
1727535087.258,-98.145,-8.789,-25.879,-25.391,0.000
1727535087.262,-106.934,-17.090,3.418,-24.902,0.000
1727535087.266,30.273,-28.320,-0.977,17.090,0.000
1727535087.270,69.336,-19.043,0.488,30.762,0.000
1727535087.274,44.922,-3.906,-27.344,9.277,0.000
1727535087.278,-47.852,-13.672,-52.246,-28.809,0.000
1727535087.281,-88.379,-20.508,-19.043,-35.156,0.000
1727535087.285,19.043,-26.855,7.812,2.930,0.000
1727535087.289,69.336,-28.809,-1.465,21.973,0.000
1727535087.293,43.457,-30.273,-24.902,12.207,0.000
1727535087.297,-34.180,-44.434,-31.250,-14.160,0.000
1727535087.301,-79.590,-54.688,-4.395,-27.344,0.000
1727535087.305,15.137,-62.500,8.301,-10.254,0.000
1727535087.309,83.496,-69.824,6.348,2.441,0.000
1727535087.313,50.781,-74.707,-7.324,1.953,0.000
1727535087.317,-44.922,-80.078,-16.602,-17.578,0.000
1727535087.321,-89.844,-76.660,-20.508,-26.855,0.000
1727535087.324,11.230,-65.430,-41.504,-0.977,0.000
1727535087.328,74.219,-56.641,-73.242,21.973,0.000
1727535087.332,57.617,-67.871,-77.637,20.996,0.000
1727535087.336,-35.156,-81.055,-38.574,-20.996,0.000
1727535087.340,-140.137,-83.496,-12.207,-62.012,0.000
1727535087.344,-49.805,-85.449,-22.949,-35.156,0.000
1727535087.348,49.805,-83.984,-19.531,-4.883,0.000
1727535087.352,47.852,-81.055,-3.418,-7.324,0.000
1727535087.356,-22.461,-77.148,-16.602,-29.297,0.000
1727535087.360,-112.793,-74.219,-45.898,-55.176,0.000
1727535087.363,-40.039,-63.477,-57.129,-29.785,0.000
1727535087.367,64.941,-49.805,-46.875,16.113,0.000
1727535087.371,64.453,-46.387,-44.922,11.230,0.000
1727535087.375,4.395,-48.340,-38.086,-15.137,0.000
1727535087.379,-95.703,-61.035,-37.598,-35.156,0.000
1727535087.383,-47.852,-58.594,-78.613,-20.508,0.000
1727535087.387,62.012,-52.246,-72.754,6.348,0.000
1727535087.391,67.383,-58.594,-10.254,0.488,0.000
1727535087.395,21.484,-61.523,8.789,-12.207,0.000
1727535087.399,-71.289,-61.035,-13.184,-31.250,0.000
1727535087.402,-44.922,-55.664,-51.758,-16.602,0.000
1727535087.406,73.242,-41.992,-56.641,20.020,0.000
1727535087.410,90.820,-40.527,-19.043,28.320,0.000
1727535087.414,41.992,-57.129,-20.020,21.973,0.000
1727535087.418,-64.941,-62.988,-35.645,-5.371,0.000
1727535087.422,-77.148,-63.965,-25.391,-12.207,0.000
1727535087.426,21.484,-82.031,-7.324,9.277,0.000
1727535087.430,50.293,-67.871,1.953,5.859,0.000
1727535087.434,16.113,-31.250,-25.879,-14.648,0.000
1727535087.438,-75.684,-26.367,-39.062,-43.457,0.000
1727535087.442,-81.055,-28.320,-57.617,-32.227,0.000
1727535087.445,29.297,-27.832,-97.656,9.277,0.000
1727535087.449,65.918,-31.738,-62.988,17.090,0.000
1727535087.453,34.180,-33.691,-20.020,-2.930,0.000
1727535087.457,-63.477,-35.645,-16.113,-40.527,0.000
1727535087.461,-102.539,-43.457,-20.020,-44.922,0.000
1727535087.465,7.812,-27.344,-23.438,1.465,0.000
1727535087.469,60.059,-7.324,-27.832,16.602,0.000
1727535087.473,40.527,-7.324,-54.688,1.465,0.000
1727535087.477,-30.273,-14.648,-75.684,-10.254,0.000
1727535087.481,-68.848,-25.391,-59.570,-10.742,0.000
1727535087.484,27.832,-44.434,-39.551,21.484,0.000
1727535087.488,76.172,-39.062,-38.574,19.531,0.000
1727535087.492,46.387,-8.789,-35.645,5.859,0.000
1727535087.496,-43.457,0.977,-34.180,-15.625,0.000
1727535087.500,-122.559,-7.812,-41.016,-40.039,0.000
1727535087.504,-31.738,-13.672,-50.293,-11.719,0.000
1727535087.508,62.500,-6.348,-51.758,13.184,0.000
1727535087.512,69.824,-3.906,-45.410,15.625,0.000
1727535087.516,1.465,-10.742,-50.293,-8.301,0.000
1727535087.520,-87.402,0.000,-66.406,-25.879,0.000
1727535087.524,-23.438,20.996,-75.195,11.230,0.000
1727535087.527,68.359,30.273,-80.566,38.574,0.000
1727535087.531,68.848,30.273,-64.941,36.133,0.000
1727535087.535,8.301,44.922,-36.133,8.789,0.000
1727535087.539,-80.566,53.711,-26.367,-29.785,0.000
1727535087.543,-24.414,46.387,-15.137,-10.254,0.000
1727535087.547,75.684,42.969,-21.484,30.273,0.000
1727535087.551,72.266,30.273,-39.551,26.855,0.000
1727535087.555,18.555,17.578,-43.945,4.883,0.000
1727535087.559,-83.008,7.812,-46.387,-27.832,0.000
1727535087.563,-52.246,20.996,-61.523,-9.277,0.000
1727535087.567,57.617,32.227,-63.477,19.043,0.000
1727535087.570,68.359,10.742,-47.852,19.043,0.000
1727535087.574,23.438,0.977,-50.293,12.695,0.000
1727535087.578,-75.195,7.812,-60.547,-23.438,0.000
1727535087.582,-60.547,7.812,-42.480,-14.160,0.000
1727535087.586,55.664,-1.953,-67.871,15.625,0.000
1727535087.590,86.426,-0.488,-118.652,21.973,0.000
1727535087.594,48.340,6.836,-67.871,14.160,0.000
1727535087.598,-54.688,-1.465,-10.742,-12.207,0.000
1727535087.602,-63.477,-18.066,-13.184,-12.695,0.000
1727535087.606,58.594,-16.113,-21.973,21.484,0.000
1727535087.610,101.074,15.137,-25.879,27.832,0.000
1727535087.613,55.664,42.480,-41.992,11.719,0.000
1727535087.617,-38.086,40.527,-47.852,0.488,0.000
1727535087.621,-55.176,59.082,-41.504,9.766,0.000
1727535087.625,58.105,103.027,-33.691,34.668,0.000
1727535087.629,100.098,111.328,-33.203,37.109,0.000
1727535087.633,67.383,103.516,-52.734,28.809,0.000
1727535087.637,-15.625,115.723,-45.410,3.418,0.000
1727535087.641,-55.176,112.305,-30.273,-9.277,0.000
1727535087.645,63.965,106.445,-57.129,41.504,0.000
1727535087.649,129.395,105.469,-78.125,62.988,0.000
1727535087.653,93.262,98.145,-76.660,35.645,0.000
1727535087.656,2.930,105.957,-46.387,4.395,0.000
1727535087.660,-63.965,111.816,-28.320,-6.348,0.000
1727535087.664,26.367,99.609,-26.367,35.156,0.000
1727535087.668,100.586,83.984,-10.254,54.199,0.000
1727535087.672,75.684,77.148,-20.996,35.156,0.000
1727535087.676,-12.207,77.148,-39.551,-1.465,0.000
1727535087.680,-83.496,63.965,-29.297,-25.391,0.000
1727535087.684,13.184,64.941,-24.414,16.113,0.000
1727535087.688,102.539,77.148,-39.551,53.711,0.000
1727535087.692,77.637,80.078,-28.809,40.527,0.000
1727535087.695,-0.977,92.285,-13.184,6.348,0.000
1727535087.699,-75.195,98.145,-8.789,-8.789,0.000
1727535087.703,-7.324,87.891,-14.160,15.625,0.000
1727535087.707,86.914,79.102,-35.645,51.270,0.000
1727535087.711,98.145,76.172,-46.387,57.617,0.000
1727535087.715,41.016,76.660,-43.457,30.273,0.000
1727535087.719,-64.453,78.125,-29.297,0.000,0.000
1727535087.723,-10.742,76.660,-35.645,22.949,0.000
1727535087.727,100.586,75.684,-58.105,60.059,0.000
1727535087.731,106.445,88.379,-30.273,65.918,0.000
1727535087.735,57.617,99.121,0.977,48.340,0.000
1727535087.738,-55.176,88.867,-12.695,5.859,0.000
1727535087.742,-30.273,85.938,-27.832,10.742,0.000
1727535087.746,98.145,81.055,-42.480,45.410,0.000
1727535087.750,119.141,69.336,-47.363,61.523,0.000
1727535087.754,71.289,75.684,-22.949,47.363,0.000
1727535087.758,-26.855,72.754,-20.508,11.719,0.000
1727535087.762,-8.789,71.289,-35.645,37.109,0.000
1727535087.766,102.539,80.078,-41.504,61.035,0.000
1727535087.770,113.770,75.684,-36.621,53.223,0.000
1727535087.774,69.336,66.406,-1.953,44.434,0.000
1727535087.777,-18.555,55.664,-3.906,15.137,0.000
1727535087.781,-26.367,47.363,-7.324,22.949,0.000
1727535087.785,76.172,57.617,11.230,45.410,0.000
1727535087.789,109.375,71.289,10.742,52.246,0.000
1727535087.793,83.984,71.289,-8.789,46.387,0.000
1727535087.797,-3.418,66.895,-31.250,23.438,0.000
1727535087.801,-29.297,54.199,-39.062,31.250,0.000
1727535087.805,74.707,39.551,-38.086,59.082,0.000
1727535087.809,114.258,36.133,-38.086,60.059,0.000
1727535087.813,89.355,27.832,-37.598,61.523,0.000
1727535087.816,-9.766,22.461,-33.691,32.227,0.000
1727535087.820,-55.176,47.852,-43.945,5.859,0.000
1727535087.824,55.176,62.988,-52.246,40.039,0.000
1727535087.828,112.793,46.875,-34.180,56.641,0.000
1727535087.832,99.121,35.156,-16.113,51.270,0.000
1727535087.836,7.812,19.043,-25.391,27.832,0.000
1727535087.840,-64.453,23.438,-37.109,16.602,0.000
1727535087.844,31.738,35.156,-34.180,41.992,0.000
1727535087.848,109.863,31.738,-22.949,50.293,0.000
1727535087.852,101.562,41.992,-11.719,40.039,0.000
1727535087.855,19.531,37.109,-18.066,15.137,0.000
1727535087.859,-45.898,25.879,-16.113,3.418,0.000
1727535087.863,46.875,26.367,-9.766,32.715,0.000
1727535087.867,118.652,16.113,-30.273,53.223,0.000
1727535087.871,105.469,10.742,-30.273,50.293,0.000
1727535087.875,32.227,12.207,-29.297,33.691,0.000
1727535087.879,-77.637,-4.883,-48.340,7.324,0.000
1727535087.883,0.977,-17.090,-22.461,33.691,0.000
1727535087.887,122.070,-17.090,-14.160,66.895,0.000
1727535087.891,113.281,-30.762,-34.668,55.664,0.000
1727535087.895,40.039,-36.621,-15.137,36.133,0.000
1727535087.899,-59.570,-70.312,-2.441,20.996,0.000
1727535087.902,-8.301,-102.539,-0.977,48.340,0.000
1727535087.906,105.957,-90.820,1.465,80.078,0.000
1727535087.910,121.582,-78.125,-12.207,77.148,0.000
1727535087.914,69.336,-85.449,-47.852,62.988,0.000
1727535087.918,-31.738,-100.098,-64.453,39.062,0.000
1727535087.922,-1.465,-82.520,-35.645,41.992,0.000
1727535087.926,113.770,-56.152,-9.277,67.383,0.000
1727535087.930,127.441,-33.691,5.371,70.312,0.000
1727535087.934,75.195,-26.855,-2.441,37.598,0.000
1727535087.938,-16.113,-19.043,-29.297,-3.418,0.000
1727535087.942,-3.418,-9.277,-31.738,17.578,0.000
1727535087.945,104.492,-21.484,-16.113,63.965,0.000
1727535087.949,125.000,-21.973,-9.766,68.848,0.000
1727535087.953,92.285,-1.465,-3.906,50.293,0.000
1727535087.957,0.488,13.672,-14.648,20.996,0.000
1727535087.961,-22.461,33.203,-25.391,25.879,0.000
1727535087.965,79.102,46.387,-32.715,61.035,0.000
1727535087.969,125.488,46.875,-20.996,63.477,0.000
1727535087.973,93.750,51.270,-16.602,55.664,0.000
1727535087.977,-10.254,49.316,-48.340,29.785,0.000
1727535087.981,-38.574,52.734,-52.246,30.762,0.000
1727535087.985,62.012,60.547,-15.137,59.082,0.000
1727535087.988,88.379,58.105,-12.695,49.316,0.000
1727535087.992,54.688,53.223,-20.020,41.016,0.000
1727535087.996,-18.066,41.016,-11.230,11.719,0.000
1727535088.000,-54.688,36.133,-29.297,5.371,0.000
1727535088.004,62.500,49.316,-30.762,57.129,0.000
1727535088.008,119.141,61.035,-18.066,56.641,0.000
1727535088.012,81.543,70.801,-35.645,31.738,0.000
1727535088.016,17.090,46.875,-30.273,17.578,0.000
1727535088.020,-47.363,9.766,-12.695,10.254,0.000
1727535088.024,38.574,8.301,-18.555,32.227,0.000
1727535088.027,113.770,6.348,-33.691,60.547,0.000
1727535088.031,95.703,10.254,-48.340,55.176,0.000
1727535088.035,30.762,11.230,-32.715,22.461,0.000
1727535088.039,-53.711,13.184,-17.090,6.836,0.000
1727535088.043,17.090,12.695,-18.066,31.738,0.000
1727535088.047,106.934,0.000,-10.742,61.035,0.000
1727535088.051,101.562,-4.883,-19.531,52.734,0.000
1727535088.055,35.156,-1.465,-27.344,29.785,0.000
1727535088.059,-47.363,1.953,-39.062,11.230,0.000
1727535088.063,22.461,16.113,-55.664,38.574,0.000
1727535088.067,122.559,12.695,-43.945,68.848,0.000
1727535088.070,117.676,3.906,-28.809,62.988,0.000
1727535088.074,52.734,16.113,-14.648,40.039,0.000
1727535088.078,-50.293,24.414,-13.184,14.160,0.000
1727535088.082,-4.883,25.391,-13.672,35.645,0.000
1727535088.086,115.723,22.461,-12.207,61.035,0.000
1727535088.090,121.094,18.066,-32.227,57.617,0.000
1727535088.094,42.480,7.324,-31.738,49.316,0.000
1727535088.098,-62.988,1.953,-1.953,22.461,0.000
1727535088.102,-29.785,3.906,-22.949,31.738,0.000
1727535088.106,89.355,-1.953,-49.805,59.082,0.000
1727535088.110,110.840,-8.789,-17.578,41.504,0.000
1727535088.114,61.523,-12.207,12.695,12.207,0.000
1727535088.117,-35.156,-17.578,-23.438,-9.766,0.000
1727535088.121,-37.598,-15.625,-59.570,-6.836,0.000
1727535088.125,78.613,-10.742,-20.996,30.273,0.000
1727535088.129,104.980,-10.254,12.207,40.039,0.000
1727535088.133,54.199,-13.184,7.812,17.578,0.000
1727535088.137,-26.855,-6.348,11.230,0.977,0.000
1727535088.141,-34.180,-8.301,-0.977,6.348,0.000
1727535088.145,79.102,-11.230,-53.711,37.598,0.000
1727535088.149,119.141,-7.812,-43.945,48.828,0.000
1727535088.153,79.102,-13.672,0.488,35.156,0.000
1727535088.156,-10.742,-12.207,-18.066,13.672,0.000
1727535088.160,-49.316,-19.531,-33.691,10.254,0.000
1727535088.164,46.387,-45.898,5.371,28.809,0.000
1727535088.168,83.984,-47.363,26.855,30.762,0.000
1727535088.172,60.059,-38.086,-9.766,28.809,0.000
1727535088.176,-8.789,-40.039,-31.250,13.184,0.000
1727535088.180,-59.082,-43.945,-16.113,1.465,0.000
1727535088.184,31.738,-55.664,-18.066,40.039,0.000
1727535088.188,100.098,-62.988,-11.230,59.570,0.000
1727535088.192,98.633,-45.898,-5.371,51.270,0.000
1727535088.195,19.531,-43.457,1.953,20.020,0.000
1727535088.199,-72.266,-59.570,10.742,-11.719,0.000
1727535088.203,10.254,-57.617,14.160,18.066,0.000
1727535088.207,96.680,-61.523,0.488,33.691,0.000
1727535088.211,79.102,-59.570,-27.832,18.555,0.000
1727535088.215,0.000,-60.547,-32.227,4.395,0.000
1727535088.219,-82.520,-75.684,-36.621,-2.930,0.000
1727535088.223,-9.277,-79.102,-40.527,12.207,0.000
1727535088.227,85.449,-78.613,-9.277,25.879,0.000
1727535088.231,85.938,-76.172,6.836,22.949,0.000
1727535088.234,20.996,-78.125,5.859,-2.441,0.000
1727535088.238,-75.684,-88.867,6.348,-30.762,0.000
1727535088.242,-11.719,-89.355,7.324,-4.883,0.000
1727535088.246,96.680,-84.961,-8.301,28.320,0.000
1727535088.250,93.262,-84.961,-39.062,18.555,0.000
1727535088.254,32.227,-80.078,-22.461,2.441,0.000
1727535088.258,-69.336,-74.219,8.301,-23.438,0.000
1727535088.262,-40.527,-83.008,-7.812,-5.859,0.000
1727535088.266,71.289,-93.750,-20.508,34.668,0.000
1727535088.270,86.426,-95.215,-11.719,30.273,0.000
1727535088.274,31.738,-93.750,-33.203,10.742,0.000
1727535088.278,-79.590,-88.867,-41.504,-9.766,0.000
1727535088.281,-67.383,-85.449,-22.461,6.836,0.000
1727535088.285,53.711,-79.102,-21.973,37.109,0.000
1727535088.289,66.406,-83.496,-10.254,23.926,0.000
1727535088.293,15.625,-93.262,23.926,-0.488,0.000
1727535088.297,-81.055,-100.586,30.273,-33.203,0.000
1727535088.301,-70.801,-103.516,18.066,-26.367,0.000
1727535088.305,41.504,-103.027,3.418,8.789,0.000
1727535088.309,72.754,-91.309,-20.020,21.484,0.000
1727535088.313,52.246,-76.660,-23.926,14.160,0.000
1727535088.317,-42.969,-90.820,-18.066,-16.602,0.000
1727535088.321,-70.801,-105.957,6.348,-9.766,0.000
1727535088.324,32.227,-110.352,18.066,19.043,0.000
1727535088.328,74.707,-104.980,12.695,8.789,0.000
1727535088.332,40.527,-96.680,-5.859,-5.859,0.000
1727535088.336,-45.410,-102.539,-14.648,-30.762,0.000
1727535088.340,-81.543,-104.980,-13.184,-41.504,0.000
1727535088.344,20.996,-104.492,-22.949,-5.859,0.000
1727535088.348,80.078,-106.934,-17.578,23.438,0.000
1727535088.352,39.062,-114.746,-6.836,9.766,0.000
1727535088.356,-60.547,-121.582,7.324,-22.461,0.000
1727535088.360,-97.168,-118.164,-10.254,-33.203,0.000
1727535088.364,6.348,-122.559,-23.438,-2.930,0.000
1727535088.367,67.383,-124.512,-26.367,17.578,0.000
1727535088.371,48.828,-125.977,-26.367,9.277,0.000
1727535088.375,-35.645,-129.395,-8.789,-22.949,0.000
1727535088.379,-113.281,-127.441,-9.766,-39.062,0.000
1727535088.383,-23.926,-117.676,-22.949,1.953,0.000
1727535088.387,56.641,-109.375,-23.438,27.832,0.000
1727535088.391,37.598,-114.746,-17.090,10.742,0.000
1727535088.395,-28.809,-125.977,-16.113,-20.020,0.000
1727535088.399,-103.027,-133.789,-4.883,-37.598,0.000
1727535088.403,-32.715,-142.090,-11.719,-7.324,0.000
1727535088.407,54.199,-155.762,-27.832,10.742,0.000
1727535088.410,63.477,-150.391,-57.129,16.113,0.000
1727535088.414,0.488,-157.227,-49.316,5.371,0.000
1727535088.418,-106.445,-178.223,18.066,-36.621,0.000
1727535088.422,-50.293,-168.945,39.551,-20.996,0.000
1727535088.426,49.316,-162.109,43.945,5.859,0.000
1727535088.430,42.969,-167.480,29.785,6.348,0.000
1727535088.434,-15.625,-168.457,5.859,-28.809,0.000
1727535088.438,-106.934,-165.039,-27.344,-62.500,0.000
1727535088.442,-55.664,-157.227,-75.684,-21.973,0.000
1727535088.446,48.340,-158.203,-50.781,13.184,0.000
1727535088.449,50.293,-170.410,10.742,-3.418,0.000
1727535088.453,-0.977,-170.410,13.672,-21.484,0.000
1727535088.457,-74.707,-163.574,10.254,-16.602,0.000
1727535088.461,-51.758,-171.875,17.090,-4.395,0.000
1727535088.465,22.949,-178.223,13.672,-14.160,0.000
1727535088.469,40.527,-171.387,-0.488,-20.020,0.000
1727535088.473,4.883,-165.039,-18.066,-24.414,0.000
1727535088.477,-99.121,-165.527,-20.996,-51.270,0.000
1727535088.481,-105.957,-167.969,-13.184,-40.039,0.000
1727535088.485,15.137,-161.621,-10.254,8.301,0.000
1727535088.488,48.340,-161.133,-18.066,15.625,0.000
1727535088.492,-1.953,-170.410,-19.531,-12.695,0.000
1727535088.496,-98.633,-165.527,-21.973,-52.734,0.000
1727535088.500,-110.840,-162.598,-30.762,-52.734,0.000
1727535088.504,-0.488,-160.156,-21.973,-15.625,0.000
1727535088.508,34.668,-160.645,-30.762,-10.742,0.000
1727535088.512,7.324,-172.363,-35.645,-19.043,0.000
1727535088.516,-71.777,-180.176,1.465,-40.527,0.000
1727535088.520,-104.004,-192.383,24.902,-43.457,0.000
1727535088.524,-0.977,-190.430,8.789,-8.301,0.000
1727535088.527,50.293,-172.363,1.465,0.488,0.000
1727535088.531,31.738,-158.203,-10.254,-7.324,0.000
1727535088.535,-58.594,-147.461,-18.555,-36.621,0.000
1727535088.539,-120.117,-144.531,-15.137,-48.340,0.000
1727535088.543,-7.324,-136.230,-45.410,-8.789,0.000
1727535088.547,63.477,-134.277,-41.016,11.230,0.000
1727535088.551,37.598,-140.137,-23.438,6.348,0.000
1727535088.555,-34.668,-138.672,-5.371,-28.809,0.000
1727535088.559,-104.980,-137.207,20.996,-61.035,0.000
1727535088.563,-7.324,-127.441,14.160,-27.832,0.000
1727535088.567,94.238,-119.141,3.418,6.348,0.000
1727535088.570,62.012,-125.000,-3.906,7.324,0.000
1727535088.574,-43.945,-130.371,-23.926,-13.672,0.000
1727535088.578,-129.883,-129.883,-70.312,-35.156,0.000
1727535088.582,-50.293,-137.695,-66.895,-15.625,0.000
1727535088.586,40.039,-136.230,-2.930,0.000,0.000
1727535088.590,40.527,-132.324,16.602,-6.348,0.000
1727535088.594,-22.949,-137.207,10.742,-32.715,0.000
1727535088.598,-110.840,-129.883,12.207,-53.223,0.000
1727535088.602,-67.871,-120.117,4.395,-26.855,0.000
1727535088.606,22.949,-128.906,-16.602,-0.488,0.000
1727535088.609,24.414,-134.277,-45.410,-14.160,0.000
1727535088.613,-30.273,-124.023,-55.664,-35.156,0.000
1727535088.617,-118.652,-118.652,-22.949,-57.617,0.000
1727535088.621,-83.496,-129.395,17.578,-42.969,0.000
1727535088.625,21.484,-129.395,16.113,-16.113,0.000
1727535088.629,37.109,-73.730,6.836,-17.578,0.000
1727535088.633,-1.953,-33.691,14.648,-26.367,0.000
1727535088.637,-98.633,-52.246,4.883,-46.387,0.000
1727535088.641,-83.496,-73.242,-3.418,-37.109,0.000
1727535088.645,31.738,-89.355,-9.277,-6.836,0.000
1727535088.649,62.012,-93.262,-22.461,-13.184,0.000
1727535088.652,14.648,-94.238,-19.531,-34.180,0.000
1727535088.656,-98.633,-99.121,-47.852,-60.547,0.000
1727535088.660,-108.398,-90.332,-80.566,-54.199,0.000
1727535088.664,-0.488,-88.867,-31.250,-22.461,0.000
1727535088.668,33.203,-97.656,0.488,-18.066,0.000
1727535088.672,1.953,-83.496,5.371,-15.625,0.000
1727535088.676,-92.773,-68.359,10.254,-48.828,0.000
1727535088.680,-121.582,-63.965,-2.441,-56.641,0.000
1727535088.684,-20.996,-62.012,-25.391,-17.578,0.000
1727535088.688,26.855,-68.848,-49.805,-10.742,0.000
1727535088.692,7.324,-72.266,-44.922,-20.996,0.000
1727535088.695,-84.473,-69.824,-12.695,-43.457,0.000
1727535088.699,-134.766,-66.895,6.348,-57.129,0.000
1727535088.703,-31.250,-66.895,-9.277,-32.715,0.000
1727535088.707,33.203,-66.895,-25.391,-15.137,0.000
1727535088.711,13.672,-60.547,-28.809,-18.555,0.000
1727535088.715,-66.895,-60.547,-32.227,-48.340,0.000
1727535088.719,-128.418,-60.059,-19.531,-64.453,0.000
1727535088.723,-24.902,-53.711,-20.508,-29.297,0.000
1727535088.727,54.688,-56.152,-34.180,-12.695,0.000
1727535088.731,37.109,-56.152,-42.969,-13.672,0.000
1727535088.735,-50.293,-50.781,-51.270,-37.598,0.000
1727535088.738,-131.836,-56.641,-33.203,-72.754,0.000
1727535088.742,-42.480,-58.594,-3.906,-38.086,0.000
1727535088.746,44.922,-57.129,-3.906,-13.184,0.000
1727535088.750,27.832,-55.664,-20.020,-27.832,0.000
1727535088.754,-61.035,-54.688,-31.250,-56.641,0.000
1727535088.758,-151.367,-49.316,-29.297,-90.820,0.000
1727535088.762,-64.453,-49.805,-39.062,-52.734,0.000
1727535088.766,37.109,-46.875,-52.734,-22.461,0.000
1727535088.770,30.762,-33.203,-38.086,-31.738,0.000
1727535088.774,-38.086,-33.691,-20.996,-44.434,0.000
1727535088.778,-148.926,-43.457,-9.277,-69.336,0.000
1727535088.781,-100.098,-35.645,-8.789,-50.293,0.000
1727535088.785,13.184,-27.344,-46.387,-15.137,0.000
1727535088.789,23.926,-31.738,-48.828,-15.625,0.000
1727535088.793,-35.645,-35.156,-12.695,-41.016,0.000
1727535088.797,-142.090,-32.227,-38.086,-70.801,0.000
1727535088.801,-113.281,-29.297,-54.688,-55.664,0.000
1727535088.805,4.395,-31.738,-28.320,-21.484,0.000
1727535088.809,21.973,-23.926,-3.418,-20.020,0.000
1727535088.813,-21.484,-21.484,-3.418,-31.738,0.000
1727535088.817,-110.840,-23.926,-11.230,-52.246,0.000
1727535088.820,-104.980,-27.832,-1.465,-47.852,0.000
1727535088.824,3.418,-31.738,4.883,-25.391,0.000
1727535088.828,31.250,-26.367,-10.742,-23.438,0.000
1727535088.832,-5.371,-21.484,-50.781,-31.738,0.000
1727535088.836,-92.285,-20.996,-68.359,-49.316,0.000
1727535088.840,-111.328,-23.926,-29.785,-51.758,0.000
1727535088.844,-5.859,-25.391,12.695,-24.414,0.000
1727535088.848,39.062,-25.391,12.207,-18.066,0.000
1727535088.852,4.883,-28.320,-9.766,-30.762,0.000
1727535088.856,-101.074,-36.621,-21.484,-56.152,0.000
1727535088.860,-133.789,-49.316,-22.461,-61.035,0.000
1727535088.863,-3.418,-41.504,-37.109,-21.973,0.000
1727535088.867,43.945,-39.062,-31.738,-13.672,0.000
1727535088.871,2.930,-46.387,-14.160,-28.320,0.000
1727535088.875,-80.566,-37.598,-14.160,-55.176,0.000
1727535088.879,-111.816,-34.668,-3.418,-55.176,0.000
1727535088.883,2.441,-40.039,-6.836,-22.461,0.000
1727535088.887,53.711,-44.434,-11.230,-23.926,0.000
1727535088.891,20.508,-49.805,-15.625,-27.832,0.000
1727535088.895,-75.684,-57.617,-27.832,-51.270,0.000
1727535088.899,-147.461,-65.430,-40.039,-81.543,0.000
1727535088.902,-49.316,-56.152,-30.762,-50.781,0.000
1727535088.906,29.785,-51.270,-14.160,-19.043,0.000
1727535088.910,19.043,-46.387,-20.020,-19.043,0.000
1727535088.914,-52.734,-31.738,-39.062,-43.945,0.000
1727535088.918,-127.441,-32.227,-44.434,-63.477,0.000
1727535088.922,-47.852,-41.016,-37.598,-29.785,0.000
1727535088.926,30.273,-44.434,-23.926,-8.301,0.000
1727535088.930,20.508,-46.875,-11.230,-23.438,0.000
1727535088.934,-49.316,-46.387,-2.930,-48.828,0.000
1727535088.938,-141.602,-46.875,-11.719,-76.172,0.000
1727535088.942,-75.195,-54.199,-29.297,-54.199,0.000
1727535088.945,18.555,-55.664,-27.832,-22.949,0.000
1727535088.949,9.766,-56.152,-24.902,-32.227,0.000
1727535088.953,-54.199,-48.340,-25.391,-63.965,0.000
1727535088.957,-146.973,-38.574,-41.504,-83.496,0.000
1727535088.961,-93.750,-40.527,-44.922,-59.570,0.000
1727535088.965,16.113,-40.527,-19.043,-20.508,0.000
1727535088.969,10.254,-42.969,-5.371,-16.602,0.000
1727535088.973,-48.828,-43.945,3.418,-47.363,0.000
1727535088.977,-126.953,-38.574,-6.836,-69.336,0.000
1727535088.980,-88.867,-43.945,-27.832,-47.852,0.000
1727535088.984,22.461,-50.293,-30.762,-16.113,0.000
1727535088.988,21.973,-49.805,-18.066,-21.484,0.000
1727535088.992,-33.691,-41.992,-17.578,-40.039,0.000
1727535088.996,-130.859,-39.551,-20.020,-60.547,0.000
1727535089.000,-123.535,-48.340,-15.137,-53.711,0.000
1727535089.004,5.859,-39.062,-14.648,-19.043,0.000
1727535089.008,37.109,-36.133,2.930,-12.695,0.000
1727535089.012,-11.230,-42.969,-1.953,-22.949,0.000
1727535089.016,-116.211,-45.898,-13.184,-52.734,0.000
1727535089.020,-128.418,-53.223,-20.996,-48.828,0.000
1727535089.024,-12.695,-40.527,-21.484,-17.578,0.000
1727535089.027,39.062,-27.344,-7.812,-22.461,0.000
1727535089.031,12.207,-30.762,-12.695,-37.109,0.000
1727535089.035,-90.820,-34.668,-34.668,-67.383,0.000
1727535089.039,-123.047,-40.039,-52.734,-63.965,0.000
1727535089.043,-6.836,-41.992,-22.949,-26.855,0.000
1727535089.047,39.062,-41.504,-1.465,-29.785,0.000
1727535089.051,4.395,-43.945,-15.625,-42.969,0.000
1727535089.055,-87.402,-43.457,-30.762,-72.754,0.000
1727535089.059,-145.996,-34.668,-49.316,-77.637,0.000
1727535089.063,-37.598,-34.668,-29.785,-33.691,0.000
1727535089.067,29.785,-40.527,-9.766,-28.809,0.000
1727535089.070,15.625,-33.691,-40.527,-27.344,0.000
1727535089.074,-67.383,-33.691,-26.367,-40.039,0.000
1727535089.078,-150.391,-33.691,19.531,-70.801,0.000
1727535089.082,-56.152,-43.457,28.320,-36.621,0.000
1727535089.086,27.832,-59.570,-5.859,-14.160,0.000
1727535089.090,21.484,-56.152,-45.898,-22.949,0.000
1727535089.094,-51.270,-53.223,-39.062,-38.086,0.000
1727535089.098,-148.926,-59.082,-28.809,-65.430,0.000
1727535089.102,-89.844,-65.430,-18.066,-42.480,0.000
1727535089.106,0.488,-61.035,4.883,-18.066,0.000
1727535089.110,-5.371,-57.617,-0.977,-31.738,0.000
1727535089.113,-69.824,-56.641,-6.836,-61.523,0.000
1727535089.117,-143.555,-47.852,-7.324,-82.520,0.000
1727535089.121,-87.402,-54.199,-25.879,-53.711,0.000
1727535089.125,8.789,-64.453,-40.039,-39.551,0.000
1727535089.129,20.996,-56.641,-49.316,-53.223,0.000
1727535089.133,-48.828,-49.805,-42.969,-61.035,0.000
1727535089.137,-150.391,-54.688,-27.344,-85.938,0.000
1727535089.141,-98.145,-57.129,-27.832,-68.848,0.000
1727535089.145,0.488,-49.316,-24.902,-36.621,0.000
1727535089.149,0.000,-44.922,-7.324,-38.574,0.000
1727535089.153,-48.828,-41.016,-9.277,-46.875,0.000
1727535089.156,-138.672,-37.598,-32.227,-78.125,0.000
1727535089.160,-114.258,-39.062,-28.320,-71.289,0.000
1727535089.164,-11.719,-45.410,-9.766,-39.062,0.000
1727535089.168,0.000,-49.316,-3.906,-44.434,0.000
1727535089.172,-38.574,-42.480,-3.418,-51.758,0.000
1727535089.176,-121.094,-34.668,-10.254,-69.824,0.000
1727535089.180,-115.234,-36.133,-29.297,-62.500,0.000
1727535089.184,-8.789,-39.062,-56.641,-23.926,0.000
1727535089.188,35.156,-31.738,-63.965,-11.230,0.000
1727535089.192,0.977,-30.273,-38.086,-21.973,0.000
1727535089.195,-104.492,-35.645,-13.672,-54.688,0.000
1727535089.199,-134.766,-42.969,-41.016,-61.035,0.000
1727535089.203,-28.809,-51.270,-46.387,-18.066,0.000
1727535089.207,31.738,-46.875,-6.836,1.953,0.000
1727535089.211,4.883,-47.852,9.766,-26.367,0.000
1727535089.215,-103.516,-51.270,16.602,-78.125,0.000
1727535089.219,-143.555,-41.016,9.766,-84.961,0.000
1727535089.223,-30.273,-37.598,-13.184,-48.828,0.000
1727535089.227,32.715,-34.668,-23.438,-28.320,0.000
1727535089.231,12.695,-33.203,-44.922,-31.738,0.000
1727535089.234,-71.289,-38.574,-62.500,-65.430,0.000
1727535089.238,-124.512,-34.180,-32.715,-77.637,0.000
1727535089.242,-38.574,-41.504,-4.883,-43.457,0.000
1727535089.246,20.020,-47.363,-16.602,-25.391,0.000
1727535089.250,13.184,-36.621,-26.855,-31.250,0.000
1727535089.254,-62.012,-38.086,-0.488,-62.988,0.000
1727535089.258,-131.348,-32.715,11.230,-83.008,0.000
1727535089.262,-39.551,-27.344,-6.348,-46.875,0.000
1727535089.266,36.621,-46.387,-38.086,-11.719,0.000
1727535089.270,16.602,-55.176,-60.059,-20.020,0.000
1727535089.274,-66.895,-59.570,-28.320,-55.664,0.000
1727535089.277,-156.250,-62.500,-23.438,-70.801,0.000
1727535089.281,-73.242,-51.270,-38.086,-40.527,0.000
1727535089.285,25.391,-39.062,-1.953,-14.160,0.000
1727535089.289,11.230,-31.250,14.648,-30.762,0.000
1727535089.293,-67.383,-38.086,11.719,-69.336,0.000
1727535089.297,-156.250,-44.922,6.348,-89.355,0.000
1727535089.301,-83.984,-37.109,-12.207,-56.641,0.000
1727535089.305,14.160,-25.391,-51.270,-33.691,0.000
1727535089.309,16.113,-20.020,-69.336,-38.574,0.000
1727535089.313,-44.434,-20.508,-41.992,-58.594,0.000
1727535089.316,-147.461,-23.438,-20.020,-85.938,0.000
1727535089.320,-98.633,-21.484,-10.254,-65.918,0.000
1727535089.324,20.996,-26.367,-13.672,-35.156,0.000
1727535089.328,30.273,-33.691,-38.574,-35.156,0.000
1727535089.332,-15.137,-30.273,-54.688,-48.340,0.000
1727535089.336,-118.652,-27.344,-35.156,-87.891,0.000
1727535089.340,-101.074,-20.996,-12.695,-71.289,0.000
1727535089.344,6.348,-19.531,-19.531,-27.344,0.000
1727535089.348,14.160,-27.344,-46.875,-32.715,0.000
1727535089.352,-18.555,-24.902,-34.668,-46.875,0.000
1727535089.356,-120.605,-22.949,-9.766,-78.613,0.000
1727535089.360,-132.324,-29.297,-15.625,-71.289,0.000
1727535089.363,-19.531,-32.227,-18.066,-28.320,0.000
1727535089.367,18.066,-33.691,-20.020,-31.250,0.000
1727535089.371,-8.789,-36.621,-53.223,-41.992,0.000
1727535089.375,-97.168,-35.156,-64.453,-54.199,0.000
1727535089.379,-127.441,-34.668,-38.574,-63.477,0.000
1727535089.383,-29.297,-38.574,-24.902,-48.340,0.000
1727535089.387,25.879,-35.156,-22.461,-38.574,0.000
1727535089.391,-0.977,-37.598,-46.875,-46.387,0.000
1727535089.395,-102.539,-43.457,-56.152,-73.242,0.000
1727535089.399,-141.113,-41.016,-24.414,-69.336,0.000
1727535089.403,-20.996,-41.504,-6.348,-25.879,0.000
1727535089.406,33.203,-33.691,-6.348,-17.578,0.000
1727535089.410,-14.160,-30.762,-15.625,-36.621,0.000
1727535089.414,-108.398,-35.156,-33.203,-56.641,0.000
1727535089.418,-144.043,-27.832,-67.383,-62.012,0.000
1727535089.422,-33.691,-23.438,-73.730,-29.785,0.000
1727535089.426,25.879,-35.156,-25.879,-32.715,0.000
1727535089.430,-3.418,-41.504,-9.277,-45.898,0.000
1727535089.434,-79.590,-36.621,-12.207,-62.012,0.000
1727535089.438,-143.066,-33.691,-14.160,-74.219,0.000
1727535089.442,-54.688,-35.156,-18.555,-41.992,0.000
1727535089.446,24.414,-37.598,-26.855,-31.738,0.000
1727535089.449,18.555,-37.598,-49.316,-39.551,0.000
1727535089.453,-51.758,-31.738,-61.035,-62.012,0.000
1727535089.457,-147.461,-29.785,-37.109,-90.332,0.000
1727535089.461,-78.613,-29.785,-27.832,-69.824,0.000
1727535089.465,14.160,-26.855,-35.645,-49.805,0.000
1727535089.469,-0.488,-29.297,-18.066,-55.176,0.000
1727535089.473,-67.383,-31.738,-13.672,-62.500,0.000
1727535089.477,-148.438,-38.086,-30.273,-81.543,0.000
1727535089.481,-82.520,-41.504,-35.156,-55.664,0.000
1727535089.485,23.438,-35.156,-27.344,-21.484,0.000
1727535089.489,21.973,-29.785,-16.602,-21.484,0.000
1727535089.492,-33.691,-28.320,-19.043,-29.297,0.000
1727535089.496,-125.488,-23.438,-18.066,-57.129,0.000
1727535089.500,-83.984,-20.996,-45.410,-51.270,0.000
1727535089.504,20.508,-22.461,-70.801,-23.926,0.000
1727535089.508,15.625,-32.227,-40.527,-33.691,0.000
1727535089.512,-37.109,-37.598,-19.531,-55.176,0.000
1727535089.516,-125.488,-28.320,-11.230,-79.102,0.000
1727535089.520,-104.492,-30.762,-5.859,-61.523,0.000
1727535089.524,16.602,-34.180,-27.832,-19.531,0.000
1727535089.528,34.180,-29.297,-41.992,-8.301,0.000
1727535089.532,-27.344,-35.645,-27.344,-31.738,0.000
1727535089.535,-132.812,-39.551,-7.812,-64.941,0.000
1727535089.539,-131.836,-35.645,-6.348,-52.246,0.000
1727535089.543,-6.836,-27.832,-35.156,-32.227,0.000
1727535089.547,29.297,-24.902,-53.223,-35.645,0.000
1727535089.551,-8.789,-29.785,-40.039,-40.527,0.000
1727535089.555,-104.492,-31.250,-28.320,-61.523,0.000
1727535089.559,-131.836,-38.574,-4.395,-68.848,0.000
1727535089.563,-20.996,-48.340,6.348,-31.250,0.000
1727535089.567,26.855,-60.547,-21.973,-10.742,0.000
1727535089.571,12.207,-61.035,-46.387,-11.230,0.000
1727535089.574,-76.660,-61.523,-33.691,-37.598,0.000
1727535089.578,-133.301,-65.918,-22.949,-59.570,0.000
1727535089.582,-32.227,-63.965,-23.438,-27.344,0.000
1727535089.586,36.133,-57.129,-24.902,-2.930,0.000
1727535089.590,20.508,-53.711,-37.598,-17.578,0.000
1727535089.594,-73.730,-57.129,-14.160,-53.223,0.000
1727535089.598,-125.488,-56.641,-19.531,-59.082,0.000
1727535089.602,-20.020,-51.758,-16.602,-28.809,0.000
1727535089.606,44.922,-55.664,7.812,-15.625,0.000
1727535089.610,33.691,-48.340,-15.625,-6.348,0.000
1727535089.614,-48.828,-40.527,-29.297,-26.855,0.000
1727535089.617,-142.090,-46.387,-6.348,-62.012,0.000
1727535089.621,-58.105,-50.781,-1.953,-51.758,0.000
1727535089.625,31.738,-52.246,-44.922,-23.926,0.000
1727535089.629,17.090,-48.828,-80.566,-20.508,0.000
1727535089.633,-63.477,-54.199,-49.316,-52.734,0.000
1727535089.637,-155.273,-56.641,-6.836,-83.008,0.000
1727535089.641,-85.938,-52.734,-13.672,-62.012,0.000
1727535089.645,17.090,-54.199,-20.996,-36.133,0.000
1727535089.649,27.832,-51.758,-13.672,-30.762,0.000
1727535089.653,-36.133,-50.781,-17.578,-53.223,0.000
1727535089.656,-137.695,-57.129,-27.832,-85.938,0.000
1727535089.660,-83.008,-62.500,-64.941,-62.988,0.000
1727535089.664,16.602,-57.129,-63.965,-32.227,0.000
1727535089.668,11.719,-52.246,-16.602,-33.203,0.000
1727535089.672,-39.062,-52.246,-20.996,-40.039,0.000
1727535089.676,-140.625,-46.387,-26.367,-69.336,0.000
1727535089.680,-113.281,-45.898,-10.254,-60.059,0.000
1727535089.684,9.766,-49.316,-26.367,-24.414,0.000
1727535089.688,34.668,-39.551,-45.898,-26.367,0.000
1727535089.692,-9.277,-34.180,-40.039,-43.457,0.000
1727535089.695,-108.398,-38.574,-48.340,-75.684,0.000
1727535089.699,-99.121,-44.434,-52.734,-65.918,0.000
1727535089.703,5.371,-47.363,-20.020,-28.320,0.000
1727535089.707,19.043,-38.574,-46.875,-24.414,0.000
1727535089.711,-15.625,-34.180,-88.379,-24.414,0.000
1727535089.715,-112.305,-39.062,-43.457,-57.129,0.000
1727535089.719,-125.000,-41.992,5.371,-59.570,0.000
1727535089.723,-9.766,-40.039,34.668,-17.090,0.000
1727535089.727,32.227,-40.039,22.461,-14.160,0.000
1727535089.731,5.859,-40.039,-41.504,-32.227,0.000
1727535089.734,-89.355,-35.645,-61.523,-59.570,0.000
1727535089.738,-123.535,-40.527,-17.090,-63.965,0.000
1727535089.742,-14.648,-43.945,-25.879,-18.555,0.000
1727535089.746,42.969,-33.691,-53.223,-1.465,0.000
1727535089.750,19.531,-28.809,-42.480,-21.484,0.000
1727535089.754,-82.520,-31.250,-53.223,-48.340,0.000
1727535089.758,-143.555,-31.250,-34.668,-63.965,0.000
1727535089.762,-41.992,-34.668,2.441,-41.992,0.000
1727535089.766,21.973,-38.574,10.742,-27.832,0.000
1727535089.770,13.184,-35.645,-9.766,-39.062,0.000
1727535089.773,-58.105,-31.250,-82.031,-45.898,0.000
1727535089.777,-120.605,-25.879,-104.492,-40.039,0.000
1727535089.781,-41.504,-31.250,-11.719,-20.996,0.000
1727535089.785,8.789,-55.176,41.504,-31.250,0.000
1727535089.789,-15.137,-61.523,35.645,-55.664,0.000
1727535089.793,-82.520,-46.387,20.020,-81.055,0.000
1727535089.797,-142.578,-29.785,-7.812,-83.008,0.000
1727535089.801,-42.969,-21.484,-22.949,-36.621,0.000
1727535089.805,47.363,-29.297,-36.621,-10.742,0.000
1727535089.809,32.227,-33.691,-58.105,-9.766,0.000
1727535089.813,-38.086,-26.855,-43.945,-36.133,0.000
1727535089.816,-140.625,-30.273,3.418,-72.266,0.000
1727535089.820,-82.031,-33.203,12.695,-48.340,0.000
1727535089.824,11.719,-33.691,-5.371,-35.645,0.000
1727535089.828,13.672,-36.621,-21.973,-38.086,0.000
1727535089.832,-36.133,-19.531,-37.109,-46.875,0.000
1727535089.836,-121.094,-12.207,-73.242,-59.082,0.000
1727535089.840,-68.359,-26.855,-73.242,-16.113,0.000
1727535089.844,13.184,-38.086,17.578,-19.531,0.000
1727535089.848,-1.465,-44.922,28.809,-55.664,0.000
1727535089.852,-65.430,-40.039,27.832,-60.059,0.000
1727535089.856,-166.992,-17.578,-35.645,-80.566,0.000
1727535089.859,-127.930,-11.230,-103.027,-81.055,0.000
1727535089.863,14.648,-30.762,-31.738,-21.484,0.000
1727535089.867,52.734,-50.293,47.363,10.742,0.000
1727535089.871,-21.973,-40.527,25.879,-28.809,0.000
1727535089.875,-136.719,-33.691,-13.672,-72.754,0.000
1727535089.879,-123.047,-33.691,-27.344,-68.848,0.000
1727535089.883,-30.273,-40.039,-44.434,-50.781,0.000
1727535089.887,0.000,-55.176,-84.961,-37.598,0.000
1727535089.891,-21.484,-53.711,-142.578,-42.969,0.000
1727535089.895,-118.164,-47.852,-29.785,-66.406,0.000
1727535089.899,-144.043,-46.875,77.637,-76.660,0.000
1727535089.902,-22.949,-85.938,47.852,-36.133,0.000
1727535089.906,31.250,-104.004,32.227,-13.672,0.000
1727535089.910,0.000,-81.055,26.367,-28.320,0.000
1727535089.914,-92.773,-82.520,-48.828,-50.293,0.000
1727535089.918,-137.207,-95.703,-91.309,-59.082,0.000
1727535089.922,-40.527,-155.762,-71.289,-52.246,0.000
1727535089.926,-11.719,-151.367,-109.375,-53.223,0.000
1727535089.930,-21.484,-149.902,-51.270,-39.062,0.000
1727535089.934,-96.191,-248.047,66.406,-63.477,0.000
1727535089.938,-125.488,-337.891,85.938,-49.805,0.000
1727535089.941,-14.648,-527.344,72.754,-24.414,0.000
1727535089.945,-3.906,-702.637,-28.320,-66.895,0.000
1727535089.949,-23.438,-742.188,-98.633,-62.500,0.000
1727535089.953,-75.195,-840.820,-46.875,-51.758,0.000
1727535089.957,-156.738,-941.406,17.090,-70.801,0.000
1727535089.961,-79.590,-979.492,66.406,-49.316,0.000
1727535089.965,-19.531,-1000.000,51.270,-51.270,0.000
1727535089.969,-93.750,-999.512,-39.062,-113.770,0.000
1727535089.973,-154.785,-1000.000,-142.090,-115.234,0.000
1727535089.977,-178.223,-1000.000,-14.160,-94.727,0.000
1727535089.981,-169.434,-1000.000,57.617,-138.184,0.000
1727535089.984,-91.309,-1000.000,-21.973,-115.234,0.000
1727535089.988,-84.961,-1000.000,12.207,-104.004,0.000
1727535089.992,-158.203,-1000.000,-80.566,-113.770,0.000
1727535089.996,-197.754,-1000.000,-242.188,-89.844,0.000
1727535090.000,-160.645,-1000.000,4.883,-110.840,0.000
1727535090.004,-100.098,-1000.000,167.969,-117.676,0.000
1727535090.008,-86.426,-1000.000,52.246,-102.051,0.000
1727535090.012,-144.043,-1000.000,-1.953,-113.281,0.000
1727535090.016,-275.391,-1000.000,-99.609,-179.199,0.000
1727535090.020,-204.102,-1000.000,-138.672,-162.109,0.000
1727535090.023,-56.152,-1000.000,-75.195,-97.168,0.000
1727535090.027,-66.406,-1000.000,10.254,-108.398,0.000
1727535090.031,-144.531,-1000.000,118.652,-157.715,0.000
1727535090.035,-301.758,-1000.000,102.051,-231.445,0.000
1727535090.039,-280.762,-1000.000,7.324,-208.984,0.000
1727535090.043,-121.094,-1000.000,-24.902,-124.023,0.000
1727535090.047,-129.883,-1000.000,-57.129,-141.113,0.000
1727535090.051,-151.855,-1000.000,-54.688,-135.254,0.000
1727535090.055,-229.492,-1000.000,-64.941,-151.367,0.000
1727535090.059,-221.191,-1000.000,-178.223,-125.000,0.000
1727535090.062,-144.043,-1000.000,-165.527,-104.980,0.000
1727535090.066,-108.398,-1000.000,52.246,-106.445,0.000
1727535090.070,-69.336,-1000.000,83.496,-54.688,0.000
1727535090.074,-209.961,-1000.000,11.719,-126.953,0.000
1727535090.078,-223.145,-1000.000,-3.906,-146.973,0.000
1727535090.082,-37.109,-1000.000,-86.426,-65.918,0.000
1727535090.086,-11.719,-1000.000,-34.668,-35.645,0.000
1727535090.090,-52.734,-1000.000,7.324,-47.363,0.000
1727535090.094,-146.484,-1000.000,-18.555,-115.723,0.000
1727535090.098,-216.797,-1000.000,9.766,-163.574,0.000
1727535090.101,-99.121,-1000.000,-15.137,-127.441,0.000
1727535090.105,-13.672,-1000.000,33.691,-53.711,0.000
1727535090.109,-29.785,-1000.000,32.715,-36.621,0.000
1727535090.113,-121.094,-1000.000,-64.941,-79.102,0.000
1727535090.117,-139.648,-1000.000,-21.973,-62.012,0.000
1727535090.121,-39.551,-1000.000,57.617,-36.133,0.000
1727535090.125,-15.625,-1000.000,39.062,-47.363,0.000
1727535090.129,-18.066,-1000.000,17.090,-37.598,0.000
1727535090.133,-81.055,-1000.000,2.441,-43.945,0.000
1727535090.137,-172.363,-1000.000,25.879,-64.453,0.000
1727535090.141,-66.406,-1000.000,51.758,-32.227,0.000
1727535090.145,54.199,-1000.000,16.113,8.789,0.000
1727535090.148,66.895,-1000.000,3.418,29.297,0.000
1727535090.152,-37.109,-1000.000,0.977,-15.137,0.000
1727535090.156,-164.551,-1000.000,9.766,-72.266,0.000
1727535090.160,-52.246,-1000.000,29.297,-21.973,0.000
1727535090.164,80.566,-1000.000,4.883,57.617,0.000
1727535090.168,31.738,-1000.000,11.719,33.203,0.000
1727535090.172,-32.715,-996.094,71.289,-22.949,0.000
1727535090.176,-108.398,-1000.000,68.848,-66.895,0.000
1727535090.180,-33.691,-957.031,47.363,-28.809,0.000
1727535090.184,71.289,-823.242,3.418,3.906,0.000
1727535090.188,56.152,-791.504,-15.137,-8.301,0.000
1727535090.191,-18.066,-767.578,32.715,-23.438,0.000
1727535090.195,-122.070,-686.523,49.316,-41.504,0.000
1727535090.199,-76.172,-642.578,39.062,-17.090,0.000
1727535090.203,36.133,-576.660,21.973,1.465,0.000
1727535090.207,32.715,-476.074,-6.348,-1.953,0.000
1727535090.211,-11.230,-377.930,-20.020,-4.395,0.000
1727535090.215,-85.938,-312.988,-12.207,-20.020,0.000
1727535090.219,-48.340,-231.445,-18.555,-0.977,0.000
1727535090.223,80.078,-148.926,-10.254,39.062,0.000
1727535090.227,91.309,-98.633,27.832,39.551,0.000
1727535090.231,26.367,-52.734,2.930,17.578,0.000
1727535090.234,-79.590,9.277,2.441,-19.043,0.000
1727535090.238,-74.219,52.734,69.336,-18.555,0.000
1727535090.242,46.875,110.352,60.059,27.344,0.000
1727535090.246,83.008,201.172,32.715,39.062,0.000
1727535090.250,45.410,249.512,32.227,20.996,0.000
1727535090.254,-49.316,311.523,23.438,-8.301,0.000
1727535090.258,-46.387,339.844,-3.418,-13.184,0.000
1727535090.262,54.199,368.164,-35.645,8.301,0.000
1727535090.266,74.707,418.945,-23.438,12.695,0.000
1727535090.270,51.758,457.520,-16.113,17.090,0.000
1727535090.273,-27.344,470.215,-12.695,2.441,0.000
1727535090.277,-42.969,574.219,20.508,0.000,0.000
1727535090.281,61.035,748.535,13.184,22.949,0.000
1727535090.285,104.980,830.078,-7.812,35.156,0.000
1727535090.289,83.008,876.953,-11.719,41.504,0.000
1727535090.293,-11.230,936.523,-11.719,6.348,0.000
1727535090.297,-98.145,968.750,3.906,-29.785,0.000
1727535090.301,-18.555,966.797,15.137,-9.766,0.000
1727535090.305,63.477,967.773,23.926,16.113,0.000
1727535090.309,62.988,968.262,6.348,21.484,0.000
1727535090.313,0.488,968.262,-18.066,-3.418,0.000
1727535090.316,-53.223,968.262,-3.418,-18.066,0.000
1727535090.320,30.273,968.262,23.438,27.832,0.000
1727535090.324,101.074,968.262,15.137,65.918,0.000
1727535090.328,98.145,968.262,-3.418,54.688,0.000
1727535090.332,18.066,968.262,4.395,17.090,0.000
1727535090.336,-78.613,968.262,8.789,-4.395,0.000
1727535090.340,12.695,968.262,-30.273,34.668,0.000
1727535090.344,127.441,968.262,-62.012,74.707,0.000
1727535090.348,110.352,968.262,-0.977,66.895,0.000
1727535090.352,35.156,968.262,21.484,30.762,0.000
1727535090.355,-59.570,967.773,-24.414,-3.418,0.000
1727535090.359,-19.531,968.262,-0.488,5.859,0.000
1727535090.363,80.566,968.262,30.273,12.207,0.000
1727535090.367,95.215,968.262,39.062,9.766,0.000
1727535090.371,20.996,968.262,34.668,-10.254,0.000
1727535090.375,-82.031,968.262,0.977,-30.273,0.000
1727535090.379,-20.508,968.262,-51.270,13.184,0.000
1727535090.383,88.379,968.262,-42.969,49.805,0.000
1727535090.387,78.125,968.262,-4.395,41.016,0.000
1727535090.391,19.531,968.262,1.465,-0.977,0.000
1727535090.395,-81.055,968.262,-8.301,-37.598,0.000
1727535090.398,-60.547,968.262,-41.016,-4.883,0.000
1727535090.402,62.988,968.262,-82.520,35.645,0.000
1727535090.406,90.332,968.262,-47.852,38.574,0.000
1727535090.410,23.438,968.262,27.832,17.578,0.000
1727535090.414,-99.609,968.262,31.250,-31.738,0.000
1727535090.418,-100.098,967.773,-7.324,-30.762,0.000
1727535090.422,17.090,967.773,-19.531,12.207,0.000
1727535090.426,49.316,968.262,-12.207,10.742,0.000
1727535090.430,9.766,968.262,-8.789,-7.812,0.000
1727535090.434,-72.754,968.262,15.137,-20.508,0.000
1727535090.437,-75.195,968.262,-16.602,-13.672,0.000
1727535090.441,27.832,968.262,-39.551,27.832,0.000
1727535090.445,54.199,968.262,-6.348,35.645,0.000
1727535090.449,28.320,968.262,-7.812,19.043,0.000
1727535090.453,-43.945,967.773,-31.738,4.883,0.000
1727535090.457,-73.730,968.262,-45.410,0.000,0.000
1727535090.461,33.691,968.262,-36.133,12.207,0.000
1727535090.465,70.312,968.262,-16.602,3.906,0.000
1727535090.469,38.086,968.262,7.812,-5.371,0.000
1727535090.473,-54.688,968.262,22.949,-25.879,0.000
1727535090.476,-104.492,968.262,-20.996,-27.832,0.000
1727535090.480,15.137,968.262,-36.133,8.301,0.000
1727535090.484,83.496,968.262,1.953,15.625,0.000
1727535090.488,42.969,968.262,11.719,-10.254,0.000
1727535090.492,-53.223,968.262,6.836,-36.621,0.000
1727535090.496,-117.676,968.262,-21.973,-49.805,0.000
1727535090.500,-18.555,968.262,-45.898,-12.695,0.000
1727535090.504,75.195,968.262,-30.273,27.344,0.000
1727535090.508,61.035,968.262,-14.160,5.371,0.000
1727535090.512,-19.531,968.262,-0.977,-29.297,0.000
1727535090.516,-96.680,968.262,-20.508,-34.180,0.000
1727535090.519,-14.648,966.309,-30.273,-9.766,0.000
1727535090.523,70.312,970.703,-1.953,7.812,0.000
1727535090.527,56.152,949.219,0.488,2.441,0.000
1727535090.531,-21.973,886.719,-25.879,-27.344,0.000
1727535090.535,-114.258,833.496,-37.109,-56.152,0.000
1727535090.539,-45.898,790.527,-31.250,-28.320,0.000
1727535090.543,49.316,760.254,-21.484,-3.906,0.000
1727535090.547,35.156,736.328,-6.348,-17.090,0.000
1727535090.551,-20.996,689.453,-20.020,-27.832,0.000
1727535090.555,-115.723,631.836,-40.527,-46.387,0.000
1727535090.559,-70.312,604.492,-30.762,-37.598,0.000
1727535090.562,56.152,585.938,-34.180,0.000,0.000
1727535090.566,56.152,543.457,-21.973,-3.418,0.000
1727535090.570,-1.953,499.023,0.488,-24.414,0.000
1727535090.574,-87.402,452.637,-30.762,-46.387,0.000
1727535090.578,-63.965,420.898,-53.711,-35.156,0.000
1727535090.582,44.434,427.734,-15.137,3.906,0.000
1727535090.586,55.176,439.941,-12.207,7.324,0.000
1727535090.590,20.996,386.719,-25.879,-2.930,0.000
1727535090.594,-55.664,307.617,-4.395,-21.484,0.000
1727535090.598,-61.523,271.484,-11.230,-15.137,0.000
1727535090.602,40.527,269.531,-21.484,15.137,0.000
1727535090.605,71.777,269.531,-24.902,10.254,0.000
1727535090.609,42.480,253.418,-34.180,-2.441,0.000
1727535090.613,-55.176,240.234,-28.320,-18.555,0.000
1727535090.617,-57.129,228.027,-21.973,0.977,0.000
1727535090.621,64.453,214.355,5.371,32.715,0.000
1727535090.625,86.426,196.777,16.602,19.043,0.000
1727535090.629,60.547,188.477,-8.301,20.020,0.000
1727535090.633,-30.762,182.617,-2.441,1.953,0.000
1727535090.637,-92.773,161.133,24.414,-22.461,0.000
1727535090.641,14.648,154.785,36.621,11.230,0.000
1727535090.645,80.566,159.668,24.902,27.344,0.000
1727535090.648,64.941,158.691,-43.457,17.578,0.000
1727535090.652,-13.184,159.180,-70.312,2.441,0.000
1727535090.656,-87.402,131.836,5.859,-9.766,0.000
1727535090.660,1.465,112.305,44.434,20.508,0.000
1727535090.664,60.547,132.812,23.926,25.879,0.000
1727535090.668,36.621,142.090,13.184,2.441,0.000
1727535090.672,-47.852,127.930,20.508,-31.738,0.000
1727535090.676,-132.324,104.980,12.695,-62.012,0.000
1727535090.680,-38.574,93.262,6.348,-32.227,0.000
1727535090.684,57.617,90.820,-8.789,-7.324,0.000
1727535090.688,60.547,83.496,-48.828,-1.465,0.000
1727535090.691,-16.113,60.547,-32.715,-22.461,0.000
1727535090.695,-110.840,39.551,12.207,-51.758,0.000
1727535090.699,-40.039,35.156,12.695,-18.066,0.000
1727535090.703,69.824,34.668,-7.324,12.207,0.000
1727535090.707,75.684,20.508,0.000,15.625,0.000
1727535090.711,2.930,-4.883,8.789,-3.418,0.000
1727535090.715,-91.797,-19.043,-17.578,-38.086,0.000
1727535090.719,-31.738,-24.902,-49.805,-5.371,0.000
1727535090.723,79.590,-21.484,-50.781,38.574,0.000
1727535090.727,72.266,-16.113,-7.812,27.832,0.000
1727535090.730,-2.441,-25.391,3.906,0.977,0.000
1727535090.734,-101.562,-29.297,-11.230,-29.785,0.000
1727535090.738,-60.547,-25.391,-24.414,-17.578,0.000
1727535090.742,56.641,-27.832,-38.086,16.113,0.000
1727535090.746,55.664,-28.809,-11.719,8.301,0.000
1727535090.750,-4.883,-50.293,-1.953,-10.742,0.000
1727535090.754,-98.633,-65.430,-12.695,-30.273,0.000
1727535090.758,-69.336,-48.828,-12.695,-14.160,0.000
1727535090.762,38.086,-63.477,-13.184,13.184,0.000
1727535090.766,50.293,-86.914,-15.137,2.930,0.000
1727535090.770,10.254,-70.312,-13.672,-15.137,0.000
1727535090.773,-92.773,-50.293,-21.484,-49.805,0.000
1727535090.777,-89.844,-62.500,-28.320,-47.363,0.000
1727535090.781,26.855,-83.008,-57.129,-10.254,0.000
1727535090.785,51.270,-73.730,-85.449,-3.418,0.000
1727535090.789,3.906,-64.453,-60.547,-21.973,0.000
1727535090.793,-104.004,-74.707,-19.043,-67.871,0.000
1727535090.797,-124.023,-79.590,-3.906,-63.477,0.000
1727535090.801,-1.953,-66.895,0.977,-25.391,0.000
1727535090.805,48.828,-44.922,-16.602,-20.508,0.000
1727535090.809,18.066,-28.320,-26.367,-15.625,0.000
1727535090.812,-78.125,10.254,-27.832,-36.133,0.000
1727535090.816,-115.234,59.570,-56.641,-48.340,0.000
1727535090.820,-2.930,103.516,-44.922,-15.625,0.000
1727535090.824,49.316,125.977,-14.648,-1.465,0.000
1727535090.828,25.879,135.742,-17.090,-6.836,0.000
1727535090.832,-54.199,158.203,-12.695,-32.715,0.000
1727535090.836,-102.539,166.504,-38.574,-40.527,0.000
1727535090.840,1.465,166.016,-61.523,0.000,0.000
1727535090.844,52.246,174.805,-46.875,15.625,0.000
1727535090.848,23.926,173.340,-28.809,3.418,0.000
1727535090.851,-54.688,181.641,-17.090,-12.207,0.000
1727535090.855,-132.324,195.312,-28.320,-34.668,0.000
1727535090.859,-41.504,200.195,-29.297,-14.160,0.000
1727535090.863,39.551,207.031,-20.020,-0.488,0.000
1727535090.867,25.879,206.543,-12.695,-14.648,0.000
1727535090.871,-36.133,201.660,-10.254,-36.133,0.000
1727535090.875,-109.863,196.777,-37.598,-61.035,0.000
1727535090.879,-35.156,193.848,-42.480,-27.344,0.000
1727535090.883,66.406,185.547,-36.621,8.789,0.000
1727535090.887,62.500,185.547,-54.688,6.348,0.000
1727535090.891,0.488,204.102,-71.289,-10.742,0.000
1727535090.894,-97.656,181.641,-59.570,-31.738,0.000
1727535090.898,-53.223,138.184,-9.277,-16.602,0.000
1727535090.902,54.199,143.066,-7.812,14.160,0.000
1727535090.906,60.547,153.809,-43.457,8.789,0.000
1727535090.910,2.441,139.160,-23.438,-11.719,0.000
1727535090.914,-93.750,128.906,1.465,-38.086,0.000
1727535090.918,-52.246,156.250,-12.695,-17.090,0.000
1727535090.922,52.734,83.496,-30.762,1.953,0.000
1727535090.926,41.992,-20.996,-41.504,-29.785,0.000
1727535090.930,-7.812,-17.578,-34.180,-42.969,0.000
1727535090.934,-98.145,13.672,-31.250,-48.828,0.000
1727535090.937,-79.590,62.500,-63.477,-39.551,0.000
1727535090.941,32.227,81.543,-78.125,-4.395,0.000
1727535090.945,46.875,75.195,-49.805,9.277,0.000
1727535090.949,9.766,95.215,-29.785,-3.418,0.000
1727535090.953,-85.449,122.559,-55.176,-21.484,0.000
1727535090.957,-80.566,131.348,-68.359,-17.090,0.000
1727535090.961,33.203,117.188,-16.113,13.184,0.000
1727535090.965,50.781,95.215,12.207,9.277,0.000
1727535090.969,11.719,88.379,-20.020,-32.227,0.000
1727535090.973,-80.078,92.285,-43.945,-60.547,0.000
1727535090.977,-100.098,83.496,-20.020,-56.641,0.000
1727535090.980,22.461,82.520,-13.672,-23.438,0.000
1727535090.984,67.871,98.145,-22.461,-11.719,0.000
1727535090.988,20.020,99.121,-29.297,-29.785,0.000
1727535090.992,-81.543,38.574,-53.711,-50.293,0.000
1727535090.996,-116.699,1.953,-46.875,-45.410,0.000
1727535091.000,-4.883,22.949,-21.973,-6.348,0.000
1727535091.004,50.293,33.203,-29.297,8.301,0.000
1727535091.008,21.484,43.945,-46.387,-11.719,0.000
1727535091.012,-68.848,39.551,-48.340,-43.457,0.000
1727535091.016,-123.535,22.949,-75.684,-60.547,0.000
1727535091.020,-18.066,14.160,-81.055,-28.320,0.000
1727535091.023,47.363,-6.836,-33.203,-9.766,0.000
1727535091.027,20.996,-67.383,-10.742,-22.949,0.000
1727535091.031,-55.664,-115.234,-16.113,-45.898,0.000
1727535091.035,-122.559,-81.543,-20.020,-55.664,0.000
1727535091.039,-45.410,-36.621,-21.484,-20.996,0.000
1727535091.043,42.969,-17.578,-26.855,1.465,0.000
1727535091.047,34.668,-46.875,-29.785,-5.371,0.000
1727535091.051,-56.641,-117.188,-30.273,-30.273,0.000
1727535091.055,-137.695,-92.773,-45.898,-49.316,0.000
1727535091.059,-53.223,-65.918,-79.590,-19.531,0.000
1727535091.062,43.457,-65.918,-72.754,0.000,0.000
1727535091.066,38.574,-34.668,-30.273,-7.812,0.000
1727535091.070,-22.461,-22.461,4.395,-30.273,0.000
1727535091.074,-114.258,-22.949,-1.953,-57.617,0.000
1727535091.078,-66.406,-27.832,-18.066,-43.457,0.000
1727535091.082,29.785,-19.531,-27.832,-19.043,0.000
1727535091.086,26.367,-5.371,-37.109,-24.902,0.000
1727535091.090,-27.832,0.000,-24.414,-43.457,0.000
1727535091.094,-110.352,4.395,-41.016,-58.594,0.000
1727535091.098,-71.289,5.371,-84.961,-39.062,0.000
1727535091.102,31.250,-15.625,-59.082,-17.578,0.000
1727535091.105,41.992,-21.484,-26.855,-23.438,0.000
1727535091.109,-2.930,-61.523,-24.902,-27.344,0.000
1727535091.113,-99.609,-82.031,-34.180,-47.363,0.000
1727535091.117,-93.750,-33.203,-47.852,-38.574,0.000
1727535091.121,13.184,-88.379,-23.926,-18.066,0.000
1727535091.125,29.785,-131.836,-12.695,-21.484,0.000
1727535091.129,-12.207,-65.918,-37.598,-19.531,0.000
1727535091.133,-107.422,-55.176,-53.711,-49.316,0.000
1727535091.137,-119.629,-90.332,-36.621,-39.551,0.000
1727535091.141,-0.488,-50.781,-26.367,8.301,0.000
1727535091.144,44.922,-23.926,-17.578,4.395,0.000
1727535091.148,12.695,-46.875,-26.367,-7.812,0.000
1727535091.152,-74.707,-79.102,-28.320,-33.691,0.000
1727535091.156,-100.586,-81.055,-8.789,-35.645,0.000
1727535091.160,-8.301,-80.566,-27.344,-15.137,0.000
1727535091.164,24.902,-53.223,-43.945,-19.043,0.000
1727535091.168,2.930,-36.621,-37.109,-31.250,0.000
1727535091.172,-91.797,-40.039,-35.156,-68.359,0.000
1727535091.176,-138.672,-26.367,-29.297,-68.848,0.000
1727535091.180,-18.066,-46.387,-32.227,-22.949,0.000
1727535091.184,47.363,-134.766,-50.781,-15.137,0.000
1727535091.187,31.250,-134.277,-70.312,-12.207,0.000
1727535091.191,-46.875,-56.152,-50.293,-25.391,0.000
1727535091.195,-118.652,-28.809,-30.762,-55.664,0.000
1727535091.199,-25.391,-23.438,-34.180,-29.297,0.000
1727535091.203,46.387,-15.137,-17.578,-10.254,0.000
1727535091.207,20.020,-6.836,-1.465,-15.625,0.000
1727535091.211,-55.664,3.906,-6.836,-34.668,0.000
1727535091.215,-128.906,12.207,-11.719,-49.805,0.000
1727535091.219,-41.016,17.578,-17.578,-18.555,0.000
1727535091.223,43.457,11.719,-20.020,-1.953,0.000
1727535091.226,37.109,13.184,-44.434,-6.348,0.000
1727535091.230,-23.926,19.043,-92.773,-14.160,0.000
1727535091.234,-118.164,3.418,-65.430,-40.039,0.000
1727535091.238,-66.406,-10.254,2.441,-37.598,0.000
1727535091.242,24.902,1.465,15.625,-17.090,0.000
1727535091.246,19.043,14.160,6.836,-17.090,0.000
1727535091.250,-33.691,9.277,-4.883,-32.227,0.000
1727535091.254,-113.281,7.324,-45.410,-44.434,0.000
1727535091.258,-57.129,7.812,-84.473,-21.484,0.000
1727535091.262,42.969,-5.371,-68.848,20.996,0.000
1727535091.266,57.129,-5.371,-34.180,23.438,0.000
1727535091.269,6.836,1.465,-25.391,-33.203,0.000
1727535091.273,-119.141,6.836,-38.574,-87.402,0.000
1727535091.277,-90.332,23.926,-23.926,-60.547,0.000
1727535091.281,21.973,17.578,0.488,-23.926,0.000
1727535091.285,31.250,-6.836,-24.902,-26.367,0.000
1727535091.289,1.465,-6.836,-71.289,-32.715,0.000
1727535091.293,-99.609,-12.695,-40.527,-60.059,0.000
1727535091.297,-99.609,-23.438,-15.137,-61.035,0.000
1727535091.301,9.277,-33.691,-24.902,-27.344,0.000
1727535091.305,31.738,-49.805,-0.977,-18.555,0.000
1727535091.309,-2.930,-50.293,-5.371,-35.156,0.000
1727535091.312,-101.562,-54.199,-35.645,-63.965,0.000
1727535091.316,-109.375,-62.500,-47.363,-62.988,0.000
1727535091.320,19.531,-49.316,-40.527,-19.043,0.000
1727535091.324,61.523,-19.531,-41.992,-1.953,0.000
1727535091.328,21.973,-15.625,-61.035,-5.371,0.000
1727535091.332,-79.590,-41.504,-60.059,-39.062,0.000
1727535091.336,-120.605,-50.781,-17.090,-61.035,0.000
1727535091.340,-19.043,-34.180,7.812,-30.762,0.000
1727535091.344,30.273,-22.949,-17.090,-12.695,0.000
1727535091.348,4.883,-28.809,-45.898,-9.277,0.000
1727535091.352,-83.008,-45.410,-43.457,-24.414,0.000
1727535091.355,-121.094,-53.711,-51.270,-38.574,0.000
1727535091.359,-6.348,-52.734,-54.688,-24.902,0.000
1727535091.363,64.941,-48.340,-20.508,-16.113,0.000
1727535091.367,43.945,-44.434,-10.254,-16.602,0.000
1727535091.371,-52.734,-56.152,-26.855,-41.504,0.000
1727535091.375,-119.629,-66.895,-26.855,-57.617,0.000
1727535091.379,-17.090,-70.801,-45.410,-28.809,0.000
1727535091.383,56.641,-74.707,-42.480,-15.625,0.000
1727535091.387,13.184,-83.008,-26.367,-18.555,0.000
1727535091.391,-68.848,-92.285,-39.551,-46.875,0.000
1727535091.395,-114.746,-78.613,-48.828,-61.035,0.000
1727535091.398,-25.391,-61.035,-35.645,-21.973,0.000
1727535091.402,51.270,-55.664,0.000,-0.488,0.000
1727535091.406,36.133,-49.805,0.488,-11.719,0.000
1727535091.410,-37.598,-43.457,-6.836,-32.715,0.000
1727535091.414,-118.164,-38.574,-18.555,-47.363,0.000
1727535091.418,-37.109,-39.551,-47.852,-16.602,0.000
1727535091.422,74.707,-41.504,-92.773,17.090,0.000
1727535091.426,71.289,-44.922,-79.102,15.137,0.000
1727535091.430,-3.906,-56.641,-3.906,-20.996,0.000
1727535091.434,-107.422,-77.637,22.949,-67.871,0.000
1727535091.437,-51.270,-84.473,6.348,-33.691,0.000
1727535091.441,58.594,-104.980,-30.273,13.184,0.000
1727535091.445,57.617,-93.262,-42.969,7.812,0.000
1727535091.449,-4.395,-52.246,-22.461,-6.836,0.000
1727535091.453,-94.727,-61.035,-16.602,-36.621,0.000
1727535091.457,-59.570,-64.453,-31.250,-15.137,0.000
1727535091.461,52.246,-54.199,-57.617,22.949,0.000
1727535091.465,73.242,-56.152,-72.266,10.742,0.000
1727535091.469,22.949,-69.336,-42.969,-13.672,0.000
1727535091.473,-69.336,-88.379,-10.254,-40.527,0.000
1727535091.477,-59.570,-105.469,1.953,-39.551,0.000
1727535091.480,44.434,-104.980,-10.742,-4.883,0.000
1727535091.484,66.895,-111.816,-16.113,9.766,0.000
1727535091.488,13.184,-130.859,-10.254,-11.719,0.000
1727535091.492,-89.355,-132.812,-29.297,-48.340,0.000
1727535091.496,-83.496,-133.301,-42.969,-38.574,0.000
1727535091.500,39.551,-134.277,-26.367,1.953,0.000
1727535091.504,68.848,-128.418,-14.648,3.418,0.000
1727535091.508,32.227,-123.047,-33.203,-10.742,0.000
1727535091.512,-70.801,-106.934,-40.039,-36.621,0.000
1727535091.516,-98.145,-106.445,-32.715,-27.344,0.000
1727535091.519,18.555,-127.441,-47.363,12.695,0.000
1727535091.523,61.035,-115.723,-56.641,15.137,0.000
1727535091.527,33.691,-92.285,-45.410,2.441,0.000
1727535091.531,-46.875,-93.750,-24.902,-19.531,0.000
1727535091.535,-98.145,-109.375,-10.254,-29.297,0.000
1727535091.539,-7.812,-113.281,-19.043,-3.418,0.000
1727535091.543,54.688,-89.844,-23.438,3.906,0.000
1727535091.547,40.527,-77.148,-20.508,0.000,0.000
1727535091.551,-34.180,-66.406,-32.715,-18.555,0.000
1727535091.555,-87.891,-64.453,-47.852,-38.086,0.000
1727535091.558,13.672,-86.914,-59.570,-16.113,0.000
1727535091.562,81.055,-100.586,-47.363,4.395,0.000
1727535091.566,54.199,-103.516,-15.137,-5.371,0.000
1727535091.570,-18.066,-99.121,-22.461,-33.691,0.000
1727535091.574,-98.145,-97.168,-45.898,-50.293,0.000
1727535091.578,-24.902,-94.238,-41.016,-22.949,0.000
1727535091.582,58.105,-91.797,-30.762,-2.441,0.000
1727535091.586,43.457,-75.684,-16.113,-10.254,0.000
1727535091.590,-27.832,-60.547,-16.113,-28.320,0.000
1727535091.594,-105.469,-63.477,-23.926,-47.852,0.000
1727535091.597,-18.555,-55.176,-17.090,-11.230,0.000
1727535091.601,84.961,-54.688,-17.578,17.090,0.000
1727535091.605,66.895,-63.965,-35.156,3.906,0.000
1727535091.609,-10.742,-64.941,-56.641,-16.113,0.000
1727535091.613,-116.211,-60.059,-59.082,-36.133,0.000
1727535091.617,-62.500,-54.688,-46.875,-5.859,0.000
1727535091.621,52.246,-52.246,-44.922,22.461,0.000
1727535091.625,56.641,-54.199,-32.227,11.719,0.000
1727535091.629,7.324,-47.852,-15.137,-6.348,0.000
1727535091.633,-95.703,-45.898,-17.090,-32.227,0.000
1727535091.636,-69.336,-46.875,-20.508,-17.578,0.000
1727535091.640,43.457,-52.246,-19.531,14.648,0.000
1727535091.644,47.852,-71.777,-23.438,1.465,0.000
1727535091.648,14.160,-76.660,-21.973,-22.461,0.000
1727535091.652,-73.730,-81.055,-41.016,-34.180,0.000
1727535091.656,-69.336,-90.332,-58.105,-14.648,0.000
1727535091.660,39.062,-84.961,-42.480,15.625,0.000
1727535091.664,64.941,-76.172,-31.738,20.020,0.000
1727535091.668,43.457,-71.289,-43.945,12.695,0.000
1727535091.672,-44.922,-66.406,-49.316,-19.531,0.000
1727535091.676,-62.012,-73.730,-33.691,-31.738,0.000
1727535091.679,41.992,-78.613,-26.367,0.000,0.000
1727535091.683,80.566,-73.730,-22.461,9.766,0.000
1727535091.687,53.223,-76.172,-15.625,0.977,0.000
1727535091.691,-41.016,-85.938,-22.949,-29.785,0.000
1727535091.695,-73.242,-89.844,-39.062,-27.344,0.000
1727535091.699,30.762,-76.172,-52.246,19.531,0.000
1727535091.703,83.008,-63.965,-41.016,34.180,0.000
1727535091.707,51.758,-73.242,-20.996,21.484,0.000
1727535091.711,-53.223,-84.473,-8.789,-22.949,0.000
1727535091.715,-107.910,-87.402,-1.465,-39.062,0.000
1727535091.719,-7.812,-87.402,-3.418,-1.465,0.000
1727535091.722,57.617,-77.148,-5.859,17.090,0.000
1727535091.726,33.203,-72.754,-11.719,13.184,0.000
1727535091.730,-45.898,-72.754,-16.602,-9.277,0.000
1727535091.734,-96.191,-64.941,-28.320,-20.996,0.000
1727535091.738,1.953,-61.035,-39.062,8.301,0.000
1727535091.742,82.031,-54.688,-40.527,31.738,0.000
1727535091.746,78.613,-47.852,-31.250,31.738,0.000
1727535091.750,0.977,-56.152,-44.434,-3.906,0.000
1727535091.754,-83.496,-69.824,-55.176,-29.785,0.000
1727535091.758,-7.812,-74.707,-26.855,-4.883,0.000
1727535091.762,70.312,-78.125,-8.301,19.043,0.000
1727535091.765,71.289,-78.125,-3.418,23.926,0.000
1727535091.769,7.324,-75.684,-5.371,-10.254,0.000
1727535091.773,-83.984,-74.707,-16.113,-36.621,0.000
1727535091.777,0.977,-67.383,-16.602,6.348,0.000
1727535091.781,95.215,-74.219,-16.113,25.391,0.000
1727535091.785,72.266,-97.656,-7.812,5.371,0.000
1727535091.789,20.996,-98.145,-15.625,-0.488,0.000
1727535091.793,-62.012,-89.355,-65.430,-11.719,0.000
1727535091.797,-18.555,-93.262,-73.242,4.395,0.000
1727535091.801,82.031,-91.309,-26.855,35.156,0.000
1727535091.804,83.496,-98.145,-4.395,20.996,0.000
1727535091.808,28.320,-106.934,-3.418,2.930,0.000
1727535091.812,-71.289,-99.121,0.488,-15.137,0.000
1727535091.816,-46.387,-96.680,-11.719,-7.324,0.000
1727535091.820,67.383,-97.656,-33.691,38.086,0.000
1727535091.824,82.031,-96.191,-48.340,44.922,0.000
1727535091.828,43.457,-95.703,-54.688,21.484,0.000
1727535091.832,-46.875,-99.609,-46.875,6.836,0.000
1727535091.836,-41.992,-103.027,-26.367,14.160,0.000
1727535091.840,73.730,-102.539,-19.043,29.785,0.000
1727535091.844,90.332,-103.027,-12.207,29.785,0.000
1727535091.847,39.551,-108.398,-29.785,9.766,0.000
1727535091.851,-56.641,-111.328,-49.805,-23.926,0.000
1727535091.855,-61.523,-108.398,-35.645,-15.137,0.000
1727535091.859,52.734,-109.375,-26.367,24.902,0.000
1727535091.863,88.379,-119.629,-45.410,23.926,0.000
1727535091.867,59.082,-127.441,-49.805,13.184,0.000
1727535091.871,-38.574,-129.883,-33.691,-8.301,0.000
1727535091.875,-76.660,-131.348,-51.758,-14.648,0.000
1727535091.879,30.273,-128.906,-38.086,26.367,0.000
1727535091.883,80.078,-130.371,-12.207,34.180,0.000
1727535091.886,54.688,-134.766,-20.508,6.348,0.000
1727535091.890,-41.992,-136.230,-2.441,-17.578,0.000
1727535091.894,-94.238,-142.090,-5.371,-7.812,0.000
1727535091.898,19.531,-147.949,-37.598,31.250,0.000
1727535091.902,86.426,-145.996,-25.879,33.691,0.000
1727535091.906,63.477,-143.066,-20.020,20.508,0.000
1727535091.910,-29.297,-148.438,-47.852,1.465,0.000
1727535091.914,-113.281,-143.555,-70.312,-12.207,0.000
1727535091.918,-7.324,-148.438,-74.219,18.066,0.000
1727535091.922,86.914,-168.945,-43.945,44.434,0.000
1727535091.926,59.082,-172.852,7.812,36.133,0.000
1727535091.929,-28.320,-168.945,25.879,-3.906,0.000
1727535091.933,-108.398,-154.297,-1.465,-23.926,0.000
1727535091.937,-22.461,-144.043,-37.109,3.906,0.000
1727535091.941,70.801,-142.578,-34.180,25.879,0.000
1727535091.945,57.617,-142.090,-12.207,23.438,0.000
1727535091.949,-2.930,-134.277,-3.906,2.930,0.000
1727535091.953,-85.449,-126.465,-16.113,-18.066,0.000
1727535091.957,-23.926,-134.766,-33.691,6.836,0.000
1727535091.961,86.914,-131.836,-44.922,43.945,0.000
1727535091.965,92.285,-116.211,-53.711,51.270,0.000
1727535091.968,28.809,-115.723,-37.109,27.832,0.000
1727535091.972,-70.801,-122.070,-15.625,-15.625,0.000
1727535091.976,-24.902,-118.164,-18.066,-3.418,0.000
1727535091.980,83.984,-116.699,-9.277,25.391,0.000
1727535091.984,76.660,-121.582,2.930,24.414,0.000
1727535091.988,7.812,-126.465,-10.254,5.371,0.000
1727535091.992,-76.660,-131.836,-16.602,-30.273,0.000
1727535091.996,-47.852,-131.836,7.812,-14.160,0.000
1727535092.000,51.270,-120.605,8.301,24.902,0.000
1727535092.003,69.336,-115.723,-61.523,24.414,0.000
1727535092.007,24.414,-119.629,-66.895,12.695,0.000
1727535092.011,-68.848,-122.559,-10.742,-22.461,0.000
1727535092.015,-59.082,-121.582,2.441,-30.273,0.000
1727535092.019,50.781,-116.699,18.555,4.395,0.000
1727535092.023,69.824,-114.258,18.066,15.137,0.000
1727535092.027,20.996,-109.863,-12.207,9.277,0.000
1727535092.031,-72.754,-99.121,-35.156,-23.926,0.000
1727535092.035,-75.195,-93.750,-26.855,-21.973,0.000
1727535092.039,31.738,-99.121,-8.301,21.973,0.000
1727535092.043,66.895,-100.586,-6.348,26.855,0.000
1727535092.047,35.156,-103.027,-4.395,14.160,0.000
1727535092.050,-65.430,-105.957,-5.371,-14.648,0.000
1727535092.054,-99.609,-105.957,-29.785,-23.926,0.000
1727535092.058,7.324,-106.934,-42.969,0.977,0.000
1727535092.062,56.641,-103.027,-17.090,1.953,0.000
1727535092.066,41.504,-100.586,-4.883,-0.977,0.000
1727535092.070,-39.062,-108.398,-0.977,-23.926,0.000
1727535092.074,-91.309,-110.352,-2.930,-36.133,0.000
1727535092.078,16.113,-100.098,-35.156,1.953,0.000
1727535092.082,84.961,-85.938,-40.527,27.344,0.000
1727535092.086,61.035,-82.031,-19.531,18.555,0.000
1727535092.090,-22.949,-83.008,-23.926,-12.207,0.000
1727535092.093,-87.891,-67.871,-44.434,-26.367,0.000
1727535092.097,9.277,-34.668,-29.785,8.789,0.000
1727535092.101,83.008,1.465,3.906,18.066,0.000
1727535092.105,55.664,27.344,12.695,-0.488,0.000
1727535092.109,-23.438,48.340,8.789,-20.996,0.000
1727535092.113,-92.773,62.500,-8.789,-36.621,0.000
1727535092.117,-11.230,41.504,-30.762,0.488,0.000
1727535092.121,70.312,6.348,-15.137,26.855,0.000
1727535092.125,51.758,-12.207,-4.395,15.625,0.000
1727535092.129,-25.391,-24.414,-25.391,-18.066,0.000
1727535092.132,-100.098,-25.391,-39.062,-34.180,0.000
1727535092.136,-26.367,-36.621,-40.039,0.000,0.000
1727535092.140,76.172,-45.898,-8.301,27.344,0.000
1727535092.144,79.590,-49.316,18.555,31.738,0.000
1727535092.148,13.184,-68.359,20.020,12.207,0.000
1727535092.152,-82.031,-72.754,16.602,-16.602,0.000
1727535092.156,-27.344,-69.824,0.977,1.953,0.000
1727535092.160,83.984,-70.801,-8.789,30.762,0.000
1727535092.164,76.660,-79.102,-5.371,32.227,0.000
1727535092.168,14.160,-86.426,-2.441,2.930,0.000
1727535092.172,-88.867,-94.727,-16.113,-32.715,0.000
1727535092.175,-58.105,-91.309,-40.527,-19.043,0.000
1727535092.179,66.406,-81.055,-49.805,16.113,0.000
1727535092.183,87.891,-86.426,-46.875,25.391,0.000
1727535092.187,43.457,-85.938,-29.785,7.324,0.000
1727535092.191,-54.688,-86.426,-9.766,-23.926,0.000
1727535092.195,-59.570,-83.984,-6.348,-17.090,0.000
1727535092.199,40.527,-82.520,-17.578,10.742,0.000
1727535092.203,60.059,-85.449,-11.230,8.301,0.000
1727535092.207,19.531,-84.961,3.418,-7.324,0.000
1727535092.211,-75.195,-76.660,-7.812,-36.621,0.000
1727535092.215,-84.961,-61.523,-18.066,-43.945,0.000
1727535092.218,29.785,-49.316,-11.719,-5.859,0.000
1727535092.222,64.941,-37.598,-34.180,10.742,0.000
1727535092.226,27.832,-24.414,-50.293,0.977,0.000
1727535092.230,-69.336,-14.160,-28.809,-17.090,0.000
1727535092.234,-107.422,-15.137,-19.043,-18.555,0.000
1727535092.238,6.348,-6.348,-14.160,6.836,0.000
1727535092.242,60.547,-4.395,-4.883,13.672,0.000
1727535092.246,31.738,-15.625,-23.438,11.230,0.000
1727535092.250,-45.410,-7.324,-37.109,-20.020,0.000
1727535092.254,-93.750,11.719,-46.387,-37.109,0.000
1727535092.257,5.859,21.973,-53.223,-14.648,0.000
1727535092.261,61.523,24.414,-32.227,-15.625,0.000
1727535092.265,41.504,26.367,-38.086,-10.254,0.000
1727535092.269,-30.273,25.391,-37.598,-22.949,0.000
1727535092.273,-112.793,16.113,-14.160,-54.199,0.000
1727535092.277,-29.297,9.766,3.418,-20.508,0.000
1727535092.281,71.289,12.207,3.418,9.766,0.000
1727535092.285,66.406,19.043,-13.184,7.324,0.000
1727535092.289,-15.137,19.043,-62.012,-10.742,0.000
1727535092.293,-87.891,18.555,-92.773,-25.879,0.000
1727535092.296,-8.301,20.508,-36.621,4.395,0.000
1727535092.300,67.871,15.137,4.395,21.973,0.000
1727535092.304,64.941,16.113,13.184,17.090,0.000
1727535092.308,1.465,20.020,4.395,-2.930,0.000
1727535092.312,-96.680,11.719,-23.926,-39.551,0.000
1727535092.316,-33.203,18.066,-31.738,-13.672,0.000
1727535092.320,66.406,21.973,-23.926,14.648,0.000
1727535092.324,62.012,-8.789,-33.203,2.441,0.000
1727535092.328,11.230,-33.203,-42.969,-13.184,0.000
1727535092.332,-80.566,-27.832,-50.293,-35.156,0.000
1727535092.335,-36.621,-25.879,-50.293,-26.367,0.000
1727535092.339,73.242,-43.457,-21.973,-0.977,0.000
1727535092.343,64.453,-51.758,-1.465,5.371,0.000
1727535092.347,-13.184,-34.180,-1.465,-16.602,0.000
1727535092.351,-126.953,-25.391,-7.812,-49.316,0.000
1727535092.355,-97.168,-21.484,-25.879,-31.250,0.000
1727535092.359,26.855,-8.301,-58.594,-9.277,0.000
1727535092.363,50.293,5.859,-62.500,-19.531,0.000
1727535092.367,7.324,17.578,-47.363,-28.809,0.000
1727535092.371,-90.820,20.020,-35.645,-53.223,0.000
1727535092.374,-95.215,12.207,-28.809,-54.199,0.000
1727535092.378,14.648,10.254,-33.203,-24.902,0.000
1727535092.382,51.270,10.254,-22.461,-15.137,0.000
1727535092.386,21.484,-9.766,-10.254,-24.902,0.000
1727535092.390,-76.660,-56.152,-23.926,-57.129,0.000
1727535092.394,-92.285,-77.637,-36.133,-57.617,0.000
1727535092.398,24.902,-70.312,-20.020,-7.812,0.000
1727535092.402,59.570,-61.035,-22.461,2.930,0.000
1727535092.406,25.391,-50.293,-35.156,-14.160,0.000
1727535092.410,-66.895,-48.828,-46.387,-50.781,0.000
1727535092.414,-98.145,-32.715,-63.965,-51.270,0.000
1727535092.417,14.648,-14.160,-41.504,-5.859,0.000
1727535092.421,63.965,-3.906,-17.090,13.184,0.000
1727535092.425,40.039,26.367,-24.902,7.324,0.000
1727535092.429,-62.988,47.363,-5.859,-36.133,0.000
1727535092.433,-127.441,61.035,12.207,-52.246,0.000
1727535092.437,-20.020,75.195,-4.883,-10.742,0.000
1727535092.441,50.781,74.219,-20.996,3.906,0.000
1727535092.445,39.551,62.988,-25.391,-1.953,0.000
1727535092.449,-42.480,53.711,-54.688,-26.855,0.000
1727535092.453,-117.188,50.781,-53.711,-45.898,0.000
1727535092.457,-17.090,62.012,-21.484,-22.461,0.000
1727535092.460,63.477,93.262,-12.207,0.488,0.000
1727535092.464,39.551,107.422,-9.277,-7.324,0.000
1727535092.468,-34.180,111.816,-12.207,-35.156,0.000
1727535092.472,-113.770,122.070,-8.789,-44.434,0.000
1727535092.476,-34.668,127.930,-9.277,-7.324,0.000
1727535092.480,62.012,108.887,-38.574,18.066,0.000
1727535092.484,59.082,74.707,-54.199,11.230,0.000
1727535092.488,-24.414,38.086,-38.086,-21.973,0.000
1727535092.492,-126.953,-4.883,-33.203,-50.781,0.000
1727535092.496,-61.035,-12.695,-44.434,-21.973,0.000
1727535092.500,46.875,5.859,-21.973,1.953,0.000
1727535092.503,41.016,33.691,7.812,-18.066,0.000
1727535092.507,-31.738,57.617,8.789,-33.203,0.000
1727535092.511,-125.000,79.590,-8.789,-48.828,0.000
1727535092.515,-78.125,104.492,-39.551,-38.086,0.000
1727535092.519,33.691,119.629,-44.434,-6.836,0.000
1727535092.523,50.781,125.977,-36.133,-9.277,0.000
1727535092.527,0.488,129.395,-33.691,-28.320,0.000
1727535092.531,-110.352,135.742,-4.395,-61.523,0.000
1727535092.535,-97.168,135.254,7.324,-55.664,0.000
1727535092.539,24.902,137.695,-14.648,-8.301,0.000
1727535092.543,42.480,138.672,-18.555,0.977,0.000
1727535092.546,-2.441,130.859,-16.113,-21.973,0.000
1727535092.550,-90.332,130.371,-10.742,-47.852,0.000
1727535092.554,-96.680,119.629,-15.137,-50.293,0.000
1727535092.558,14.648,107.422,-32.227,-15.137,0.000
1727535092.562,41.504,116.699,-47.852,-5.859,0.000
1727535092.566,-2.441,83.984,-56.152,-20.020,0.000
1727535092.570,-91.797,-13.672,-27.832,-49.805,0.000
1727535092.574,-105.957,-40.527,-12.207,-56.152,0.000
1727535092.578,8.789,-1.953,-20.996,-20.996,0.000
1727535092.582,36.133,16.602,-40.039,-0.977,0.000
1727535092.585,0.000,22.949,-47.852,-5.371,0.000
1727535092.589,-75.684,28.809,-27.344,-44.922,0.000
1727535092.593,-114.746,40.039,-22.949,-50.781,0.000
1727535092.597,-8.789,41.992,-38.574,-16.113,0.000
1727535092.601,55.176,43.945,-30.273,-13.672,0.000
1727535092.605,23.926,41.504,-2.930,-26.855,0.000
1727535092.609,-68.848,29.297,-5.859,-51.270,0.000
1727535092.613,-118.164,25.391,-32.715,-47.852,0.000
1727535092.617,-5.859,20.508,-28.320,-11.719,0.000
1727535092.621,57.129,-0.977,-22.949,-15.137,0.000
1727535092.625,31.250,-15.137,-23.926,-25.391,0.000
1727535092.628,-51.758,-18.555,-25.391,-29.297,0.000
1727535092.632,-127.441,-30.762,-27.832,-53.711,0.000
1727535092.636,-35.645,-73.242,-26.855,-38.574,0.000
1727535092.640,45.898,-120.605,-19.043,-8.789,0.000
1727535092.644,28.809,-129.883,-26.855,-13.672,0.000
1727535092.648,-53.223,-145.508,-36.621,-35.645,0.000
1727535092.652,-140.137,-168.457,-45.898,-50.781,0.000
1727535092.656,-59.082,-170.410,-45.898,-26.367,0.000
1727535092.660,30.273,-178.223,-19.043,-17.578,0.000
1727535092.664,16.602,-184.082,-1.465,-22.949,0.000
1727535092.667,-43.457,-176.270,-7.812,-45.410,0.000
1727535092.671,-130.371,-172.363,-29.785,-73.242,0.000
1727535092.675,-63.965,-179.199,-45.898,-35.156,0.000
1727535092.679,37.598,-178.711,-52.734,-14.160,0.000
1727535092.683,22.461,-176.758,-60.547,-26.855,0.000
1727535092.687,-32.715,-162.109,-47.852,-41.016,0.000
1727535092.691,-133.301,-127.930,-22.461,-68.359,0.000
1727535092.695,-104.004,-103.027,-16.602,-51.270,0.000
1727535092.699,13.672,-80.566,-12.695,-24.902,0.000
1727535092.703,28.809,-51.270,-16.602,-16.602,0.000
1727535092.706,-25.879,-30.762,-33.203,-25.391,0.000
1727535092.710,-133.301,-24.414,-45.898,-65.430,0.000
1727535092.714,-117.188,-22.461,-46.387,-59.082,0.000
1727535092.718,14.160,-15.137,-48.340,-13.672,0.000
1727535092.722,41.016,-8.301,-48.828,-8.301,0.000
1727535092.726,-6.836,-12.207,-46.875,-17.578,0.000
1727535092.730,-93.750,-12.695,-39.062,-33.691,0.000
1727535092.734,-85.449,-15.137,-21.484,-38.574,0.000
1727535092.738,30.273,-25.879,-10.254,-15.137,0.000
1727535092.742,51.758,-29.297,-13.184,-0.488,0.000
1727535092.745,-1.465,-29.785,-28.320,-7.812,0.000
1727535092.749,-104.004,-25.391,-27.832,-37.598,0.000
1727535092.753,-101.562,-26.367,-47.363,-37.109,0.000
1727535092.757,12.695,-49.316,-73.242,-8.789,0.000
1727535092.761,34.668,-71.289,-24.902,-10.254,0.000
1727535092.765,13.184,-67.383,-10.254,-26.367,0.000
1727535092.769,-67.383,-75.195,-20.996,-52.246,0.000
1727535092.773,-107.422,-106.934,-23.438,-56.152,0.000
1727535092.777,-4.883,-112.793,-27.344,-20.020,0.000
1727535092.781,43.945,-119.141,-23.926,-20.508,0.000
1727535092.784,18.555,-138.184,-8.301,-39.062,0.000
1727535092.788,-72.754,-142.578,-2.441,-54.199,0.000
1727535092.792,-130.859,-137.207,-17.090,-62.012,0.000
1727535092.796,-23.438,-135.742,-34.180,-29.785,0.000
1727535092.800,41.992,-139.160,-39.062,-14.648,0.000
1727535092.804,16.602,-137.695,-26.855,-25.879,0.000
1727535092.808,-57.129,-129.883,-26.367,-48.828,0.000
1727535092.812,-117.676,-113.770,-32.715,-55.176,0.000
1727535092.816,-38.086,-101.074,-23.926,-24.902,0.000
1727535092.820,32.227,-92.285,-41.992,-6.348,0.000
1727535092.824,11.230,-93.262,-61.035,-15.625,0.000
1727535092.827,-63.965,-117.188,-35.156,-54.688,0.000
1727535092.831,-130.859,-127.441,-30.273,-70.801,0.000
1727535092.835,-59.082,-131.348,-29.785,-41.504,0.000
1727535092.839,20.508,-145.996,-20.508,-22.949,0.000
1727535092.843,23.438,-148.438,-20.508,-24.414,0.000
1727535092.847,-38.086,-147.949,-27.832,-50.781,0.000
1727535092.851,-145.508,-152.832,-24.414,-68.848,0.000
1727535092.855,-81.543,-149.414,-22.949,-44.922,0.000
1727535092.859,26.855,-148.438,-32.715,-21.973,0.000
1727535092.863,29.785,-149.902,-48.340,-17.090,0.000
1727535092.867,-27.344,-159.180,-60.059,-32.715,0.000
1727535092.870,-136.230,-171.875,-37.598,-68.848,0.000
1727535092.874,-99.121,-169.922,-18.555,-51.758,0.000
1727535092.878,18.066,-150.391,-14.160,-11.719,0.000
1727535092.882,21.484,-130.859,-22.461,-17.090,0.000
1727535092.886,-39.551,-122.559,-36.621,-42.480,0.000
1727535092.890,-135.742,-115.234,-36.133,-76.660,0.000
1727535092.894,-117.188,-113.281,-39.062,-62.988,0.000
1727535092.898,-1.953,-108.398,-47.852,-20.996,0.000
1727535092.902,30.762,-98.633,-42.480,-17.578,0.000
1727535092.906,-9.766,-99.121,-22.461,-43.457,0.000
1727535092.910,-99.121,-111.328,-25.391,-73.730,0.000
1727535092.913,-88.379,-125.000,-40.527,-62.988,0.000
1727535092.917,5.371,-135.742,-44.922,-26.855,0.000
1727535092.921,20.020,-140.137,-39.062,-10.742,0.000
1727535092.925,-8.789,-140.625,-16.113,-21.973,0.000
1727535092.929,-106.445,-144.043,-11.719,-62.988,0.000
1727535092.933,-121.582,-142.090,-22.949,-64.453,0.000
1727535092.937,7.812,-135.254,-15.137,-23.926,0.000
1727535092.941,47.363,-129.395,-11.719,-17.090,0.000
1727535092.945,5.371,-130.371,-28.809,-34.668,0.000
1727535092.949,-85.449,-127.441,-46.387,-54.688,0.000
1727535092.953,-125.977,-126.953,-22.949,-57.617,0.000
1727535092.956,-17.090,-123.535,-1.953,-19.043,0.000
1727535092.960,42.969,-112.793,-17.090,4.883,0.000
1727535092.964,25.879,-102.539,-28.320,-10.254,0.000
1727535092.968,-65.430,-100.098,-33.691,-38.086,0.000
1727535092.972,-137.207,-106.445,-37.109,-47.852,0.000
1727535092.976,-41.504,-107.910,-43.945,-23.926,0.000
1727535092.980,29.785,-107.910,-38.574,-19.043,0.000
1727535092.984,11.719,-110.352,-17.090,-32.227,0.000
1727535092.988,-72.754,-105.957,-18.555,-50.781,0.000
1727535092.992,-127.930,-104.004,-14.648,-58.594,0.000
1727535092.995,-21.973,-111.328,-12.695,-28.809,0.000
1727535092.999,50.293,-118.164,-20.508,-20.020,0.000
1727535093.003,30.273,-112.793,-16.602,-20.020,0.000
1727535093.007,-58.105,-109.863,-24.902,-46.875,0.000
1727535093.011,-155.762,-114.746,-41.016,-83.496,0.000
1727535093.015,-82.520,-106.934,-53.711,-50.293,0.000
1727535093.019,27.344,-94.727,-54.688,-20.996,0.000
1727535093.023,30.762,-87.891,-21.973,-28.320,0.000
1727535093.027,-41.016,-85.938,4.883,-46.387,0.000
1727535093.031,-133.301,-83.496,5.371,-64.941,0.000
1727535093.034,-73.730,-71.777,-13.672,-34.668,0.000
1727535093.038,26.367,-54.688,-35.645,-6.348,0.000
1727535093.042,29.785,-28.320,-28.809,-9.766,0.000
1727535093.046,-29.297,-9.766,-29.297,-24.902,0.000
1727535093.050,-126.465,-0.977,-40.039,-50.293,0.000
1727535093.054,-87.891,9.766,-32.227,-31.738,0.000
1727535093.058,21.484,14.648,-37.109,-6.836,0.000
1727535093.062,28.809,20.508,-43.945,-20.996,0.000
1727535093.066,-19.531,22.949,-37.598,-45.410,0.000
1727535093.070,-128.418,18.066,-48.340,-72.754,0.000
1727535093.073,-116.699,27.344,-59.570,-61.523,0.000
1727535093.077,14.160,38.574,-30.273,-28.809,0.000
1727535093.081,46.387,47.363,-37.109,-27.832,0.000
1727535093.085,0.977,52.246,-60.547,-50.781,0.000
1727535093.089,-108.398,46.875,-60.547,-78.125,0.000
1727535093.093,-107.422,53.223,-30.762,-61.035,0.000
1727535093.097,4.395,61.523,4.395,-22.461,0.000
1727535093.101,38.086,60.059,-8.789,-7.324,0.000
1727535093.105,8.789,60.547,-39.551,-19.531,0.000
1727535093.109,-98.145,57.617,-51.270,-56.641,0.000
1727535093.113,-122.070,56.641,-39.062,-56.152,0.000
1727535093.116,-4.883,43.945,-17.090,-24.902,0.000
1727535093.120,34.180,28.320,-7.812,-21.973,0.000
1727535093.124,-0.977,11.719,-48.828,-33.203,0.000
1727535093.128,-92.285,-0.488,-75.684,-59.570,0.000
1727535093.132,-135.742,0.977,-22.949,-60.059,0.000
1727535093.136,-27.344,0.000,-13.672,-18.066,0.000
1727535093.140,32.715,-7.812,-28.809,-7.812,0.000
1727535093.144,19.043,-3.418,-17.090,-17.578,0.000
1727535093.148,-69.336,8.301,-15.625,-55.176,0.000
1727535093.152,-149.902,13.184,-21.484,-83.008,0.000
1727535093.155,-62.988,19.531,-24.902,-50.781,0.000
1727535093.159,10.742,19.043,-11.719,-34.668,0.000
1727535093.163,2.441,3.906,-10.254,-41.016,0.000
1727535093.167,-56.641,0.977,-38.086,-53.711,0.000
1727535093.171,-122.559,9.766,-69.336,-70.312,0.000
1727535093.175,-52.734,-5.371,-55.664,-52.734,0.000
1727535093.179,19.531,-24.902,-17.578,-33.691,0.000
1727535093.183,3.418,-32.715,-3.906,-37.109,0.000
1727535093.187,-79.590,-38.086,-20.996,-68.359,0.000
1727535093.191,-151.855,-34.668,-29.785,-82.520,0.000
1727535093.195,-70.312,-57.129,-40.039,-20.020,0.000
1727535093.198,5.859,-68.848,-59.082,-7.324,0.000
1727535093.202,-13.672,-54.199,-84.961,-44.922,0.000
1727535093.206,-63.477,-59.570,-70.801,-60.059,0.000
1727535093.210,-137.695,-93.262,17.090,-83.008,0.000
1727535093.214,-86.426,-101.562,38.086,-72.266,0.000
1727535093.218,6.348,-83.984,-26.855,-50.781,0.000
1727535093.222,0.000,-113.281,-59.082,-46.387,0.000
1727535093.226,-44.434,-133.789,-59.082,-43.945,0.000
1727535093.230,-138.184,-147.461,-32.227,-82.031,0.000
1727535093.234,-96.191,-173.340,-9.277,-62.500,0.000
1727535093.238,25.879,-165.039,-41.504,-20.508,0.000
1727535093.241,4.883,-158.691,-31.250,-46.875,0.000
1727535093.245,-56.152,-175.293,-53.223,-61.035,0.000
1727535093.249,-115.234,-156.738,-160.156,-68.359,0.000
1727535093.253,-113.281,-163.086,-95.703,-75.684,0.000
1727535093.257,-29.785,-213.867,53.223,-62.988,0.000
1727535093.261,1.465,-252.441,69.336,-46.875,0.000
1727535093.265,-31.738,-270.508,9.277,-49.316,0.000
1727535093.269,-117.676,-253.418,-0.488,-65.430,0.000
1727535093.273,-119.629,-249.512,9.766,-46.387,0.000
1727535093.277,-18.066,-279.785,-66.895,-5.859,0.000
1727535093.281,15.137,-284.180,-75.684,-14.648,0.000
1727535093.284,-25.879,-268.066,-20.996,-51.270,0.000
1727535093.288,-106.445,-320.312,-15.625,-61.523,0.000
1727535093.292,-106.934,-357.910,-65.430,-44.434,0.000
1727535093.296,7.812,-353.027,-122.070,-20.508,0.000
1727535093.300,30.762,-387.695,-61.523,-17.578,0.000
1727535093.304,-14.160,-428.223,21.484,-39.551,0.000
1727535093.308,-135.742,-432.617,38.574,-113.281,0.000
1727535093.312,-201.172,-449.707,8.789,-125.977,0.000
1727535093.316,-39.551,-499.023,-16.113,-34.668,0.000
1727535093.320,33.203,-516.113,-44.434,-20.996,0.000
1727535093.323,-10.254,-532.227,-40.039,-50.293,0.000
1727535093.327,-125.000,-504.883,-1.465,-94.238,0.000
1727535093.331,-194.336,-521.484,-29.785,-93.262,0.000
1727535093.335,-42.480,-596.680,-32.227,-8.301,0.000
1727535093.339,73.730,-694.336,-0.488,21.973,0.000
1727535093.343,46.387,-791.016,71.777,-20.996,0.000
1727535093.347,-42.969,-868.652,93.750,-50.293,0.000
1727535093.351,-138.184,-974.609,-31.250,-66.895,0.000
1727535093.355,-113.770,-1000.000,-61.035,-78.613,0.000
1727535093.359,-3.906,-997.070,33.691,-29.297,0.000
1727535093.363,41.016,-1000.000,1.953,2.930,0.000
1727535093.366,-27.832,-1000.000,-0.977,-20.508,0.000
1727535093.370,-151.855,-1000.000,40.039,-66.406,0.000
1727535093.374,-130.371,-1000.000,-28.809,-77.148,0.000
1727535093.378,-32.227,-1000.000,-41.504,-45.898,0.000
1727535093.382,-12.207,-1000.000,16.113,-6.348,0.000
1727535093.386,-88.867,-1000.000,13.672,-20.996,0.000
1727535093.390,-155.762,-1000.000,-32.715,-57.617,0.000
1727535093.394,-72.266,-1000.000,0.488,-69.336,0.000
1727535093.398,18.555,-1000.000,54.199,-59.570,0.000
1727535093.402,-3.418,-1000.000,26.855,-76.660,0.000
1727535093.405,-53.223,-1000.000,3.906,-99.121,0.000
1727535093.409,-161.133,-1000.000,-42.969,-131.836,0.000
1727535093.413,-123.047,-1000.000,-27.344,-94.238,0.000
1727535093.417,-65.918,-1000.000,14.160,-90.820,0.000
1727535093.421,-96.680,-1000.000,-28.320,-110.352,0.000
1727535093.425,-110.840,-1000.000,-131.348,-77.148,0.000
1727535093.429,-203.125,-1000.000,-144.043,-111.816,0.000
1727535093.433,-143.066,-1000.000,1.465,-80.078,0.000
1727535093.437,-23.926,-1000.000,68.848,-41.504,0.000
1727535093.441,-55.176,-1000.000,11.230,-90.820,0.000
1727535093.444,-123.047,-1000.000,-22.461,-134.277,0.000
1727535093.448,-180.176,-1000.000,-31.738,-103.516,0.000
1727535093.452,-158.691,-1000.000,-37.109,-58.105,0.000
1727535093.456,-86.914,-1000.000,-49.316,-47.852,0.000
1727535093.460,-89.355,-1000.000,-66.895,-64.941,0.000
1727535093.464,-82.031,-1000.000,-9.277,-92.285,0.000
1727535093.468,-145.020,-1000.000,17.578,-139.648,0.000
1727535093.472,-231.445,-1000.000,-38.086,-203.613,0.000
1727535093.476,-124.023,-1000.000,-92.773,-166.992,0.000
1727535093.480,-10.742,-1000.000,-69.824,-81.543,0.000
1727535093.484,-59.082,-1000.000,-57.129,-74.707,0.000
1727535093.487,-199.707,-1000.000,-65.918,-116.699,0.000
1727535093.491,-258.301,-1000.000,-70.801,-172.852,0.000
1727535093.495,-86.426,-1000.000,-70.312,-95.215,0.000
1727535093.499,17.578,-1000.000,-25.391,-28.809,0.000
1727535093.503,-36.621,-1000.000,-44.922,-72.754,0.000
1727535093.507,-152.832,-1000.000,-98.633,-120.117,0.000
1727535093.511,-248.047,-1000.000,-47.363,-164.551,0.000
1727535093.515,-118.652,-1000.000,14.160,-98.145,0.000
1727535093.519,-17.090,-1000.000,19.531,-46.875,0.000
1727535093.523,-32.715,-1000.000,12.207,-54.688,0.000
1727535093.526,-110.840,-1000.000,-62.012,-77.148,0.000
1727535093.530,-182.617,-1000.000,-127.441,-73.730,0.000
1727535093.534,-75.684,-1000.000,-56.641,-35.156,0.000
1727535093.538,-0.977,-1000.000,-7.812,-51.270,0.000
1727535093.542,-7.324,-1000.000,-19.043,-60.059,0.000
1727535093.546,-75.684,-1000.000,-76.172,-77.148,0.000
1727535093.550,-158.203,-1000.000,-72.266,-98.633,0.000
1727535093.554,-103.516,-1000.000,50.781,-75.195,0.000
1727535093.558,-35.156,-1000.000,51.270,-71.289,0.000
1727535093.562,-23.438,-998.047,13.184,-79.590,0.000
1727535093.566,-76.172,-1000.000,8.789,-90.820,0.000
1727535093.569,-166.992,-955.566,-12.207,-95.215,0.000
1727535093.573,-129.883,-848.633,-29.297,-74.219,0.000
1727535093.577,-12.207,-754.883,-24.414,-21.973,0.000
1727535093.581,0.977,-748.047,-20.996,-10.742,0.000
1727535093.585,-52.734,-781.250,-9.766,-41.016,0.000
1727535093.589,-136.719,-751.465,-68.359,-65.918,0.000
1727535093.593,-87.402,-719.238,-93.750,-45.898,0.000
1727535093.597,11.230,-634.766,-42.969,-27.832,0.000
1727535093.601,1.465,-562.012,19.043,-40.527,0.000
1727535093.605,-26.855,-555.664,60.547,-32.715,0.000
1727535093.609,-117.676,-524.902,24.902,-47.363,0.000
1727535093.612,-105.957,-442.871,-7.812,-25.879,0.000
1727535093.616,25.391,-360.352,-0.488,21.973,0.000
1727535093.620,78.125,-315.918,8.789,41.016,0.000
1727535093.624,34.668,-254.395,8.789,26.367,0.000
1727535093.628,-87.402,-255.371,2.930,-32.227,0.000
1727535093.632,-93.262,-267.578,-12.207,-45.898,0.000
1727535093.636,29.297,-241.211,-41.016,-5.859,0.000
1727535093.640,69.824,-237.793,-40.527,14.648,0.000
1727535093.644,35.645,-237.305,15.137,6.836,0.000
1727535093.648,-57.129,-164.551,32.227,-15.137,0.000
1727535093.652,-92.285,0.488,15.137,-23.438,0.000
1727535093.656,23.926,50.293,23.438,7.812,0.000
1727535093.659,97.656,25.391,27.344,31.738,0.000
1727535093.663,72.754,96.680,0.488,23.438,0.000
1727535093.667,-34.668,140.625,-29.297,-9.277,0.000
1727535093.671,-78.613,213.379,-13.184,-12.207,0.000
1727535093.675,48.828,378.418,-0.977,38.086,0.000
1727535093.679,113.281,458.984,-41.016,44.434,0.000
1727535093.683,73.242,494.629,-34.668,25.879,0.000
1727535093.687,-30.273,667.969,11.719,-5.371,0.000
1727535093.691,-91.797,917.480,29.297,-26.367,0.000
1727535093.695,15.625,975.586,23.438,17.578,0.000
1727535093.699,81.055,959.961,3.418,32.227,0.000
1727535093.702,48.340,969.238,-10.254,16.602,0.000
1727535093.706,-11.230,968.262,-23.438,23.438,0.000
1727535093.710,-65.430,968.262,-56.641,20.020,0.000
1727535093.714,-0.488,968.262,-54.688,18.555,0.000
1727535093.718,75.195,968.262,-8.789,5.859,0.000
1727535093.722,74.219,968.262,15.625,9.277,0.000
1727535093.726,6.348,968.262,3.418,2.930,0.000
1727535093.730,-76.660,968.262,-18.066,-31.738,0.000
1727535093.734,-0.488,968.262,-17.578,-10.254,0.000
1727535093.738,91.797,968.262,-18.066,16.602,0.000
1727535093.741,73.242,968.262,-33.691,15.137,0.000
1727535093.745,5.859,968.262,-41.016,-8.789,0.000
1727535093.749,-78.613,968.262,-36.621,-36.621,0.000
1727535093.753,-23.926,968.262,-16.602,-12.695,0.000
1727535093.757,76.660,968.262,-29.785,20.508,0.000
1727535093.761,59.082,968.262,-45.410,14.648,0.000
1727535093.765,-0.488,968.262,-10.254,1.465,0.000
1727535093.769,-84.961,968.262,13.672,-25.879,0.000
1727535093.773,-38.086,968.262,-2.441,-14.160,0.000
1727535093.777,85.938,968.262,-11.230,28.809,0.000
1727535093.781,99.121,968.262,-18.066,33.203,0.000
1727535093.784,47.363,968.262,-31.250,19.043,0.000
1727535093.788,-60.547,968.262,-20.996,-9.277,0.000
1727535093.792,-66.406,968.262,-17.578,-11.719,0.000
1727535093.796,27.344,968.262,-5.859,17.578,0.000
1727535093.800,42.969,968.262,-2.441,21.484,0.000
1727535093.804,15.625,968.262,-2.441,2.441,0.000
1727535093.808,-67.871,968.262,-5.371,-27.832,0.000
1727535093.812,-72.754,968.262,-26.855,-17.090,0.000
1727535093.816,52.734,968.262,-29.297,25.391,0.000
1727535093.820,79.102,968.262,-23.438,28.320,0.000
1727535093.823,20.020,968.262,-26.855,-1.953,0.000
1727535093.827,-72.754,967.773,-34.180,-33.203,0.000
1727535093.831,-101.074,968.262,-52.734,-33.203,0.000
1727535093.835,24.414,968.262,-74.219,-4.883,0.000
1727535093.839,87.891,968.262,-100.586,14.160,0.000
1727535093.843,46.387,968.262,-74.707,-2.441,0.000
1727535093.847,-55.176,968.262,-17.090,-52.734,0.000
1727535093.851,-106.934,968.262,-4.883,-64.453,0.000
1727535093.855,-3.906,968.262,-12.207,-27.832,0.000
1727535093.859,45.898,968.262,-23.438,-8.301,0.000
1727535093.862,20.020,968.262,-43.457,-11.230,0.000
1727535093.866,-38.086,968.262,-68.359,-20.020,0.000
1727535093.870,-85.938,968.262,-71.777,-16.602,0.000
1727535093.874,1.465,968.262,-55.176,6.836,0.000
1727535093.878,67.383,968.262,-32.715,14.160,0.000
1727535093.882,25.391,968.262,-15.137,-12.207,0.000
1727535093.886,-61.035,968.262,-5.859,-39.551,0.000
1727535093.890,-128.906,968.262,-7.812,-50.293,0.000
1727535093.894,-39.062,968.262,-36.621,-27.344,0.000
1727535093.898,60.547,968.262,-56.641,-5.859,0.000
1727535093.901,58.105,968.262,-46.875,13.672,0.000
1727535093.905,-15.625,968.262,-52.734,-0.488,0.000
1727535093.909,-105.957,968.262,-44.922,-28.809,0.000
1727535093.913,-41.992,968.262,-33.691,-11.230,0.000
1727535093.917,51.270,968.262,-27.344,4.883,0.000
1727535093.921,51.758,968.262,0.488,6.836,0.000
1727535093.925,-8.789,967.773,-30.762,-19.043,0.000
1727535093.929,-97.168,965.332,-41.504,-41.016,0.000
1727535093.933,-45.410,969.238,-40.527,-26.367,0.000
1727535093.937,54.199,928.223,-56.641,-13.184,0.000
1727535093.941,53.711,824.707,-24.902,-18.555,0.000
1727535093.944,-12.695,741.699,-9.766,-29.785,0.000
1727535093.948,-114.258,696.777,-11.230,-47.363,0.000
1727535093.952,-73.242,676.758,-28.809,-33.203,0.000
1727535093.956,40.527,665.039,-28.809,-2.441,0.000
1727535093.960,44.922,640.137,0.000,-5.859,0.000
1727535093.964,-9.766,601.562,-1.953,-32.715,0.000
1727535093.968,-105.957,573.730,-18.555,-64.941,0.000
1727535093.972,-95.215,559.082,-24.902,-48.828,0.000
1727535093.976,18.066,569.336,-34.180,-1.465,0.000
1727535093.980,58.594,583.496,-45.410,2.930,0.000
1727535093.984,19.043,563.477,-47.852,-18.066,0.000
1727535093.987,-83.984,534.180,-41.992,-43.457,0.000
1727535093.991,-87.891,517.090,-46.387,-27.832,0.000
1727535093.995,24.414,504.395,-46.875,8.301,0.000
1727535093.999,73.242,470.215,-26.855,4.395,0.000
1727535094.003,41.992,424.316,-26.855,-12.207,0.000
1727535094.007,-67.871,374.512,-39.062,-40.039,0.000
1727535094.011,-112.305,327.148,-24.902,-44.434,0.000
1727535094.015,3.906,294.434,-31.250,0.488,0.000
1727535094.019,68.848,319.824,-66.406,26.367,0.000
1727535094.023,47.363,390.625,-63.477,13.672,0.000
1727535094.027,-46.875,420.898,-34.180,-20.996,0.000
1727535094.030,-97.656,416.016,-4.395,-49.316,0.000
1727535094.034,3.418,403.320,2.930,-20.508,0.000
1727535094.038,64.453,411.133,-25.879,3.418,0.000
1727535094.042,50.293,429.688,-33.203,-10.254,0.000
1727535094.046,-39.062,434.570,-29.297,-36.621,0.000
1727535094.050,-123.535,417.480,-41.992,-44.434,0.000
1727535094.054,-19.531,405.762,-45.898,-16.113,0.000
1727535094.058,63.477,395.508,-40.527,1.953,0.000
1727535094.062,41.992,375.977,-20.508,-3.906,0.000
1727535094.066,-36.621,359.375,-10.254,-24.902,0.000
1727535094.070,-112.305,342.285,-21.973,-38.086,0.000
1727535094.073,-15.625,334.473,-10.742,-12.207,0.000
1727535094.077,68.848,328.125,-32.227,8.301,0.000
1727535094.081,45.410,311.035,-71.777,16.113,0.000
1727535094.085,-26.855,295.410,-53.711,-0.488,0.000
1727535094.089,-111.328,286.621,-35.156,-37.109,0.000
1727535094.093,-42.480,279.297,-11.719,-18.066,0.000
1727535094.097,54.688,273.438,8.301,3.906,0.000
1727535094.101,46.387,267.578,-13.184,-4.395,0.000
1727535094.105,-11.230,254.395,-23.438,-20.508,0.000
1727535094.109,-93.262,241.699,-24.414,-31.250,0.000
1727535094.112,-43.945,238.281,-29.297,-2.441,0.000
1727535094.116,49.316,240.723,-24.414,24.414,0.000
1727535094.120,59.082,240.234,-48.828,16.113,0.000
1727535094.124,14.648,233.398,-72.754,-14.648,0.000
1727535094.128,-80.078,225.098,-55.176,-44.922,0.000
1727535094.132,-50.293,214.355,-31.738,-32.227,0.000
1727535094.136,52.734,187.500,-21.484,-11.230,0.000
1727535094.140,77.148,170.898,-20.020,0.977,0.000
1727535094.144,38.086,169.922,-25.391,0.488,0.000
1727535094.148,-83.496,153.320,-40.527,-39.062,0.000
1727535094.151,-106.445,138.184,-38.574,-53.711,0.000
1727535094.155,-3.906,128.906,-6.836,-19.043,0.000
1727535094.159,38.086,127.930,3.418,-9.277,0.000
1727535094.163,10.254,145.020,-14.648,-27.344,0.000
1727535094.167,-92.285,120.605,-30.273,-53.223,0.000
1727535094.171,-107.910,7.812,-28.809,-34.180,0.000
1727535094.175,1.465,-66.406,-34.180,11.230,0.000
1727535094.179,48.828,-62.500,-42.480,0.488,0.000
1727535094.183,22.461,-60.059,-53.223,-7.812,0.000
1727535094.187,-71.777,-63.477,-82.520,-24.902,0.000
1727535094.191,-107.422,-73.242,-59.082,-32.227,0.000
1727535094.194,-0.977,-70.801,-33.691,-0.488,0.000
1727535094.198,52.246,-59.082,-61.035,9.277,0.000
1727535094.202,31.738,-56.152,-61.523,-1.953,0.000
1727535094.206,-61.035,-61.035,-19.043,-42.969,0.000
1727535094.210,-120.605,-63.965,21.484,-62.012,0.000
1727535094.214,-7.324,-55.176,16.113,-23.926,0.000
1727535094.218,62.012,-47.852,-10.742,4.395,0.000
1727535094.222,36.133,-46.387,-27.832,-4.883,0.000
1727535094.226,-53.711,-38.086,-42.969,-35.645,0.000
1727535094.230,-113.770,-27.344,-58.105,-47.363,0.000
1727535094.233,-20.508,-29.297,-64.941,-17.578,0.000
1727535094.237,50.781,-33.203,-50.781,2.930,0.000
1727535094.241,31.250,-45.410,-20.508,-11.719,0.000
1727535094.245,-53.711,-51.270,-9.277,-41.504,0.000
1727535094.249,-128.906,-32.715,-17.090,-53.223,0.000
1727535094.253,-37.598,-24.414,-12.695,-21.973,0.000
1727535094.257,62.988,-22.461,-11.230,4.883,0.000
1727535094.261,65.918,-11.230,-20.020,2.441,0.000
1727535094.265,-8.789,-8.789,-45.898,-30.762,0.000
1727535094.269,-110.840,-21.484,-69.336,-65.430,0.000
1727535094.273,-50.293,-15.625,-67.383,-36.133,0.000
1727535094.276,46.875,-5.371,-53.223,-9.766,0.000
1727535094.280,36.621,1.953,-37.598,-16.113,0.000
1727535094.284,-35.156,22.461,-33.203,-36.133,0.000
1727535094.288,-135.254,38.086,-31.738,-62.988,0.000
1727535094.292,-75.195,51.270,-30.273,-39.062,0.000
1727535094.296,34.180,62.500,-24.414,-8.789,0.000
1727535094.300,36.133,71.777,-14.648,-9.277,0.000
1727535094.304,-29.297,77.637,-28.320,-29.297,0.000
1727535094.308,-113.770,83.496,-76.172,-46.387,0.000
1727535094.312,-72.266,94.727,-92.773,-21.484,0.000
1727535094.316,28.320,106.445,-48.828,-8.301,0.000
1727535094.320,35.156,110.840,-15.137,-29.297,0.000
1727535094.323,-14.648,119.141,-5.371,-37.598,0.000
1727535094.327,-110.840,123.535,-3.906,-58.594,0.000
1727535094.331,-93.750,117.188,-14.160,-57.617,0.000
1727535094.335,19.043,127.930,-30.273,-20.996,0.000
1727535094.339,46.387,158.203,-45.898,-5.371,0.000
1727535094.343,17.090,151.367,-46.387,-7.324,0.000
1727535094.347,-86.914,124.023,-28.320,-46.387,0.000
1727535094.351,-104.004,121.094,-20.020,-52.246,0.000
1727535094.355,10.254,122.559,-41.016,-17.090,0.000
1727535094.359,41.992,121.582,-65.918,-22.461,0.000
1727535094.363,22.461,124.023,-42.969,-29.785,0.000
1727535094.366,-65.430,128.906,-20.508,-40.039,0.000
1727535094.370,-101.074,132.812,-15.137,-41.016,0.000
1727535094.374,2.930,129.395,-19.043,-17.090,0.000
1727535094.378,43.945,115.723,-29.785,-10.742,0.000
1727535094.382,11.719,102.051,-36.133,-20.996,0.000
1727535094.386,-80.566,84.473,-48.828,-38.574,0.000
1727535094.390,-124.512,73.730,-31.738,-41.992,0.000
1727535094.394,-20.996,66.406,-9.277,-9.277,0.000
1727535094.398,31.250,58.105,-33.691,12.207,0.000
1727535094.402,10.742,65.918,-75.195,4.883,0.000
1727535094.405,-59.570,75.684,-59.570,-25.879,0.000
1727535094.409,-131.836,76.660,-23.438,-47.363,0.000
1727535094.413,-29.785,75.684,-23.438,-10.742,0.000
1727535094.417,53.711,69.336,-12.695,8.789,0.000
1727535094.421,30.273,64.453,-6.836,-7.324,0.000
1727535094.425,-44.434,63.477,-29.785,-42.969,0.000
1727535094.429,-115.723,65.918,-55.176,-58.594,0.000
1727535094.433,-43.457,56.152,-53.711,-36.133,0.000
1727535094.437,48.828,46.387,-0.977,-20.996,0.000
1727535094.441,46.875,52.246,26.855,-16.602,0.000
1727535094.445,-28.809,59.570,12.695,-39.551,0.000
1727535094.448,-125.000,60.547,-10.254,-69.824,0.000
1727535094.452,-62.500,63.477,-41.504,-37.598,0.000
1727535094.456,55.176,59.570,-50.293,11.719,0.000
1727535094.460,44.922,51.270,-38.574,6.836,0.000
1727535094.464,-36.133,49.316,-41.016,-31.738,0.000
1727535094.468,-128.418,54.688,-40.527,-60.547,0.000
1727535094.472,-63.965,57.129,-35.156,-33.691,0.000
1727535094.476,49.316,71.289,-26.367,0.000,0.000
1727535094.480,45.898,128.906,-20.020,-0.488,0.000
1727535094.484,-2.441,143.066,-13.184,-11.719,0.000
1727535094.488,-99.609,121.094,-25.879,-29.785,0.000
1727535094.491,-79.102,143.066,-49.316,-11.719,0.000
1727535094.495,29.297,150.879,-40.527,5.859,0.000
1727535094.499,45.410,148.926,-24.414,-8.301,0.000
1727535094.503,-0.488,158.691,-26.855,-20.508,0.000
1727535094.507,-99.609,148.926,-30.273,-51.758,0.000
1727535094.511,-89.844,142.578,-27.832,-44.434,0.000
1727535094.515,26.367,149.414,-29.785,-8.301,0.000
1727535094.519,41.504,152.344,-24.414,-11.230,0.000
1727535094.523,-5.859,149.414,-18.555,-15.625,0.000
1727535094.527,-102.539,139.648,-28.809,-35.156,0.000
1727535094.530,-112.793,137.207,-36.133,-53.711,0.000
1727535094.534,20.508,144.043,-29.297,-28.809,0.000
1727535094.538,76.172,143.066,-51.758,-17.090,0.000
1727535094.542,35.156,136.719,-77.148,-28.809,0.000
1727535094.546,-70.801,124.512,-61.035,-45.410,0.000
1727535094.550,-107.910,106.934,-34.668,-41.504,0.000
1727535094.554,3.906,94.238,-17.090,-12.695,0.000
1727535094.558,50.781,87.891,-1.953,-9.277,0.000
1727535094.562,17.578,83.984,-6.348,-13.672,0.000
1727535094.566,-64.941,87.891,-31.738,-25.879,0.000
1727535094.569,-121.094,82.520,-32.227,-41.504,0.000
1727535094.573,-21.484,67.383,-27.344,-17.090,0.000
1727535094.577,48.340,66.895,-21.973,-2.930,0.000
1727535094.581,17.578,65.918,-18.066,-27.832,0.000
1727535094.585,-78.613,66.406,-21.973,-62.988,0.000
1727535094.589,-140.137,73.242,-34.180,-70.312,0.000
1727535094.593,-32.715,76.172,-39.062,-31.738,0.000
1727535094.597,52.734,69.336,-29.785,-16.113,0.000
1727535094.601,29.785,63.477,-39.062,-21.484,0.000
1727535094.605,-65.918,57.617,-35.645,-44.922,0.000
1727535094.608,-147.949,50.781,-20.996,-60.059,0.000
1727535094.612,-61.523,47.852,-19.531,-20.996,0.000
1727535094.616,26.367,44.922,-22.461,-5.859,0.000
1727535094.620,28.320,38.086,-35.156,-11.719,0.000
1727535094.624,-39.551,31.738,-30.273,-30.762,0.000
