timestamps,TP9,AF7,AF8,TP10,Right AUX
1727691463.369,32.227,-40.527,-40.039,14.648,0.000
1727691463.373,-14.160,-37.598,-41.504,8.301,0.000
1727691463.377,-13.184,-38.086,-43.457,2.930,0.000
1727691463.381,39.551,-39.062,-38.086,8.301,0.000
1727691463.385,50.781,-27.832,-31.738,17.578,0.000
1727691463.389,28.320,-21.484,-34.668,9.766,0.000
1727691463.393,-21.484,-30.273,-41.504,-0.977,0.000
1727691463.396,-22.949,-37.598,-46.387,-0.977,0.000
1727691463.400,26.367,-32.227,-38.574,4.883,0.000
1727691463.404,37.109,-26.367,-31.250,3.906,0.000
1727691463.408,26.855,-29.297,-33.691,4.395,0.000
1727691463.412,-8.789,-29.297,-36.621,1.953,0.000
1727691463.416,-27.832,-28.320,-34.668,-1.953,0.000
1727691463.420,19.043,-29.297,-32.227,8.301,0.000
1727691463.424,48.828,-29.297,-31.738,15.625,0.000
1727691463.428,37.598,-29.785,-32.715,7.812,0.000
1727691463.432,-3.906,-26.855,-32.715,-4.395,0.000
1727691463.435,-26.855,-27.832,-32.227,4.883,0.000
1727691463.439,16.113,-35.156,-38.086,13.672,0.000
1727691463.443,46.875,-43.457,-38.086,17.090,0.000
1727691463.447,30.273,-41.504,-35.156,13.184,0.000
1727691463.451,-13.672,-33.203,-34.668,-0.488,0.000
1727691463.455,-41.504,-25.879,-34.668,-6.836,0.000
1727691463.459,0.488,-26.367,-36.133,0.977,0.000
1727691463.463,36.133,-28.809,-40.039,1.953,0.000
1727691463.467,35.645,-26.855,-41.016,1.953,0.000
1727691463.471,-0.488,-29.297,-40.039,1.953,0.000
1727691463.475,-38.574,-32.227,-41.016,-4.883,0.000
1727691463.478,4.395,-27.832,-36.133,2.930,0.000
1727691463.482,49.805,-24.902,-36.621,13.672,0.000
1727691463.486,51.270,-26.855,-38.086,20.508,0.000
1727691463.490,16.113,-27.344,-29.785,9.766,0.000
1727691463.494,-34.668,-32.227,-26.855,-8.789,0.000
1727691463.498,-2.930,-31.250,-33.203,-3.418,0.000
1727691463.502,39.551,-33.691,-37.109,-0.977,0.000
1727691463.506,31.250,-34.180,-36.621,-2.930,0.000
1727691463.510,0.488,-30.762,-32.227,-5.371,0.000
1727691463.514,-32.227,-26.367,-22.461,-11.230,0.000
1727691463.518,-5.859,-21.484,-20.508,-4.883,0.000
1727691463.521,38.086,-24.414,-28.320,4.395,0.000
1727691463.525,41.016,-34.668,-34.668,5.371,0.000
1727691463.529,10.742,-41.504,-39.551,-1.953,0.000
1727691463.533,-36.621,-38.086,-41.504,-7.812,0.000
1727691463.537,-20.508,-34.668,-34.180,-2.441,0.000
1727691463.541,28.809,-35.645,-33.691,9.277,0.000
1727691463.545,33.691,-37.109,-35.645,10.742,0.000
1727691463.549,8.301,-34.180,-35.645,2.930,0.000
1727691463.553,-35.156,-37.598,-41.504,-4.883,0.000
1727691463.557,-38.086,-42.480,-46.387,-7.812,0.000
1727691463.560,17.090,-40.527,-46.875,-2.930,0.000
1727691463.564,43.945,-39.062,-44.434,9.277,0.000
1727691463.568,25.391,-40.039,-39.062,11.230,0.000
1727691463.572,-21.484,-39.062,-41.016,0.000,0.000
1727691463.576,-25.391,-41.992,-59.082,-2.930,0.000
1727691463.580,23.438,-44.434,-57.617,7.812,0.000
1727691463.584,31.250,-45.898,-32.715,11.230,0.000
1727691463.588,20.508,-42.969,-19.531,15.625,0.000
1727691463.592,-21.973,-43.945,-24.902,9.766,0.000
1727691463.596,-36.133,-51.758,-27.832,0.977,0.000
1727691463.600,19.043,-47.363,-32.715,8.789,0.000
1727691463.603,41.016,-40.527,-51.758,9.277,0.000
1727691463.607,23.926,-39.062,-55.176,5.371,0.000
1727691463.611,-16.113,-41.504,-38.574,0.000,0.000
1727691463.615,-43.457,-39.551,-29.785,-9.277,0.000
1727691463.619,7.812,-38.574,-29.785,-6.348,0.000
1727691463.623,42.969,-40.527,-32.715,-0.488,0.000
1727691463.627,26.367,-39.551,-31.250,-3.418,0.000
1727691463.631,-8.301,-39.062,-26.855,-2.441,0.000
1727691463.635,-38.574,-34.668,-32.715,-3.906,0.000
1727691463.639,0.977,-37.598,-41.016,-9.277,0.000
1727691463.643,41.016,-36.621,-39.062,0.000,0.000
1727691463.646,32.227,-37.598,-46.387,-2.441,0.000
1727691463.650,-11.719,-42.969,-41.992,-10.254,0.000
1727691463.654,-48.828,-46.875,-46.875,-15.137,0.000
1727691463.658,-11.719,-46.387,-58.594,-14.648,0.000
1727691463.662,29.785,-43.945,-55.664,-8.789,0.000
1727691463.666,25.391,-43.457,-47.852,-7.324,0.000
1727691463.670,-4.395,-42.969,-29.785,-6.836,0.000
1727691463.674,-41.504,-42.969,-21.484,-18.066,0.000
1727691463.678,-7.324,-40.039,-34.180,-8.789,0.000
1727691463.682,38.574,-37.109,-43.945,2.441,0.000
1727691463.685,28.320,-40.039,-34.668,-0.488,0.000
1727691463.689,-3.906,-42.480,-25.879,-3.906,0.000
1727691463.693,-40.039,-42.969,-24.902,-14.648,0.000
1727691463.697,-24.414,-45.898,-28.320,-8.789,0.000
1727691463.701,21.973,-42.480,-33.691,-1.465,0.000
1727691463.705,30.273,-35.156,-36.133,-3.418,0.000
1727691463.709,-1.953,-35.645,-35.156,-8.789,0.000
1727691463.713,-38.574,-35.156,-37.598,-14.648,0.000
1727691463.717,-20.020,-31.738,-54.199,-16.113,0.000
1727691463.721,24.414,-36.621,-52.246,-2.441,0.000
1727691463.725,25.391,-42.480,-27.344,0.977,0.000
1727691463.728,-4.883,-40.527,-16.113,-8.301,0.000
1727691463.732,-45.410,-40.527,-23.926,-11.230,0.000
1727691463.736,-37.109,-42.480,-29.297,-13.184,0.000
1727691463.740,18.555,-40.527,-24.902,-2.441,0.000
1727691463.744,31.738,-42.480,-26.367,-1.465,0.000
1727691463.748,9.277,-46.387,-41.504,-2.930,0.000
1727691463.752,-33.691,-43.945,-56.641,-5.859,0.000
1727691463.756,-40.039,-43.457,-50.293,-3.906,0.000
1727691463.760,8.301,-48.340,-36.621,6.836,0.000
1727691463.764,24.902,-48.828,-28.809,5.859,0.000
1727691463.767,6.348,-45.898,-16.113,7.324,0.000
1727691463.771,-39.062,-46.387,-20.020,-2.930,0.000
1727691463.775,-41.504,-46.387,-31.738,-11.719,0.000
1727691463.779,18.066,-45.410,-34.180,5.859,0.000
1727691463.783,44.922,-40.527,-43.457,16.602,0.000
1727691463.787,48.828,-35.156,-39.551,18.066,0.000
1727691463.791,22.949,-35.645,-29.297,21.484,0.000
1727691463.795,-16.602,-45.898,-25.391,16.113,0.000
1727691463.799,6.836,-53.223,-16.602,3.906,0.000
1727691463.803,28.320,-51.758,-6.836,-4.395,0.000
1727691463.807,10.254,-52.246,7.324,-12.207,0.000
1727691463.810,-34.668,-60.547,7.812,-16.602,0.000
1727691463.814,-74.707,-68.848,-7.324,-20.508,0.000
1727691463.818,-48.828,-72.754,-21.973,-29.785,0.000
1727691463.822,-18.066,-70.801,-18.066,-31.250,0.000
1727691463.826,-28.809,-80.078,-22.461,-35.645,0.000
1727691463.830,-70.801,-89.355,-23.438,-48.828,0.000
1727691463.834,-122.070,-93.750,18.555,-69.824,0.000
1727691463.838,-96.191,-100.098,34.180,-67.383,0.000
1727691463.842,-47.363,-97.168,16.113,-46.875,0.000
1727691463.846,-61.523,-107.910,18.555,-49.316,0.000
1727691463.849,-97.168,-113.770,39.062,-49.805,0.000
1727691463.853,-136.230,-109.863,43.945,-62.012,0.000
1727691463.857,-104.980,-117.676,36.133,-48.828,0.000
1727691463.861,-51.758,-126.953,37.109,-20.996,0.000
1727691463.865,-50.293,-125.000,38.086,-31.738,0.000
1727691463.869,-74.219,-115.723,39.551,-29.785,0.000
1727691463.873,-112.305,-117.676,40.039,-34.180,0.000
1727691463.877,-84.961,-121.094,21.973,-39.062,0.000
1727691463.881,-27.344,-114.258,6.348,-24.902,0.000
1727691463.885,-20.020,-105.957,10.742,-13.672,0.000
1727691463.889,-51.270,-100.586,4.395,-23.438,0.000
1727691463.892,-86.426,-98.633,8.301,-34.180,0.000
1727691463.896,-62.500,-96.680,15.625,-19.043,0.000
1727691463.900,-5.859,-94.238,15.137,-3.906,0.000
1727691463.904,13.672,-92.285,12.695,2.441,0.000
1727691463.908,-10.254,-88.867,0.488,0.488,0.000
1727691463.912,-59.082,-83.008,-6.348,-4.883,0.000
1727691463.916,-42.969,-77.637,-21.973,8.789,0.000
1727691463.920,15.625,-84.473,-29.297,25.879,0.000
1727691463.924,25.391,-84.473,-13.672,11.719,0.000
1727691463.928,6.348,-73.242,1.465,-6.348,0.000
1727691463.932,-41.992,-66.895,-5.371,-14.648,0.000
1727691463.935,-48.340,-73.730,-21.484,-15.625,0.000
1727691463.939,6.836,-72.266,-20.020,-4.883,0.000
1727691463.943,26.855,-64.941,-26.367,7.324,0.000
1727691463.947,12.207,-68.359,-33.203,-0.977,0.000
1727691463.951,-30.762,-75.684,-20.508,-5.859,0.000
1727691463.955,-38.574,-74.219,-11.230,-4.883,0.000
1727691463.959,20.996,-62.012,-19.043,-4.883,0.000
1727691463.963,37.109,-58.105,-28.809,5.371,0.000
1727691463.967,13.672,-60.547,-24.414,1.953,0.000
1727691463.971,-22.949,-60.059,-31.250,-7.812,0.000
1727691463.974,-44.434,-57.617,-52.246,-9.766,0.000
1727691463.978,-0.977,-58.105,-45.410,-2.441,0.000
1727691463.982,31.738,-61.523,-16.113,2.930,0.000
1727691463.986,15.625,-58.105,-26.855,0.000,0.000
1727691463.990,-25.391,-50.293,-45.410,-1.953,0.000
1727691463.994,-49.805,-46.875,-23.926,0.977,0.000
1727691463.998,-3.418,-46.875,-15.625,4.395,0.000
1727691464.002,31.250,-50.781,-16.602,8.301,0.000
1727691464.006,19.531,-54.199,-0.488,11.230,0.000
1727691464.010,-13.672,-51.270,0.488,7.812,0.000
1727691464.014,-49.316,-49.805,-30.273,-4.883,0.000
1727691464.017,-7.812,-46.875,-46.387,3.418,0.000
1727691464.021,42.480,-38.086,-35.156,15.625,0.000
1727691464.025,32.227,-38.574,-20.020,6.836,0.000
1727691464.029,-2.441,-40.527,-16.602,-5.371,0.000
1727691464.033,-42.480,-40.527,-11.719,-11.230,0.000
1727691464.037,-12.695,-41.992,-7.812,1.465,0.000
1727691464.041,39.062,-38.086,-20.996,5.859,0.000
1727691464.045,34.180,-33.203,-31.738,3.418,0.000
1727691464.049,7.812,-34.180,-29.785,6.348,0.000
1727691464.053,-35.645,-39.551,-20.508,7.324,0.000
1727691464.057,-17.090,-38.574,-21.973,5.371,0.000
1727691464.060,40.527,-35.645,-33.203,6.348,0.000
1727691464.064,51.270,-31.250,-16.602,21.973,0.000
1727691464.068,22.461,-33.203,6.348,21.484,0.000
1727691464.072,-29.297,-39.551,4.395,-1.953,0.000
1727691464.076,-19.531,-43.457,-21.973,-5.371,0.000
1727691464.080,32.715,-40.527,-37.598,5.859,0.000
1727691464.084,39.062,-37.598,-35.645,4.395,0.000
1727691464.088,13.672,-36.621,-35.156,0.977,0.000
1727691464.092,-23.438,-37.109,-25.879,-8.301,0.000
1727691464.096,-12.695,-38.086,-51.270,1.465,0.000
1727691464.099,37.598,-35.645,-60.547,15.625,0.000
1727691464.103,47.363,-32.227,-22.949,9.766,0.000
1727691464.107,24.414,-32.715,-7.324,8.301,0.000
1727691464.111,-26.855,-37.109,-1.953,-6.836,0.000
1727691464.115,-33.203,-39.062,1.465,-15.137,0.000
1727691464.119,21.484,-40.527,-17.578,0.000,0.000
1727691464.123,40.527,-43.457,-34.668,12.207,0.000
1727691464.127,29.297,-41.016,-37.598,14.648,0.000
1727691464.131,-13.184,-40.527,-37.109,11.230,0.000
1727691464.135,-23.438,-41.016,-53.711,11.230,0.000
1727691464.139,37.109,-34.668,-63.477,22.949,0.000
1727691464.142,48.828,-41.992,-27.832,25.879,0.000
1727691464.146,20.020,-53.711,3.418,13.184,0.000
1727691464.150,-15.137,-53.223,-5.371,-2.930,0.000
1727691464.154,-40.039,-54.199,-12.207,-9.766,0.000
1727691464.158,6.348,-51.270,-32.227,15.137,0.000
1727691464.162,41.992,-38.574,-70.312,27.832,0.000
1727691464.166,31.738,-41.504,-57.129,13.672,0.000
1727691464.170,-7.324,-48.828,-19.043,3.906,0.000
1727691464.174,-45.898,-52.734,-6.348,-4.883,0.000
1727691464.178,-3.906,-52.246,-3.418,-5.371,0.000
1727691464.181,36.621,-46.387,-12.695,4.395,0.000
1727691464.185,26.367,-45.898,-34.668,7.324,0.000
1727691464.189,-9.277,-48.340,-36.621,8.789,0.000
1727691464.193,-46.875,-49.316,-26.855,-9.766,0.000
1727691464.197,-18.555,-51.270,-32.227,-19.531,0.000
1727691464.201,30.273,-47.363,-42.480,1.953,0.000
1727691464.205,33.691,-40.527,-63.965,0.000,0.000
1727691464.209,-5.371,-39.551,-78.125,-19.043,0.000
1727691464.213,-47.363,-44.922,-58.105,-14.160,0.000
1727691464.217,-22.461,-48.828,-30.762,0.000,0.000
1727691464.221,24.414,-43.945,-5.371,10.254,0.000
1727691464.224,25.391,-33.691,-6.836,11.230,0.000
1727691464.228,-4.883,-30.762,-20.020,8.301,0.000
1727691464.232,-52.246,-39.062,-22.949,2.930,0.000
1727691464.236,-24.414,-36.621,-29.297,-1.465,0.000
1727691464.240,40.527,-28.809,-38.086,11.230,0.000
1727691464.244,39.551,-31.738,-40.527,12.207,0.000
1727691464.248,2.930,-33.203,-44.922,4.883,0.000
1727691464.252,-41.992,-29.297,-54.199,-6.348,0.000
1727691464.256,-26.367,-29.785,-41.504,-12.695,0.000
1727691464.260,25.879,-36.133,-27.832,-1.953,0.000
1727691464.264,29.297,-39.062,-30.273,-2.441,0.000
1727691464.267,4.883,-38.086,-36.621,-7.324,0.000
1727691464.271,-33.203,-36.621,-39.551,-9.766,0.000
1727691464.275,-27.832,-29.785,-44.922,-0.488,0.000
1727691464.279,17.578,-30.273,-49.316,9.766,0.000
1727691464.283,27.344,-33.691,-43.457,16.113,0.000
1727691464.287,7.812,-38.574,-30.762,8.789,0.000
1727691464.291,-34.668,-40.527,-16.602,2.441,0.000
1727691464.295,-35.645,-38.086,-15.625,10.742,0.000
1727691464.299,24.414,-37.598,-25.879,7.812,0.000
1727691464.303,42.480,-42.969,-33.203,5.371,0.000
1727691464.306,25.879,-42.969,-40.527,9.277,0.000
1727691464.310,-19.043,-37.598,-41.016,0.488,0.000
1727691464.314,-32.715,-31.738,-37.109,-7.324,0.000
1727691464.318,25.391,-23.926,-39.551,-0.977,0.000
1727691464.322,47.363,-24.414,-48.828,-3.418,0.000
1727691464.326,39.062,-23.438,-42.969,0.977,0.000
1727691464.330,-2.441,-23.926,-38.086,-0.488,0.000
1727691464.334,-36.133,-25.879,-38.574,-9.277,0.000
1727691464.338,12.695,-29.785,-29.297,-0.977,0.000
1727691464.342,42.480,-38.086,-27.344,0.000,0.000
1727691464.346,33.691,-37.598,-26.855,-3.418,0.000
1727691464.349,-7.324,-32.227,-35.156,-4.395,0.000
1727691464.353,-36.621,-31.738,-52.734,-3.906,0.000
1727691464.357,13.672,-34.668,-38.574,1.465,0.000
1727691464.361,43.945,-40.039,-26.367,-1.465,0.000
1727691464.365,27.832,-45.898,-43.457,-3.906,0.000
1727691464.369,-10.254,-45.898,-43.457,-12.207,0.000
1727691464.373,-43.457,-38.086,-30.762,-19.043,0.000
1727691464.377,-3.906,-33.203,-19.531,-4.883,0.000
1727691464.381,41.992,-38.574,-32.227,5.859,0.000
1727691464.385,40.039,-38.574,-64.453,14.160,0.000
1727691464.389,2.930,-31.738,-53.223,5.859,0.000
1727691464.392,-41.016,-33.203,-19.531,-4.883,0.000
1727691464.396,-17.578,-38.574,-18.555,-2.441,0.000
1727691464.400,25.391,-41.016,-18.066,8.301,0.000
1727691464.404,17.090,-42.969,-29.297,0.000,0.000
1727691464.408,-11.230,-43.457,-46.875,-19.043,0.000
1727691464.412,-42.969,-42.480,-33.203,-16.602,0.000
1727691464.416,-26.855,-42.480,-29.785,-7.812,0.000
1727691464.420,22.949,-41.992,-35.645,-3.418,0.000
1727691464.424,26.855,-42.969,-38.574,0.488,0.000
1727691464.428,3.418,-35.645,-43.457,4.883,0.000
1727691464.431,-42.480,-35.645,-41.992,-5.371,0.000
1727691464.435,-39.062,-44.434,-21.973,-23.926,0.000
1727691464.439,11.230,-48.828,-14.160,-19.043,0.000
1727691464.443,16.113,-44.922,-29.297,-8.301,0.000
1727691464.447,2.441,-38.574,-45.898,-5.371,0.000
1727691464.451,-36.133,-40.039,-32.715,-14.160,0.000
1727691464.455,-41.016,-48.340,-11.719,-14.648,0.000
1727691464.459,18.066,-44.434,-25.391,-9.766,0.000
1727691464.463,34.180,-36.133,-33.691,-2.930,0.000
1727691464.467,8.789,-38.574,-22.949,0.977,0.000
1727691464.471,-30.762,-41.992,-17.090,-7.812,0.000
1727691464.474,-35.156,-40.039,-25.391,4.395,0.000
1727691464.478,15.137,-35.645,-46.387,11.719,0.000
1727691464.482,35.156,-32.227,-52.246,9.766,0.000
1727691464.486,22.461,-29.785,-39.551,16.113,0.000
1727691464.490,-20.508,-36.621,-18.066,2.930,0.000
1727691464.494,0.000,-41.016,-0.977,-13.184,0.000
1727691464.498,0.000,-38.574,-2.930,-0.488,0.000
1727691464.502,0.000,-42.969,-9.277,-1.465,0.000
1727691464.506,0.000,-42.480,-17.090,-7.812,0.000
1727691464.510,0.000,-40.039,-11.719,-6.836,0.000
1727691464.513,0.000,-36.621,-48.828,-5.371,0.000
1727691464.517,0.000,-29.297,-91.797,7.812,0.000
1727691464.521,0.000,-29.785,-77.637,5.859,0.000
1727691464.525,0.000,-32.227,-40.527,0.488,0.000
1727691464.529,0.000,-40.527,-1.465,-12.695,0.000
1727691464.533,0.000,-45.898,4.395,-23.926,0.000
1727691464.537,0.000,-43.945,-1.465,-8.301,0.000
1727691464.541,25.391,-49.316,-12.695,-1.465,0.000
1727691464.545,21.973,-49.805,-22.461,1.953,0.000
1727691464.549,-10.742,-47.852,-20.508,9.766,0.000
1727691464.552,-44.434,-45.898,-20.020,-3.906,0.000
1727691464.556,-9.766,-41.016,-53.711,-4.883,0.000
1727691464.560,28.320,-43.457,-67.871,8.301,0.000
1727691464.564,20.996,-36.621,-43.457,5.859,0.000
1727691464.568,-13.184,-34.180,-48.340,-9.277,0.000
1727691464.572,-46.387,-41.016,-44.434,-18.066,0.000
1727691464.576,-16.113,-38.086,-29.297,-10.742,0.000
1727691464.580,31.250,-39.062,-38.574,-9.766,0.000
1727691464.584,20.996,-43.457,-46.387,-24.414,0.000
1727691464.588,-8.301,-39.551,-28.809,-12.695,0.000
1727691464.592,-36.621,-35.645,-40.039,0.000,0.000
1727691464.595,-14.648,-37.109,-64.941,0.488,0.000
1727691464.599,36.621,-41.016,-30.762,10.254,0.000
1727691464.603,35.156,-41.504,-7.324,1.953,0.000
1727691464.607,10.742,-41.016,-17.090,1.953,0.000
1727691464.611,-29.785,-49.805,-20.020,8.789,0.000
1727691464.615,-33.203,-50.781,-27.344,-3.418,0.000
1727691464.619,15.137,-48.828,-30.273,-14.160,0.000
1727691464.623,30.762,-45.410,-17.578,8.789,0.000
1727691464.627,3.418,-40.039,-22.949,9.277,0.000
1727691464.631,-45.898,-50.781,-34.668,-18.066,0.000
1727691464.635,-43.457,-58.594,-33.691,-10.742,0.000
1727691464.638,-7.812,-56.152,-29.785,-1.953,0.000
1727691464.642,5.371,-58.594,-22.461,-3.418,0.000
1727691464.646,-1.465,-61.035,-16.113,-12.695,0.000
1727691464.650,-53.711,-48.828,-25.879,-28.809,0.000
1727691464.654,-58.105,-37.598,-37.598,-10.742,0.000
1727691464.658,7.324,-37.109,-32.715,4.883,0.000
1727691464.662,34.180,-40.039,-21.484,12.695,0.000
1727691464.666,13.672,-51.758,-11.719,13.184,0.000
1727691464.670,-53.223,-57.617,-12.695,-11.230,0.000
1727691464.674,-84.473,-40.527,-60.547,-31.250,0.000
1727691464.678,-20.020,-36.133,-84.961,-14.160,0.000
1727691464.681,33.691,-55.664,-30.762,18.066,0.000
1727691464.685,29.297,-56.152,-19.531,17.578,0.000
1727691464.689,-11.719,-43.945,-46.387,4.883,0.000
1727691464.693,-55.664,-50.293,-40.527,-21.973,0.000
1727691464.697,-27.344,-62.500,-19.043,-32.715,0.000
1727691464.701,2.441,-54.199,-19.043,-30.762,0.000
1727691464.705,-9.766,-53.711,-36.133,-43.457,0.000
1727691464.709,-25.391,-45.410,-41.504,-30.762,0.000
1727691464.713,-38.086,-28.809,-27.832,0.000,0.000
1727691464.717,2.930,-55.176,-26.367,2.441,0.000
1727691464.720,43.457,-76.660,-23.926,-5.859,0.000
1727691464.724,40.527,-85.938,-8.789,-2.930,0.000
1727691464.728,-17.578,-86.914,-16.113,-31.738,0.000
1727691464.732,-72.754,-73.730,-41.992,-49.805,0.000
1727691464.736,-5.371,-95.703,-74.707,0.977,0.000
1727691464.740,47.363,-105.957,-111.816,16.113,0.000
1727691464.744,25.391,-98.633,-88.379,-1.465,0.000
1727691464.748,-36.133,-151.367,9.766,-38.086,0.000
1727691464.752,-97.656,-194.336,52.734,-72.754,0.000
1727691464.756,-66.895,-201.660,29.297,-62.500,0.000
1727691464.760,-20.996,-282.715,-30.273,-41.992,0.000
1727691464.763,6.836,-377.930,-75.195,-7.324,0.000
1727691464.767,2.441,-442.383,-48.828,0.488,0.000
1727691464.771,-57.129,-530.273,3.906,-21.973,0.000
1727691464.775,-67.383,-567.871,-14.648,-48.340,0.000
1727691464.779,-31.738,-574.707,-111.328,-52.246,0.000
1727691464.783,5.859,-629.883,-104.004,-27.344,0.000
1727691464.787,-41.016,-699.219,-1.953,-58.105,0.000
1727691464.791,-93.262,-744.629,25.391,-63.477,0.000
1727691464.795,-54.688,-820.312,5.371,-28.809,0.000
1727691464.799,8.789,-863.770,-89.355,-21.484,0.000
1727691464.803,20.020,-937.500,-86.914,-23.438,0.000
1727691464.806,5.859,-1000.000,59.570,-20.020,0.000
1727691464.810,-33.691,-998.047,57.617,-20.996,0.000
1727691464.814,-100.586,-999.512,-35.645,-77.637,0.000
1727691464.818,-50.293,-1000.000,-46.387,-69.824,0.000
1727691464.822,14.160,-1000.000,-37.598,-4.395,0.000
1727691464.826,12.695,-1000.000,-51.270,10.254,0.000
1727691464.830,-18.066,-1000.000,-16.113,1.953,0.000
1727691464.834,-60.059,-1000.000,-1.953,-19.043,0.000
1727691464.838,-16.113,-1000.000,-23.926,-13.672,0.000
1727691464.842,34.668,-1000.000,-49.316,-0.977,0.000
1727691464.845,25.391,-1000.000,-63.965,-3.418,0.000
1727691464.849,-14.160,-1000.000,-134.766,11.230,0.000
1727691464.853,-23.926,-1000.000,-129.395,13.184,0.000
1727691464.857,-0.977,-1000.000,10.742,-27.344,0.000
1727691464.861,17.578,-1000.000,57.129,-24.902,0.000
1727691464.865,3.906,-1000.000,34.668,-12.695,0.000
1727691464.869,-61.523,-1000.000,-48.340,-41.504,0.000
1727691464.873,-79.102,-1000.000,-20.996,-39.551,0.000
1727691464.877,-24.902,-1000.000,41.992,-22.949,0.000
1727691464.881,-24.902,-1000.000,-28.809,-50.293,0.000
1727691464.885,-1.953,-1000.000,-31.738,-17.578,0.000
1727691464.888,-19.043,-1000.000,16.602,16.113,0.000
1727691464.892,-88.867,-1000.000,-6.836,-32.715,0.000
1727691464.896,6.348,-1000.000,-48.828,3.906,0.000
1727691464.900,77.637,-1000.000,-83.496,36.621,0.000
1727691464.904,57.617,-1000.000,-36.133,20.996,0.000
1727691464.908,14.648,-1000.000,-24.902,10.254,0.000
1727691464.912,-41.992,-1000.000,-19.531,-11.719,0.000
1727691464.916,-50.293,-1000.000,-15.137,-47.363,0.000
1727691464.920,-7.324,-1000.000,-21.484,-41.504,0.000
1727691464.924,-12.695,-1000.000,-29.785,-34.668,0.000
1727691464.927,-45.410,-1000.000,-48.340,-10.254,0.000
1727691464.931,-85.938,-1000.000,-96.680,-5.859,0.000
1727691464.935,-29.785,-1000.000,-60.059,-16.113,0.000
1727691464.939,34.180,-1000.000,21.973,4.883,0.000
1727691464.943,3.906,-1000.000,-10.742,-3.418,0.000
1727691464.947,1.953,-1000.000,-9.766,-12.695,0.000
1727691464.951,-51.270,-1000.000,8.301,-28.809,0.000
1727691464.955,-47.852,-1000.000,-35.645,-23.438,0.000
1727691464.959,11.719,-1000.000,-20.996,5.859,0.000
1727691464.963,36.621,-1000.000,0.488,26.367,0.000
1727691464.967,-3.418,-1000.000,-37.109,-7.324,0.000
1727691464.970,-54.199,-1000.000,1.465,-12.207,0.000
1727691464.974,-37.598,-1000.000,10.742,-1.465,0.000
1727691464.978,-3.906,-1000.000,-71.777,-10.742,0.000
1727691464.982,-4.395,-1000.000,-120.605,-20.020,0.000
1727691464.986,11.719,-1000.000,-86.426,-2.930,0.000
1727691464.990,-0.977,-1000.000,0.488,24.414,0.000
1727691464.994,-63.477,-1000.000,15.625,-36.621,0.000
1727691464.998,-12.207,-1000.000,28.320,-13.672,0.000
1727691465.002,47.852,-1000.000,22.949,46.875,0.000
1727691465.006,13.672,-1000.000,-14.160,17.578,0.000
1727691465.010,-61.523,-1000.000,-15.625,-22.461,0.000
1727691465.013,-80.078,-1000.000,-35.645,-29.297,0.000
1727691465.017,-13.184,-1000.000,-71.777,-19.531,0.000
1727691465.021,18.066,-1000.000,-72.754,0.000,0.000
1727691465.025,25.391,-1000.000,-35.156,19.043,0.000
1727691465.029,-12.695,-1000.000,-34.668,1.953,0.000
1727691465.033,-28.809,-1000.000,2.930,-5.371,0.000
1727691465.037,26.367,-1000.000,38.574,11.719,0.000
1727691465.041,32.227,-1000.000,-0.977,10.254,0.000
1727691465.045,28.809,-1000.000,-12.207,30.273,0.000
1727691465.049,-23.926,-1000.000,-2.930,12.207,0.000
1727691465.052,-74.707,-1000.000,-35.645,-24.902,0.000
1727691465.056,0.000,-1000.000,-62.500,11.719,0.000
1727691465.060,0.000,-1000.000,-58.594,56.641,0.000
1727691465.064,0.000,-1000.000,-44.434,36.621,0.000
1727691465.068,0.000,-1000.000,-3.418,-2.930,0.000
1727691465.072,0.000,-1000.000,16.602,-18.555,0.000
1727691465.076,0.000,-1000.000,16.113,-2.441,0.000
1727691465.080,0.000,-1000.000,11.230,10.254,0.000
1727691465.084,0.000,-1000.000,-7.324,8.789,0.000
1727691465.088,0.000,-1000.000,-49.805,33.691,0.000
1727691465.092,0.000,-1000.000,-61.035,11.719,0.000
1727691465.095,0.000,-1000.000,-2.930,-20.996,0.000
1727691465.099,0.000,-1000.000,15.625,-9.277,0.000
1727691465.103,11.719,-1000.000,-9.766,-10.254,0.000
1727691465.107,-33.691,-1000.000,-23.438,-22.461,0.000
1727691465.111,-70.312,-1000.000,-38.086,-20.996,0.000
1727691465.115,-14.648,-1000.000,-43.945,-1.953,0.000
1727691465.119,42.480,-1000.000,-21.973,9.766,0.000
1727691465.123,41.504,-1000.000,-18.555,13.184,0.000
1727691465.127,10.742,-1000.000,-31.738,9.766,0.000
1727691465.131,-43.457,-1000.000,-34.668,-3.418,0.000
1727691465.135,-29.785,-1000.000,-32.227,5.371,0.000
1727691465.138,36.133,-1000.000,-46.875,17.090,0.000
1727691465.142,49.316,-1000.000,-53.711,14.648,0.000
1727691465.146,11.719,-1000.000,-37.598,4.395,0.000
1727691465.150,-24.414,-1000.000,-51.270,2.441,0.000
1727691465.154,9.277,-1000.000,-42.480,9.766,0.000
1727691465.158,59.570,-1000.000,1.465,12.207,0.000
1727691465.162,59.570,-1000.000,-10.254,10.254,0.000
1727691465.166,44.434,-1000.000,-15.137,11.719,0.000
1727691465.170,13.184,-982.422,-26.367,14.648,0.000
1727691465.174,16.602,-1000.000,-80.566,20.020,0.000
1727691465.177,57.617,-812.500,-42.969,32.227,0.000
1727691465.181,62.012,-154.785,14.160,31.250,0.000
1727691465.185,41.992,530.762,14.648,16.602,0.000
1727691465.189,0.000,927.734,11.230,4.395,0.000
1727691465.193,-6.836,966.797,4.883,4.883,0.000
1727691465.197,42.480,958.496,-10.742,14.648,0.000
1727691465.201,62.012,970.703,-29.297,14.648,0.000
1727691465.205,46.387,968.262,-26.855,15.137,0.000
1727691465.209,2.930,968.262,-26.367,9.766,0.000
1727691465.213,-11.230,968.262,-4.395,2.930,0.000
1727691465.217,44.922,968.262,-17.090,14.160,0.000
1727691465.220,78.613,968.262,-41.504,30.273,0.000
1727691465.224,52.734,968.262,-12.695,35.156,0.000
1727691465.228,-9.277,968.262,6.836,5.371,0.000
1727691465.232,-32.227,968.262,7.324,-3.418,0.000
1727691465.236,13.672,968.262,0.488,8.301,0.000
1727691465.240,45.898,968.262,-2.441,15.625,0.000
1727691465.244,0.000,968.262,3.906,29.785,0.000
1727691465.248,0.000,968.262,-10.254,24.414,0.000
1727691465.252,0.000,968.262,-24.902,14.160,0.000
1727691465.256,0.000,968.262,-18.066,24.902,0.000
1727691465.259,0.000,968.262,-22.949,35.156,0.000
1727691465.263,0.000,968.262,-36.621,23.438,0.000
1727691465.267,0.000,968.262,-6.348,12.207,0.000
1727691465.271,0.000,968.262,11.230,-1.465,0.000
1727691465.275,0.000,968.262,-4.883,0.977,0.000
1727691465.279,0.000,968.262,0.977,13.672,0.000
1727691465.283,0.000,968.262,-1.465,2.441,0.000
1727691465.287,0.000,968.262,-27.832,-4.395,0.000
1727691465.291,-48.828,968.262,-16.602,-6.836,0.000
1727691465.295,-14.648,968.262,-3.418,4.883,0.000
1727691465.298,44.922,968.262,-36.133,21.484,0.000
1727691465.302,42.480,968.262,-46.387,21.973,0.000
1727691465.306,9.766,968.262,-23.438,8.301,0.000
1727691465.310,-44.434,968.262,-11.230,-11.719,0.000
1727691465.314,-37.109,968.262,0.977,-14.160,0.000
1727691465.318,20.508,968.262,7.812,-6.348,0.000
1727691465.322,23.438,968.262,-15.625,-3.906,0.000
1727691465.326,8.301,968.262,-33.691,3.418,0.000
1727691465.330,-38.574,968.262,-27.832,-5.859,0.000
1727691465.334,-41.016,968.262,-29.297,-11.719,0.000
1727691465.338,0.000,967.773,-51.270,8.789,0.000
1727691465.341,0.000,968.262,-52.246,16.602,0.000
1727691465.345,0.000,968.262,-19.043,-1.465,0.000
1727691465.349,0.000,967.773,-2.441,-15.137,0.000
1727691465.353,0.000,968.262,-17.090,-13.672,0.000
1727691465.357,0.000,967.773,-28.809,-1.465,0.000
1727691465.361,0.000,968.262,-17.090,8.301,0.000
1727691465.365,0.000,968.262,-8.789,12.207,0.000
1727691465.369,0.000,968.262,-23.926,14.648,0.000
1727691465.373,0.000,968.262,-34.180,17.578,0.000
1727691465.377,0.000,968.262,-18.555,19.043,0.000
1727691465.381,0.000,968.262,-4.883,10.742,0.000
1727691465.384,30.762,968.262,-24.414,8.789,0.000
1727691465.388,5.371,968.262,-39.551,4.883,0.000
1727691465.392,-16.602,968.262,-34.668,-7.812,0.000
1727691465.396,25.391,968.262,-30.762,2.441,0.000
1727691465.400,47.852,968.262,-5.859,17.090,0.000
1727691465.404,46.875,968.262,13.672,18.066,0.000
1727691465.408,0.488,968.262,2.930,8.301,0.000
1727691465.412,-35.645,968.262,-11.719,1.465,0.000
1727691465.416,21.973,967.773,-20.508,18.066,0.000
1727691465.420,66.895,968.750,-31.250,30.273,0.000
1727691465.424,51.758,949.707,-53.711,19.043,0.000
1727691465.427,0.000,915.527,-73.242,15.137,0.000
1727691465.431,0.000,881.348,-50.781,10.254,0.000
1727691465.435,0.000,856.445,-19.043,5.859,0.000
1727691465.439,0.000,842.285,0.488,2.441,0.000
1727691465.443,0.000,817.383,-4.883,2.930,0.000
1727691465.447,0.000,788.086,-29.785,-0.977,0.000
1727691465.451,0.000,757.324,-39.551,-6.836,0.000
1727691465.455,0.000,736.328,-34.180,5.859,0.000
1727691465.459,0.000,718.750,-42.969,16.602,0.000
1727691465.463,0.000,695.801,-44.434,21.973,0.000
1727691465.466,0.000,683.105,-34.668,17.090,0.000
1727691465.470,0.000,678.711,-24.902,0.000,0.000
1727691465.474,0.000,666.016,-32.227,-4.395,0.000
1727691465.478,42.480,655.762,-41.992,0.977,0.000
1727691465.482,36.621,644.043,-33.203,3.906,0.000
1727691465.486,20.020,629.883,-29.297,1.953,0.000
1727691465.490,-32.715,616.699,-34.180,-5.371,0.000
1727691465.494,-26.367,606.934,-40.039,0.977,0.000
1727691465.498,33.203,598.633,-22.949,1.953,0.000
1727691465.502,34.668,582.031,-10.254,-6.836,0.000
1727691465.506,9.277,564.453,-15.625,3.906,0.000
1727691465.509,-41.504,548.828,-35.156,8.301,0.000
1727691465.513,-33.691,524.414,-32.715,-4.395,0.000
1727691465.517,21.484,501.953,-33.691,0.000,0.000
1727691465.521,34.180,487.793,-65.430,7.324,0.000
1727691465.525,14.160,482.910,-73.730,1.465,0.000
1727691465.529,-30.273,487.305,-63.965,-1.465,0.000
1727691465.533,-52.246,483.398,-36.621,-9.277,0.000
1727691465.537,-9.766,482.910,0.488,-2.441,0.000
1727691465.541,16.113,489.258,8.301,3.418,0.000
1727691465.545,10.254,496.582,-14.648,-3.418,0.000
1727691465.549,-37.109,500.000,-29.297,-20.508,0.000
1727691465.552,-55.176,487.793,-32.227,-21.484,0.000
1727691465.556,11.230,483.887,-47.363,3.906,0.000
1727691465.560,43.945,474.121,-41.016,3.906,0.000
1727691465.564,26.855,452.148,-22.949,-0.488,0.000
1727691465.568,-19.043,438.965,-29.297,-14.648,0.000
1727691465.572,-37.109,432.617,-31.738,-22.461,0.000
1727691465.576,0.000,417.480,-38.086,-3.906,0.000
1727691465.580,24.414,402.832,-52.246,2.441,0.000
1727691465.584,19.531,399.414,-49.805,-5.859,0.000
1727691465.588,-20.020,395.996,-40.527,-19.531,0.000
1727691465.591,-38.086,391.113,-41.504,-24.414,0.000
1727691465.595,1.465,383.789,-35.156,-11.230,0.000
1727691465.599,30.273,372.070,-31.250,3.906,0.000
1727691465.603,29.785,369.629,-42.969,-1.465,0.000
1727691465.607,-12.695,360.352,-53.711,-11.719,0.000
1727691465.611,-45.410,340.820,-59.082,-10.742,0.000
1727691465.615,0.000,332.520,-53.711,-0.977,0.000
1727691465.619,35.156,321.777,-44.922,-2.930,0.000
1727691465.623,28.320,324.219,-23.926,-5.859,0.000
1727691465.627,-13.672,327.637,-10.254,-6.348,0.000
1727691465.631,-43.457,319.336,-12.207,-10.254,0.000
1727691465.634,-2.930,323.242,-19.531,-4.395,0.000
1727691465.638,38.574,323.242,-29.297,-0.977,0.000
1727691465.642,45.410,320.801,-34.180,10.742,0.000
1727691465.646,18.555,314.941,-53.711,12.695,0.000
1727691465.650,-33.691,290.039,-56.152,-4.395,0.000
1727691465.654,-14.160,273.926,-23.438,-5.371,0.000
1727691465.658,34.668,273.926,0.000,-0.488,0.000
1727691465.662,21.973,268.066,-10.254,-4.883,0.000
1727691465.666,2.441,264.648,-33.691,-8.301,0.000
1727691465.670,-40.039,254.883,-43.945,-15.625,0.000
1727691465.673,-32.715,247.070,-45.898,-17.578,0.000
1727691465.677,22.949,239.258,-37.598,-6.836,0.000
1727691465.681,41.016,232.422,-34.180,5.371,0.000
1727691465.685,20.996,223.633,-35.156,5.371,0.000
1727691465.689,-33.203,208.008,-23.438,-3.906,0.000
1727691465.693,-25.879,201.172,-21.973,-3.418,0.000
1727691465.697,33.203,204.590,-36.133,9.277,0.000
1727691465.701,52.734,208.008,-38.086,27.832,0.000
1727691465.705,36.133,208.008,-28.809,29.785,0.000
1727691465.709,-22.461,199.707,-21.973,6.836,0.000
1727691465.713,-22.949,190.918,-25.391,-1.465,0.000
1727691465.716,40.039,187.012,-46.387,5.859,0.000
1727691465.720,44.922,187.500,-61.035,11.719,0.000
1727691465.724,27.832,187.988,-29.297,7.324,0.000
1727691465.728,-26.367,181.152,-8.789,0.488,0.000
1727691465.732,-41.504,181.152,-1.465,-4.395,0.000
1727691465.736,23.926,207.031,-1.953,0.977,0.000
1727691465.740,43.945,246.094,-20.996,11.230,0.000
1727691465.744,30.762,249.023,-21.484,12.207,0.000
1727691465.748,-20.508,248.535,-7.324,9.277,0.000
1727691465.752,-42.480,252.930,-10.742,-2.441,0.000
1727691465.755,11.230,242.676,-32.227,-2.930,0.000
1727691465.759,34.180,241.699,-34.668,6.836,0.000
1727691465.763,22.949,240.234,-45.410,0.000,0.000
1727691465.767,0.000,232.422,-58.105,-10.742,0.000
1727691465.771,-31.738,220.703,-39.551,-6.836,0.000
1727691465.775,11.230,214.355,-22.461,5.371,0.000
1727691465.779,50.781,211.914,-32.715,10.742,0.000
1727691465.783,37.598,205.566,-58.105,5.371,0.000
1727691465.787,2.441,203.613,-65.430,-5.859,0.000
1727691465.791,-37.598,189.941,-56.152,-8.301,0.000
1727691465.795,-0.488,182.617,-39.551,-3.906,0.000
1727691465.798,41.504,182.617,-19.531,-7.812,0.000
1727691465.802,27.344,177.734,-12.695,-9.766,0.000
1727691465.806,-5.371,173.340,-23.438,-12.695,0.000
1727691465.810,-18.066,160.645,-34.668,-0.488,0.000
1727691465.814,8.789,149.414,-30.762,4.883,0.000
1727691465.818,31.250,148.438,-25.391,0.488,0.000
1727691465.822,36.133,144.531,-33.691,8.301,0.000
1727691465.826,11.719,145.996,-45.898,2.441,0.000
1727691465.830,-37.109,148.438,-41.992,-6.836,0.000
1727691465.834,-13.672,148.438,-42.480,-1.465,0.000
1727691465.838,44.922,145.020,-47.363,14.160,0.000
1727691465.841,47.363,141.113,-44.922,18.555,0.000
1727691465.845,24.414,145.996,-53.223,11.230,0.000
1727691465.849,-27.344,151.855,-65.430,1.465,0.000
1727691465.853,-15.137,151.367,-50.293,-3.418,0.000
1727691465.857,46.387,151.367,-42.969,-1.953,0.000
1727691465.861,51.270,153.320,-44.922,1.465,0.000
1727691465.865,21.484,147.461,-42.480,-4.395,0.000
1727691465.869,-25.391,140.625,-41.016,-14.160,0.000
1727691465.873,-15.625,144.043,-24.902,-4.395,0.000
1727691465.877,29.785,140.137,-19.043,5.371,0.000
1727691465.881,46.387,134.766,-29.785,14.160,0.000
1727691465.884,21.484,140.137,-33.203,21.973,0.000
1727691465.888,-32.715,148.438,-37.598,11.230,0.000
1727691465.892,-28.809,157.715,-44.922,5.859,0.000
1727691465.896,35.156,161.133,-34.180,18.555,0.000
1727691465.900,55.664,156.738,-13.184,18.555,0.000
1727691465.904,31.738,148.926,-12.207,10.742,0.000
1727691465.908,-13.672,136.230,-18.555,0.000,0.000
1727691465.912,-36.133,126.465,-22.949,-3.906,0.000
1727691465.916,17.090,88.867,-43.457,6.348,0.000
1727691465.920,51.270,28.809,-67.383,10.254,0.000
1727691465.923,28.809,-11.719,-66.406,8.789,0.000
1727691465.927,-17.090,-34.180,-39.551,12.695,0.000
1727691465.931,-37.598,-37.109,-20.508,8.789,0.000
1727691465.935,3.906,-34.668,-24.414,-0.977,0.000
1727691465.939,38.574,-45.898,-15.137,0.977,0.000
1727691465.943,39.551,-52.246,-5.859,3.906,0.000
1727691465.947,-0.488,-51.758,-18.066,-1.465,0.000
1727691465.951,-39.551,-61.035,-27.344,-5.371,0.000
1727691465.955,6.836,-59.082,-39.062,5.859,0.000
1727691465.959,45.898,-44.434,-61.523,16.602,0.000
1727691465.963,36.621,-37.109,-43.945,20.508,0.000
1727691465.966,9.277,-32.227,-16.602,9.766,0.000
1727691465.970,-29.785,-29.785,-6.348,3.418,0.000
1727691465.974,-0.488,-26.855,-7.324,17.090,0.000
1727691465.978,43.457,-24.414,-24.902,14.648,0.000
1727691465.982,48.340,-20.508,-45.898,9.766,0.000
1727691465.986,12.695,-20.996,-41.992,13.184,0.000
1727691465.990,-43.945,-30.762,-19.043,0.000,0.000
1727691465.994,-10.254,-34.180,-7.812,1.953,0.000
1727691465.998,41.504,-30.762,-10.742,9.766,0.000
1727691466.002,38.574,-24.414,-20.020,4.395,0.000
1727691466.005,17.578,-19.043,-31.250,8.301,0.000
1727691466.009,-27.832,-16.113,-41.504,0.977,0.000
1727691466.013,-8.789,-12.207,-34.180,2.441,0.000
1727691466.017,44.434,-12.207,-41.504,11.719,0.000
1727691466.021,50.781,-5.371,-36.133,16.113,0.000
1727691466.025,14.648,-0.488,0.488,0.000,0.000
1727691466.029,-35.156,-5.859,-4.395,-10.742,0.000
1727691466.033,-11.719,-3.906,-24.414,1.465,0.000
1727691466.037,33.691,2.441,-10.254,2.930,0.000
1727691466.041,27.344,4.395,-4.883,2.441,0.000
1727691466.044,12.207,3.418,-12.695,-1.465,0.000
1727691466.048,-30.273,2.930,-19.531,-14.160,0.000
1727691466.052,-28.320,9.766,-29.785,-11.719,0.000
1727691466.056,25.879,15.625,-35.645,0.488,0.000
1727691466.060,34.668,17.090,-32.227,9.277,0.000
1727691466.064,10.254,18.555,-25.391,9.277,0.000
1727691466.068,-29.297,19.531,-26.367,0.977,0.000
1727691466.072,-24.902,18.066,-23.438,3.906,0.000
1727691466.076,33.203,25.879,-42.480,17.578,0.000
1727691466.080,65.430,37.598,-62.500,23.438,0.000
1727691466.084,43.457,31.250,-27.344,14.160,0.000
1727691466.087,-16.602,27.832,-14.160,5.859,0.000
1727691466.091,-32.715,34.180,-31.738,-2.930,0.000
1727691466.095,23.438,35.156,-15.625,-1.465,0.000
1727691466.099,41.992,36.621,0.488,-1.465,0.000
1727691466.103,31.738,45.410,-18.066,-0.977,0.000
1727691466.107,-12.695,49.805,-45.410,-13.184,0.000
1727691466.111,-43.945,41.504,-31.738,-25.879,0.000
1727691466.115,4.883,40.039,-23.926,-15.137,0.000
1727691466.119,39.062,45.898,-30.273,-3.418,0.000
1727691466.123,25.391,42.969,-12.207,-0.488,0.000
1727691466.127,-14.160,48.340,-15.137,-10.742,0.000
1727691466.130,-44.922,51.758,-18.555,-16.113,0.000
1727691466.134,-0.488,53.223,-18.066,-8.301,0.000
1727691466.138,44.434,65.918,-32.715,0.000,0.000
1727691466.142,33.203,75.195,-62.012,-4.883,0.000
1727691466.146,-6.836,77.148,-75.684,-14.160,0.000
1727691466.150,-37.109,84.473,-45.898,-14.160,0.000
1727691466.154,-7.324,81.055,-32.715,-5.859,0.000
1727691466.158,33.203,75.684,-21.973,8.301,0.000
1727691466.162,32.227,81.543,-6.348,3.418,0.000
1727691466.166,-6.348,79.590,-14.648,1.953,0.000
1727691466.170,-27.832,79.102,-24.902,11.230,0.000
1727691466.173,12.695,83.984,-29.297,5.859,0.000
1727691466.177,44.434,79.590,-35.645,8.301,0.000
1727691466.181,35.645,81.055,-42.969,17.090,0.000
1727691466.185,8.301,76.660,-34.668,13.672,0.000
1727691466.189,-36.133,64.941,-30.273,-2.441,0.000
1727691466.193,-10.254,70.801,-37.598,-5.371,0.000
1727691466.197,42.969,72.266,-37.598,11.719,0.000
1727691466.201,38.086,64.453,-30.762,11.230,0.000
1727691466.205,18.555,63.965,-31.738,5.371,0.000
1727691466.209,-26.855,62.012,-36.133,2.930,0.000
1727691466.213,-19.043,58.594,-33.691,3.906,0.000
1727691466.216,38.086,62.012,-26.855,17.578,0.000
1727691466.220,37.109,65.918,-26.367,1.953,0.000
1727691466.224,14.648,64.941,-33.691,-3.418,0.000
1727691466.228,-27.832,62.500,-31.250,-1.465,0.000
1727691466.232,-40.039,56.152,-26.367,-13.672,0.000
1727691466.236,21.484,57.129,-44.922,-8.789,0.000
1727691466.240,42.969,61.035,-54.199,-3.906,0.000
1727691466.244,16.113,57.617,-32.227,-4.883,0.000
1727691466.248,-35.645,51.270,-24.414,-11.719,0.000
1727691466.252,-37.598,55.176,-44.434,-16.113,0.000
1727691466.255,26.367,55.176,-35.156,-10.254,0.000
1727691466.259,33.203,50.781,-12.695,-0.977,0.000
1727691466.263,13.672,48.828,-31.738,-0.977,0.000
1727691466.267,-24.902,41.992,-42.969,-9.766,0.000
1727691466.271,-41.504,34.180,-30.762,-10.742,0.000
1727691466.275,0.000,40.039,-39.062,0.488,0.000
1727691466.279,0.000,49.316,-34.668,6.348,0.000
1727691466.283,0.000,41.992,-11.230,7.812,0.000
1727691466.287,0.000,32.715,2.930,10.742,0.000
1727691466.291,0.000,33.691,-2.441,-0.977,0.000
1727691466.295,0.000,38.574,-26.855,-17.578,0.000
1727691466.298,0.000,38.574,-27.344,-15.137,0.000
1727691466.302,0.000,35.156,-11.230,-8.789,0.000
1727691466.306,0.000,32.715,-16.602,-32.715,0.000
1727691466.310,0.000,27.832,-29.297,-43.457,0.000
1727691466.314,0.000,25.879,-36.621,-28.320,0.000
1727691466.318,0.000,27.832,-47.852,-18.066,0.000
1727691466.322,5.371,23.438,-39.551,-18.555,0.000
1727691466.326,-43.945,20.996,-28.320,-22.949,0.000
1727691466.330,-77.148,19.531,-34.668,-23.438,0.000
1727691466.334,-37.109,17.090,-40.039,-24.414,0.000
1727691466.337,5.859,26.367,-43.945,-18.066,0.000
1727691466.341,10.254,32.227,-35.156,-12.207,0.000
1727691466.345,-14.648,32.227,-26.367,-12.207,0.000
1727691466.349,-59.570,35.645,-13.672,-12.207,0.000
1727691466.353,-31.250,35.156,-13.184,-3.418,0.000
1727691466.357,27.832,31.738,-36.133,1.465,0.000
1727691466.361,23.438,33.691,-35.156,-3.906,0.000
1727691466.365,-13.672,32.715,-17.578,-15.625,0.000
1727691466.369,-52.246,30.273,-18.066,-30.273,0.000
1727691466.373,-24.902,32.715,-33.203,-17.090,0.000
1727691466.377,29.297,42.969,-33.691,3.418,0.000
1727691466.380,29.785,42.480,-20.996,4.395,0.000
1727691466.384,-1.953,35.645,-20.996,-7.324,0.000
1727691466.388,-51.758,36.133,-40.039,-21.484,0.000
1727691466.392,-27.344,38.574,-74.219,-7.812,0.000
1727691466.396,31.250,41.992,-52.246,9.277,0.000
1727691466.400,33.691,37.109,-1.953,3.906,0.000
1727691466.404,15.137,33.203,3.906,3.906,0.000
1727691466.408,-32.227,30.273,-0.488,-8.789,0.000
1727691466.412,-42.480,22.949,-0.488,-16.113,0.000
1727691466.416,10.254,20.508,-5.859,-8.789,0.000
1727691466.419,30.273,27.832,-14.648,-0.488,0.000
1727691466.423,14.160,28.320,-20.508,-10.254,0.000
1727691466.427,-41.016,23.926,-28.320,-24.414,0.000
1727691466.431,-51.270,23.926,-33.203,-12.207,0.000
1727691466.435,15.137,27.344,-42.480,14.648,0.000
1727691466.439,32.227,30.762,-50.781,15.625,0.000
1727691466.443,10.254,32.715,-37.598,-3.418,0.000
1727691466.447,-30.273,29.297,-42.480,-12.207,0.000
1727691466.451,-44.434,25.391,-43.945,-11.230,0.000
1727691466.455,0.488,25.391,-30.762,-8.301,0.000
1727691466.459,20.996,21.973,-25.879,-16.113,0.000
1727691466.462,18.555,17.090,-20.020,-14.648,0.000
1727691466.466,-23.438,19.043,-20.508,-10.254,0.000
1727691466.470,-48.828,22.461,-20.020,-15.625,0.000
1727691466.474,6.836,20.996,-29.785,-16.113,0.000
1727691466.478,29.785,24.902,-44.922,-13.672,0.000
1727691466.482,16.602,25.391,-46.875,-11.719,0.000
1727691466.486,-16.602,23.438,-57.617,-13.672,0.000
1727691466.490,-40.039,21.484,-72.266,-18.555,0.000
1727691466.494,3.906,25.391,-58.594,-14.648,0.000
1727691466.498,29.785,24.902,-19.043,-10.254,0.000
1727691466.502,21.484,18.555,-2.441,-22.461,0.000
1727691466.505,-22.949,18.066,-17.090,-29.297,0.000
1727691466.509,-59.570,17.090,-28.809,-20.020,0.000
1727691466.513,-6.836,20.508,-52.734,-18.555,0.000
1727691466.517,40.527,23.438,-66.406,-16.602,0.000
1727691466.521,37.598,23.438,-50.781,-12.207,0.000
1727691466.525,8.301,24.414,-41.504,-13.672,0.000
1727691466.529,-34.180,13.672,-33.203,-19.531,0.000
1727691466.533,-10.742,7.324,-20.508,-15.625,0.000
1727691466.537,33.203,15.137,-19.531,-6.348,0.000
1727691466.541,38.086,11.230,-38.574,-0.977,0.000
1727691466.544,16.113,7.324,-54.688,2.441,0.000
1727691466.548,-32.227,9.277,-47.363,-10.254,0.000
1727691466.552,-19.043,5.371,-32.227,-24.414,0.000
1727691466.556,27.344,3.906,-15.625,-11.230,0.000
1727691466.560,25.391,4.395,-20.020,-7.812,0.000
1727691466.564,-6.836,3.906,-41.016,-14.160,0.000
1727691466.568,-48.828,2.930,-50.781,-11.719,0.000
1727691466.572,-24.902,3.418,-50.293,-5.371,0.000
1727691466.576,27.344,12.207,-43.945,8.789,0.000
1727691466.580,19.043,12.695,-29.297,3.418,0.000
1727691466.584,4.395,6.348,-18.066,-1.953,0.000
1727691466.587,-31.250,5.859,-29.297,8.789,0.000
1727691466.591,-32.715,8.301,-49.805,8.789,0.000
1727691466.595,31.250,13.184,-45.410,12.207,0.000
1727691466.599,44.922,21.973,-33.691,26.855,0.000
1727691466.603,14.648,21.484,-36.621,15.137,0.000
1727691466.607,-20.508,16.602,-36.133,-10.742,0.000
1727691466.611,-24.902,15.137,-28.809,-10.254,0.000
1727691466.615,17.090,15.625,-26.855,3.906,0.000
1727691466.619,41.992,13.672,-36.621,10.254,0.000
1727691466.623,15.625,4.395,-42.480,9.766,0.000
1727691466.627,-34.668,-1.465,-34.668,0.977,0.000
1727691466.630,-35.156,3.906,-23.438,4.395,0.000
1727691466.634,18.066,2.930,-11.230,20.996,0.000
1727691466.638,36.133,-3.418,-19.531,6.836,0.000
1727691466.642,25.391,-2.930,-30.762,3.418,0.000
1727691466.646,-12.207,-2.930,-27.832,5.371,0.000
1727691466.650,-38.574,-2.441,-37.109,-0.488,0.000
1727691466.654,7.812,1.953,-48.340,15.137,0.000
1727691466.658,41.992,-0.977,-38.574,14.648,0.000
1727691466.662,34.668,-4.883,-29.785,4.883,0.000
1727691466.666,-8.789,2.930,-22.461,-1.465,0.000
1727691466.669,-43.945,4.883,-19.043,-9.766,0.000
1727691466.673,-7.324,-2.441,-30.273,-17.578,0.000
1727691466.677,27.832,0.977,-35.645,-1.953,0.000
1727691466.681,32.715,6.348,-30.762,10.254,0.000
1727691466.685,1.953,11.230,-29.297,-5.371,0.000
1727691466.689,-40.527,9.766,-28.809,-15.137,0.000
1727691466.693,-1.953,9.766,-19.531,-12.695,0.000
1727691466.697,41.504,17.090,-29.297,-0.977,0.000
1727691466.701,49.316,22.461,-50.781,13.184,0.000
1727691466.705,14.648,20.020,-38.574,4.395,0.000
1727691466.709,-49.805,9.277,-21.484,-15.137,0.000
1727691466.712,-22.949,6.836,-25.879,-14.648,0.000
1727691466.716,36.133,12.207,-16.113,-4.395,0.000
1727691466.720,33.691,9.277,-13.672,1.465,0.000
1727691466.724,-1.465,11.230,-33.691,1.953,0.000
1727691466.728,-49.805,13.184,-41.992,-0.488,0.000
1727691466.732,-21.973,13.184,-33.203,-0.488,0.000
1727691466.736,36.133,16.602,-56.641,-0.488,0.000
1727691466.740,31.250,12.695,-68.848,-0.977,0.000
1727691466.744,0.488,9.277,-20.996,0.488,0.000
1727691466.748,-37.109,7.324,3.906,-3.906,0.000
1727691466.751,-25.391,6.348,-13.184,0.977,0.000
1727691466.755,19.043,15.625,-20.996,9.277,0.000
1727691466.759,38.574,26.855,-15.625,7.324,0.000
1727691466.763,25.391,26.855,-22.461,9.766,0.000
1727691466.767,-34.668,23.926,-41.016,4.883,0.000
1727691466.771,-33.691,26.367,-52.246,1.465,0.000
1727691466.775,25.879,27.832,-36.621,8.301,0.000
1727691466.779,37.598,24.902,-18.555,11.719,0.000
1727691466.783,21.484,22.461,-28.320,10.742,0.000
1727691466.787,-24.414,23.438,-47.363,-2.441,0.000
1727691466.791,-29.785,24.414,-40.527,-11.719,0.000
1727691466.794,23.438,20.020,-22.461,-3.906,0.000
1727691466.798,27.832,12.207,-20.996,-11.230,0.000
1727691466.802,8.301,12.207,-19.043,-7.812,0.000
1727691466.806,-31.738,13.672,-21.973,-12.207,0.000
1727691466.810,-48.340,8.301,-34.668,-14.648,0.000
1727691466.814,8.789,13.672,-41.016,6.348,0.000
1727691466.818,44.922,20.996,-37.598,6.348,0.000
1727691466.822,35.156,18.066,-26.855,1.465,0.000
1727691466.826,-16.113,11.719,-25.879,-3.906,0.000
1727691466.830,-43.945,8.301,-29.297,-2.930,0.000
1727691466.833,0.977,10.742,-21.973,-0.977,0.000
1727691466.837,40.527,8.789,-22.461,0.977,0.000
1727691466.841,35.645,2.441,-34.180,0.977,0.000
1727691466.845,-3.418,6.348,-31.738,-2.441,0.000
1727691466.849,-47.363,7.812,-25.391,-5.859,0.000
1727691466.853,-0.488,5.371,-28.809,-0.488,0.000
1727691466.857,37.109,9.766,-31.250,7.812,0.000
1727691466.861,18.555,8.301,-29.785,5.371,0.000
1727691466.865,-7.812,6.836,-34.668,-9.277,0.000
1727691466.869,-42.969,8.301,-57.617,-28.809,0.000
1727691466.873,-10.254,8.789,-52.246,-15.137,0.000
1727691466.876,40.527,6.836,-26.367,-3.418,0.000
1727691466.880,31.738,1.953,-24.414,-4.883,0.000
1727691466.884,-2.441,0.488,-38.574,-6.348,0.000
1727691466.888,-40.527,1.953,-31.250,-10.742,0.000
1727691466.892,-12.207,1.953,-19.043,-3.906,0.000
1727691466.896,43.945,1.465,-21.973,4.395,0.000
1727691466.900,38.086,0.488,-29.785,3.418,0.000
1727691466.904,10.742,-3.418,-40.039,0.488,0.000
1727691466.908,-27.832,-3.418,-39.551,5.859,0.000
1727691466.912,-8.789,-1.465,-26.367,7.812,0.000
1727691466.916,43.457,2.441,-16.602,18.555,0.000
1727691466.919,41.504,7.324,-25.879,23.438,0.000
1727691466.923,19.043,8.301,-30.273,12.695,0.000
1727691466.927,-29.297,4.395,-22.949,4.395,0.000
1727691466.931,0.000,1.953,-34.668,0.977,0.000
1727691466.935,0.000,3.418,-41.992,5.371,0.000
1727691466.939,0.000,-1.953,-36.133,3.418,0.000
1727691466.943,0.000,-0.488,-29.297,3.906,0.000
1727691466.947,0.000,4.883,-21.484,3.418,0.000
1727691466.951,0.000,3.418,-22.461,5.859,0.000
1727691466.955,0.000,-1.953,-16.602,15.625,0.000
1727691466.959,0.000,-7.324,-6.348,15.137,0.000
1727691466.962,0.000,-9.277,-9.766,17.578,0.000
1727691466.966,0.000,-1.953,-23.438,10.742,0.000
1727691466.970,0.000,0.000,-32.227,-0.488,0.000
1727691466.974,0.000,-2.441,-22.461,5.859,0.000
1727691466.978,31.250,0.000,-20.020,5.859,0.000
1727691466.982,30.273,5.859,-34.180,4.883,0.000
1727691466.986,-25.879,8.301,-31.250,-5.371,0.000
1727691466.990,-52.734,10.742,-43.945,-10.742,0.000
1727691466.994,14.648,26.367,-59.082,-2.441,0.000
1727691466.998,39.551,47.852,-18.555,-4.395,0.000
1727691467.001,23.438,58.594,3.418,-1.953,0.000
1727691467.005,-24.414,65.430,-19.043,-7.812,0.000
1727691467.009,-45.410,69.824,-30.273,-19.531,0.000
1727691467.013,-2.930,72.266,-29.297,-24.414,0.000
1727691467.017,24.414,71.777,-31.250,-22.949,0.000
1727691467.021,17.090,66.406,-25.879,-21.484,0.000
1727691467.025,0.000,60.547,-27.832,-29.297,0.000
1727691467.029,0.000,49.805,-45.898,-34.668,0.000
1727691467.033,0.000,47.363,-47.363,-19.531,0.000
1727691467.037,0.000,51.758,-42.969,0.000,0.000
1727691467.041,0.000,49.805,-45.410,-3.418,0.000
1727691467.044,0.000,48.828,-47.852,-19.531,0.000
1727691467.048,0.000,49.805,-45.898,-20.996,0.000
1727691467.052,0.000,41.992,-37.598,0.000,0.000
1727691467.056,0.000,34.180,-35.156,7.812,0.000
1727691467.060,0.000,37.109,-36.621,-2.441,0.000
1727691467.064,0.000,38.086,-30.762,-13.184,0.000
1727691467.068,0.000,34.668,-34.180,-13.184,0.000
1727691467.072,-20.508,39.551,-62.500,0.488,0.000
1727691467.076,-58.105,34.668,-61.035,9.766,0.000
1727691467.079,-15.625,28.809,-34.180,9.277,0.000
1727691467.083,33.203,29.297,-26.855,2.930,0.000
1727691467.087,19.531,28.320,-13.184,-11.719,0.000
1727691467.091,-23.926,30.273,-3.418,-13.672,0.000
1727691467.095,-56.641,23.438,-4.395,7.812,0.000
1727691467.099,-19.043,20.020,-13.184,17.578,0.000
1727691467.103,24.414,24.414,-32.715,2.441,0.000
1727691467.107,18.555,19.531,-34.180,-1.465,0.000
1727691467.111,-12.207,25.391,-49.805,4.395,0.000
1727691467.115,-52.246,32.715,-77.148,8.789,0.000
1727691467.118,41.016,27.832,-51.758,16.113,0.000
1727691467.122,32.227,26.367,-13.184,10.254,0.000
1727691467.126,-19.043,20.020,-1.465,-0.488,0.000
1727691467.130,-20.996,19.043,-1.953,3.906,0.000
1727691467.134,40.527,21.484,-13.672,7.812,0.000
1727691467.138,34.180,21.484,-29.297,1.953,0.000
1727691467.142,5.859,24.414,-29.785,3.906,0.000
1727691467.146,-13.184,25.391,-21.484,3.906,0.000
1727691467.150,-18.066,29.785,-20.508,-3.418,0.000
1727691467.154,26.367,31.250,-36.621,9.766,0.000
1727691467.158,51.270,36.621,-53.223,17.090,0.000
1727691467.161,43.457,36.621,-59.570,8.301,0.000
1727691467.165,1.953,33.203,-44.434,-2.441,0.000
1727691467.169,-34.180,26.367,-12.695,-16.602,0.000
1727691467.173,8.789,18.066,0.488,-11.230,0.000
1727691467.177,42.480,20.508,-0.488,-0.977,0.000
1727691467.181,29.297,21.484,-23.926,-0.488,0.000
1727691467.185,-2.930,18.066,-47.363,4.883,0.000
1727691467.189,-35.645,12.695,-35.156,-1.953,0.000
1727691467.193,3.418,10.254,-26.855,-5.371,0.000
1727691467.197,41.504,15.625,-34.668,1.465,0.000
1727691467.200,32.715,23.926,-46.387,13.672,0.000
1727691467.204,-9.766,24.902,-49.316,-1.953,0.000
1727691467.208,-46.387,11.230,-33.691,-23.438,0.000
1727691467.212,-4.395,4.395,-20.020,-9.766,0.000
1727691467.216,32.715,6.836,-23.926,-2.441,0.000
1727691467.220,27.344,4.395,-26.367,-1.953,0.000
1727691467.224,-13.672,-0.977,-23.438,-18.555,0.000
1727691467.228,-50.293,-4.395,-16.113,-31.250,0.000
1727691467.232,-4.395,2.930,-11.719,-18.066,0.000
1727691467.236,42.969,7.812,-30.762,-12.207,0.000
1727691467.240,27.344,12.207,-94.238,-2.930,0.000
1727691467.243,-1.953,16.602,-104.004,-8.789,0.000
1727691467.247,-46.875,7.812,-24.414,-18.555,0.000
1727691467.251,-23.926,3.418,-15.625,-11.719,0.000
1727691467.255,37.109,9.766,-27.832,-3.906,0.000
1727691467.259,35.156,11.230,-4.395,-7.812,0.000
1727691467.263,-6.836,12.695,-1.953,-20.508,0.000
1727691467.267,-67.871,11.230,-28.809,-41.016,0.000
1727691467.271,-36.133,11.719,-33.691,-33.203,0.000
1727691467.275,37.598,20.508,-24.414,-0.977,0.000
1727691467.279,45.898,25.391,-29.297,5.859,0.000
1727691467.283,20.508,22.949,-53.711,8.301,0.000
1727691467.286,-32.715,16.113,-74.219,2.441,0.000
1727691467.290,-43.457,9.277,-26.855,-18.555,0.000
1727691467.294,6.836,19.043,6.348,-20.508,0.000
1727691467.298,4.883,16.113,-6.836,-27.832,0.000
1727691467.302,-7.812,21.973,-26.855,-18.555,0.000
1727691467.306,-19.531,38.086,-62.500,-3.906,0.000
1727691467.310,-24.902,21.973,-69.336,-14.648,0.000
1727691467.314,30.273,9.277,-23.438,9.766,0.000
1727691467.318,37.598,0.488,19.531,12.207,0.000
1727691467.322,-1.953,-10.742,0.977,-41.992,0.000
1727691467.326,-70.312,1.465,-35.645,-66.406,0.000
1727691467.329,-84.473,22.461,-47.852,-36.133,0.000
1727691467.333,10.254,4.883,-21.973,7.324,0.000
1727691467.337,60.547,-1.953,12.207,18.555,0.000
1727691467.341,29.297,15.625,-20.020,-12.695,0.000
1727691467.345,-30.762,14.648,-50.781,-33.691,0.000
1727691467.349,-78.613,-17.578,-60.059,-54.199,0.000
1727691467.353,-44.434,-25.391,-69.336,-45.898,0.000
1727691467.357,17.090,-30.762,-33.203,-10.742,0.000
1727691467.361,32.715,-65.430,0.977,6.348,0.000
1727691467.365,-38.086,-77.148,-23.926,-27.344,0.000
1727691467.368,-91.797,-87.402,-52.246,-47.363,0.000
1727691467.372,-13.672,-106.445,-15.625,-3.418,0.000
1727691467.376,17.090,-167.969,-2.441,-1.953,0.000
1727691467.380,-9.277,-216.309,-47.363,-19.043,0.000
1727691467.384,-37.109,-258.789,-25.391,-16.602,0.000
1727691467.388,-74.219,-323.242,-14.648,-45.410,0.000
1727691467.392,-36.621,-401.367,-12.695,-34.668,0.000
1727691467.396,-5.371,-446.777,-18.555,-13.672,0.000
1727691467.400,-25.879,-493.164,-62.500,-45.898,0.000
1727691467.404,-38.574,-567.383,-48.340,-41.992,0.000
1727691467.408,-44.922,-683.594,-27.832,-18.066,0.000
1727691467.411,1.953,-782.227,-75.684,14.160,0.000
1727691467.415,15.137,-771.484,-72.754,1.953,0.000
1727691467.419,-22.949,-791.016,27.344,-28.809,0.000
1727691467.423,-39.062,-883.301,55.176,-19.531,0.000
1727691467.427,-64.453,-900.879,23.926,-12.207,0.000
1727691467.431,-41.504,-932.129,-33.203,-50.781,0.000
1727691467.435,-20.508,-987.793,-79.102,-74.219,0.000
1727691467.439,-48.828,-1000.000,-59.570,-33.691,0.000
1727691467.443,-24.414,-999.023,-46.875,2.930,0.000
1727691467.447,-27.832,-1000.000,-116.211,-9.766,0.000
1727691467.450,-42.480,-1000.000,-93.262,-14.160,0.000
1727691467.454,-24.902,-1000.000,-14.160,-6.836,0.000
1727691467.458,0.000,-1000.000,-37.598,-22.949,0.000
1727691467.462,-0.977,-1000.000,-25.391,-20.508,0.000
1727691467.466,-59.082,-1000.000,6.836,-29.785,0.000
1727691467.470,-85.938,-1000.000,-22.949,-55.176,0.000
1727691467.474,-16.602,-1000.000,-26.855,-23.926,0.000
1727691467.478,37.598,-1000.000,-53.711,15.625,0.000
1727691467.482,-2.441,-1000.000,-78.613,14.648,0.000
1727691467.486,-57.129,-1000.000,-36.621,4.395,0.000
1727691467.490,-53.223,-1000.000,-43.945,-28.809,0.000
1727691467.493,-20.996,-1000.000,-24.414,-37.109,0.000
1727691467.497,-20.996,-1000.000,35.156,-13.184,0.000
1727691467.501,-13.672,-1000.000,17.578,18.555,0.000
1727691467.505,-35.156,-1000.000,-11.719,10.254,0.000
1727691467.509,-50.293,-1000.000,-22.949,-27.344,0.000
1727691467.513,17.578,-1000.000,-31.738,3.906,0.000
1727691467.517,69.336,-1000.000,-28.809,50.293,0.000
1727691467.521,27.344,-1000.000,-40.527,33.203,0.000
1727691467.525,-55.176,-1000.000,-87.402,-8.301,0.000
1727691467.529,-47.363,-1000.000,-63.965,-15.137,0.000
1727691467.532,20.996,-1000.000,-0.977,1.465,0.000
1727691467.536,8.789,-1000.000,-23.438,-20.508,0.000
1727691467.540,-52.246,-1000.000,-65.918,-55.664,0.000
1727691467.544,-30.273,-1000.000,8.301,8.789,0.000
1727691467.548,14.160,-1000.000,56.152,44.434,0.000
1727691467.552,53.223,-1000.000,-23.926,21.973,0.000
1727691467.556,71.777,-1000.000,-60.547,39.062,0.000
1727691467.560,18.066,-1000.000,-29.297,14.160,0.000
1727691467.564,-12.695,-1000.000,-20.508,-3.906,0.000
1727691467.568,-10.742,-1000.000,-47.363,11.719,0.000
1727691467.572,34.180,-1000.000,-11.230,32.227,0.000
1727691467.575,16.113,-1000.000,19.043,4.395,0.000
1727691467.579,-10.742,-1000.000,7.812,-3.418,0.000
1727691467.583,1.465,-1000.000,-3.418,26.855,0.000
1727691467.587,-16.602,-1000.000,-42.480,35.156,0.000
1727691467.591,3.418,-1000.000,-42.480,25.879,0.000
1727691467.595,40.039,-1000.000,-14.160,23.926,0.000
1727691467.599,44.922,-1000.000,12.695,30.762,0.000
1727691467.603,4.395,-1000.000,6.836,12.695,0.000
1727691467.607,-38.574,-1000.000,-19.043,17.578,0.000
1727691467.611,-8.301,-1000.000,-22.949,31.738,0.000
1727691467.615,39.062,-1000.000,-38.574,2.441,0.000
1727691467.618,30.273,-1000.000,-46.875,-2.441,0.000
1727691467.622,-3.418,-1000.000,-42.969,26.367,0.000
1727691467.626,-4.395,-1000.000,-38.086,30.762,0.000
1727691467.630,20.508,-1000.000,5.371,14.648,0.000
1727691467.634,34.180,-1000.000,32.715,12.695,0.000
1727691467.638,22.949,-1000.000,26.855,14.160,0.000
1727691467.642,18.555,-1000.000,-3.418,16.113,0.000
1727691467.646,-13.184,-1000.000,-8.301,16.602,0.000
1727691467.650,0.977,-1000.000,-3.418,25.391,0.000
1727691467.654,56.152,-1000.000,-49.805,38.086,0.000
1727691467.657,55.664,-1000.000,-67.871,28.320,0.000
1727691467.661,34.668,-1000.000,-11.719,23.438,0.000
1727691467.665,-17.090,-1000.000,29.297,14.160,0.000
1727691467.669,-43.945,-1000.000,15.137,5.859,0.000
1727691467.673,16.602,-1000.000,3.418,17.578,0.000
1727691467.677,55.176,-1000.000,-0.977,38.574,0.000
1727691467.681,31.738,-1000.000,-49.316,36.621,0.000
1727691467.685,-2.930,-1000.000,-69.336,19.043,0.000
1727691467.689,5.859,-1000.000,-20.020,21.973,0.000
1727691467.693,40.039,-1000.000,-8.789,31.738,0.000
1727691467.697,36.621,-1000.000,-10.742,30.273,0.000
1727691467.700,16.113,-1000.000,-5.371,32.227,0.000
1727691467.704,-6.836,-1000.000,-19.531,21.973,0.000
1727691467.708,-9.766,-1000.000,-9.277,9.277,0.000
1727691467.712,28.809,-1000.000,8.789,25.391,0.000
1727691467.716,53.711,-1000.000,-20.508,38.086,0.000
1727691467.720,59.082,-1000.000,-54.688,38.574,0.000
1727691467.724,30.273,-1000.000,-30.273,39.062,0.000
1727691467.728,-11.230,-1000.000,-2.441,14.648,0.000
1727691467.732,32.227,-1000.000,-4.395,12.695,0.000
1727691467.736,77.148,-1000.000,-26.367,26.855,0.000
1727691467.740,60.547,-1000.000,-29.297,16.113,0.000
1727691467.743,10.742,-987.305,-22.949,-2.441,0.000
1727691467.747,-20.020,-1000.000,-30.762,-6.348,0.000
1727691467.751,18.066,-828.613,-26.367,16.113,0.000
1727691467.755,61.523,-396.484,-2.930,37.109,0.000
1727691467.759,58.594,-103.516,-0.977,37.598,0.000
1727691467.763,24.414,106.934,-32.227,14.160,0.000
1727691467.767,-1.465,499.512,-57.129,17.090,0.000
1727691467.771,26.367,910.645,-56.152,31.250,0.000
1727691467.775,67.871,975.098,-29.785,26.855,0.000
1727691467.779,68.848,956.055,0.977,29.297,0.000
1727691467.782,27.832,970.703,-4.883,21.973,0.000
1727691467.786,-24.902,968.262,-27.832,-0.977,0.000
1727691467.790,1.465,967.773,-20.020,-2.930,0.000
1727691467.794,48.828,968.262,-24.902,6.836,0.000
1727691467.798,47.852,968.262,-51.758,12.207,0.000
1727691467.802,9.277,968.262,-41.016,22.949,0.000
1727691467.806,-25.391,968.262,-32.715,7.324,0.000
1727691467.810,19.043,968.262,-37.109,0.000,0.000
1727691467.814,57.129,968.262,-31.738,9.277,0.000
1727691467.818,47.363,968.262,-3.906,4.395,0.000
1727691467.822,32.715,968.262,16.113,1.465,0.000
1727691467.825,-10.254,968.262,-0.488,-7.324,0.000
1727691467.829,-8.301,968.262,-14.160,-2.441,0.000
1727691467.833,41.992,968.262,-20.020,11.230,0.000
1727691467.837,51.758,968.262,-44.922,6.836,0.000
1727691467.841,30.762,968.262,-59.570,5.859,0.000
1727691467.845,7.324,967.773,-36.133,9.277,0.000
1727691467.849,-7.812,968.262,-2.441,10.742,0.000
1727691467.853,38.086,968.262,0.977,9.277,0.000
1727691467.857,58.105,968.262,-14.648,9.766,0.000
1727691467.861,32.715,967.773,-21.973,10.254,0.000
1727691467.865,-6.836,968.262,-31.250,12.695,0.000
1727691467.868,-15.625,968.262,-24.902,11.230,0.000
1727691467.872,38.086,968.262,-16.113,8.789,0.000
1727691467.876,36.133,968.262,-11.230,14.648,0.000
1727691467.880,27.344,968.262,-17.090,26.367,0.000
1727691467.884,8.789,968.262,-36.621,21.484,0.000
1727691467.888,-9.766,968.262,-38.574,9.277,0.000
1727691467.892,34.180,968.262,-19.531,19.043,0.000
1727691467.896,58.105,968.262,1.953,26.855,0.000
1727691467.900,46.387,968.262,-13.184,18.555,0.000
1727691467.904,6.836,968.262,-34.180,9.277,0.000
1727691467.907,-31.738,968.262,-29.785,-1.465,0.000
1727691467.911,19.531,968.262,-30.762,8.301,0.000
1727691467.915,52.734,968.262,-38.086,22.461,0.000
1727691467.919,38.574,967.773,-18.066,16.113,0.000
1727691467.923,10.742,968.262,-4.883,2.441,0.000
1727691467.927,-29.785,968.262,-7.324,-14.160,0.000
1727691467.931,0.488,968.262,-21.484,-12.695,0.000
1727691467.935,38.574,968.262,-32.715,0.977,0.000
1727691467.939,33.203,968.262,-27.344,0.000,0.000
1727691467.943,4.395,968.262,-38.574,-13.184,0.000
1727691467.946,-33.203,967.773,-48.340,-23.438,0.000
1727691467.950,-4.395,968.262,-40.527,-8.301,0.000
1727691467.954,31.250,968.262,-38.086,3.418,0.000
1727691467.958,31.250,967.773,-24.414,-3.418,0.000
1727691467.962,4.883,968.262,-11.719,-5.371,0.000
1727691467.966,-43.945,968.262,-12.695,-14.648,0.000
1727691467.970,-23.438,968.262,-14.160,-19.043,0.000
1727691467.974,31.250,968.262,-21.484,-3.418,0.000
1727691467.978,39.062,968.262,-31.738,-2.930,0.000
1727691467.982,-0.977,968.262,-31.738,-12.207,0.000
1727691467.986,-46.875,968.262,-55.664,-7.324,0.000
1727691467.989,-16.602,968.262,-62.012,-3.906,0.000
1727691467.993,31.738,968.262,-28.809,0.977,0.000
1727691467.997,37.109,968.262,-19.043,16.602,0.000
1727691468.001,18.555,968.262,-19.531,15.625,0.000
1727691468.005,-37.109,968.262,-18.555,-3.418,0.000
1727691468.009,-21.973,965.820,-21.484,-6.348,0.000
1727691468.013,39.551,972.168,-28.809,7.812,0.000
1727691468.017,38.086,937.500,-32.227,17.090,0.000
1727691468.021,16.113,883.301,-25.879,13.672,0.000
1727691468.025,-18.066,855.957,-31.250,3.906,0.000
1727691468.029,-15.625,822.266,-45.898,12.695,0.000
1727691468.032,29.785,797.363,-46.387,22.949,0.000
1727691468.036,41.992,775.879,-38.574,16.602,0.000
1727691468.040,33.203,747.070,-30.273,14.160,0.000
1727691468.044,-23.438,708.008,-1.953,7.812,0.000
1727691468.048,-35.156,673.828,2.930,-1.953,0.000
1727691468.052,15.137,662.109,-39.551,6.836,0.000
1727691468.056,37.598,666.504,-39.062,13.672,0.000
1727691468.060,23.438,655.762,-5.371,9.766,0.000
1727691468.064,-32.715,637.695,-2.930,-6.836,0.000
1727691468.068,-38.086,628.906,-18.555,-1.953,0.000
1727691468.072,18.066,622.559,-45.410,16.602,0.000
1727691468.075,41.504,618.164,-27.832,19.043,0.000
1727691468.079,26.855,626.465,0.977,6.348,0.000
1727691468.083,-9.277,649.414,-4.883,-4.395,0.000
1727691468.087,-35.645,654.785,-19.043,6.836,0.000
1727691468.091,7.324,642.090,-30.273,13.184,0.000
1727691468.095,32.227,636.719,-26.855,10.254,0.000
1727691468.099,31.250,631.836,-17.578,9.766,0.000
1727691468.103,0.977,619.141,-21.484,1.465,0.000
1727691468.107,-41.504,602.051,-56.641,4.883,0.000
1727691468.111,5.371,591.309,-65.918,16.113,0.000
1727691468.115,41.504,579.590,-47.852,13.184,0.000
1727691468.118,35.645,560.059,-37.109,6.836,0.000
1727691468.122,10.742,542.480,-27.344,-2.441,0.000
1727691468.126,-38.086,533.203,-14.648,-10.742,0.000
1727691468.130,-11.719,524.902,-5.859,-2.930,0.000
1727691468.134,35.156,514.648,-19.531,13.184,0.000
1727691468.138,36.621,517.090,-29.297,12.695,0.000
1727691468.142,17.578,514.160,-43.457,7.812,0.000
1727691468.146,-24.902,498.047,-45.410,-4.883,0.000
1727691468.150,-1.953,478.516,-36.133,-5.859,0.000
1727691468.154,46.875,465.820,-65.430,7.812,0.000
1727691468.157,39.062,451.172,-47.852,4.883,0.000
1727691468.161,9.766,442.871,-3.906,-2.441,0.000
1727691468.165,-30.762,438.477,-2.930,-7.812,0.000
1727691468.169,-23.438,435.059,-12.695,-5.371,0.000
1727691468.173,26.367,429.688,-21.973,8.301,0.000
1727691468.177,41.504,419.922,-32.227,17.578,0.000
1727691468.181,14.160,409.668,-50.293,6.836,0.000
1727691468.185,-37.109,390.137,-62.988,-4.395,0.000
1727691468.189,-37.598,375.000,-49.805,-0.488,0.000
1727691468.193,16.602,369.629,-38.574,10.254,0.000
1727691468.197,32.227,362.793,-35.645,11.230,0.000
1727691468.200,8.789,350.586,-26.855,1.465,0.000
1727691468.204,-31.738,338.867,-31.738,-7.324,0.000
1727691468.208,-28.809,333.008,-34.180,0.488,0.000
1727691468.212,17.578,322.754,-28.320,10.254,0.000
1727691468.216,28.809,312.988,-25.391,12.207,0.000
1727691468.220,13.184,317.383,-24.414,10.742,0.000
1727691468.224,-22.461,321.289,-23.926,1.953,0.000
1727691468.228,-33.203,314.941,-24.902,-1.465,0.000
1727691468.232,17.090,308.105,-45.898,-1.953,0.000
1727691468.236,37.598,307.129,-68.359,3.418,0.000
1727691468.239,26.367,306.641,-48.340,10.254,0.000
1727691468.243,-8.789,295.410,-13.672,-1.953,0.000
1727691468.247,-34.180,280.273,-11.719,-8.301,0.000
1727691468.251,7.324,266.602,-18.555,-5.371,0.000
1727691468.255,28.809,259.766,-25.391,-9.277,0.000
1727691468.259,25.879,254.883,-40.039,-0.977,0.000
1727691468.263,-7.324,244.629,-44.434,-6.348,0.000
1727691468.267,-47.363,233.887,-23.438,-9.766,0.000
1727691468.271,-3.418,226.562,-12.207,2.930,0.000
1727691468.275,50.293,220.215,-30.762,5.371,0.000
1727691468.279,51.758,212.402,-53.223,15.625,0.000
1727691468.282,8.301,210.449,-46.387,15.625,0.000
1727691468.286,-40.527,207.031,-38.086,-0.488,0.000
1727691468.290,-14.160,197.266,-47.852,0.000,0.000
1727691468.294,34.180,187.500,-26.367,11.230,0.000
1727691468.298,32.227,188.477,-1.953,8.301,0.000
1727691468.302,-11.230,179.688,-3.906,-9.766,0.000
1727691468.306,-41.016,169.434,-21.973,-16.113,0.000
1727691468.310,0.488,173.340,-48.340,-7.324,0.000
1727691468.314,39.062,173.340,-65.918,2.930,0.000
1727691468.318,20.020,167.480,-40.039,2.441,0.000
1727691468.321,-23.438,160.156,-2.441,-3.418,0.000
1727691468.325,-50.781,155.762,-13.184,-6.836,0.000
1727691468.329,-19.531,155.762,-16.113,-11.230,0.000
1727691468.333,38.574,148.926,-12.207,-2.930,0.000
1727691468.337,38.574,144.043,-35.156,0.000,0.000
1727691468.341,-5.859,149.902,-42.480,-16.113,0.000
1727691468.345,-41.992,143.555,-39.551,-28.809,0.000
1727691468.349,-31.250,129.395,-43.457,-21.973,0.000
1727691468.353,15.625,126.465,-42.969,-3.418,0.000
1727691468.357,30.273,127.441,-31.738,3.418,0.000
1727691468.361,0.488,124.023,-17.090,-0.488,0.000
1727691468.364,-44.922,114.746,-22.461,-15.137,0.000
1727691468.368,-37.109,103.027,-37.109,-13.672,0.000
1727691468.372,10.742,98.633,-43.945,-1.465,0.000
1727691468.376,22.949,125.488,-37.598,0.977,0.000
1727691468.380,13.672,165.039,-35.156,-3.418,0.000
1727691468.384,-35.645,168.945,-30.273,-12.207,0.000
1727691468.388,-46.875,173.340,-20.508,-16.602,0.000
1727691468.392,10.254,182.617,-21.973,-8.789,0.000
1727691468.396,23.438,175.781,-36.621,-2.441,0.000
1727691468.400,15.137,164.062,-42.480,0.000,0.000
1727691468.404,-15.137,159.180,-47.363,-3.906,0.000
1727691468.407,-29.785,150.879,-60.059,-4.395,0.000
1727691468.411,3.906,143.555,-47.363,0.488,0.000
1727691468.415,35.645,141.602,-23.926,13.184,0.000
1727691468.419,31.250,137.207,-22.461,20.020,0.000
1727691468.423,-23.926,134.766,-22.461,-0.488,0.000
1727691468.427,-41.992,123.535,-13.184,-3.906,0.000
1727691468.431,4.883,117.676,-22.461,1.465,0.000
1727691468.435,39.062,118.164,-25.391,4.395,0.000
1727691468.439,29.297,113.770,-24.902,3.906,0.000
1727691468.443,-14.160,106.445,-42.480,-13.184,0.000
1727691468.447,-46.387,98.633,-63.477,-20.020,0.000
1727691468.450,-1.953,105.469,-66.406,-6.348,0.000
1727691468.454,35.156,111.816,-52.734,-1.465,0.000
1727691468.458,13.672,105.957,-33.203,-2.441,0.000
1727691468.462,-23.926,98.633,-23.926,-7.812,0.000
1727691468.466,-47.363,100.586,-43.945,-17.090,0.000
1727691468.470,-10.742,101.074,-50.781,-16.113,0.000
1727691468.474,37.109,102.051,-41.504,-0.488,0.000
1727691468.478,32.227,99.121,-36.621,9.277,0.000
1727691468.482,-16.602,94.238,-30.273,-3.418,0.000
1727691468.486,-37.109,98.145,-24.902,-6.348,0.000
1727691468.489,-2.930,90.332,-30.762,-1.465,0.000
1727691468.493,26.855,88.867,-34.668,-4.395,0.000
1727691468.497,24.414,93.750,-29.297,-4.395,0.000
1727691468.501,-3.906,93.262,-29.297,-12.207,0.000
1727691468.505,-47.852,92.773,-29.297,-14.648,0.000
1727691468.509,-27.832,94.727,-44.922,-2.441,0.000
1727691468.513,29.297,96.680,-58.594,9.277,0.000
1727691468.517,30.762,99.121,-58.594,3.418,0.000
1727691468.521,0.977,91.797,-47.852,-7.324,0.000
1727691468.525,-28.809,83.984,-47.852,-6.348,0.000
1727691468.529,-19.043,83.984,-53.711,-0.488,0.000
1727691468.532,27.832,85.449,-34.180,3.906,0.000
1727691468.536,39.062,82.520,-13.672,-0.977,0.000
1727691468.540,10.254,77.637,-5.371,-6.348,0.000
1727691468.544,-39.551,78.125,-11.230,-12.207,0.000
1727691468.548,-37.109,75.684,-26.367,-5.859,0.000
1727691468.552,27.344,77.148,-38.574,12.695,0.000
1727691468.556,44.922,84.473,-41.992,14.160,0.000
1727691468.560,17.578,85.938,-43.945,9.277,0.000
1727691468.564,-23.438,81.055,-43.457,-1.465,0.000
1727691468.568,-19.043,77.637,-27.344,-7.324,0.000
1727691468.571,30.273,71.289,-15.625,-4.883,0.000
1727691468.575,26.367,68.359,-30.273,-1.953,0.000
1727691468.579,27.344,74.219,-33.691,11.719,0.000
1727691468.583,-7.324,83.496,-6.836,2.930,0.000
1727691468.587,-41.016,87.891,-16.602,-22.949,0.000
1727691468.591,20.508,79.102,-45.898,-17.578,0.000
1727691468.595,31.250,76.172,-43.457,-15.625,0.000
1727691468.599,-3.418,80.078,-34.668,-18.555,0.000
1727691468.603,-30.762,59.082,-35.645,-21.973,0.000
1727691468.607,-50.781,17.578,-43.457,-32.227,0.000
1727691468.611,-6.836,-8.789,-43.945,-33.203,0.000
1727691468.614,29.785,-32.715,-42.969,-24.902,0.000
1727691468.618,13.184,-47.363,-47.363,-20.996,0.000
1727691468.622,-36.133,-41.504,-44.434,-33.203,0.000
1727691468.626,-66.406,-42.969,-38.574,-33.691,0.000
1727691468.630,-12.207,-46.387,-45.898,-16.113,0.000
1727691468.634,27.832,-48.340,-54.688,-8.789,0.000
1727691468.638,20.508,-50.293,-45.898,-6.836,0.000
1727691468.642,-10.254,-53.223,-28.320,-2.441,0.000
1727691468.646,-45.410,-57.617,-28.809,-16.113,0.000
1727691468.650,-6.836,-50.293,-42.480,-24.414,0.000
1727691468.653,32.715,-52.734,-40.527,-18.555,0.000
1727691468.657,20.508,-57.129,-19.043,-27.344,0.000
1727691468.661,-11.230,-54.688,-17.578,-33.203,0.000
1727691468.665,-50.781,-50.293,-29.785,-38.086,0.000
1727691468.669,-28.809,-48.828,-33.691,-33.203,0.000
1727691468.673,12.695,-50.293,-55.176,-11.230,0.000
1727691468.677,33.691,-46.387,-56.641,0.000,0.000
1727691468.681,0.488,-46.875,-45.410,-17.090,0.000
1727691468.685,-55.176,-48.828,-34.668,-34.180,0.000
1727691468.689,-40.527,-50.781,-27.832,-29.297,0.000
1727691468.693,0.488,-49.805,-30.762,-27.344,0.000
1727691468.696,14.160,-43.945,-24.414,-24.414,0.000
1727691468.700,-10.254,-36.133,-38.086,-17.090,0.000
1727691468.704,-52.734,-27.344,-51.270,-15.625,0.000
1727691468.708,-45.410,-23.438,-34.668,-20.020,0.000
1727691468.712,4.883,-19.043,-13.672,-20.020,0.000
1727691468.716,26.855,-6.348,-20.508,-6.836,0.000
1727691468.720,7.812,2.930,-38.086,-0.977,0.000
1727691468.724,-51.270,6.836,-45.410,-19.531,0.000
1727691468.728,-44.922,7.812,-48.340,-15.625,0.000
1727691468.732,18.555,9.277,-29.785,2.930,0.000
1727691468.736,23.438,6.836,-12.695,-2.930,0.000
1727691468.739,0.488,12.207,-9.277,-19.043,0.000
1727691468.743,-34.668,16.113,-17.578,-17.090,0.000
1727691468.747,-50.293,9.766,-26.855,3.418,0.000
1727691468.751,-2.930,17.090,-22.949,15.137,0.000
1727691468.755,41.504,19.531,-19.531,12.207,0.000
1727691468.759,30.762,15.137,-20.508,1.465,0.000
1727691468.763,-30.273,16.113,-23.438,-14.648,0.000
1727691468.767,-48.828,17.090,-28.809,-12.695,0.000
1727691468.771,3.418,22.949,-40.527,3.418,0.000
1727691468.775,28.809,22.949,-44.434,6.348,0.000
1727691468.778,6.348,22.461,-41.016,7.324,0.000
1727691468.782,-29.297,23.926,-43.945,0.488,0.000
1727691468.786,-31.250,30.273,-46.875,-4.395,0.000
1727691468.790,2.930,34.668,-40.039,-2.441,0.000
1727691468.794,29.297,31.250,-17.090,-0.488,0.000
1727691468.798,19.043,32.715,-8.301,0.977,0.000
1727691468.802,-14.160,35.645,-30.762,-0.488,0.000
1727691468.806,-33.691,39.062,-30.273,-2.441,0.000
1727691468.810,3.906,45.410,-18.555,4.395,0.000
1727691468.814,43.457,45.898,-20.996,18.066,0.000
1727691468.818,34.668,41.504,-27.832,17.578,0.000
1727691468.821,5.859,47.363,-35.156,1.953,0.000
1727691468.825,-32.227,48.828,-32.227,3.418,0.000
1727691468.829,0.488,46.387,-31.250,12.695,0.000
1727691468.833,53.223,45.898,-36.621,8.789,0.000
1727691468.837,47.363,39.062,-21.973,20.996,0.000
1727691468.841,15.137,35.645,-19.043,21.484,0.000
1727691468.845,-22.461,36.133,-29.785,-3.418,0.000
1727691468.849,13.184,34.180,-24.902,3.418,0.000
1727691468.853,63.965,32.715,-23.926,33.203,0.000
1727691468.857,58.594,35.645,-36.133,42.969,0.000
1727691468.861,19.531,42.969,-50.293,14.160,0.000
1727691468.864,-24.902,36.621,-42.969,-4.395,0.000
1727691468.868,-8.789,32.227,-20.996,3.418,0.000
1727691468.872,36.621,40.527,-14.160,2.930,0.000
1727691468.876,46.387,35.156,-30.762,-1.953,0.000
1727691468.880,16.602,30.273,-47.363,-6.836,0.000
1727691468.884,-36.621,24.902,-50.781,-5.371,0.000
1727691468.888,-24.902,24.414,-48.828,-6.836,0.000
1727691468.892,34.668,26.367,-27.344,2.930,0.000
1727691468.896,65.430,27.832,-14.160,15.137,0.000
1727691468.900,42.969,31.738,-17.090,10.742,0.000
1727691468.904,-22.949,30.273,-25.391,1.465,0.000
1727691468.907,-32.227,27.832,-30.273,-0.977,0.000
1727691468.911,25.391,26.855,-27.832,9.766,0.000
1727691468.915,41.992,28.809,-33.691,15.625,0.000
1727691468.919,19.043,29.297,-34.668,12.695,0.000
1727691468.923,-27.344,25.879,-32.227,1.465,0.000
1727691468.927,-30.762,25.391,-31.250,9.766,0.000
1727691468.931,22.461,28.320,-35.645,20.020,0.000
1727691468.935,39.551,26.367,-51.270,12.207,0.000
1727691468.939,20.020,17.578,-41.504,-2.441,0.000
1727691468.943,-18.555,15.137,-19.043,-7.324,0.000
1727691468.946,-25.879,17.578,-30.273,0.977,0.000
1727691468.950,18.555,18.555,-40.039,6.348,0.000
1727691468.954,34.668,12.695,-35.645,9.766,0.000
1727691468.958,21.973,6.348,-33.691,4.883,0.000
1727691468.962,-9.766,7.812,-28.809,-5.371,0.000
1727691468.966,-28.320,11.230,-33.203,-12.695,0.000
1727691468.970,18.066,7.324,-33.691,-4.883,0.000
1727691468.974,45.898,5.859,-40.527,7.324,0.000
1727691468.978,22.949,7.324,-46.875,5.371,0.000
1727691468.982,-13.672,0.488,-41.992,-5.371,0.000
1727691468.986,-33.203,1.465,-45.898,-13.672,0.000
1727691468.989,-2.930,-1.953,-49.316,-2.441,0.000
1727691468.993,42.969,-0.488,-47.363,12.695,0.000
1727691468.997,44.922,5.371,-39.551,2.441,0.000
1727691469.001,-1.465,5.859,-29.297,-2.441,0.000
1727691469.005,-49.316,7.812,-41.504,-1.953,0.000
1727691469.009,-10.742,6.836,-58.594,-1.953,0.000
1727691469.013,40.039,5.859,-57.617,5.859,0.000
1727691469.017,24.414,7.324,-38.574,8.301,0.000
1727691469.021,-11.719,7.812,-40.039,-4.883,0.000
1727691469.025,-48.340,5.859,-54.688,-14.160,0.000
1727691469.028,-19.043,2.930,-39.062,-9.277,0.000
1727691469.032,26.855,8.789,-27.344,-0.977,0.000
1727691469.036,21.484,12.695,-30.273,5.859,0.000
1727691469.040,0.000,7.812,-40.527,6.348,0.000
1727691469.044,-28.809,-0.488,-37.109,-8.301,0.000
1727691469.048,-18.066,-5.371,-21.973,-19.531,0.000
1727691469.052,21.484,-2.930,-8.301,-14.648,0.000
1727691469.056,23.438,-6.348,-9.766,-9.766,0.000
1727691469.060,-0.977,-6.348,-24.414,-6.348,0.000
1727691469.064,-40.039,-1.953,-29.297,-1.953,0.000
1727691469.067,-30.273,3.906,-20.996,-1.953,0.000
1727691469.071,24.902,6.348,-31.250,6.836,0.000
1727691469.075,35.645,3.418,-60.547,14.160,0.000
1727691469.079,11.230,2.441,-43.457,5.859,0.000
1727691469.083,-40.527,-1.465,-15.625,-8.301,0.000
1727691469.087,-42.480,-9.277,-21.973,-5.859,0.000
1727691469.091,27.344,-4.395,-32.227,8.789,0.000
1727691469.095,40.527,-4.883,-28.320,6.836,0.000
1727691469.099,19.531,-7.812,-26.367,0.977,0.000
1727691469.103,-14.160,-2.930,-22.461,0.977,0.000
1727691469.107,-26.855,-3.906,-21.484,2.441,0.000
1727691469.110,25.391,-6.836,-38.574,4.395,0.000
1727691469.114,42.480,-3.906,-39.551,1.465,0.000
1727691469.118,16.602,-0.977,-33.203,5.371,0.000
1727691469.122,-15.137,1.465,-31.738,2.930,0.000
1727691469.126,-33.691,-4.395,-23.438,-2.441,0.000
1727691469.130,10.254,0.000,-27.832,4.883,0.000
1727691469.134,42.480,0.000,-42.480,6.348,0.000
1727691469.138,25.879,-2.930,-39.551,4.395,0.000
1727691469.142,-9.277,-1.953,-17.578,0.000,0.000
1727691469.146,-40.039,-2.930,-13.184,-8.789,0.000
1727691469.150,2.930,-0.977,-36.133,6.348,0.000
1727691469.153,44.922,0.000,-51.758,21.973,0.000
1727691469.157,24.414,1.465,-48.828,10.254,0.000
1727691469.161,-11.719,-3.418,-22.949,-5.371,0.000
1727691469.165,-34.668,-7.324,-10.254,-10.742,0.000
1727691469.169,-1.953,-5.371,-20.508,-0.488,0.000
1727691469.173,35.645,-5.859,-13.672,-8.301,0.000
1727691469.177,23.438,-7.812,-13.184,-23.438,0.000
1727691469.181,-11.719,-8.301,-15.137,-9.766,0.000
1727691469.185,-49.805,-3.418,-13.184,-10.742,0.000
1727691469.189,-9.766,-1.465,-27.832,-7.324,0.000
1727691469.193,49.316,-3.418,-34.668,10.742,0.000
1727691469.196,35.156,0.977,-51.270,4.883,0.000
1727691469.200,0.977,4.395,-67.383,-6.836,0.000
1727691469.204,-42.969,1.465,-46.875,-20.996,0.000
1727691469.208,-17.578,-4.395,-9.766,-23.926,0.000
1727691469.212,31.250,-8.789,8.789,-8.301,0.000
1727691469.216,21.484,-9.766,-4.395,-4.883,0.000
1727691469.220,-3.418,-16.113,-22.461,-9.277,0.000
1727691469.224,-38.574,-17.578,-34.668,-16.113,0.000
1727691469.228,-24.902,-11.230,-25.879,-12.695,0.000
1727691469.232,25.879,-16.113,-39.062,0.000,0.000
1727691469.236,36.621,-14.648,-66.406,-0.488,0.000
1727691469.239,1.953,-9.277,-45.898,-6.348,0.000
1727691469.243,-38.086,-15.625,-16.602,-17.090,0.000
1727691469.247,-22.461,-19.531,-6.836,-15.625,0.000
1727691469.251,15.137,-17.578,-8.789,-12.207,0.000
1727691469.255,31.738,-14.648,-17.578,-3.418,0.000
1727691469.259,16.602,-11.230,-30.273,6.348,0.000
1727691469.263,-25.879,-16.113,-42.480,-2.441,0.000
1727691469.267,-26.855,-23.438,-45.898,-2.930,0.000
1727691469.271,20.508,-23.438,-32.227,-2.441,0.000
1727691469.275,39.551,-16.602,-29.785,-0.488,0.000
1727691469.278,26.855,-14.160,-38.086,2.441,0.000
1727691469.282,-26.367,-20.020,-32.715,-4.883,0.000
1727691469.286,-57.129,-13.184,-20.020,-9.766,0.000
1727691469.290,5.371,0.000,-30.762,1.465,0.000
1727691469.294,31.738,3.906,-33.203,11.230,0.000
1727691469.298,6.348,24.414,-19.531,0.488,0.000
1727691469.302,-22.461,55.176,-31.250,0.488,0.000
1727691469.306,-34.180,71.777,-32.715,0.977,0.000
1727691469.310,6.836,80.566,-30.273,-7.324,0.000
1727691469.314,30.273,86.426,-56.641,2.930,0.000
1727691469.318,21.484,86.914,-57.617,6.348,0.000
1727691469.321,-4.395,77.637,-42.480,-5.859,0.000
1727691469.325,-29.297,74.219,-38.574,-12.207,0.000
1727691469.329,3.906,74.707,-17.090,1.465,0.000
1727691469.333,39.551,73.242,-13.672,15.625,0.000
1727691469.337,31.738,68.359,-22.949,11.230,0.000
1727691469.341,-6.348,65.430,-25.391,2.441,0.000
1727691469.345,-33.691,66.895,-29.785,2.441,0.000
1727691469.349,5.371,69.336,-24.902,13.184,0.000
1727691469.353,41.504,68.359,-18.555,10.254,0.000
1727691469.357,41.504,65.430,-18.555,6.348,0.000
1727691469.360,7.812,60.059,-39.062,-2.441,0.000
1727691469.364,-17.090,58.594,-44.922,-3.906,0.000
1727691469.368,11.719,58.594,-40.527,4.395,0.000
1727691469.372,45.898,52.246,-36.621,13.672,0.000
1727691469.376,48.340,45.410,-20.508,10.254,0.000
1727691469.380,7.812,43.457,-20.020,4.395,0.000
1727691469.384,-35.645,37.598,-15.625,7.812,0.000
1727691469.388,-3.418,33.203,-7.812,12.695,0.000
1727691469.392,49.316,36.621,-13.184,17.578,0.000
1727691469.396,39.551,36.621,-21.484,10.254,0.000
1727691469.400,3.906,29.785,-41.504,0.977,0.000
1727691469.403,-44.434,15.137,-41.504,-0.977,0.000
1727691469.407,-30.762,16.113,-26.855,9.277,0.000
1727691469.411,16.113,23.926,-33.203,11.230,0.000
1727691469.415,17.090,23.438,-45.410,-6.836,0.000
1727691469.419,6.348,18.555,-41.504,-13.184,0.000
1727691469.423,-34.668,16.113,-41.016,-23.438,0.000
1727691469.427,-36.133,10.742,-36.133,-26.367,0.000
1727691469.431,17.578,10.254,-27.832,-15.137,0.000
1727691469.435,41.016,12.695,-35.156,-6.836,0.000
1727691469.439,15.137,6.836,-47.852,-4.395,0.000
1727691469.442,-36.133,4.883,-54.688,-18.066,0.000
1727691469.446,-39.551,7.324,-33.691,-20.508,0.000
1727691469.450,9.766,4.395,-16.602,-3.906,0.000
1727691469.454,27.344,4.395,-23.438,1.465,0.000
1727691469.458,8.301,7.812,-21.973,-2.441,0.000
1727691469.462,-40.527,7.324,-27.832,0.488,0.000
1727691469.466,-49.805,6.348,-38.086,3.418,0.000
1727691469.470,9.766,7.324,-38.086,3.418,0.000
1727691469.474,43.457,6.836,-45.410,11.719,0.000
1727691469.478,20.508,12.207,-46.875,8.301,0.000
1727691469.482,-21.484,4.883,-37.109,-6.836,0.000
1727691469.485,-42.969,-0.488,-32.227,-10.742,0.000
1727691469.489,-4.883,9.277,-30.273,-9.277,0.000
1727691469.493,42.480,14.648,-41.016,-6.836,0.000
1727691469.497,41.016,10.254,-51.270,1.465,0.000
1727691469.501,-19.531,5.371,-41.016,-6.836,0.000
1727691469.505,-42.480,1.953,-28.809,-11.719,0.000
1727691469.509,3.906,-1.953,-31.250,1.953,0.000
1727691469.513,25.391,-3.418,-29.785,5.859,0.000
1727691469.517,27.344,4.883,-36.133,12.207,0.000
1727691469.521,6.348,8.789,-51.758,10.742,0.000
1727691469.525,-23.926,0.977,-40.527,1.953,0.000
1727691469.528,18.555,3.418,-33.203,7.812,0.000
1727691469.532,53.223,1.465,-31.250,15.625,0.000
1727691469.536,32.227,-3.418,-13.184,9.766,0.000
1727691469.540,-4.883,-5.371,-11.719,4.883,0.000
1727691469.544,-38.574,-2.441,-29.297,4.883,0.000
1727691469.548,-4.395,0.488,-33.691,-4.395,0.000
1727691469.552,41.992,-0.488,-32.227,-1.953,0.000
1727691469.556,32.715,0.977,-23.926,1.465,0.000
1727691469.560,-0.977,4.395,-15.625,6.348,0.000
1727691469.564,-33.203,2.441,-21.484,4.883,0.000
1727691469.568,-16.113,-6.348,-26.855,-5.859,0.000
1727691469.571,19.043,-9.277,-21.484,0.488,0.000
1727691469.575,16.113,-14.648,-24.902,3.418,0.000
1727691469.579,-7.324,-20.020,-41.504,-1.465,0.000
1727691469.583,-55.176,-20.508,-56.152,-14.160,0.000
1727691469.587,-30.762,-23.926,-44.922,-19.043,0.000
1727691469.591,22.949,-19.531,-31.738,-13.184,0.000
1727691469.595,23.438,-16.602,-34.668,-4.395,0.000
1727691469.599,3.906,-17.090,-55.176,-4.883,0.000
1727691469.603,-30.273,-15.625,-56.641,-18.555,0.000
1727691469.607,-27.344,-17.578,-21.973,-17.578,0.000
1727691469.611,13.672,-18.066,-12.695,-16.113,0.000
1727691469.614,23.926,-15.137,-20.020,-6.348,0.000
1727691469.618,6.836,-13.184,-16.113,-1.953,0.000
1727691469.622,-35.645,-11.719,-14.648,-4.883,0.000
1727691469.626,-39.062,-7.324,-40.039,-1.953,0.000
1727691469.630,16.602,-9.766,-64.941,17.090,0.000
1727691469.634,29.785,-8.301,-42.480,19.043,0.000
1727691469.638,8.301,-3.418,-31.250,0.977,0.000
1727691469.642,-20.020,0.000,-43.945,-7.812,0.000
1727691469.646,-29.785,-2.441,-22.461,-13.184,0.000
1727691469.650,15.625,-10.254,-11.230,-2.930,0.000
1727691469.654,35.645,-7.324,-12.207,-0.488,0.000
1727691469.657,20.020,-9.766,-4.395,0.488,0.000
1727691469.661,-13.184,-11.230,-12.207,2.441,0.000
1727691469.665,-31.250,-6.348,-26.855,-0.488,0.000
1727691469.669,9.277,-12.695,-39.062,7.324,0.000
1727691469.673,42.969,-8.789,-49.316,17.090,0.000
1727691469.677,30.762,-0.488,-45.898,21.973,0.000
1727691469.681,-7.812,-6.836,-23.926,12.695,0.000
1727691469.685,-40.039,-8.789,-24.414,5.859,0.000
1727691469.689,-2.441,-11.719,-35.645,0.000,0.000
1727691469.693,35.156,-15.137,-25.391,0.488,0.000
1727691469.696,32.227,-5.859,-25.391,2.441,0.000
1727691469.700,4.883,-3.906,-25.391,-8.789,0.000
1727691469.704,-24.414,-6.348,-28.809,-10.742,0.000
1727691469.708,15.625,-2.930,-30.273,2.441,0.000
1727691469.712,56.152,2.441,-15.137,14.160,0.000
1727691469.716,48.828,0.977,-26.367,11.719,0.000
1727691469.720,8.301,-9.766,-48.340,6.348,0.000
1727691469.724,-45.410,-15.137,-24.902,-0.977,0.000
1727691469.728,-18.555,-10.742,-4.883,-0.488,0.000
1727691469.732,28.320,-8.301,-15.625,9.277,0.000
1727691469.736,34.668,-3.418,-36.133,11.230,0.000
1727691469.739,12.695,1.465,-34.668,-5.859,0.000
1727691469.743,-45.898,0.977,-11.230,-23.438,0.000
1727691469.747,-20.020,-0.977,-12.695,-15.625,0.000
1727691469.751,40.039,0.000,-19.531,9.766,0.000
1727691469.755,33.691,1.953,-8.301,10.742,0.000
1727691469.759,0.000,0.488,-6.836,-1.953,0.000
1727691469.763,-43.457,3.906,-19.531,-15.625,0.000
1727691469.767,-32.227,0.000,-41.016,-1.953,0.000
1727691469.771,21.484,-0.977,-55.176,5.859,0.000
1727691469.775,32.227,3.906,-47.363,-6.348,0.000
1727691469.778,0.977,-0.488,-20.996,-4.883,0.000
1727691469.782,-41.016,-1.953,0.000,-10.254,0.000
1727691469.786,-41.992,1.953,-19.043,-14.160,0.000
1727691469.790,19.531,6.348,-50.781,2.930,0.000
1727691469.794,26.367,5.859,-48.340,12.207,0.000
1727691469.798,-9.277,3.906,-41.992,1.465,0.000
1727691469.802,-33.203,3.906,-48.828,-8.301,0.000
1727691469.806,-28.320,1.465,-29.785,-9.766,0.000
1727691469.810,20.996,-3.906,-20.020,-0.488,0.000
1727691469.814,27.344,-4.883,-19.531,5.371,0.000
1727691469.817,4.883,0.977,-36.621,-1.953,0.000
1727691469.821,-31.250,2.441,-73.730,-8.789,0.000
1727691469.825,-71.777,0.977,-53.223,-33.691,0.000
1727691469.829,-22.461,6.348,-7.324,-27.344,0.000
1727691469.833,39.062,-2.930,-18.555,-7.324,0.000
1727691469.837,19.043,-11.230,-70.801,-17.090,0.000
1727691469.841,-29.785,-10.742,-60.059,-14.648,0.000
1727691469.845,-41.016,-21.484,-20.508,-11.719,0.000
1727691469.849,-16.113,-12.695,-17.578,-23.926,0.000
1727691469.853,-18.555,-20.508,-39.551,-48.828,0.000
1727691469.857,-6.348,-10.254,-49.805,-34.180,0.000
1727691469.860,-9.277,1.953,-28.809,-8.301,0.000
1727691469.864,-38.086,-36.621,-24.414,-7.812,0.000
1727691469.868,-9.766,-36.621,-51.758,-1.953,0.000
1727691469.872,10.254,-18.555,-52.246,-6.348,0.000
1727691469.876,0.977,-3.906,-46.387,-26.367,0.000
1727691469.880,-88.379,13.184,-81.055,-69.824,0.000
1727691469.884,-142.578,-12.695,-73.242,-74.707,0.000
1727691469.888,-37.598,-50.293,-16.113,-21.484,0.000
1727691469.892,14.648,-52.734,9.766,-2.930,0.000
1727691469.896,-24.902,-48.340,-13.672,-42.969,0.000
1727691469.900,-62.500,-84.473,-41.016,-52.246,0.000
1727691469.903,-100.098,-117.676,-56.152,-41.992,0.000
1727691469.907,-81.055,-109.863,-58.594,-38.574,0.000
1727691469.911,-12.207,-132.324,-58.594,-34.180,0.000
1727691469.915,28.809,-199.707,-66.895,-14.160,0.000
1727691469.919,-8.789,-267.090,-87.402,7.812,0.000
1727691469.923,-71.777,-322.266,-65.430,-38.574,0.000
1727691469.927,-66.406,-366.211,27.344,-52.734,0.000
1727691469.931,-59.570,-441.406,32.715,-55.664,0.000
1727691469.935,-35.156,-576.172,-1.953,-55.176,0.000
1727691469.939,-53.711,-671.875,9.766,-62.500,0.000
1727691469.943,-114.258,-780.762,3.418,-62.988,0.000
1727691469.946,-93.750,-858.887,-42.480,-36.621,0.000
1727691469.950,-46.875,-870.117,-60.547,-51.270,0.000
1727691469.954,-39.062,-902.344,-28.809,-79.590,0.000
1727691469.958,-58.594,-977.539,20.020,-64.941,0.000
1727691469.962,-103.027,-1000.000,36.133,-47.363,0.000
1727691469.966,-72.754,-998.535,-16.113,-41.504,0.000
1727691469.970,-3.418,-1000.000,-78.613,-22.949,0.000
1727691469.974,-6.836,-1000.000,-49.805,-21.484,0.000
1727691469.978,-22.461,-1000.000,-17.578,-31.738,0.000
1727691469.982,-62.012,-1000.000,-27.344,-45.898,0.000
1727691469.986,-126.953,-1000.000,-14.160,-60.059,0.000
1727691469.989,-30.273,-1000.000,-40.039,0.977,0.000
1727691469.993,39.551,-1000.000,-97.168,22.461,0.000
1727691469.997,-35.156,-1000.000,-41.504,-25.879,0.000
1727691470.001,-62.500,-1000.000,38.086,-31.738,0.000
1727691470.005,-55.664,-1000.000,34.180,-35.156,0.000
1727691470.009,7.812,-1000.000,-10.254,-11.230,0.000
1727691470.013,56.641,-1000.000,-5.371,27.832,0.000
1727691470.017,-2.441,-1000.000,-20.020,-4.395,0.000
1727691470.021,-17.578,-1000.000,-83.496,-4.883,0.000
1727691470.025,-12.695,-1000.000,-81.543,13.672,0.000
1727691470.028,-17.578,-1000.000,-45.410,-14.160,0.000
1727691470.032,-9.277,-1000.000,-57.617,-9.277,0.000
1727691470.036,-10.742,-1000.000,-29.785,5.859,0.000
1727691470.040,-47.852,-1000.000,-32.227,-16.113,0.000
1727691470.044,-10.742,-1000.000,-49.316,21.484,0.000
1727691470.048,46.387,-1000.000,-17.090,42.480,0.000
1727691470.052,31.250,-1000.000,5.371,21.484,0.000
1727691470.056,-1.953,-1000.000,26.367,39.551,0.000
1727691470.060,-39.551,-1000.000,5.859,19.531,0.000
1727691470.064,-44.434,-1000.000,-81.055,-17.090,0.000
1727691470.068,-5.371,-1000.000,-73.730,9.277,0.000
1727691470.071,44.922,-1000.000,13.672,48.340,0.000
1727691470.075,43.457,-1000.000,-19.043,28.809,0.000
1727691470.079,-9.277,-1000.000,-55.664,-17.090,0.000
1727691470.083,-87.402,-1000.000,-35.156,-41.016,0.000
1727691470.087,-49.805,-1000.000,-13.672,-4.395,0.000
1727691470.091,14.160,-1000.000,-26.855,16.113,0.000
1727691470.095,13.184,-1000.000,-113.281,2.930,0.000
1727691470.099,22.461,-1000.000,-100.098,10.254,0.000
1727691470.103,-28.320,-1000.000,-1.465,9.277,0.000
1727691470.107,-51.270,-1000.000,18.066,-9.766,0.000
1727691470.110,-31.250,-1000.000,-45.898,-31.250,0.000
1727691470.114,24.902,-1000.000,-67.383,0.977,0.000
1727691470.118,5.371,-1000.000,-21.973,11.719,0.000
1727691470.122,-79.102,-1000.000,-12.207,-13.672,0.000
1727691470.126,-31.250,-1000.000,-33.691,-7.324,0.000
1727691470.130,26.855,-1000.000,-114.258,-10.254,0.000
1727691470.134,8.789,-1000.000,-96.680,-13.672,0.000
1727691470.138,2.930,-1000.000,30.273,6.348,0.000
1727691470.142,-86.426,-1000.000,17.578,-0.977,0.000
1727691470.146,-63.477,-1000.000,-63.965,8.789,0.000
1727691470.150,83.008,-1000.000,-73.730,42.969,0.000
1727691470.153,19.531,-1000.000,-40.039,-7.324,0.000
1727691470.157,-48.828,-1000.000,13.184,-20.020,0.000
1727691470.161,-59.082,-1000.000,14.160,-15.137,0.000
1727691470.165,-83.008,-1000.000,-25.879,-50.781,0.000
1727691470.169,-46.875,-1000.000,-44.434,-44.922,0.000
1727691470.173,-39.062,-1000.000,-74.707,-42.969,0.000
1727691470.177,-22.949,-1000.000,-109.863,-23.926,0.000
1727691470.181,22.949,-1000.000,-112.305,20.508,0.000
1727691470.185,-5.371,-1000.000,-63.477,7.324,0.000
1727691470.189,-54.688,-1000.000,-57.617,-47.363,0.000
1727691470.192,-1.465,-1000.000,-28.320,-11.230,0.000
1727691470.196,33.203,-1000.000,45.410,31.250,0.000
1727691470.200,-13.672,-1000.000,27.344,-4.395,0.000
1727691470.204,-55.176,-1000.000,-38.086,-6.836,0.000
1727691470.208,-7.324,-1000.000,-69.336,9.277,0.000
1727691470.212,0.000,-1000.000,-47.852,1.465,0.000
1727691470.216,0.000,-1000.000,-49.805,-20.020,0.000
1727691470.220,0.000,-1000.000,-62.988,-0.977,0.000
1727691470.224,0.000,-1000.000,-50.293,5.859,0.000
1727691470.228,0.000,-1000.000,-12.695,-6.348,0.000
1727691470.232,0.000,-1000.000,15.625,3.906,0.000
1727691470.235,0.000,-1000.000,-0.488,-12.207,0.000
1727691470.239,0.000,-1000.000,-41.504,-2.930,0.000
1727691470.243,0.000,-1000.000,-78.613,0.977,0.000
1727691470.247,0.000,-1000.000,-50.293,11.719,0.000
1727691470.251,0.000,-1000.000,4.883,30.273,0.000
1727691470.255,0.000,-1000.000,-33.691,-14.648,0.000
1727691470.259,-4.883,-1000.000,-64.453,2.441,0.000
1727691470.263,-17.090,-1000.000,-19.531,26.855,0.000
1727691470.267,-8.789,-1000.000,2.930,-5.371,0.000
1727691470.271,36.621,-1000.000,-5.371,9.277,0.000
1727691470.275,38.086,-1000.000,-15.625,24.902,0.000
1727691470.278,-1.953,-1000.000,-27.344,9.277,0.000
1727691470.282,-57.617,-1000.000,-41.016,-7.812,0.000
1727691470.286,-37.109,-1000.000,-16.602,-2.441,0.000
1727691470.290,23.926,-998.047,-24.414,22.461,0.000
1727691470.294,31.250,-1000.000,-39.062,29.297,0.000
1727691470.298,20.508,-976.562,-7.324,8.301,0.000
1727691470.302,-4.395,-910.156,8.789,-2.930,0.000
1727691470.306,7.324,-859.375,1.465,4.395,0.000
1727691470.310,46.875,-806.641,-17.090,23.438,0.000
1727691470.314,46.387,-749.023,-24.902,32.715,0.000
1727691470.318,26.367,-685.547,-17.578,29.785,0.000
1727691470.321,-1.465,-571.777,-22.949,17.090,0.000
1727691470.325,2.441,-378.906,-13.184,17.578,0.000
1727691470.329,52.246,-142.090,0.977,29.785,0.000
1727691470.333,49.805,58.594,-26.855,22.949,0.000
1727691470.337,32.227,407.227,-21.973,27.344,0.000
1727691470.341,-6.836,884.277,14.648,19.043,0.000
1727691470.345,-20.996,983.887,13.184,7.812,0.000
1727691470.349,54.688,951.660,-1.465,35.645,0.000
1727691470.353,79.590,971.191,-3.418,38.574,0.000
1727691470.357,54.199,968.262,22.461,20.508,0.000
1727691470.360,16.113,968.262,21.484,7.812,0.000
1727691470.364,-14.648,968.262,13.184,2.930,0.000
1727691470.368,31.250,968.262,12.695,9.277,0.000
1727691470.372,54.199,968.262,8.301,5.859,0.000
1727691470.376,31.738,968.262,-5.859,-2.930,0.000
1727691470.380,1.465,968.262,-29.785,-1.465,0.000
1727691470.384,-12.207,968.262,-27.344,8.301,0.000
1727691470.388,24.414,968.262,-27.344,3.418,0.000
1727691470.392,38.086,968.262,-41.016,5.371,0.000
1727691470.396,28.809,968.262,-17.578,9.277,0.000
1727691470.400,1.465,968.262,-10.254,3.418,0.000
1727691470.403,-37.598,968.262,-35.645,1.465,0.000
1727691470.407,20.996,968.262,-32.715,10.742,0.000
1727691470.411,57.617,968.262,-7.812,14.160,0.000
1727691470.415,27.344,968.262,9.277,4.395,0.000
1727691470.419,5.371,968.262,-1.465,-1.465,0.000
1727691470.423,-24.902,968.262,-18.555,-9.766,0.000
1727691470.427,1.953,968.262,-31.250,-2.441,0.000
1727691470.431,61.035,968.262,-33.691,8.789,0.000
1727691470.435,51.270,968.262,-33.691,3.418,0.000
1727691470.439,-2.930,968.262,-31.738,-0.488,0.000
1727691470.443,-35.645,968.262,-24.414,-7.324,0.000
1727691470.446,10.254,968.262,-33.691,7.812,0.000
1727691470.450,55.176,968.262,-37.598,20.020,0.000
1727691470.454,54.688,968.262,-31.738,10.742,0.000
1727691470.458,18.066,968.262,-45.898,3.418,0.000
1727691470.462,-25.879,968.262,-42.969,-3.906,0.000
1727691470.466,-9.277,968.262,-30.762,0.977,0.000
1727691470.470,36.621,968.262,-27.344,10.742,0.000
1727691470.474,50.293,968.262,-13.672,16.602,0.000
1727691470.478,20.508,967.773,-1.953,2.441,0.000
1727691470.482,-29.785,968.262,-0.488,-16.602,0.000
1727691470.485,-20.996,968.262,-15.625,-10.254,0.000
1727691470.489,23.438,968.262,-32.715,0.977,0.000
1727691470.493,39.062,968.262,-40.527,6.348,0.000
1727691470.497,25.879,968.262,-32.715,10.254,0.000
1727691470.501,-27.344,968.262,-16.602,-1.465,0.000
1727691470.505,-26.855,968.262,-14.648,-9.277,0.000
1727691470.509,27.832,968.262,-16.602,4.395,0.000
1727691470.513,41.504,968.262,-34.668,5.371,0.000
1727691470.517,38.086,968.262,-64.453,1.465,0.000
1727691470.521,-9.766,968.262,-53.223,-6.348,0.000
1727691470.525,-45.898,968.262,-21.973,-20.996,0.000
1727691470.528,16.602,968.262,-14.160,-12.207,0.000
1727691470.532,52.734,968.262,-17.578,1.953,0.000
1727691470.536,42.969,967.773,-28.320,-0.488,0.000
1727691470.540,-13.672,968.262,-38.086,-3.906,0.000
1727691470.544,-20.996,968.262,-18.066,4.883,0.000
1727691470.548,25.879,968.262,-4.395,7.812,0.000
1727691470.552,33.691,968.262,-19.043,-6.348,0.000
1727691470.556,19.043,968.262,-40.527,4.883,0.000
1727691470.560,-12.207,968.262,-41.992,13.672,0.000
1727691470.564,-22.949,968.262,-27.344,3.418,0.000
1727691470.567,3.906,968.262,-23.438,4.395,0.000
1727691470.571,36.133,968.262,-23.926,1.465,0.000
1727691470.575,35.156,968.262,-10.742,2.441,0.000
1727691470.579,5.371,966.309,9.277,3.906,0.000
1727691470.583,-31.738,970.703,3.906,-5.371,0.000
1727691470.587,7.812,946.777,-34.180,-5.371,0.000
1727691470.591,42.480,892.578,-34.668,-2.930,0.000
1727691470.595,34.180,850.098,-7.812,-5.371,0.000
1727691470.599,-0.488,813.965,-2.930,-4.883,0.000
1727691470.603,-39.062,784.668,-18.555,-6.836,0.000
1727691470.607,14.648,752.441,-31.250,-3.418,0.000
1727691470.610,61.523,733.887,-27.344,9.277,0.000
1727691470.614,52.734,719.238,-29.785,13.672,0.000
1727691470.618,9.766,696.289,-35.156,2.441,0.000
1727691470.622,-29.785,695.801,-13.184,-4.883,0.000
1727691470.626,-1.465,717.285,0.000,-7.812,0.000
1727691470.630,26.855,739.746,-18.066,-12.207,0.000
1727691470.634,28.320,755.859,-40.527,-4.883,0.000
1727691470.638,16.113,756.348,-33.203,-4.395,0.000
1727691470.642,-31.250,744.141,-11.719,-18.555,0.000
1727691470.646,-20.020,735.352,-13.672,-8.789,0.000
1727691470.650,24.414,725.586,-35.156,6.836,0.000
1727691470.653,34.180,705.566,-46.387,1.953,0.000
1727691470.657,20.020,694.824,-32.715,3.418,0.000
1727691470.661,-23.438,681.152,-31.738,0.000,0.000
1727691470.665,-17.578,676.270,-43.457,0.000,0.000
1727691470.669,13.672,683.594,-48.828,10.742,0.000
1727691470.673,38.086,697.266,-44.434,9.277,0.000
1727691470.677,36.621,707.520,-18.066,1.465,0.000
1727691470.681,-28.809,690.918,-10.254,-6.836,0.000
1727691470.685,-25.879,687.500,-24.414,-3.418,0.000
1727691470.689,23.438,677.734,-29.297,12.695,0.000
1727691470.692,39.062,646.484,-32.715,14.648,0.000
1727691470.696,31.738,624.512,-45.410,7.812,0.000
1727691470.700,-18.555,599.609,-55.176,-0.488,0.000
1727691470.704,-22.461,581.055,-53.223,1.953,0.000
1727691470.708,24.902,570.801,-59.570,20.996,0.000
1727691470.712,47.363,545.898,-68.359,26.367,0.000
1727691470.716,39.062,522.461,-49.805,21.484,0.000
1727691470.720,0.977,512.695,-20.020,7.812,0.000
1727691470.724,-31.738,516.113,-3.418,-2.930,0.000
1727691470.728,15.137,530.762,-6.348,1.465,0.000
1727691470.732,40.039,538.086,-18.066,2.441,0.000
1727691470.735,26.367,538.574,-13.184,9.277,0.000
1727691470.739,-10.742,542.480,-15.137,-8.301,0.000
1727691470.743,-33.691,531.738,-46.387,-15.625,0.000
1727691470.747,11.719,531.738,-67.871,4.883,0.000
1727691470.751,36.133,537.109,-63.965,3.906,0.000
1727691470.755,22.949,532.227,-39.551,-2.930,0.000
1727691470.759,-16.602,526.367,-13.672,-7.324,0.000
1727691470.763,-37.109,517.090,-10.742,-8.301,0.000
1727691470.767,-4.395,509.766,-21.973,4.395,0.000
1727691470.771,32.715,495.117,-27.344,6.348,0.000
1727691470.775,41.016,475.098,-31.738,4.395,0.000
1727691470.778,3.418,461.914,-31.250,1.465,0.000
1727691470.782,-32.227,452.148,-37.109,-0.977,0.000
1727691470.786,-2.930,439.941,-47.363,8.301,0.000
1727691470.790,40.527,424.805,-37.598,14.648,0.000
1727691470.794,20.996,415.039,-24.414,10.742,0.000
1727691470.798,-2.441,410.156,-27.344,-0.977,0.000
1727691470.802,-19.043,402.832,-26.855,-5.859,0.000
1727691470.806,-7.324,391.602,-13.184,-8.301,0.000
1727691470.810,54.199,390.137,-35.156,-1.953,0.000
1727691470.814,57.129,380.859,-44.922,9.766,0.000
1727691470.817,10.742,372.070,-20.996,-0.488,0.000
1727691470.821,-32.227,365.234,-18.066,-11.719,0.000
1727691470.825,-18.555,345.703,-28.809,-3.418,0.000
1727691470.829,23.926,338.867,-28.320,2.441,0.000
1727691470.833,36.621,342.773,-32.227,0.000,0.000
1727691470.837,13.184,337.891,-33.691,0.488,0.000
1727691470.841,-38.574,325.684,-32.227,-6.348,0.000
1727691470.845,-23.926,318.359,-35.645,3.418,0.000
1727691470.849,27.344,316.895,-42.480,18.555,0.000
1727691470.853,35.156,308.594,-52.734,0.000,0.000
1727691470.857,20.508,304.199,-39.551,-12.207,0.000
1727691470.860,-22.461,292.480,-16.602,-7.812,0.000
1727691470.864,-45.898,274.902,-20.508,-12.207,0.000
1727691470.868,1.465,270.020,-40.039,-11.719,0.000
1727691470.872,36.133,261.230,-44.434,-4.395,0.000
1727691470.876,22.949,253.418,-31.738,-7.324,0.000
1727691470.880,-28.809,247.559,-22.461,-20.020,0.000
1727691470.884,-34.668,231.445,-37.598,-19.043,0.000
1727691470.888,32.227,234.863,-63.965,-10.254,0.000
1727691470.892,45.898,239.746,-47.363,1.953,0.000
1727691470.896,25.391,231.934,-33.203,-0.488,0.000
1727691470.899,-14.160,227.051,-29.785,-13.184,0.000
1727691470.903,-42.969,219.727,-22.949,-9.766,0.000
1727691470.907,12.207,218.750,-29.785,-1.953,0.000
1727691470.911,42.969,215.820,-26.855,3.906,0.000
1727691470.915,16.602,206.055,-19.531,1.953,0.000
1727691470.919,-17.578,196.289,-19.043,-0.977,0.000
1727691470.923,-44.922,195.312,-27.832,-7.812,0.000
1727691470.927,13.184,199.707,-38.086,0.000,0.000
1727691470.931,43.457,200.684,-55.176,9.766,0.000
1727691470.935,26.855,197.266,-61.035,10.254,0.000
1727691470.939,2.441,194.336,-29.297,10.254,0.000
1727691470.942,-46.387,194.336,-9.766,-9.766,0.000
1727691470.946,-9.277,185.547,-17.578,-11.230,0.000
1727691470.950,34.180,179.199,-27.832,-2.930,0.000
1727691470.954,10.254,167.969,-32.227,-5.859,0.000
1727691470.958,-19.531,159.668,-40.527,-6.836,0.000
1727691470.962,-39.551,164.551,-34.668,-10.742,0.000
1727691470.966,0.488,165.527,-18.066,-5.859,0.000
1727691470.970,30.273,155.273,-19.043,3.418,0.000
1727691470.974,26.855,158.691,-21.484,-2.930,0.000
1727691470.978,-14.160,179.199,-30.762,-14.648,0.000
1727691470.981,-62.012,192.871,-50.293,-19.043,0.000
1727691470.985,-13.184,197.266,-49.316,-11.719,0.000
1727691470.989,20.508,190.918,-49.805,-15.625,0.000
1727691470.993,12.695,183.105,-48.340,-22.949,0.000
1727691470.997,-8.301,168.945,-32.227,-21.484,0.000
1727691471.001,-59.570,163.574,-29.785,-32.715,0.000
1727691471.005,-48.828,175.781,-32.227,-40.039,0.000
1727691471.009,19.531,178.223,-39.062,-18.066,0.000
1727691471.013,42.480,177.246,-45.410,-13.184,0.000
1727691471.017,-1.953,166.504,-43.457,-22.949,0.000
1727691471.021,-43.945,152.344,-41.504,-20.020,0.000
1727691471.024,-29.297,147.949,-45.898,-10.254,0.000
1727691471.028,7.812,140.137,-51.758,-6.348,0.000
1727691471.032,24.414,131.836,-46.875,-2.930,0.000
1727691471.036,5.859,128.906,-40.527,-4.883,0.000
1727691471.040,-37.109,125.977,-42.480,-16.113,0.000
1727691471.044,-27.832,123.047,-40.527,-8.789,0.000
1727691471.048,15.137,118.164,-36.133,-0.977,0.000
1727691471.052,25.879,108.398,-38.086,0.488,0.000
1727691471.056,27.344,107.910,-32.227,-3.906,0.000
1727691471.060,-19.531,104.980,-9.766,-19.531,0.000
1727691471.064,-35.645,92.773,-6.836,-17.090,0.000
1727691471.067,20.508,94.238,-21.973,2.441,0.000
1727691471.071,38.086,95.703,-20.996,12.207,0.000
1727691471.075,26.367,98.633,-26.855,14.648,0.000
1727691471.079,-6.348,93.262,-27.832,6.348,0.000
1727691471.083,-31.738,82.031,-29.785,-11.230,0.000
1727691471.087,-1.465,77.148,-33.691,2.441,0.000
1727691471.091,23.926,77.148,-26.367,8.789,0.000
1727691471.095,25.879,82.031,-23.926,-2.441,0.000
1727691471.099,-8.301,82.031,-25.391,-6.348,0.000
1727691471.103,-23.926,79.102,-26.855,-10.742,0.000
1727691471.106,7.812,77.637,-23.926,9.766,0.000
1727691471.110,32.227,74.219,-30.762,15.137,0.000
1727691471.114,33.203,75.684,-32.715,9.277,0.000
1727691471.118,-15.137,81.055,-26.367,10.254,0.000
1727691471.122,-37.598,82.520,-52.246,10.742,0.000
1727691471.126,9.766,84.473,-61.035,13.672,0.000
1727691471.130,26.855,83.008,-35.156,4.883,0.000
1727691471.134,12.207,79.590,-13.672,8.789,0.000
1727691471.138,-16.113,81.543,-9.766,-0.488,0.000
1727691471.142,-42.969,75.684,-36.133,-6.348,0.000
1727691471.146,-18.555,69.336,-51.758,8.301,0.000
1727691471.149,19.531,76.660,-44.434,4.395,0.000
1727691471.153,36.133,83.496,-31.250,5.371,0.000
1727691471.157,-8.789,83.984,-15.137,4.883,0.000
1727691471.161,-50.293,78.613,-13.672,-3.418,0.000
1727691471.165,-10.254,82.031,-27.344,1.465,0.000
1727691471.169,35.156,87.891,-37.109,3.418,0.000
1727691471.173,44.922,85.449,-27.344,1.465,0.000
1727691471.177,21.484,89.355,-39.062,9.766,0.000
1727691471.181,-18.066,92.773,-58.105,3.906,0.000
1727691471.185,-2.441,88.867,-31.250,-1.465,0.000
1727691471.188,34.668,91.309,-21.484,4.883,0.000
1727691471.192,25.879,91.309,-31.250,4.883,0.000
1727691471.196,10.254,95.703,-20.020,-3.906,0.000
1727691471.200,-20.996,94.727,-20.508,-9.277,0.000
1727691471.204,-16.113,87.402,-31.250,-2.930,0.000
1727691471.208,42.969,93.262,-30.762,-1.953,0.000
1727691471.212,41.016,93.750,-34.668,1.465,0.000
1727691471.216,-6.836,90.820,-39.551,5.371,0.000
1727691471.220,-36.133,100.098,-37.598,-3.906,0.000
1727691471.224,-20.020,104.980,-36.621,3.418,0.000
1727691471.228,25.391,101.562,-48.828,11.719,0.000
1727691471.231,46.875,98.633,-64.941,5.371,0.000
1727691471.235,14.648,90.332,-43.457,6.348,0.000
1727691471.239,-30.762,88.867,-24.902,-3.906,0.000
1727691471.243,-23.926,88.867,-27.344,-11.230,0.000
1727691471.247,18.066,81.543,-19.043,-1.465,0.000
1727691471.251,29.297,73.242,-23.438,-3.906,0.000
1727691471.255,23.438,71.289,-30.762,3.906,0.000
1727691471.259,4.395,75.195,-34.180,10.254,0.000
1727691471.263,-14.648,68.359,-47.363,-3.906,0.000
1727691471.267,14.648,66.895,-45.410,11.719,0.000
1727691471.270,37.598,67.383,-34.668,31.250,0.000
1727691471.274,25.879,59.570,-16.602,15.137,0.000
1727691471.278,-6.348,40.527,-5.859,-11.719,0.000
1727691471.282,-32.227,13.672,-11.719,-17.578,0.000
1727691471.286,-9.277,0.977,-17.578,-9.766,0.000
1727691471.290,29.297,-5.371,-21.484,-2.441,0.000
1727691471.294,27.832,-6.836,-30.762,1.465,0.000
1727691471.298,-15.137,-4.395,-38.574,3.906,0.000
1727691471.302,-49.316,-12.207,-32.227,1.953,0.000
1727691471.306,6.836,-18.555,-31.250,5.859,0.000
1727691471.310,61.523,-14.648,-28.809,23.926,0.000
1727691471.313,50.781,-8.301,-28.320,22.949,0.000
1727691471.317,8.789,-7.324,-31.738,2.441,0.000
1727691471.321,-32.227,-13.184,-28.809,-7.812,0.000
1727691471.325,-0.488,-25.391,-14.160,-5.859,0.000
1727691471.329,37.109,-29.785,-22.949,0.000,0.000
1727691471.333,41.504,-28.809,-44.434,5.859,0.000
1727691471.337,11.719,-29.297,-36.621,-10.254,0.000
1727691471.341,-36.133,-37.109,-16.602,-25.879,0.000
1727691471.345,-20.020,-39.551,-11.230,-17.090,0.000
1727691471.349,45.898,-31.738,-30.762,-7.324,0.000
1727691471.352,40.527,-32.715,-25.879,-3.906,0.000
1727691471.356,1.465,-39.551,-16.113,-0.977,0.000
1727691471.360,-29.785,-45.410,-25.879,-7.324,0.000
1727691471.364,-22.461,-48.828,-25.391,-10.254,0.000
1727691471.368,26.367,-42.969,-26.367,1.953,0.000
1727691471.372,43.457,-34.668,-20.508,0.488,0.000
1727691471.376,8.301,-41.016,-16.602,6.348,0.000
1727691471.380,-23.438,-35.156,-33.203,6.836,0.000
1727691471.384,1.465,-30.762,-53.711,1.953,0.000
1727691471.388,31.738,-33.691,-37.109,6.836,0.000
1727691471.392,28.320,-34.668,-13.184,8.789,0.000
1727691471.395,7.812,-30.762,-18.066,5.371,0.000
1727691471.399,-25.391,-23.438,-17.090,-9.277,0.000
1727691471.403,-32.227,-19.531,-18.066,-16.113,0.000
1727691471.407,9.277,-19.043,-21.973,-3.418,0.000
1727691471.411,39.551,-26.367,-18.066,3.418,0.000
1727691471.415,26.855,-27.344,-31.738,10.254,0.000
1727691471.419,-17.578,-20.020,-56.152,7.812,0.000
1727691471.423,-26.367,-9.277,-44.434,1.465,0.000
1727691471.427,15.625,-4.883,-21.484,0.977,0.000
1727691471.431,39.551,0.977,-35.156,10.742,0.000
1727691471.435,37.598,10.254,-41.992,11.719,0.000
1727691471.438,-19.043,15.137,-20.020,-2.930,0.000
1727691471.442,-40.527,15.625,-10.742,-7.812,0.000
1727691471.446,23.438,21.973,-16.602,2.930,0.000
1727691471.450,41.992,34.668,-19.043,7.324,0.000
1727691471.454,10.742,37.598,-12.695,1.465,0.000
1727691471.458,-20.508,31.738,-15.625,-10.254,0.000
1727691471.462,-36.133,32.227,-37.598,-10.254,0.000
1727691471.466,4.395,38.086,-41.504,-2.930,0.000
1727691471.470,32.227,35.645,-38.086,-9.766,0.000
1727691471.474,28.809,38.574,-41.016,-12.695,0.000
1727691471.477,-6.348,39.551,-30.762,-18.066,0.000
1727691471.481,-48.340,33.691,-21.973,-28.809,0.000
1727691471.485,-8.789,34.668,-19.043,-23.926,0.000
1727691471.489,24.902,31.250,-31.250,-3.906,0.000
1727691471.493,22.949,36.133,-56.152,4.883,0.000
1727691471.497,-20.020,40.527,-55.176,-16.113,0.000
1727691471.501,-70.801,28.809,-33.203,-32.715,0.000
1727691471.505,-12.695,29.297,-24.414,-8.789,0.000
1727691471.509,36.133,30.762,-33.203,3.418,0.000
1727691471.513,22.949,25.879,-51.758,-7.324,0.000
1727691471.517,-2.441,29.785,-57.617,-12.695,0.000
1727691471.520,-35.645,28.320,-37.598,-11.230,0.000
1727691471.524,-14.160,29.297,-8.301,-1.953,0.000
1727691471.528,35.645,29.785,-6.348,3.906,0.000
1727691471.532,33.691,28.809,-25.879,1.465,0.000
1727691471.536,8.789,28.809,-26.855,0.488,0.000
1727691471.540,-34.668,28.809,-20.508,-1.953,0.000
1727691471.544,-30.273,30.762,-30.762,6.836,0.000
1727691471.548,33.691,26.367,-42.480,12.695,0.000
1727691471.552,56.152,21.484,-36.621,25.879,0.000
1727691471.556,32.227,22.461,-41.992,26.855,0.000
1727691471.560,-13.184,23.438,-46.387,14.160,0.000
1727691471.563,-12.207,19.531,-25.391,9.766,0.000
1727691471.567,40.039,26.367,-5.859,11.719,0.000
1727691471.571,47.363,34.180,-5.371,16.602,0.000
1727691471.575,13.184,26.367,-19.043,5.859,0.000
1727691471.579,-18.555,18.555,-30.273,-11.230,0.000
1727691471.583,-23.438,22.461,-36.133,-13.672,0.000
1727691471.587,18.066,24.414,-42.969,0.488,0.000
1727691471.591,31.250,20.020,-49.805,6.348,0.000
1727691471.595,27.344,22.461,-50.293,4.883,0.000
1727691471.599,-8.789,25.879,-46.875,4.883,0.000
1727691471.602,-24.902,22.461,-51.270,2.930,0.000
1727691471.606,30.762,22.461,-42.480,10.742,0.000
1727691471.610,48.340,18.066,-19.043,12.207,0.000
1727691471.614,10.254,19.531,-6.348,0.977,0.000
1727691471.618,-20.996,21.484,-15.625,4.883,0.000
1727691471.622,-30.762,15.137,-32.227,0.000,0.000
1727691471.626,5.371,16.602,-41.016,1.465,0.000
1727691471.630,41.504,24.902,-50.293,13.184,0.000
1727691471.634,44.434,25.391,-52.734,4.883,0.000
1727691471.638,6.348,20.996,-35.156,3.418,0.000
1727691471.642,-22.949,21.973,-28.320,13.672,0.000
1727691471.645,17.578,19.531,-32.715,22.461,0.000
1727691471.649,43.945,15.137,-37.109,14.160,0.000
1727691471.653,29.297,13.184,-50.293,8.301,0.000
1727691471.657,-4.883,16.113,-40.527,5.859,0.000
1727691471.661,-25.391,18.066,-28.320,-2.441,0.000
1727691471.665,7.324,19.043,-25.879,2.930,0.000
1727691471.669,40.527,16.602,-32.715,15.625,0.000
1727691471.673,42.480,11.230,-33.203,9.277,0.000
1727691471.677,-10.742,6.348,-26.855,-6.836,0.000
1727691471.681,-45.410,8.789,-34.180,-17.578,0.000
1727691471.684,-6.836,13.672,-23.926,-9.277,0.000
1727691471.688,26.855,12.695,-32.715,9.766,0.000
1727691471.692,14.160,11.719,-53.711,5.371,0.000
1727691471.696,-6.836,9.766,-33.203,-2.441,0.000
1727691471.700,-63.477,16.113,-20.020,-8.301,0.000
1727691471.704,-41.504,24.902,-18.555,-3.418,0.000
1727691471.708,35.156,27.344,-7.324,10.254,0.000
1727691471.712,40.527,29.785,-1.465,15.137,0.000
1727691471.716,17.578,32.227,4.395,12.695,0.000
1727691471.720,-24.902,31.738,-4.883,12.207,0.000
1727691471.724,-13.672,37.109,-23.926,12.207,0.000
1727691471.727,34.180,36.133,-19.531,12.695,0.000
1727691471.731,42.969,27.344,-12.207,13.672,0.000
1727691471.735,23.438,26.367,-4.883,8.301,0.000
1727691471.739,-17.090,25.879,8.789,0.488,0.000
1727691471.743,-16.113,24.902,3.906,-4.883,0.000
1727691471.747,34.180,28.320,-4.395,10.254,0.000
1727691471.751,41.016,33.691,-13.184,3.418,0.000
1727691471.755,19.531,30.273,-25.391,1.953,0.000
1727691471.759,-14.648,28.320,-24.414,4.883,0.000
1727691471.763,-17.090,35.156,-9.277,-1.465,0.000
1727691471.767,18.066,30.273,-0.977,9.277,0.000
1727691471.770,24.902,27.344,-22.949,4.395,0.000
1727691471.774,16.602,27.832,-35.645,0.488,0.000
1727691471.778,-15.625,27.344,-20.996,-2.930,0.000
1727691471.782,-25.879,27.832,-18.066,-1.465,0.000
1727691471.786,18.066,22.949,-26.367,3.906,0.000
1727691471.790,45.410,22.949,-36.133,10.742,0.000
1727691471.794,22.461,30.762,-37.598,18.555,0.000
1727691471.798,-15.625,25.879,-19.043,0.488,0.000
1727691471.802,-23.438,14.648,-10.254,-13.184,0.000
1727691471.806,8.789,11.230,-17.578,-2.930,0.000
1727691471.809,23.926,12.207,-27.344,-4.883,0.000
1727691471.813,23.926,10.254,-28.809,1.953,0.000
1727691471.817,-8.301,3.418,-20.996,1.953,0.000
1727691471.821,-48.828,11.230,-24.414,-10.254,0.000
1727691471.825,0.977,48.340,-40.039,-1.465,0.000
1727691471.829,45.410,91.309,-37.109,-1.953,0.000
1727691471.833,20.996,104.004,-24.414,0.000,0.000
1727691471.837,-3.418,103.516,-20.996,8.301,0.000
1727691471.841,-30.762,104.004,-19.043,-2.441,0.000
1727691471.845,-9.766,105.469,-29.785,-6.348,0.000
1727691471.849,28.320,96.680,-30.762,-0.977,0.000
1727691471.852,11.719,88.867,-27.344,-2.441,0.000
1727691471.856,-18.066,86.426,-42.480,-4.883,0.000
1727691471.860,-47.852,79.102,-48.828,-18.066,0.000
1727691471.864,-17.090,70.801,-32.715,-8.789,0.000
1727691471.868,23.926,75.195,-27.344,2.441,0.000
1727691471.872,17.090,77.148,-38.086,-8.789,0.000
1727691471.876,-13.672,60.547,-36.621,-16.113,0.000
1727691471.880,-40.039,59.082,-26.367,-9.766,0.000
1727691471.884,-5.859,67.383,-25.879,-3.418,0.000
1727691471.888,32.227,63.965,-35.156,1.465,0.000
1727691471.892,37.598,58.594,-46.387,4.395,0.000
1727691471.895,16.602,55.176,-52.734,-0.488,0.000
1727691471.899,-32.715,51.758,-37.598,-11.230,0.000
1727691471.903,-35.645,52.246,-44.922,-14.648,0.000
1727691471.907,7.324,45.410,-48.828,-3.418,0.000
1727691471.911,35.156,41.992,-32.715,7.324,0.000
1727691471.915,36.621,46.387,-45.898,7.812,0.000
1727691471.919,-12.695,42.480,-49.316,-3.418,0.000
1727691471.923,-25.391,38.086,-28.809,-9.766,0.000
1727691471.927,28.320,38.574,-15.137,12.695,0.000
1727691471.931,38.086,36.133,-14.648,17.578,0.000
1727691471.934,20.508,34.180,-24.414,-0.977,0.000
1727691471.938,-15.137,35.156,-36.621,3.418,0.000
1727691471.942,-18.066,26.855,-37.109,10.254,0.000
1727691471.946,19.531,20.508,-37.109,4.395,0.000
1727691471.950,49.316,21.973,-35.156,0.977,0.000
1727691471.954,31.250,22.949,-18.555,10.254,0.000
1727691471.958,-26.855,16.602,-24.414,12.695,0.000
1727691471.962,-36.133,16.602,-52.734,7.812,0.000
1727691471.966,13.672,18.555,-46.387,10.742,0.000
1727691471.970,45.898,13.672,-31.738,10.742,0.000
1727691471.974,36.621,13.184,-24.902,13.672,0.000
1727691471.977,-22.949,16.602,-11.230,2.930,0.000
1727691471.981,-44.922,12.695,-20.508,-14.160,0.000
1727691471.985,8.301,4.883,-40.039,4.395,0.000
1727691471.989,38.574,4.883,-32.715,13.184,0.000
1727691471.993,34.668,9.277,-12.207,4.883,0.000
1727691471.997,-14.648,3.906,-5.371,-3.906,0.000
1727691472.001,-49.316,1.953,-12.207,-13.672,0.000
1727691472.005,3.906,9.766,-25.391,-3.906,0.000
1727691472.009,46.875,14.160,-45.898,9.766,0.000
1727691472.013,43.457,13.672,-38.086,6.836,0.000
1727691472.016,-1.953,14.648,-28.320,0.977,0.000
1727691472.020,-53.223,15.625,-43.457,-0.977,0.000
1727691472.024,-21.973,14.160,-46.387,1.465,0.000
1727691472.028,34.180,16.113,-19.531,8.301,0.000
1727691472.032,28.809,14.160,0.488,9.277,0.000
1727691472.036,-4.395,17.090,-4.883,0.977,0.000
1727691472.040,-32.715,19.043,-36.133,-6.348,0.000
1727691472.044,-7.812,20.996,-45.410,0.000,0.000
1727691472.048,35.645,16.602,-18.555,6.348,0.000
1727691472.052,34.668,20.996,-21.973,14.160,0.000
1727691472.056,6.836,20.996,-24.902,9.277,0.000
1727691472.059,-26.367,10.254,1.465,-9.277,0.000
1727691472.063,-11.230,7.324,15.137,-6.836,0.000
1727691472.067,34.668,11.230,4.883,4.883,0.000
1727691472.071,43.457,21.484,-9.766,14.648,0.000
1727691472.075,1.465,22.461,-19.531,4.883,0.000
1727691472.079,-40.527,19.043,-19.531,-13.184,0.000
1727691472.083,-3.906,20.996,-26.855,2.930,0.000
1727691472.087,0.000,27.832,-52.734,22.461,0.000
1727691472.091,0.000,30.762,-43.457,12.695,0.000
1727691472.095,0.000,30.273,2.930,1.953,0.000
1727691472.099,0.000,32.227,11.230,-2.930,0.000
1727691472.102,0.000,31.250,-3.418,-2.441,0.000
1727691472.106,0.000,26.855,-13.184,4.395,0.000
1727691472.110,0.000,29.297,-30.273,2.930,0.000
1727691472.114,0.000,31.738,-40.527,-1.953,0.000
1727691472.118,0.000,34.180,-34.180,-8.301,0.000
1727691472.122,0.000,39.551,-20.020,-4.883,0.000
1727691472.126,0.000,41.016,-10.254,4.395,0.000
1727691472.130,0.000,37.109,-12.207,9.277,0.000
1727691472.134,26.367,25.391,-10.254,11.230,0.000
1727691472.138,-10.742,18.066,-10.742,1.465,0.000
1727691472.141,-32.715,21.484,-20.996,-6.836,0.000
1727691472.145,20.020,28.320,-40.039,6.348,0.000
1727691472.149,38.574,23.926,-61.523,17.578,0.000
1727691472.153,20.020,23.438,-63.965,16.113,0.000
1727691472.157,-15.137,25.391,-47.363,1.953,0.000
1727691472.161,-24.902,31.250,-31.738,-13.184,0.000
1727691472.165,17.090,35.645,-12.207,-6.348,0.000
1727691472.169,41.016,37.598,1.953,11.230,0.000
1727691472.173,32.715,45.898,-37.598,16.113,0.000
1727691472.177,-13.672,42.480,-52.734,6.836,0.000
1727691472.181,-50.293,34.668,-12.207,2.441,0.000
1727691472.184,2.930,37.109,-18.066,8.789,0.000
1727691472.188,41.504,37.598,-34.180,7.324,0.000
1727691472.192,24.414,41.016,-27.344,-10.742,0.000
1727691472.196,-19.043,38.574,-19.531,-24.902,0.000
1727691472.200,-49.316,29.297,-37.598,-22.949,0.000
1727691472.204,-15.625,33.691,-59.082,-18.066,0.000
1727691472.208,15.625,35.156,-38.086,-13.672,0.000
1727691472.212,16.602,27.832,-29.785,-2.930,0.000
1727691472.216,-8.301,36.621,-35.156,-3.906,0.000
1727691472.220,-48.340,51.758,-26.367,-24.902,0.000
1727691472.224,-16.602,56.152,-30.762,-27.832,0.000
1727691472.227,42.480,63.477,-44.434,-14.648,0.000
1727691472.231,45.898,65.918,-45.898,-4.395,0.000
1727691472.235,-16.113,62.988,-24.902,-9.277,0.000
1727691472.239,-63.965,59.570,-2.930,-22.461,0.000
1727691472.243,-16.602,51.758,-15.137,-18.555,0.000
1727691472.247,27.832,54.688,-34.668,-9.766,0.000
1727691472.251,18.555,57.129,-56.641,-4.395,0.000
1727691472.255,7.324,48.340,-51.270,-15.137,0.000
1727691472.259,-32.227,39.551,-8.789,-36.133,0.000
1727691472.263,-35.156,36.621,-26.855,-32.227,0.000
1727691472.267,4.883,28.320,-46.875,-18.555,0.000
1727691472.270,7.324,26.855,-26.367,-16.113,0.000
1727691472.274,-6.348,29.297,-24.414,-12.695,0.000
1727691472.278,-40.527,32.227,-20.508,-7.812,0.000
1727691472.282,-34.668,27.832,-18.555,-4.395,0.000
1727691472.286,18.066,20.020,-15.625,8.301,0.000
1727691472.290,12.695,19.043,-19.043,10.742,0.000
1727691472.294,4.883,16.602,-33.691,-1.465,0.000
1727691472.298,-34.668,14.648,-43.945,-15.625,0.000
1727691472.302,-47.363,16.602,-44.922,-15.137,0.000
1727691472.306,5.371,17.578,-35.645,-4.395,0.000
1727691472.309,25.391,19.043,-26.367,-4.395,0.000
1727691472.313,12.695,23.438,-27.344,-1.953,0.000
1727691472.317,-31.738,26.855,-37.109,-10.254,0.000
1727691472.321,-49.316,21.973,-32.227,-6.348,0.000
1727691472.325,3.418,17.090,-37.109,7.324,0.000
1727691472.329,34.668,20.020,-44.434,8.301,0.000
1727691472.333,24.902,21.484,-39.062,9.277,0.000
1727691472.337,-7.324,21.973,-24.414,-0.488,0.000
1727691472.341,-23.438,25.391,-11.719,-6.836,0.000
1727691472.345,10.254,22.461,-18.555,-0.977,0.000
1727691472.349,35.156,11.719,-29.297,7.324,0.000
1727691472.352,20.020,4.395,-30.273,13.672,0.000
1727691472.356,-13.184,9.277,-41.504,13.184,0.000
1727691472.360,-30.273,12.695,-55.176,1.953,0.000
1727691472.364,14.648,14.160,-44.922,7.812,0.000
1727691472.368,47.363,16.113,-40.039,18.066,0.000
1727691472.372,34.668,7.324,-32.715,11.719,0.000
1727691472.376,0.488,4.395,-26.855,8.789,0.000
1727691472.380,-28.809,4.883,-20.996,9.277,0.000
1727691472.384,7.324,1.465,-19.043,17.090,0.000
1727691472.388,46.875,1.953,-27.832,12.207,0.000
1727691472.391,51.270,4.883,-23.926,9.766,0.000
1727691472.395,10.254,-0.488,-20.508,0.977,0.000
1727691472.399,-36.621,-9.766,-51.270,-5.371,0.000
1727691472.403,-4.883,-4.883,-81.543,8.301,0.000
1727691472.407,27.344,-16.602,-45.410,7.324,0.000
1727691472.411,6.836,-31.738,-1.953,11.719,0.000
1727691472.415,-10.742,-19.531,-2.441,15.625,0.000
1727691472.419,-32.715,-2.930,-15.625,3.418,0.000
1727691472.423,-42.969,-12.695,-19.043,-7.812,0.000
1727691472.427,6.348,-18.066,-55.176,6.348,0.000
1727691472.431,37.598,-9.766,-49.805,12.695,0.000
1727691472.434,4.883,-26.855,10.254,-10.254,0.000
1727691472.438,-45.898,-39.551,7.812,-27.832,0.000
1727691472.442,-50.293,-33.203,-14.160,-37.598,0.000
1727691472.446,-13.184,-29.297,-17.578,-46.875,0.000
1727691472.450,1.465,-22.461,-57.617,-28.320,0.000
1727691472.454,21.973,-7.324,-104.980,6.836,0.000
1727691472.458,0.488,-8.789,-70.312,26.855,0.000
1727691472.462,-45.898,-21.973,-10.254,16.113,0.000
1727691472.466,-12.207,-24.414,32.715,9.766,0.000
1727691472.470,-0.488,-28.809,19.531,-18.555,0.000
1727691472.473,-34.180,-16.113,3.906,-45.898,0.000
1727691472.477,-53.711,-5.371,-35.645,-39.551,0.000
1727691472.481,-34.668,-13.184,-68.848,-4.395,0.000
1727691472.485,18.555,-9.766,-47.363,27.344,0.000
1727691472.489,39.551,-15.625,-28.809,14.160,0.000
1727691472.493,39.551,-34.180,-52.734,16.602,0.000
1727691472.497,-6.836,-39.551,-56.641,6.348,0.000
1727691472.501,-53.223,-34.668,-37.598,-38.086,0.000
1727691472.505,-32.715,-19.043,-47.363,-53.711,0.000
1727691472.509,6.836,-21.973,-1.465,-39.551,0.000
1727691472.513,-10.254,-61.035,20.020,-12.695,0.000
1727691472.516,-25.879,-102.051,6.348,23.438,0.000
1727691472.520,-4.395,-109.375,-14.648,26.367,0.000
1727691472.524,19.531,-125.488,-66.895,-2.441,0.000
1727691472.528,2.930,-167.480,-63.477,-41.504,0.000
1727691472.532,-10.742,-205.078,-25.879,-27.344,0.000
1727691472.536,-55.664,-255.371,-36.621,-27.832,0.000
1727691472.540,-47.852,-321.289,-7.324,-16.602,0.000
1727691472.544,24.902,-362.305,-63.965,29.785,0.000
1727691472.548,83.008,-411.621,-131.836,63.477,0.000
1727691472.552,68.359,-557.129,-31.738,22.461,0.000
1727691472.556,-28.320,-715.820,47.363,-45.898,0.000
1727691472.559,-95.703,-787.109,28.320,-51.270,0.000
1727691472.563,-71.777,-832.031,1.953,-54.199,0.000
1727691472.567,-10.742,-892.090,-5.859,-39.062,0.000
1727691472.571,-1.953,-958.496,-46.875,-28.809,0.000
1727691472.575,-13.184,-1000.000,-84.473,-27.832,0.000
1727691472.579,-61.523,-999.512,-79.102,-39.551,0.000
1727691472.583,-42.480,-999.512,-52.246,-40.527,0.000
1727691472.587,42.969,-1000.000,-68.359,13.672,0.000
1727691472.591,31.250,-1000.000,-91.797,12.695,0.000
