timestamps,TP9,AF7,AF8,TP10,Right AUX
1727535032.888,36.621,-28.320,-14.648,-25.391,0.000
1727535032.892,-71.289,-24.902,-11.719,-47.363,0.000
1727535032.896,-137.207,-28.809,-10.254,-68.359,0.000
1727535032.900,-4.395,-24.414,-11.719,-25.391,0.000
1727535032.904,80.078,-25.879,-30.762,-2.441,0.000
1727535032.908,46.875,-32.715,-47.852,-5.859,0.000
1727535032.912,-53.711,-34.668,-35.645,-32.715,0.000
1727535032.915,-149.414,-29.785,-20.996,-61.035,0.000
1727535032.919,-62.988,-29.785,-24.414,-27.344,0.000
1727535032.923,41.016,-34.668,-38.086,12.207,0.000
1727535032.927,36.621,-37.598,-39.062,10.742,0.000
1727535032.931,-45.410,-38.574,-35.156,-28.320,0.000
1727535032.935,-145.020,-32.227,-20.508,-64.941,0.000
1727535032.939,-67.383,-33.203,7.812,-42.480,0.000
1727535032.943,41.992,-40.527,-19.043,-12.695,0.000
1727535032.947,47.852,-38.574,-58.594,-20.508,0.000
1727535032.951,-34.668,-37.109,-30.762,-46.875,0.000
1727535032.955,-157.227,-38.574,1.465,-75.195,0.000
1727535032.958,-79.102,-36.133,-8.301,-49.316,0.000
1727535032.962,55.176,-26.367,-29.297,-8.789,0.000
1727535032.966,57.129,-23.926,-24.902,-7.324,0.000
1727535032.970,-15.625,-31.738,-20.508,-30.762,0.000
1727535032.974,-136.230,-38.574,-13.672,-63.477,0.000
1727535032.978,-93.750,-40.039,-14.160,-46.875,0.000
1727535032.982,63.965,-30.762,-41.504,13.672,0.000
1727535032.986,86.914,-25.879,-39.551,30.273,0.000
1727535032.990,13.672,-33.203,-12.695,-9.766,0.000
1727535032.994,-119.629,-37.598,-4.395,-55.664,0.000
1727535032.998,-115.234,-37.598,-30.273,-41.016,0.000
1727535033.001,24.902,-38.086,-46.387,1.465,0.000
1727535033.005,48.340,-40.527,-25.391,1.953,0.000
1727535033.009,8.789,-43.457,-25.879,-12.207,0.000
1727535033.013,-88.867,-38.574,-38.086,-39.551,0.000
1727535033.017,-113.281,-29.785,-12.695,-34.668,0.000
1727535033.021,19.043,-41.016,-12.207,-1.953,0.000
1727535033.025,63.477,-51.270,-30.762,0.977,0.000
1727535033.029,22.949,-48.828,-20.508,-1.953,0.000
1727535033.033,-88.379,-47.852,-1.465,-37.598,0.000
1727535033.037,-145.020,-41.016,9.766,-59.570,0.000
1727535033.041,-16.113,-33.203,-13.672,-13.184,0.000
1727535033.044,75.195,-21.484,-19.043,11.230,0.000
1727535033.048,43.945,-15.137,-5.859,1.953,0.000
1727535033.052,-72.754,-25.879,-7.812,-34.180,0.000
1727535033.056,-132.812,-39.551,-12.695,-55.176,0.000
1727535033.060,-9.277,-40.527,-45.410,-2.441,0.000
1727535033.064,72.754,-28.809,-58.594,20.020,0.000
1727535033.068,50.781,-23.438,-41.992,9.277,0.000
1727535033.072,-42.969,-29.297,-7.324,-26.855,0.000
1727535033.076,-124.512,-33.691,7.324,-56.641,0.000
1727535033.080,-33.691,-36.621,-31.250,-38.086,0.000
1727535033.084,69.824,-38.086,-25.391,-11.230,0.000
1727535033.087,62.988,-26.367,14.648,5.859,0.000
1727535033.091,-24.902,-25.391,21.973,-30.273,0.000
1727535033.095,-134.277,-32.715,3.906,-75.684,0.000
1727535033.099,-65.430,-30.273,-9.766,-40.039,0.000
1727535033.103,47.363,-32.715,-43.945,12.207,0.000
1727535033.107,53.711,-33.691,-53.223,22.949,0.000
1727535033.111,-9.277,-22.949,-13.184,-5.371,0.000
1727535033.115,-121.094,-20.996,-25.879,-50.781,0.000
1727535033.119,-60.547,-20.508,-17.090,-28.320,0.000
1727535033.123,44.922,-26.367,6.348,-3.418,0.000
1727535033.126,62.012,-16.602,-27.832,6.348,0.000
1727535033.130,-1.465,-6.348,-32.227,-15.137,0.000
1727535033.134,-132.324,-17.578,3.906,-67.383,0.000
1727535033.138,-79.590,-12.695,9.277,-40.527,0.000
1727535033.142,64.453,-7.324,-13.672,8.301,0.000
1727535033.146,77.148,-3.906,-21.484,12.207,0.000
1727535033.150,19.043,8.301,-26.855,-4.883,0.000
1727535033.154,-91.309,0.488,-11.719,-45.898,0.000
1727535033.158,-97.656,-21.484,6.836,-54.199,0.000
1727535033.162,31.738,-22.461,14.648,-6.348,0.000
1727535033.166,72.266,-21.484,1.953,6.348,0.000
1727535033.169,24.414,-24.902,-23.438,-12.207,0.000
1727535033.173,-93.750,-23.926,-29.297,-54.688,0.000
1727535033.177,-112.305,-23.438,-20.508,-52.246,0.000
1727535033.181,34.668,-24.414,-26.367,2.930,0.000
1727535033.185,83.984,-23.438,-41.504,0.000,0.000
1727535033.189,37.109,-27.832,-41.504,-34.180,0.000
1727535033.193,-72.266,-28.809,-30.273,-62.988,0.000
1727535033.197,-126.465,-21.973,-38.086,-58.594,0.000
1727535033.201,-10.742,-20.020,-43.457,-11.719,0.000
1727535033.205,60.059,-27.344,-25.879,6.836,0.000
1727535033.208,17.090,-33.203,-22.461,-19.043,0.000
1727535033.212,-107.422,-35.645,-34.180,-70.801,0.000
1727535033.216,-193.359,-40.039,-51.270,-104.980,0.000
1727535033.220,-74.219,-46.875,-45.410,-63.965,0.000
1727535033.224,38.086,-42.969,-45.898,-3.418,0.000
1727535033.228,44.922,-20.020,-72.754,28.320,0.000
1727535033.232,-47.363,-36.133,-68.848,-12.207,0.000
1727535033.236,-124.512,-70.312,-62.500,-50.781,0.000
1727535033.240,-29.785,-68.848,0.488,-20.508,0.000
1727535033.244,62.012,-66.895,88.379,-1.465,0.000
1727535033.248,46.875,-69.336,85.938,-14.160,0.000
1727535033.251,-48.828,-63.477,20.508,-34.668,0.000
1727535033.255,-137.207,-40.527,-39.551,-53.223,0.000
1727535033.259,-63.965,-37.109,-42.969,-44.922,0.000
1727535033.263,-14.648,-62.988,-23.926,-60.547,0.000
1727535033.267,-68.359,-47.363,-5.371,-104.980,0.000
1727535033.271,-110.352,-57.129,-3.418,-89.844,0.000
1727535033.275,-140.137,-84.961,-10.742,-42.480,0.000
1727535033.279,-46.875,-65.918,-48.828,-9.766,0.000
1727535033.283,88.867,-52.734,-96.191,25.879,0.000
1727535033.287,23.926,-70.312,-52.246,-19.043,0.000
1727535033.290,-89.355,-99.121,29.785,-72.754,0.000
1727535033.294,-141.113,-78.125,22.949,-38.574,0.000
1727535033.298,-107.422,-100.098,-52.246,-10.254,0.000
1727535033.302,18.066,-146.973,-5.859,9.766,0.000
1727535033.306,23.926,-122.559,46.875,-31.738,0.000
1727535033.310,-88.379,-169.922,39.551,-115.234,0.000
1727535033.314,-199.707,-279.297,56.152,-112.305,0.000
1727535033.318,-161.621,-299.316,50.293,-59.082,0.000
1727535033.322,-30.273,-291.016,29.785,-50.781,0.000
1727535033.326,25.391,-296.875,44.922,-49.316,0.000
1727535033.330,3.418,-356.445,53.711,-42.480,0.000
1727535033.333,-119.141,-405.273,-60.059,-64.941,0.000
1727535033.337,-135.254,-430.664,-24.414,-53.223,0.000
1727535033.341,-0.977,-604.004,131.348,-19.043,0.000
1727535033.345,24.414,-756.348,140.137,-13.672,0.000
1727535033.349,-30.762,-822.266,74.707,-29.785,0.000
1727535033.353,-158.203,-917.480,1.465,-91.797,0.000
1727535033.357,-233.398,-994.141,12.207,-124.512,0.000
1727535033.361,-111.816,-1000.000,7.812,-84.961,0.000
1727535033.365,-30.273,-998.535,20.020,-71.289,0.000
1727535033.369,-14.648,-1000.000,-58.105,-57.617,0.000
1727535033.373,-147.461,-1000.000,-83.008,-112.793,0.000
1727535033.376,-271.973,-1000.000,59.570,-162.109,0.000
1727535033.380,-159.180,-1000.000,65.918,-130.371,0.000
1727535033.384,-100.098,-1000.000,-25.879,-126.953,0.000
1727535033.388,-141.113,-1000.000,-29.785,-143.066,0.000
1727535033.392,-204.590,-1000.000,-83.008,-157.715,0.000
1727535033.396,-271.484,-1000.000,-143.066,-166.992,0.000
1727535033.400,-138.672,-1000.000,-11.719,-116.699,0.000
1727535033.404,-44.922,-1000.000,1.465,-82.520,0.000
1727535033.408,-149.414,-1000.000,-127.930,-156.738,0.000
1727535033.412,-228.027,-1000.000,-84.473,-218.750,0.000
1727535033.416,-286.133,-1000.000,-48.828,-207.520,0.000
1727535033.419,-190.430,-1000.000,-63.477,-145.508,0.000
1727535033.423,-7.324,-1000.000,-26.855,-62.988,0.000
1727535033.427,4.395,-1000.000,14.160,-47.852,0.000
1727535033.431,-156.250,-1000.000,-7.812,-143.066,0.000
1727535033.435,-322.266,-1000.000,-26.367,-207.031,0.000
1727535033.439,-221.191,-1000.000,-18.066,-150.879,0.000
1727535033.443,-62.012,-1000.000,-88.867,-105.469,0.000
1727535033.447,-82.031,-1000.000,-166.992,-114.746,0.000
1727535033.451,-166.992,-1000.000,-125.977,-123.535,0.000
1727535033.455,-284.180,-1000.000,-36.133,-168.457,0.000
1727535033.458,-275.879,-1000.000,-39.551,-211.426,0.000
1727535033.462,-137.695,-1000.000,-56.641,-176.270,0.000
1727535033.466,-130.371,-1000.000,-77.148,-155.762,0.000
1727535033.470,-166.992,-1000.000,-104.004,-134.277,0.000
1727535033.474,-243.652,-1000.000,-100.586,-155.273,0.000
1727535033.478,-249.512,-1000.000,-54.199,-146.484,0.000
1727535033.482,-99.121,-1000.000,-20.996,-78.125,0.000
1727535033.486,-53.223,-1000.000,-136.719,-95.703,0.000
1727535033.490,-103.516,-1000.000,-164.062,-137.695,0.000
1727535033.494,-224.121,-1000.000,-53.223,-159.668,0.000
1727535033.498,-266.113,-1000.000,12.695,-169.922,0.000
1727535033.501,-136.719,-1000.000,-20.996,-165.039,0.000
1727535033.505,-113.281,-1000.000,-90.820,-164.551,0.000
1727535033.509,-124.023,-1000.000,-34.180,-130.371,0.000
1727535033.513,-192.383,-1000.000,39.062,-134.766,0.000
1727535033.517,-273.438,-1000.000,-23.438,-181.152,0.000
1727535033.521,-106.934,-1000.000,-77.148,-103.516,0.000
1727535033.525,-59.570,-1000.000,-63.477,-74.707,0.000
1727535033.529,-146.973,-1000.000,-35.645,-125.488,0.000
1727535033.533,-204.102,-1000.000,-14.648,-142.090,0.000
1727535033.537,-227.051,-1000.000,-87.891,-124.512,0.000
1727535033.540,-113.770,-1000.000,-110.840,-78.613,0.000
1727535033.544,-71.777,-1000.000,-27.344,-102.051,0.000
1727535033.548,-82.520,-1000.000,-13.184,-111.816,0.000
1727535033.552,-138.672,-1000.000,26.367,-103.516,0.000
1727535033.556,-291.992,-1000.000,41.992,-198.730,0.000
1727535033.560,-207.031,-999.023,-9.766,-167.969,0.000
1727535033.564,-13.184,-1000.000,15.137,-54.688,0.000
1727535033.568,-34.668,-993.164,35.645,-72.266,0.000
1727535033.572,-125.000,-960.938,-19.531,-94.727,0.000
1727535033.576,-179.199,-897.461,-28.320,-91.797,0.000
1727535033.580,-120.605,-884.277,22.949,-102.539,0.000
1727535033.583,-22.949,-976.562,44.434,-92.285,0.000
1727535033.587,-43.457,-1000.000,25.391,-104.004,0.000
1727535033.591,-122.559,-962.402,-11.230,-119.141,0.000
1727535033.595,-202.637,-800.781,-1.465,-120.117,0.000
1727535033.599,-104.492,-608.887,66.406,-68.848,0.000
1727535033.603,-12.695,-608.887,64.453,-63.965,0.000
1727535033.607,-53.711,-750.977,13.672,-104.492,0.000
1727535033.611,-69.336,-824.707,16.602,-82.520,0.000
1727535033.615,-173.828,-764.648,4.883,-87.402,0.000
1727535033.619,-147.461,-626.953,-4.395,-58.594,0.000
1727535033.622,12.207,-556.641,-20.996,-22.949,0.000
1727535033.626,59.082,-548.828,-26.855,-5.371,0.000
1727535033.630,-22.949,-498.535,16.113,-41.504,0.000
1727535033.634,-153.809,-467.285,38.574,-89.355,0.000
1727535033.638,-137.695,-464.355,7.812,-66.895,0.000
1727535033.642,0.488,-424.316,2.441,-28.809,0.000
1727535033.646,26.855,-383.789,9.277,-28.320,0.000
1727535033.650,-14.648,-375.000,11.719,-25.391,0.000
1727535033.654,-137.695,-354.980,19.531,-73.242,0.000
1727535033.658,-175.293,-296.387,-20.020,-86.426,0.000
1727535033.661,-8.789,-297.363,-60.059,0.488,0.000
1727535033.665,72.754,-295.898,9.277,21.484,0.000
1727535033.669,35.645,-241.211,77.148,-8.301,0.000
1727535033.673,-49.805,-161.621,78.613,-30.273,0.000
1727535033.677,-80.078,-123.047,43.945,-28.809,0.000
1727535033.681,50.781,-97.656,40.527,10.742,0.000
1727535033.685,111.816,-72.266,75.195,34.668,0.000
1727535033.689,63.965,-64.941,60.547,23.438,0.000
1727535033.693,-32.715,-64.941,36.133,-17.578,0.000
1727535033.697,-81.543,-38.574,24.414,-21.973,0.000
1727535033.701,51.270,48.828,7.324,39.551,0.000
1727535033.704,133.789,109.375,38.574,59.082,0.000
1727535033.708,104.492,148.926,69.824,47.363,0.000
1727535033.712,8.301,213.379,51.758,19.531,0.000
1727535033.716,-96.191,271.973,31.250,-13.184,0.000
1727535033.720,-5.371,315.430,29.297,12.695,0.000
1727535033.724,100.586,395.020,25.391,44.922,0.000
1727535033.728,101.074,589.844,12.207,47.852,0.000
1727535033.732,32.227,852.051,0.977,23.438,0.000
1727535033.736,-57.129,972.168,11.719,6.836,0.000
1727535033.740,6.836,962.891,14.648,35.645,0.000
1727535033.744,118.164,966.309,-11.230,61.035,0.000
1727535033.747,112.793,968.750,-24.902,48.828,0.000
1727535033.751,33.203,968.262,0.488,17.578,0.000
1727535033.755,-71.777,968.262,13.184,-9.766,0.000
1727535033.759,-18.555,968.262,12.207,8.789,0.000
1727535033.763,100.098,968.262,15.625,34.668,0.000
1727535033.767,96.191,968.262,-0.977,38.086,0.000
1727535033.771,41.992,968.262,-14.160,11.719,0.000
1727535033.775,-63.965,968.262,-9.277,-26.367,0.000
1727535033.779,-28.809,968.262,-0.977,2.441,0.000
1727535033.783,112.305,968.262,4.883,48.340,0.000
1727535033.787,112.793,968.262,3.906,46.875,0.000
1727535033.790,42.480,968.262,-11.719,20.020,0.000
1727535033.794,-55.176,968.262,-28.809,-15.625,0.000
1727535033.798,-40.039,968.262,-17.090,-3.906,0.000
1727535033.802,91.309,968.262,6.836,35.156,0.000
1727535033.806,118.652,968.262,6.348,51.270,0.000
1727535033.810,73.730,968.262,19.531,59.082,0.000
1727535033.814,-39.551,968.262,15.625,9.277,0.000
1727535033.818,-80.566,968.262,-1.465,-14.648,0.000
1727535033.822,48.340,968.262,20.020,35.156,0.000
1727535033.826,105.957,968.262,27.832,54.199,0.000
1727535033.830,74.219,968.262,13.672,49.316,0.000
1727535033.833,-29.297,968.262,8.789,27.344,0.000
1727535033.837,-83.496,968.262,-17.578,7.324,0.000
1727535033.841,39.062,968.262,-33.691,29.297,0.000
1727535033.845,108.398,968.262,1.953,55.176,0.000
1727535033.849,86.914,968.262,40.527,35.156,0.000
1727535033.853,-6.836,968.262,43.945,-5.859,0.000
1727535033.857,-65.430,968.262,5.859,-2.930,0.000
1727535033.861,44.922,968.262,-25.879,42.480,0.000
1727535033.865,132.324,968.262,-11.719,62.500,0.000
1727535033.869,117.188,968.262,11.230,56.641,0.000
1727535033.872,15.137,968.262,13.184,22.461,0.000
1727535033.876,-82.031,968.262,9.766,-22.461,0.000
1727535033.880,11.230,968.262,10.254,5.859,0.000
1727535033.884,119.141,968.262,-25.391,49.805,0.000
1727535033.888,107.910,968.262,-45.898,38.086,0.000
1727535033.892,8.789,968.262,-10.254,-1.465,0.000
1727535033.896,-112.793,968.262,12.695,-36.133,0.000
1727535033.900,-29.297,968.262,-4.395,0.000,0.000
1727535033.904,100.098,968.262,-35.645,46.387,0.000
1727535033.908,102.051,968.262,-36.621,42.480,0.000
1727535033.912,1.953,968.262,-20.508,5.859,0.000
1727535033.915,-111.816,968.262,-11.719,-33.691,0.000
1727535033.919,-32.227,968.262,-15.137,-5.371,0.000
1727535033.923,94.238,968.262,-40.527,34.668,0.000
1727535033.927,104.004,968.262,-42.969,38.574,0.000
1727535033.931,32.715,968.262,-25.391,16.113,0.000
1727535033.935,-83.496,968.262,-9.766,-17.578,0.000
1727535033.939,-48.340,966.797,-16.602,2.441,0.000
1727535033.943,84.961,967.773,-27.832,41.016,0.000
1727535033.947,105.469,958.984,-8.301,37.109,0.000
1727535033.951,37.598,888.184,-8.789,0.977,0.000
1727535033.954,-73.242,787.598,-29.297,-31.250,0.000
1727535033.958,-81.055,745.605,-29.297,-28.809,0.000
1727535033.962,38.574,608.398,-17.578,2.441,0.000
1727535033.966,78.613,439.453,-20.020,19.043,0.000
1727535033.970,39.062,387.207,-33.691,14.648,0.000
1727535033.974,-58.105,353.027,-36.133,-11.230,0.000
1727535033.978,-89.844,326.660,-8.301,-18.066,0.000
1727535033.982,46.875,311.523,7.324,17.578,0.000
1727535033.986,119.629,305.176,1.465,35.156,0.000
1727535033.990,86.914,304.688,0.977,40.527,0.000
1727535033.994,-29.785,289.551,-2.441,7.324,0.000
1727535033.998,-87.402,268.555,-6.836,-16.602,0.000
1727535034.001,40.527,249.512,0.488,26.367,0.000
1727535034.005,102.051,226.074,0.000,44.434,0.000
1727535034.009,93.262,253.418,-11.230,45.410,0.000
1727535034.013,3.906,286.133,-12.695,18.066,0.000
1727535034.017,-77.637,287.598,-5.859,-5.371,0.000
1727535034.021,37.109,315.918,6.348,34.668,0.000
1727535034.025,137.695,314.453,11.719,65.918,0.000
1727535034.029,147.461,343.262,15.625,70.312,0.000
1727535034.033,62.012,398.926,33.203,53.223,0.000
1727535034.037,-41.992,437.500,37.109,34.668,0.000
1727535034.040,46.875,415.039,36.133,61.035,0.000
1727535034.044,141.602,304.199,41.992,87.891,0.000
1727535034.048,122.559,265.137,50.781,85.938,0.000
1727535034.052,41.992,241.699,49.316,68.848,0.000
1727535034.056,-57.617,220.215,38.574,30.273,0.000
1727535034.060,18.555,249.023,41.992,42.480,0.000
1727535034.064,148.438,356.445,7.812,77.148,0.000
1727535034.068,147.461,370.117,-10.742,75.684,0.000
1727535034.072,59.570,270.508,14.160,39.062,0.000
1727535034.076,-51.270,234.375,30.762,0.000,0.000
1727535034.080,3.906,214.844,29.297,21.973,0.000
1727535034.083,128.906,177.734,3.418,61.035,0.000
1727535034.087,140.625,148.438,11.230,62.012,0.000
1727535034.091,67.871,188.477,26.855,28.320,0.000
1727535034.095,-67.871,203.125,31.738,-10.254,0.000
1727535034.099,-32.715,229.492,15.137,11.719,0.000
1727535034.103,103.516,288.574,4.395,47.852,0.000
1727535034.107,120.605,303.711,27.344,48.828,0.000
1727535034.111,66.895,317.871,34.180,35.156,0.000
1727535034.115,-55.176,351.562,22.949,-12.207,0.000
1727535034.119,-57.129,291.504,0.000,-13.672,0.000
1727535034.123,75.195,111.328,-7.324,39.062,0.000
1727535034.126,121.094,25.391,-5.371,42.480,0.000
1727535034.130,79.102,69.336,-27.344,24.902,0.000
1727535034.134,-51.758,161.133,-45.898,-9.277,0.000
1727535034.138,-89.844,217.773,-47.363,-5.859,0.000
1727535034.142,46.875,245.117,-12.695,48.340,0.000
1727535034.146,94.238,257.812,36.621,49.316,0.000
1727535034.150,61.035,268.066,6.836,20.020,0.000
1727535034.154,-38.574,281.738,-36.133,-15.625,0.000
1727535034.158,-91.797,270.020,-3.418,-28.809,0.000
1727535034.162,31.250,253.418,13.184,-3.418,0.000
1727535034.166,99.121,267.578,3.906,16.602,0.000
1727535034.169,69.336,284.668,-10.254,20.508,0.000
1727535034.173,-40.527,266.602,-25.879,-19.531,0.000
1727535034.177,-118.164,252.441,-43.945,-51.758,0.000
1727535034.181,8.301,261.719,-69.824,-9.277,0.000
1727535034.185,105.957,253.906,-50.293,22.949,0.000
1727535034.189,81.543,239.746,-23.438,15.625,0.000
1727535034.193,-15.137,233.398,-30.273,-19.043,0.000
1727535034.197,-99.121,223.633,-45.410,-44.434,0.000
1727535034.201,-2.930,222.168,-56.641,-8.789,0.000
1727535034.205,85.449,224.121,-81.055,18.066,0.000
1727535034.208,56.152,205.078,-55.664,1.465,0.000
1727535034.212,-29.785,191.406,-12.695,-38.086,0.000
1727535034.216,-139.160,189.941,-38.086,-65.430,0.000
1727535034.220,-62.988,187.988,-86.914,-24.414,0.000
1727535034.224,77.148,182.617,-106.445,7.324,0.000
1727535034.228,78.125,169.434,-87.891,7.324,0.000
1727535034.232,-0.977,147.949,-60.547,-2.441,0.000
1727535034.236,-114.258,142.578,-58.594,-41.016,0.000
1727535034.240,-52.246,140.137,-67.383,-21.484,0.000
1727535034.244,77.148,116.211,-78.125,27.344,0.000
1727535034.248,76.172,102.051,-92.773,27.832,0.000
1727535034.251,-2.930,119.629,-93.750,-9.277,0.000
1727535034.255,-127.441,134.766,-80.566,-61.523,0.000
1727535034.259,-95.703,140.625,-64.941,-57.617,0.000
1727535034.263,41.992,142.578,-55.176,-11.230,0.000
1727535034.267,62.988,132.812,-60.547,-0.977,0.000
1727535034.271,27.832,124.023,-70.801,-3.906,0.000
1727535034.275,-80.078,118.652,-72.266,-19.043,0.000
1727535034.279,-96.191,128.906,-76.172,-27.344,0.000
1727535034.283,36.621,152.344,-78.613,-6.348,0.000
1727535034.287,79.590,165.527,-73.730,11.230,0.000
1727535034.290,32.715,165.527,-75.684,7.812,0.000
1727535034.294,-76.660,158.691,-69.824,-30.273,0.000
1727535034.298,-97.656,147.461,-62.988,-40.039,0.000
1727535034.302,11.719,136.719,-74.219,-11.719,0.000
1727535034.306,65.918,132.324,-63.965,2.930,0.000
1727535034.310,56.641,124.512,-53.223,-0.977,0.000
1727535034.314,-66.895,106.934,-72.266,-46.875,0.000
1727535034.318,-128.906,108.887,-91.797,-64.941,0.000
1727535034.322,2.930,92.773,-83.496,-12.207,0.000
1727535034.326,77.148,85.449,-55.176,9.277,0.000
1727535034.330,17.090,105.469,-41.016,-9.277,0.000
1727535034.333,-85.449,107.422,-55.176,-40.527,0.000
1727535034.337,-120.605,95.703,-64.453,-58.594,0.000
1727535034.341,4.395,94.727,-52.734,-16.602,0.000
1727535034.345,73.242,97.168,-64.453,-0.977,0.000
1727535034.349,40.527,92.285,-67.871,-20.508,0.000
1727535034.353,-48.340,86.426,-44.922,-37.598,0.000
1727535034.357,-131.836,76.660,-30.273,-61.035,0.000
1727535034.361,-31.250,74.219,-46.875,-33.691,0.000
1727535034.365,79.102,81.543,-70.801,5.859,0.000
1727535034.369,61.035,66.895,-59.082,12.695,0.000
1727535034.372,-25.391,47.363,-40.039,-5.859,0.000
1727535034.376,-112.305,53.223,-35.156,-41.992,0.000
1727535034.380,-46.875,56.152,-50.293,-31.738,0.000
1727535034.384,65.430,62.500,-62.500,-0.977,0.000
1727535034.388,61.523,50.781,-32.227,1.465,0.000
1727535034.392,-20.508,32.715,-29.297,-20.996,0.000
1727535034.396,-127.441,45.410,-56.641,-55.176,0.000
1727535034.400,-67.383,54.688,-45.410,-28.809,0.000
1727535034.404,60.059,55.176,-28.809,9.277,0.000
1727535034.408,53.223,54.199,-30.273,1.953,0.000
1727535034.411,-7.324,45.410,-31.738,-19.043,0.000
1727535034.415,-120.605,38.574,-40.527,-58.594,0.000
1727535034.419,-101.074,45.898,-53.223,-56.641,0.000
1727535034.423,40.527,60.059,-72.754,-10.254,0.000
1727535034.427,66.406,56.641,-97.656,6.348,0.000
1727535034.431,14.160,48.340,-78.125,-16.602,0.000
1727535034.435,-102.051,49.805,-39.551,-48.828,0.000
1727535034.439,-107.422,53.711,-34.180,-39.551,0.000
1727535034.443,26.367,56.641,-38.574,1.465,0.000
1727535034.447,59.570,50.781,-26.855,-1.953,0.000
1727535034.451,22.461,49.805,-24.902,-20.996,0.000
1727535034.455,-89.355,51.758,-25.879,-46.875,0.000
1727535034.458,-124.023,57.617,-28.809,-50.781,0.000
1727535034.462,28.809,65.430,-60.547,-4.883,0.000
1727535034.466,83.984,62.012,-74.219,18.555,0.000
1727535034.470,30.762,55.176,-51.758,7.324,0.000
1727535034.474,-69.336,52.734,-27.344,-30.273,0.000
1727535034.478,-113.770,54.688,-22.461,-39.551,0.000
1727535034.482,25.391,54.688,-50.293,2.441,0.000
1727535034.486,94.727,41.992,-64.453,19.531,0.000
1727535034.490,46.387,35.645,-52.246,4.395,0.000
1727535034.494,-67.871,33.691,-43.457,-35.156,0.000
1727535034.498,-153.809,28.320,-58.594,-63.477,0.000
1727535034.501,-37.598,40.039,-50.293,-25.391,0.000
1727535034.505,63.965,60.547,-40.039,8.301,0.000
1727535034.509,49.805,45.410,-48.340,0.488,0.000
1727535034.513,-53.223,82.520,-38.574,-29.785,0.000
1727535034.517,-140.625,168.945,-28.320,-56.641,0.000
1727535034.521,-30.762,196.777,-19.043,-26.855,0.000
1727535034.525,67.383,201.172,-15.625,2.930,0.000
1727535034.529,51.270,204.102,-32.715,0.977,0.000
1727535034.533,-42.969,204.102,-65.430,-20.020,0.000
1727535034.537,-144.531,142.578,-67.383,-57.617,0.000
1727535034.541,-62.012,112.793,-52.734,-37.109,0.000
1727535034.544,63.477,149.902,-49.805,4.883,0.000
1727535034.548,76.660,121.582,-42.480,8.789,0.000
1727535034.552,-13.672,59.082,-43.945,-20.996,0.000
1727535034.556,-138.672,74.707,-45.898,-57.129,0.000
1727535034.560,-82.031,86.426,-49.316,-26.855,0.000
1727535034.564,49.805,111.328,-58.105,14.160,0.000
1727535034.568,63.477,44.434,-55.664,-0.977,0.000
1727535034.572,1.465,-167.480,-45.898,-28.320,0.000
1727535034.576,-116.211,-243.652,-49.805,-63.477,0.000
1727535034.580,-98.145,-233.887,-50.293,-42.480,0.000
1727535034.584,45.410,-219.238,-46.875,5.859,0.000
1727535034.587,93.262,-199.707,-53.223,9.766,0.000
1727535034.591,35.645,-183.594,-64.941,-1.465,0.000
1727535034.595,-93.262,-170.410,-55.664,-31.250,0.000
1727535034.599,-104.980,-137.695,-42.969,-28.320,0.000
1727535034.603,34.180,-52.246,-60.059,17.090,0.000
1727535034.607,71.777,23.438,-49.805,19.043,0.000
1727535034.611,21.484,58.105,-22.461,-9.766,0.000
1727535034.615,-83.008,79.590,-38.574,-48.828,0.000
1727535034.619,-100.098,104.492,-42.969,-46.387,0.000
1727535034.623,36.621,114.746,-31.250,-4.395,0.000
1727535034.626,71.289,120.605,-28.320,9.766,0.000
1727535034.630,32.227,129.883,-36.133,8.301,0.000
1727535034.634,-41.504,132.324,-56.641,-10.254,0.000
1727535034.638,-71.777,126.465,-43.945,-8.301,0.000
1727535034.642,41.016,117.676,-18.066,28.320,0.000
1727535034.646,83.008,121.094,-13.184,25.391,0.000
1727535034.650,44.434,125.000,-19.531,5.859,0.000
1727535034.654,-40.039,113.281,-27.832,-24.902,0.000
1727535034.658,-106.445,111.816,-29.785,-51.270,0.000
1727535034.662,8.789,115.234,-32.227,-6.348,0.000
1727535034.666,102.539,111.816,-38.086,28.320,0.000
1727535034.669,71.289,118.652,-55.664,21.484,0.000
1727535034.673,-10.254,116.699,-65.918,-1.953,0.000
1727535034.677,-92.285,88.379,-37.598,-27.832,0.000
1727535034.681,-4.395,86.426,-27.832,-4.395,0.000
1727535034.685,104.004,103.516,-36.133,29.297,0.000
1727535034.689,93.262,39.062,-35.645,28.809,0.000
1727535034.693,8.301,-5.371,-41.016,3.906,0.000
1727535034.697,-97.168,36.621,-32.715,-20.020,0.000
1727535034.701,-35.645,53.711,-39.551,6.836,0.000
1727535034.705,83.008,74.219,-53.223,36.133,0.000
1727535034.708,93.262,50.293,-35.645,31.250,0.000
1727535034.712,17.578,-18.555,-9.766,-1.953,0.000
1727535034.716,-91.309,-3.418,-0.488,-42.969,0.000
1727535034.720,-34.668,35.156,-18.066,-16.602,0.000
1727535034.724,91.309,27.832,-30.762,29.785,0.000
1727535034.728,92.773,-76.660,-40.527,32.227,0.000
1727535034.732,37.109,-131.348,-48.340,10.742,0.000
1727535034.736,-81.543,-102.051,-38.574,-28.320,0.000
1727535034.740,-59.082,-62.012,-20.020,-4.883,0.000
1727535034.744,76.660,-5.371,-3.906,42.969,0.000
1727535034.748,100.586,21.484,-9.277,39.062,0.000
1727535034.751,45.410,1.465,-16.602,16.602,0.000
1727535034.755,-74.219,-82.520,-23.438,-20.020,0.000
1727535034.759,-62.500,-121.094,-28.809,-11.719,0.000
1727535034.763,67.383,-115.723,-35.156,35.645,0.000
1727535034.767,93.262,-132.324,-34.180,47.852,0.000
1727535034.771,49.805,-121.582,-53.223,34.180,0.000
1727535034.775,-54.688,-103.027,-54.199,0.977,0.000
1727535034.779,-78.125,-82.031,-35.645,-10.742,0.000
1727535034.783,54.688,-42.969,-11.230,24.414,0.000
1727535034.787,101.562,-52.734,7.324,33.691,0.000
1727535034.790,69.824,-80.566,6.836,15.137,0.000
1727535034.794,-41.016,-60.547,0.000,-19.531,0.000
1727535034.798,-99.609,-59.082,-21.973,-32.227,0.000
1727535034.802,37.109,-72.754,-25.879,17.090,0.000
1727535034.806,97.168,-60.547,-15.625,46.875,0.000
1727535034.810,68.359,-59.082,-16.602,37.109,0.000
1727535034.814,-31.250,-59.082,-20.020,1.465,0.000
1727535034.818,-102.051,-46.387,-27.832,-23.438,0.000
1727535034.822,21.973,-42.480,-42.969,12.695,0.000
1727535034.826,103.027,-31.738,-47.852,37.109,0.000
1727535034.830,80.078,-0.977,-39.551,28.809,0.000
1727535034.833,-2.930,3.906,-21.973,1.953,0.000
1727535034.837,-86.426,-10.742,-7.812,-23.438,0.000
1727535034.841,7.324,3.418,-4.395,7.812,0.000
1727535034.845,107.910,40.527,-5.371,48.340,0.000
1727535034.849,97.656,60.547,-5.371,40.039,0.000
1727535034.853,15.137,57.129,1.953,3.418,0.000
1727535034.857,-92.285,36.133,-1.465,-22.461,0.000
1727535034.861,-31.738,31.738,-18.555,0.977,0.000
1727535034.865,96.191,43.945,-32.715,38.574,0.000
1727535034.869,104.004,61.523,-39.551,41.016,0.000
1727535034.873,22.461,43.457,-25.879,14.648,0.000
1727535034.876,-91.309,7.324,3.906,-18.066,0.000
1727535034.880,-29.785,28.809,21.484,8.301,0.000
1727535034.884,97.656,51.270,21.484,42.480,0.000
1727535034.888,95.215,62.012,15.137,41.504,0.000
1727535034.892,28.809,70.801,0.000,28.809,0.000
1727535034.896,-72.754,70.801,-11.230,-10.742,0.000
1727535034.900,-47.363,66.406,-21.973,1.953,0.000
1727535034.904,83.496,62.988,-25.879,44.434,0.000
1727535034.908,107.910,62.500,-9.766,43.457,0.000
1727535034.912,58.594,59.082,-15.625,26.367,0.000
1727535034.916,-47.852,60.059,-24.902,-5.371,0.000
1727535034.919,-54.199,63.477,-23.926,-1.465,0.000
1727535034.923,79.102,58.594,-10.742,39.551,0.000
1727535034.927,121.094,54.688,-16.602,52.246,0.000
1727535034.931,73.242,50.293,-34.668,38.086,0.000
1727535034.935,-45.410,47.363,-25.391,6.836,0.000
1727535034.939,-77.148,9.766,-9.766,-8.301,0.000
1727535034.943,67.383,-64.941,13.672,28.809,0.000
1727535034.947,116.699,-74.707,22.949,47.852,0.000
1727535034.951,80.566,-31.250,8.789,29.297,0.000
1727535034.955,-14.648,0.488,-9.766,3.418,0.000
1727535034.958,-67.871,-1.465,-29.297,-4.883,0.000
1727535034.962,67.383,-35.645,-48.340,36.621,0.000
1727535034.966,128.906,-62.988,-29.785,49.316,0.000
1727535034.970,88.379,-77.637,4.395,31.738,0.000
1727535034.974,-12.695,-86.426,10.254,-1.953,0.000
1727535034.978,-93.750,-79.590,-4.883,-25.391,0.000
1727535034.982,25.879,-75.684,-13.184,16.113,0.000
1727535034.986,112.305,-62.988,-14.160,44.434,0.000
1727535034.990,86.914,-46.387,-29.785,51.758,0.000
1727535034.994,5.371,-49.805,-34.180,22.949,0.000
1727535034.998,-83.008,-53.711,-28.809,-14.160,0.000
1727535035.001,10.254,-54.199,-22.949,10.254,0.000
1727535035.005,98.633,-54.688,8.301,21.484,0.000
1727535035.009,98.145,-49.316,9.277,23.926,0.000
1727535035.013,25.391,-55.176,4.883,11.230,0.000
1727535035.017,-98.633,-59.082,18.555,-37.598,0.000
1727535035.021,-36.621,-51.270,13.184,-22.461,0.000
1727535035.025,79.590,-51.270,2.930,26.367,0.000
1727535035.029,81.055,-45.898,-17.578,29.297,0.000
1727535035.033,13.672,-22.461,-21.973,5.371,0.000
1727535035.037,-90.820,-17.578,-0.977,-29.297,0.000
1727535035.040,-45.898,-46.875,-0.977,-7.324,0.000
1727535035.044,83.984,-40.527,-8.301,30.762,0.000
1727535035.048,103.516,-6.348,-28.809,38.086,0.000
1727535035.052,48.340,21.973,-36.621,33.691,0.000
1727535035.056,-70.801,22.949,-13.672,-8.789,0.000
1727535035.060,-61.035,17.090,-2.930,-3.906,0.000
1727535035.064,84.473,26.367,6.836,39.551,0.000
1727535035.068,112.305,23.926,-1.465,48.340,0.000
1727535035.072,50.293,14.648,-12.695,41.016,0.000
1727535035.076,-67.383,-19.531,-13.184,4.883,0.000
1727535035.080,-73.242,-52.246,-20.020,0.977,0.000
1727535035.083,61.035,-56.641,-10.254,48.828,0.000
1727535035.087,113.770,-55.176,5.859,60.059,0.000
1727535035.091,76.660,-52.734,-11.230,31.738,0.000
1727535035.095,-44.922,-48.828,-13.184,-16.602,0.000
1727535035.099,-96.191,-40.039,-6.348,-34.668,0.000
1727535035.103,24.902,-39.062,-14.648,11.230,0.000
1727535035.107,101.562,-45.898,-16.113,39.551,0.000
1727535035.111,76.660,-43.945,-8.301,27.832,0.000
1727535035.115,-31.250,-42.969,6.836,2.930,0.000
1727535035.119,-97.168,-35.645,6.836,-5.859,0.000
1727535035.122,26.855,-29.785,-25.879,25.391,0.000
1727535035.126,125.000,-22.461,-53.223,53.711,0.000
1727535035.130,88.867,-20.508,-43.457,42.480,0.000
1727535035.134,-23.438,-21.973,-16.113,7.324,0.000
1727535035.138,-97.656,-24.902,15.625,-17.090,0.000
1727535035.142,-0.977,-35.645,29.785,9.277,0.000
1727535035.146,98.145,-32.227,-6.836,39.062,0.000
1727535035.150,76.660,-26.855,-35.156,33.203,0.000
1727535035.154,-20.020,-30.762,1.953,-0.977,0.000
1727535035.158,-92.285,-28.809,25.879,-23.926,0.000
1727535035.161,0.488,-31.738,8.789,9.766,0.000
1727535035.165,104.492,-40.039,3.418,36.133,0.000
1727535035.169,101.562,-38.086,0.488,35.645,0.000
1727535035.173,13.184,-20.508,-5.371,14.648,0.000
1727535035.177,-102.051,8.301,-8.301,-15.137,0.000
1727535035.181,-30.273,25.879,-20.996,10.254,0.000
1727535035.185,101.562,33.691,-25.391,43.457,0.000
1727535035.189,103.516,39.062,-9.277,27.832,0.000
1727535035.193,33.203,53.223,-3.906,9.766,0.000
1727535035.197,-88.867,57.617,-12.695,-18.066,0.000
1727535035.201,-50.781,45.410,-19.043,-11.230,0.000
1727535035.204,84.961,42.480,-17.578,23.926,0.000
1727535035.208,99.609,45.898,-16.602,25.879,0.000
1727535035.212,38.086,42.969,-3.418,12.695,0.000
1727535035.216,-79.102,39.062,13.184,-23.438,0.000
1727535035.220,-62.012,39.062,8.301,-9.766,0.000
1727535035.224,76.172,40.527,-10.254,27.832,0.000
1727535035.228,101.562,40.039,-21.484,26.855,0.000
1727535035.232,45.898,28.809,-20.508,19.531,0.000
1727535035.236,-63.965,29.785,-3.418,-24.902,0.000
1727535035.240,-62.500,36.133,-3.906,-22.949,0.000
1727535035.244,61.523,29.785,-38.086,22.949,0.000
1727535035.247,97.168,27.832,-42.969,29.785,0.000
1727535035.251,49.805,27.832,-12.695,11.719,0.000
1727535035.255,-74.219,23.438,15.137,-31.738,0.000
1727535035.259,-109.375,16.113,12.695,-38.086,0.000
1727535035.263,22.949,15.625,3.418,13.184,0.000
1727535035.267,93.750,16.113,-4.883,34.180,0.000
1727535035.271,67.383,19.531,-17.578,19.531,0.000
1727535035.275,-50.781,23.926,-9.277,-11.719,0.000
1727535035.279,-114.258,18.555,-0.488,-29.297,0.000
1727535035.283,20.996,18.066,-5.859,7.812,0.000
1727535035.287,85.449,13.184,-18.555,23.438,0.000
1727535035.290,51.270,13.184,-27.344,5.859,0.000
1727535035.294,-36.133,20.020,-10.742,-14.160,0.000
1727535035.298,-102.539,25.391,-15.137,-28.320,0.000
1727535035.302,4.395,28.809,-42.480,5.371,0.000
1727535035.306,83.984,29.785,-20.020,30.273,0.000
1727535035.310,84.961,34.668,15.137,30.762,0.000
1727535035.314,2.441,37.109,-1.953,0.977,0.000
1727535035.318,-100.098,38.086,-13.184,-25.879,0.000
1727535035.322,-10.254,31.250,-1.465,16.113,0.000
1727535035.326,101.074,26.855,-16.602,41.016,0.000
1727535035.330,91.797,30.273,-32.227,32.227,0.000
1727535035.333,9.277,26.367,-35.156,5.371,0.000
1727535035.337,-95.703,23.438,-34.180,-28.320,0.000
1727535035.341,-21.973,11.230,-22.461,-6.348,0.000
1727535035.345,99.121,-91.309,10.742,24.414,0.000
1727535035.349,88.867,-247.070,32.715,16.602,0.000
1727535035.353,14.160,-321.777,28.809,-3.418,0.000
1727535035.357,-89.355,-324.219,17.578,-26.855,0.000
1727535035.361,-32.227,-312.988,-1.953,-4.883,0.000
1727535035.365,83.008,-312.012,-22.461,28.809,0.000
1727535035.369,87.891,-308.105,-26.855,29.785,0.000
1727535035.372,28.809,-297.852,-11.230,11.719,0.000
1727535035.376,-100.098,-286.133,12.207,-45.410,0.000
1727535035.380,-83.008,-276.367,17.578,-34.668,0.000
1727535035.384,49.805,-270.508,-1.953,11.230,0.000
1727535035.388,71.777,-267.090,-18.555,14.648,0.000
1727535035.392,29.785,-258.301,-27.832,6.836,0.000
1727535035.396,-75.684,-246.094,-30.273,-32.715,0.000
1727535035.400,-88.867,-239.746,-12.695,-30.762,0.000
1727535035.404,46.875,-245.605,-4.395,8.301,0.000
1727535035.408,89.844,-242.676,-26.367,11.719,0.000
1727535035.412,40.039,-235.352,-35.645,-0.977,0.000
1727535035.415,-79.590,-245.117,-4.395,-28.320,0.000
1727535035.419,-122.559,-243.652,13.184,-41.016,0.000
1727535035.423,10.742,-237.305,4.883,-10.742,0.000
1727535035.427,79.102,-245.117,0.000,5.371,0.000
1727535035.431,42.480,-238.770,-0.488,-6.836,0.000
1727535035.435,-66.895,-228.516,-6.348,-34.180,0.000
1727535035.439,-112.793,-239.746,-11.719,-40.527,0.000
1727535035.443,7.812,-243.164,-18.066,0.488,0.000
1727535035.447,63.965,-250.000,-16.113,17.578,0.000
1727535035.451,35.156,-255.859,-12.695,4.883,0.000
1727535035.454,-44.922,-251.465,-10.742,-25.391,0.000
1727535035.458,-125.000,-245.605,-4.395,-43.945,0.000
1727535035.462,-24.902,-244.629,2.441,-8.789,0.000
1727535035.466,73.242,-239.258,-5.859,18.066,0.000
1727535035.470,72.266,-229.004,-20.020,20.020,0.000
1727535035.474,-10.254,-222.168,-42.969,0.977,0.000
1727535035.478,-108.887,-217.773,-46.875,-32.227,0.000
1727535035.482,-24.414,-216.797,-1.953,-14.160,0.000
1727535035.486,83.984,-222.656,26.855,18.066,0.000
1727535035.490,80.566,-218.262,3.418,24.414,0.000
1727535035.494,-1.953,-203.613,-5.371,0.000,0.000
1727535035.497,-113.770,-194.824,12.695,-37.598,0.000
1727535035.501,-45.898,-191.406,9.277,-8.789,0.000
1727535035.505,79.590,-191.895,5.371,36.133,0.000
1727535035.509,81.055,-184.082,-7.324,38.574,0.000
1727535035.513,17.090,-164.062,-21.484,6.348,0.000
1727535035.517,-92.285,-161.621,-4.883,-34.180,0.000
1727535035.521,-57.129,-172.363,2.930,-23.926,0.000
1727535035.525,67.871,-158.691,-1.465,5.859,0.000
1727535035.529,78.125,-144.043,-3.418,13.184,0.000
1727535035.533,14.648,-137.207,-6.348,-3.906,0.000
1727535035.536,-103.516,-130.859,-11.719,-38.574,0.000
1727535035.540,-84.961,-119.141,-22.949,-28.809,0.000
1727535035.544,54.199,-37.598,-13.672,11.719,0.000
1727535035.548,68.359,56.641,-11.719,28.809,0.000
1727535035.552,12.695,119.141,-37.109,20.020,0.000
1727535035.556,-90.332,137.207,-20.020,-28.809,0.000
1727535035.560,-96.680,-6.836,10.254,-47.852,0.000
1727535035.564,31.250,-128.418,11.719,-20.020,0.000
1727535035.568,69.824,-137.207,5.371,-9.766,0.000
1727535035.572,40.527,-138.672,-0.488,-10.742,0.000
1727535035.576,-72.266,-125.977,-4.883,-43.945,0.000
1727535035.579,-113.770,-112.305,-12.207,-51.758,0.000
1727535035.583,28.320,-109.375,-17.578,-1.465,0.000
1727535035.587,100.586,-102.539,-27.832,20.020,0.000
1727535035.591,56.641,-100.586,-35.645,5.859,0.000
1727535035.595,-56.641,-98.633,-29.297,-29.785,0.000
1727535035.599,-113.770,-101.562,-18.555,-56.641,0.000
1727535035.603,0.000,-99.609,-9.766,-17.090,0.000
1727535035.607,89.844,-94.727,-8.789,21.973,0.000
1727535035.611,67.383,-99.609,-18.555,11.719,0.000
1727535035.615,-40.039,-97.656,-39.062,-29.297,0.000
1727535035.619,-130.859,-89.355,-32.715,-56.152,0.000
1727535035.622,-23.926,-85.449,-27.344,-15.137,0.000
1727535035.626,86.914,-74.707,-36.133,20.020,0.000
1727535035.630,62.988,-69.336,-20.996,15.625,0.000
1727535035.634,-25.879,-71.777,-11.230,-13.184,0.000
1727535035.638,-122.070,-72.754,-9.766,-41.016,0.000
1727535035.642,-43.457,-78.125,-3.906,-12.695,0.000
1727535035.646,74.219,-69.824,-7.324,9.766,0.000
1727535035.650,82.031,-65.430,-23.438,19.531,0.000
1727535035.654,-9.277,-71.289,-51.758,-7.324,0.000
1727535035.658,-139.648,-72.754,-36.621,-58.594,0.000
1727535035.662,-69.824,-71.289,-8.301,-42.969,0.000
1727535035.665,56.152,-62.012,-19.043,-12.695,0.000
1727535035.669,62.012,-56.152,-15.137,-12.207,0.000
1727535035.673,-3.906,-57.617,-4.395,-34.180,0.000
1727535035.677,-124.512,-54.199,7.812,-71.777,0.000
1727535035.681,-83.496,-53.223,-6.836,-54.688,0.000
1727535035.685,57.617,-55.176,-29.785,2.930,0.000
1727535035.689,81.543,-50.781,-12.207,17.090,0.000
1727535035.693,9.766,-48.828,-9.277,-10.254,0.000
1727535035.697,-104.980,-49.805,-29.297,-49.316,0.000
1727535035.701,-83.008,-47.852,-32.227,-40.527,0.000
1727535035.704,33.691,-43.945,-37.598,-2.930,0.000
1727535035.708,50.293,-41.016,-44.434,2.441,0.000
1727535035.712,10.742,-36.621,-30.273,-13.184,0.000
1727535035.716,-99.121,-33.691,-11.230,-48.340,0.000
1727535035.720,-118.652,-36.133,-7.324,-53.711,0.000
1727535035.724,23.438,-33.203,-12.207,-19.043,0.000
1727535035.728,74.219,-32.715,-15.137,-8.789,0.000
1727535035.732,33.691,-30.273,-33.691,-5.371,0.000
1727535035.736,-81.543,-28.809,-33.203,-35.645,0.000
1727535035.740,-124.512,-22.461,-8.301,-59.082,0.000
1727535035.744,19.043,-17.578,-0.977,-7.324,0.000
1727535035.747,76.660,-21.484,-1.953,13.672,0.000
1727535035.751,30.273,-21.484,-8.301,-9.766,0.000
1727535035.755,-73.730,-23.926,-15.137,-41.992,0.000
1727535035.759,-135.254,-30.273,-13.184,-53.223,0.000
1727535035.763,-7.324,-30.762,-12.695,-8.301,0.000
1727535035.767,78.125,-20.996,-3.906,20.508,0.000
1727535035.771,48.828,-13.184,-18.555,6.836,0.000
1727535035.775,-45.410,-14.648,-34.668,-20.020,0.000
1727535035.779,-119.141,-17.090,-12.207,-47.852,0.000
1727535035.783,-20.020,-13.672,-9.277,-22.461,0.000
1727535035.786,74.707,-16.113,-20.508,7.324,0.000
1727535035.790,60.059,-21.484,-18.555,0.488,0.000
1727535035.794,-36.621,-17.578,-12.207,-26.367,0.000
1727535035.798,-139.648,-14.648,3.418,-55.176,0.000
1727535035.802,-42.969,-14.648,0.977,-12.207,0.000
1727535035.806,69.336,-9.277,-30.762,24.902,0.000
1727535035.810,47.363,-9.277,-36.621,-1.953,0.000
1727535035.814,-19.043,-10.742,-5.859,-30.273,0.000
1727535035.818,-127.441,-20.508,-12.207,-62.012,0.000
1727535035.822,-78.125,-28.809,-21.973,-45.410,0.000
1727535035.826,52.734,-21.973,-1.953,-7.324,0.000
1727535035.829,48.828,-21.973,3.906,-14.160,0.000
1727535035.833,-25.879,-19.043,3.418,-33.691,0.000
1727535035.837,-134.766,-18.555,-1.953,-63.965,0.000
1727535035.841,-87.891,-19.043,-12.695,-41.992,0.000
1727535035.845,55.176,-15.625,-26.855,1.953,0.000
1727535035.849,56.641,-15.137,-39.062,-10.742,0.000
1727535035.853,-20.996,-19.043,-38.086,-30.273,0.000
1727535035.857,-129.395,-21.484,-29.785,-57.129,0.000
1727535035.861,-114.746,-27.344,-18.555,-54.688,0.000
1727535035.865,19.043,-32.715,-7.812,-15.625,0.000
1727535035.868,55.176,-29.785,-8.301,-7.812,0.000
1727535035.872,12.695,-34.668,-19.043,-29.785,0.000
1727535035.876,-109.863,-37.598,-20.020,-65.918,0.000
1727535035.880,-136.230,-31.738,-32.715,-54.199,0.000
1727535035.884,6.836,-25.879,-62.988,-10.742,0.000
1727535035.888,57.129,-21.973,-41.504,-1.953,0.000
1727535035.892,25.879,-26.855,3.418,-3.418,0.000
1727535035.896,-93.262,-36.133,3.418,-45.898,0.000
1727535035.900,-128.418,-41.992,-7.324,-62.012,0.000
1727535035.904,5.371,-41.016,-4.395,-22.949,0.000
1727535035.907,50.293,-41.016,-15.625,-15.625,0.000
1727535035.911,37.109,-42.480,-35.156,-6.836,0.000
1727535035.915,-52.246,-38.574,-34.668,-33.203,0.000
1727535035.919,-127.441,-42.480,-20.996,-60.059,0.000
1727535035.923,-19.531,-43.945,-1.953,-22.949,0.000
1727535035.927,65.918,-38.574,11.230,-4.395,0.000
1727535035.931,51.270,-36.133,6.836,-21.484,0.000
1727535035.935,-55.664,-35.645,2.930,-48.340,0.000
1727535035.939,-150.391,-35.156,3.906,-65.918,0.000
1727535035.943,-38.574,-41.504,-9.766,-36.133,0.000
1727535035.947,53.223,-46.875,-21.973,-6.348,0.000
1727535035.950,29.297,-42.480,-48.340,-11.719,0.000
1727535035.954,-60.059,-41.016,-58.594,-42.969,0.000
1727535035.958,-159.180,-41.016,-22.461,-78.613,0.000
1727535035.962,-66.895,-46.387,0.488,-51.270,0.000
1727535035.966,44.922,-48.828,6.348,-14.648,0.000
1727535035.970,36.133,-41.016,9.766,-15.625,0.000
1727535035.974,-48.828,-44.434,-4.883,-41.016,0.000
1727535035.978,-158.203,-40.527,-24.902,-70.312,0.000
1727535035.982,-90.332,-31.250,-38.086,-44.434,0.000
1727535035.986,27.344,-36.133,-44.922,-15.625,0.000
1727535035.990,29.785,-39.062,-30.762,-25.879,0.000
1727535035.993,-36.621,-37.109,-22.949,-46.387,0.000
1727535035.997,-144.531,-36.621,-17.090,-79.590,0.000
1727535036.001,-102.051,-37.598,-35.156,-60.547,0.000
1727535036.005,25.879,-36.133,-61.523,-25.391,0.000
1727535036.009,27.832,-39.062,-31.738,-36.133,0.000
1727535036.013,-36.133,-41.504,-5.371,-43.457,0.000
1727535036.017,-141.113,-42.969,-15.137,-65.430,0.000
1727535036.021,-131.836,-42.480,-30.273,-67.383,0.000
1727535036.025,11.719,-37.598,-20.508,-30.762,0.000
1727535036.029,47.852,-38.574,-5.371,-29.785,0.000
1727535036.033,-17.578,-43.457,-9.766,-56.152,0.000
1727535036.036,-129.883,-36.133,-20.996,-84.961,0.000
1727535036.040,-126.465,-29.785,-24.414,-70.312,0.000
1727535036.044,3.418,-29.297,-21.973,-20.020,0.000
1727535036.048,38.574,-28.320,-29.297,-3.906,0.000
1727535036.052,8.789,-27.832,-29.297,-16.113,0.000
1727535036.056,-102.051,-27.344,-20.508,-61.035,0.000
1727535036.060,-154.785,-27.832,-31.250,-62.012,0.000
1727535036.064,-15.625,-32.715,-39.062,-11.719,0.000
1727535036.068,51.758,-30.273,-30.762,-10.254,0.000
1727535036.072,27.344,-24.414,-18.555,-22.461,0.000
1727535036.076,-82.520,-34.668,-20.020,-59.082,0.000
1727535036.079,-150.879,-36.133,-40.039,-84.961,0.000
1727535036.083,-28.809,-26.367,-48.828,-44.922,0.000
1727535036.087,40.039,-24.414,-36.133,-11.230,0.000
1727535036.091,17.578,-28.809,-25.879,-17.578,0.000
1727535036.095,-73.242,-27.832,-16.602,-55.664,0.000
1727535036.099,-164.551,-22.949,-16.113,-78.613,0.000
1727535036.103,-53.711,-23.926,-17.578,-40.527,0.000
1727535036.107,60.547,-24.414,-27.344,-4.395,0.000
1727535036.111,42.969,-21.484,-34.180,-9.277,0.000
1727535036.115,-46.387,-13.184,-36.621,-45.410,0.000
1727535036.118,-147.461,-14.160,-41.504,-78.613,0.000
1727535036.122,-70.312,-25.879,-32.715,-54.688,0.000
1727535036.126,27.832,-31.250,-18.066,-24.414,0.000
1727535036.130,20.020,-26.367,-22.949,-26.367,0.000
1727535036.134,-41.992,-23.438,-32.227,-48.828,0.000
1727535036.138,-151.367,-15.625,-33.691,-76.172,0.000
1727535036.142,-104.492,-15.625,-34.668,-55.176,0.000
1727535036.146,26.855,-23.438,-35.156,-20.508,0.000
1727535036.150,30.762,-20.508,-22.461,-15.625,0.000
1727535036.154,-44.434,-18.555,-20.020,-43.945,0.000
1727535036.158,-146.484,-12.207,-23.438,-77.637,0.000
1727535036.161,-105.957,-7.812,-22.461,-66.895,0.000
1727535036.165,4.395,-19.531,-44.922,-35.645,0.000
1727535036.169,16.602,-24.414,-60.547,-25.391,0.000
1727535036.173,-19.531,-18.555,-52.246,-41.504,0.000
1727535036.177,-136.230,-20.020,-37.109,-75.195,0.000
1727535036.181,-139.160,-19.531,-28.320,-72.266,0.000
1727535036.185,4.395,-16.602,-24.414,-32.227,0.000
1727535036.189,34.180,-13.184,-21.973,-21.973,0.000
1727535036.193,-18.555,-10.742,-26.367,-29.785,0.000
1727535036.197,-127.930,-13.184,-31.738,-64.941,0.000
1727535036.201,-125.000,-8.301,-44.434,-60.547,0.000
1727535036.204,15.137,-8.789,-56.152,-9.766,0.000
1727535036.208,36.621,-24.414,-42.480,-12.695,0.000
1727535036.212,-4.395,-31.250,-30.762,-34.180,0.000
1727535036.216,-109.375,-27.832,-21.973,-72.754,0.000
1727535036.220,-165.039,-26.855,-15.625,-83.984,0.000
1727535036.224,-40.039,-27.344,-23.438,-39.551,0.000
1727535036.228,30.273,-28.320,-27.344,-24.414,0.000
1727535036.232,4.883,-24.902,-33.203,-31.738,0.000
1727535036.236,-92.773,-20.508,-28.809,-61.523,0.000
1727535036.240,-147.949,-18.555,-20.020,-74.707,0.000
1727535036.243,-21.484,-16.113,-45.410,-35.645,0.000
1727535036.247,56.152,-17.578,-63.477,-17.578,0.000
1727535036.251,26.855,-15.625,-34.668,-16.602,0.000
1727535036.255,-71.289,-18.066,-22.461,-46.875,0.000
1727535036.259,-161.133,-28.320,-34.180,-84.961,0.000
1727535036.263,-57.617,-30.762,-28.320,-58.594,0.000
1727535036.267,49.805,-21.484,-19.043,-24.902,0.000
1727535036.271,36.621,-18.066,-20.020,-20.020,0.000
1727535036.275,-53.223,-25.879,-36.133,-45.898,0.000
1727535036.279,-147.461,-33.691,-58.594,-71.289,0.000
1727535036.282,-59.082,-27.832,-56.641,-35.156,0.000
1727535036.286,38.086,-18.555,-30.762,1.465,0.000
1727535036.290,28.809,-23.438,-25.879,-7.324,0.000
1727535036.294,-43.457,-23.438,-37.109,-35.645,0.000
1727535036.298,-149.414,-19.043,-23.926,-68.359,0.000
1727535036.302,-101.074,-24.902,-14.648,-52.246,0.000
1727535036.306,22.949,-32.715,-30.273,-23.438,0.000
1727535036.310,50.781,-37.598,-33.691,-20.996,0.000
1727535036.314,-17.578,-38.574,-26.367,-35.156,0.000
1727535036.318,-144.531,-37.598,-24.414,-70.312,0.000
1727535036.322,-114.746,-37.598,-18.066,-65.918,0.000
1727535036.325,31.738,-31.738,-34.180,-23.926,0.000
1727535036.329,50.293,-26.367,-56.641,-6.836,0.000
1727535036.333,-8.301,-28.809,-53.223,-30.273,0.000
1727535036.337,-128.906,-38.574,-44.434,-71.289,0.000
1727535036.341,-120.117,-40.527,-28.320,-64.941,0.000
1727535036.345,20.508,-33.691,-25.879,-25.391,0.000
1727535036.349,57.129,-33.203,-25.391,-20.020,0.000
1727535036.353,4.395,-33.691,-14.648,-39.062,0.000
1727535036.357,-128.906,-29.297,-11.719,-72.266,0.000
1727535036.361,-146.973,-20.996,-16.602,-72.266,0.000
1727535036.365,0.000,-24.414,-18.555,-26.855,0.000
1727535036.368,42.969,-22.461,-23.926,-11.230,0.000
1727535036.372,9.277,-20.508,-36.133,-23.438,0.000
1727535036.376,-87.891,-31.250,-40.039,-53.223,0.000
1727535036.380,-136.230,-29.297,-24.414,-58.594,0.000
1727535036.384,-14.648,-22.461,-16.602,-23.926,0.000
1727535036.388,49.805,-23.926,-18.066,-4.395,0.000
1727535036.392,20.020,-26.367,-17.578,-8.301,0.000
1727535036.396,-73.242,-25.879,-16.602,-50.781,0.000
1727535036.400,-138.184,-28.320,-25.879,-79.102,0.000
1727535036.404,-22.949,-32.715,-35.156,-36.621,0.000
1727535036.408,51.270,-38.086,-40.039,-10.254,0.000
1727535036.411,24.902,-39.062,-51.758,-21.973,0.000
1727535036.415,-66.406,-37.598,-42.480,-58.594,0.000
1727535036.419,-158.691,-34.180,-32.227,-85.938,0.000
1727535036.423,-56.152,-35.645,-20.508,-40.039,0.000
1727535036.427,51.270,-36.133,-8.301,-2.930,0.000
1727535036.431,38.086,-30.273,-21.484,-15.137,0.000
1727535036.435,-46.875,-37.598,-37.598,-39.551,0.000
1727535036.439,-147.461,-47.363,-58.594,-62.988,0.000
1727535036.443,-61.523,-41.016,-70.312,-40.039,0.000
1727535036.447,66.406,-37.109,-45.898,-8.301,0.000
1727535036.451,58.105,-40.039,-20.020,-12.207,0.000
1727535036.454,-35.156,-42.969,-7.324,-34.180,0.000
1727535036.458,-144.531,-44.434,-3.418,-76.660,0.000
1727535036.462,-80.566,-44.922,-11.230,-62.988,0.000
1727535036.466,45.898,-45.898,-18.555,-17.090,0.000
1727535036.470,52.246,-42.480,-24.414,-9.277,0.000
1727535036.474,-11.719,-33.691,-34.180,-20.996,0.000
1727535036.478,-134.766,-32.227,-46.387,-54.688,0.000
1727535036.482,-104.492,-44.434,-57.129,-49.316,0.000
1727535036.486,33.691,-45.898,-79.102,-2.930,0.000
1727535036.490,49.805,-34.180,-88.379,-4.395,0.000
1727535036.493,0.488,-35.645,-35.156,-32.715,0.000
1727535036.497,-112.793,-41.992,-10.742,-64.941,0.000
1727535036.501,-117.188,-38.086,-25.391,-64.941,0.000
1727535036.505,19.043,-42.969,-11.719,-28.809,0.000
1727535036.509,57.617,-46.875,-18.066,-18.066,0.000
1727535036.513,-1.953,-51.758,-35.156,-34.668,0.000
1727535036.517,-127.441,-55.176,-27.344,-80.566,0.000
1727535036.521,-155.762,-55.176,-3.906,-94.238,0.000
1727535036.525,-21.484,-48.828,-11.230,-47.852,0.000
1727535036.529,35.645,-39.551,-23.926,-24.902,0.000
1727535036.533,10.254,-44.434,-53.711,-36.621,0.000
1727535036.536,-82.520,-40.039,-96.680,-61.035,0.000
1727535036.540,-142.578,-35.156,-53.711,-64.941,0.000
1727535036.544,-31.738,-42.480,-4.883,-30.273,0.000
1727535036.548,43.945,-45.898,9.277,-19.043,0.000
1727535036.552,25.879,-47.363,16.602,-23.438,0.000
1727535036.556,-75.684,-47.363,5.859,-47.852,0.000
1727535036.560,-144.531,-50.781,-15.625,-63.477,0.000
1727535036.564,-28.320,-50.293,-26.367,-28.809,0.000
1727535036.568,45.410,-40.527,-47.852,-15.625,0.000
1727535036.572,22.949,-38.086,-57.129,-27.344,0.000
1727535036.575,-62.988,-43.945,-26.367,-44.922,0.000
1727535036.579,-146.484,-37.598,-8.301,-62.988,0.000
1727535036.583,-60.547,-31.738,-14.160,-55.176,0.000
1727535036.587,41.504,-35.645,-23.438,-21.973,0.000
1727535036.591,39.062,-32.715,-25.391,-12.695,0.000
1727535036.595,-47.852,-36.621,-36.621,-42.969,0.000
1727535036.599,-157.715,-37.109,-37.598,-79.590,0.000
1727535036.603,-75.195,-35.645,-44.434,-55.664,0.000
1727535036.607,42.969,-41.504,-61.035,-16.602,0.000
1727535036.611,46.387,-40.527,-63.965,-22.949,0.000
1727535036.615,-27.832,-41.992,-55.176,-36.133,0.000
1727535036.618,-148.438,-39.062,-51.270,-64.941,0.000
1727535036.622,-93.750,-36.621,-56.152,-53.223,0.000
1727535036.626,35.645,-34.668,-82.520,-4.395,0.000
1727535036.630,60.547,-31.250,-66.406,10.742,0.000
1727535036.634,0.000,-32.227,-37.109,-23.926,0.000
1727535036.638,-124.512,-36.621,-23.926,-75.195,0.000
1727535036.642,-99.121,-44.434,-20.996,-56.152,0.000
1727535036.646,40.039,-45.410,-42.969,-9.766,0.000
1727535036.650,59.082,-39.551,-45.898,-6.348,0.000
1727535036.654,1.953,-37.598,-26.367,-31.738,0.000
1727535036.658,-108.398,-38.574,-8.789,-60.059,0.000
1727535036.661,-115.234,-37.598,-14.648,-41.992,0.000
1727535036.665,11.719,-40.039,-46.875,-5.371,0.000
1727535036.669,58.594,-31.250,-57.617,2.930,0.000
1727535036.673,21.973,-29.297,-33.203,-12.695,0.000
1727535036.677,-87.891,-36.621,-46.387,-43.945,0.000
1727535036.681,-109.863,-39.062,-70.312,-41.504,0.000
1727535036.685,14.648,-36.621,-32.227,-1.465,0.000
1727535036.689,61.035,-33.203,6.348,8.301,0.000
1727535036.693,23.438,-31.738,-41.016,-6.836,0.000
1727535036.697,-85.938,-30.762,-77.148,-42.969,0.000
1727535036.701,-135.742,-32.227,-48.828,-50.781,0.000
1727535036.704,-7.324,-33.691,-35.645,-4.883,0.000
1727535036.708,45.898,-42.969,-26.855,-12.695,0.000
1727535036.712,7.812,-47.852,1.953,-45.410,0.000
1727535036.716,-79.590,-41.504,4.395,-73.730,0.000
1727535036.720,-142.090,-28.320,-23.438,-83.496,0.000
1727535036.724,-22.461,-34.180,-5.859,-33.691,0.000
1727535036.728,58.594,-36.621,-36.621,-15.137,0.000
1727535036.732,37.109,-20.996,-89.355,-9.766,0.000
1727535036.736,-55.176,-29.297,-41.016,-36.621,0.000
1727535036.740,-155.273,-36.133,-1.465,-85.449,0.000
1727535036.744,-55.176,-30.762,-9.766,-51.758,0.000
1727535036.747,58.594,-25.879,-31.250,-6.836,0.000
1727535036.751,55.176,-23.438,-8.789,-16.602,0.000
1727535036.755,-54.688,-36.621,-52.246,-67.871,0.000
1727535036.759,-156.738,-33.203,-60.059,-85.449,0.000
1727535036.763,-69.336,-48.340,20.020,-37.109,0.000
1727535036.767,34.180,-50.781,16.113,-6.836,0.000
1727535036.771,44.922,-35.156,-24.902,-10.742,0.000
1727535036.775,-29.785,-28.809,-24.902,-48.340,0.000
1727535036.779,-156.250,-23.438,-19.043,-101.074,0.000
1727535036.783,-91.309,-15.625,-38.086,-75.684,0.000
1727535036.787,43.945,-40.527,-94.238,-21.973,0.000
1727535036.790,61.523,-59.570,-145.508,-0.488,0.000
1727535036.794,-20.020,-21.973,-92.285,-23.438,0.000
1727535036.798,-199.707,-20.996,-14.160,-104.004,0.000
1727535036.802,-160.645,-61.035,26.367,-85.938,0.000
1727535036.806,18.555,-64.941,56.641,-15.625,0.000
1727535036.810,52.734,-60.547,52.734,15.625,0.000
1727535036.814,-5.371,-75.684,0.000,-1.465,0.000
1727535036.818,-133.789,-64.453,-52.246,-61.523,0.000
1727535036.822,-123.535,-62.012,-38.086,-49.805,0.000
1727535036.826,14.160,-111.328,-25.391,-17.090,0.000
1727535036.829,55.176,-92.285,-55.664,-13.184,0.000
1727535036.833,-41.992,-94.238,-52.246,-64.453,0.000
1727535036.837,-217.285,-154.785,2.930,-147.461,0.000
1727535036.841,-175.293,-173.828,41.016,-74.707,0.000
1727535036.845,-2.441,-208.008,20.020,-0.488,0.000
1727535036.849,34.180,-297.363,11.719,-29.297,0.000
1727535036.853,0.977,-430.176,-10.254,-14.648,0.000
1727535036.857,-92.773,-552.734,-23.438,-24.414,0.000
1727535036.861,-154.297,-636.230,-37.109,-65.918,0.000
1727535036.865,-84.473,-790.527,-14.648,-71.777,0.000
1727535036.869,-36.621,-976.074,-65.430,-75.684,0.000
1727535036.872,-11.719,-1000.000,-38.574,-51.758,0.000
1727535036.876,-94.727,-996.094,45.898,-53.223,0.000
1727535036.880,-202.148,-1000.000,-101.562,-103.027,0.000
1727535036.884,-98.145,-1000.000,-90.332,-76.172,0.000
1727535036.888,-83.008,-1000.000,36.133,-100.586,0.000
1727535036.892,-88.867,-1000.000,41.992,-96.191,0.000
1727535036.896,-156.250,-1000.000,22.461,-115.234,0.000
1727535036.900,-316.406,-1000.000,-62.500,-207.520,0.000
1727535036.904,-213.867,-1000.000,-88.379,-182.129,0.000
1727535036.908,-53.711,-1000.000,-92.773,-114.258,0.000
1727535036.911,-27.344,-1000.000,-99.121,-85.449,0.000
1727535036.915,-190.918,-1000.000,-89.355,-174.805,0.000
1727535036.919,-376.465,-1000.000,-97.656,-263.184,0.000
1727535036.923,-241.211,-1000.000,-91.797,-184.570,0.000
1727535036.927,-92.773,-1000.000,-107.910,-123.535,0.000
1727535036.931,-104.492,-1000.000,-104.980,-132.324,0.000
1727535036.935,-205.078,-1000.000,-137.207,-178.223,0.000
1727535036.939,-342.285,-1000.000,-119.141,-230.469,0.000
1727535036.943,-283.203,-1000.000,-76.172,-213.379,0.000
1727535036.947,-144.043,-1000.000,-122.559,-167.480,0.000
1727535036.951,-130.371,-1000.000,-143.555,-158.691,0.000
1727535036.954,-214.844,-1000.000,-178.223,-208.496,0.000
1727535036.958,-342.285,-1000.000,-200.195,-258.301,0.000
1727535036.962,-356.445,-1000.000,-137.695,-280.762,0.000
1727535036.966,-240.723,-1000.000,-160.156,-242.188,0.000
1727535036.970,-173.340,-1000.000,-207.031,-199.219,0.000
1727535036.974,-232.910,-1000.000,-153.320,-225.098,0.000
1727535036.978,-410.156,-1000.000,-130.371,-307.617,0.000
1727535036.982,-409.668,-1000.000,-214.355,-312.988,0.000
1727535036.986,-224.609,-1000.000,-334.961,-234.375,0.000
1727535036.990,-191.895,-1000.000,-248.535,-222.656,0.000
1727535036.993,-256.348,-1000.000,-70.312,-239.746,0.000
1727535036.997,-339.355,-1000.000,-86.426,-240.234,0.000
1727535037.001,-338.379,-1000.000,-177.246,-235.352,0.000
1727535037.005,-178.223,-1000.000,-179.199,-169.434,0.000
1727535037.009,-90.820,-1000.000,-87.891,-106.934,0.000
1727535037.013,-160.156,-1000.000,-66.895,-152.344,0.000
1727535037.017,-301.758,-1000.000,-107.422,-241.211,0.000
1727535037.021,-294.434,-1000.000,-117.676,-207.031,0.000
1727535037.025,-150.391,-1000.000,-147.461,-133.789,0.000
1727535037.029,-89.844,-1000.000,-117.188,-142.578,0.000
1727535037.032,-107.910,-1000.000,-101.562,-161.133,0.000
1727535037.036,-220.703,-1000.000,-138.672,-171.387,0.000
1727535037.040,-301.758,-1000.000,-87.891,-192.871,0.000
1727535037.044,-169.922,-1000.000,-62.012,-156.738,0.000
1727535037.048,-49.805,-1000.000,-63.965,-104.004,0.000
1727535037.052,-95.703,-1000.000,-127.930,-136.230,0.000
1727535037.056,-225.098,-1000.000,-184.570,-203.125,0.000
1727535037.060,-315.918,-1000.000,-112.793,-220.215,0.000
1727535037.064,-203.613,-1000.000,-87.402,-173.340,0.000
1727535037.068,-60.547,-1000.000,-102.539,-123.535,0.000
1727535037.072,-43.457,-1000.000,-68.848,-73.242,0.000
1727535037.075,-154.297,-1000.000,-129.395,-129.883,0.000
1727535037.079,-258.789,-1000.000,-122.070,-187.012,0.000
1727535037.083,-153.320,-1000.000,-18.555,-118.652,0.000
1727535037.087,-32.715,-1000.000,36.621,-78.613,0.000
1727535037.091,-74.219,-1000.000,-6.348,-117.676,0.000
1727535037.095,-191.406,-1000.000,-108.887,-172.852,0.000
1727535037.099,-241.699,-1000.000,-106.445,-156.738,0.000
1727535037.103,-119.629,-1000.000,-103.516,-70.312,0.000
1727535037.107,-15.137,-1000.000,-137.207,-58.594,0.000
1727535037.111,-49.805,-1000.000,-88.379,-118.652,0.000
1727535037.115,-136.230,-1000.000,-12.207,-145.020,0.000
1727535037.118,-237.793,-1000.000,-29.297,-166.992,0.000
1727535037.122,-199.707,-998.047,-78.613,-157.227,0.000
1727535037.126,-74.219,-1000.000,-117.188,-112.793,0.000
1727535037.130,-35.156,-986.816,-125.488,-90.332,0.000
1727535037.134,-120.605,-895.508,-106.934,-152.344,0.000
1727535037.138,-239.258,-804.688,-82.031,-176.758,0.000
1727535037.142,-205.078,-687.988,-67.871,-119.629,0.000
1727535037.146,-61.523,-569.824,-74.707,-85.938,0.000
1727535037.150,-3.418,-486.328,-52.246,-65.430,0.000
1727535037.154,-52.246,-395.996,-47.852,-74.707,0.000
1727535037.158,-201.172,-291.504,-97.168,-140.137,0.000
1727535037.161,-264.160,-177.246,-119.629,-165.527,0.000
1727535037.165,-105.469,-136.719,-69.336,-99.121,0.000
1727535037.169,-10.742,-84.473,-67.383,-69.336,0.000
1727535037.173,-28.809,-13.184,-85.938,-64.941,0.000
1727535037.177,-154.785,39.551,-100.098,-99.121,0.000
1727535037.181,-227.051,97.168,-61.035,-147.949,0.000
1727535037.185,-87.402,136.719,-24.902,-100.586,0.000
1727535037.189,16.113,136.719,-20.996,-50.781,0.000
1727535037.193,-15.137,201.172,-48.828,-59.570,0.000
1727535037.197,-119.629,233.398,-88.379,-81.543,0.000
1727535037.201,-169.434,190.918,-62.500,-87.891,0.000
1727535037.204,-83.496,247.070,-42.480,-65.918,0.000
1727535037.208,-13.672,276.855,-28.320,-36.133,0.000
1727535037.212,17.578,296.387,-7.812,-26.367,0.000
1727535037.216,-25.391,337.891,-12.207,-37.598,0.000
1727535037.220,-117.188,358.887,-44.922,-62.988,0.000
1727535037.224,-39.062,380.371,-36.133,-30.273,0.000
1727535037.228,66.895,390.137,17.090,29.297,0.000
1727535037.232,72.754,396.973,42.480,37.598,0.000
1727535037.236,6.836,392.578,27.344,5.371,0.000
1727535037.240,-108.398,382.324,-12.695,-30.273,0.000
1727535037.243,-40.039,395.020,-20.020,-8.789,0.000
1727535037.247,86.426,437.500,-30.762,32.715,0.000
1727535037.251,92.773,475.098,-53.711,39.551,0.000
1727535037.255,12.207,502.930,-18.555,6.348,0.000
1727535037.259,-117.188,570.312,31.250,-36.621,0.000
1727535037.263,-60.547,649.414,-13.184,-22.949,0.000
1727535037.267,82.520,829.102,-29.297,9.766,0.000
1727535037.271,96.680,976.074,22.949,11.230,0.000
1727535037.275,40.527,964.355,33.691,0.000,0.000
1727535037.279,-59.082,965.820,36.621,-17.578,0.000
1727535037.283,-27.344,968.750,21.973,-2.441,0.000
1727535037.286,102.051,968.262,-11.719,44.434,0.000
1727535037.290,118.652,968.262,-39.551,52.734,0.000
1727535037.294,74.219,968.262,-49.805,36.621,0.000
1727535037.298,-35.156,968.262,-26.855,8.301,0.000
1727535037.302,-52.246,968.262,-0.488,0.977,0.000
1727535037.306,66.406,968.262,21.973,29.785,0.000
1727535037.310,106.445,968.262,33.691,46.875,0.000
1727535037.314,84.473,968.262,21.484,37.109,0.000
1727535037.318,-33.203,968.262,5.859,-9.766,0.000
1727535037.322,-91.797,968.262,-34.668,-22.461,0.000
1727535037.325,44.434,968.262,-57.129,20.996,0.000
1727535037.329,117.676,968.262,-39.551,41.504,0.000
1727535037.333,97.656,968.262,-21.973,44.434,0.000
1727535037.337,-14.648,967.773,10.742,9.766,0.000
1727535037.341,-92.773,967.773,16.113,-24.414,0.000
1727535037.345,27.832,968.262,36.133,16.113,0.000
1727535037.349,107.910,968.262,60.547,54.688,0.000
1727535037.353,98.633,968.262,3.418,58.105,0.000
1727535037.357,-0.488,968.262,-31.250,22.461,0.000
1727535037.361,-101.562,968.262,-9.766,-17.578,0.000
1727535037.365,18.066,968.262,6.836,26.855,0.000
1727535037.368,121.094,968.262,34.180,66.895,0.000
1727535037.372,124.512,968.262,1.465,63.965,0.000
1727535037.376,48.340,968.262,-73.730,48.828,0.000
1727535037.380,-64.453,968.262,-23.438,16.602,0.000
1727535037.384,2.441,968.262,67.871,25.879,0.000
1727535037.388,110.352,968.262,77.637,45.898,0.000
1727535037.392,120.605,968.262,39.062,48.340,0.000
1727535037.396,53.223,968.262,18.066,34.180,0.000
1727535037.400,-45.410,968.262,41.504,-0.488,0.000
1727535037.404,0.977,968.262,51.270,19.043,0.000
1727535037.407,109.863,968.262,28.320,58.105,0.000
1727535037.411,127.441,968.262,9.766,71.289,0.000
1727535037.415,64.453,968.262,10.254,56.152,0.000
1727535037.419,-44.922,968.262,5.859,6.836,0.000
1727535037.423,5.371,968.262,19.043,30.762,0.000
1727535037.427,139.160,968.262,30.273,77.148,0.000
1727535037.431,134.277,968.262,24.414,54.199,0.000
1727535037.435,64.453,968.262,26.855,29.785,0.000
1727535037.439,-39.551,968.262,39.062,4.395,0.000
1727535037.443,-29.297,968.262,37.109,9.766,0.000
1727535037.447,93.262,968.262,18.555,52.734,0.000
1727535037.450,130.371,968.262,9.766,59.082,0.000
1727535037.454,85.449,968.262,10.254,42.969,0.000
1727535037.458,-40.039,968.262,8.789,9.277,0.000
1727535037.462,-50.781,968.262,8.789,11.230,0.000
1727535037.466,85.449,968.262,-2.441,67.383,0.000
1727535037.470,116.211,968.262,-9.277,81.543,0.000
1727535037.474,76.660,968.262,-1.953,61.523,0.000
1727535037.478,-28.809,968.262,14.160,18.066,0.000
1727535037.482,-75.195,968.262,24.902,5.859,0.000
1727535037.486,57.129,968.262,29.297,43.945,0.000
1727535037.490,121.582,968.262,29.297,56.152,0.000
1727535037.493,102.539,968.262,-13.672,59.570,0.000
1727535037.497,-6.836,968.262,-19.531,25.391,0.000
1727535037.501,-90.332,968.262,22.949,-12.207,0.000
1727535037.505,26.855,968.262,30.762,21.973,0.000
1727535037.509,87.402,968.750,31.250,30.273,0.000
1727535037.513,58.594,965.332,34.668,19.043,0.000
1727535037.517,-23.926,970.703,28.809,4.395,0.000
1727535037.521,-95.215,953.613,8.789,-22.461,0.000
1727535037.525,27.344,871.582,-27.344,8.301,0.000
1727535037.529,130.859,817.383,-23.438,37.598,0.000
1727535037.533,93.750,803.711,-7.812,29.785,0.000
1727535037.536,-9.277,777.344,-27.344,12.207,0.000
1727535037.540,-104.980,733.398,-22.949,-14.160,0.000
1727535037.544,-15.137,696.289,-14.160,0.977,0.000
1727535037.548,98.633,677.246,5.371,27.832,0.000
1727535037.552,87.891,651.855,14.648,22.461,0.000
1727535037.556,16.113,623.535,0.000,-0.977,0.000
1727535037.560,-86.426,599.121,-5.859,-19.531,0.000
1727535037.564,-38.574,563.965,-4.395,-1.465,0.000
1727535037.568,61.035,549.316,-5.859,6.348,0.000
1727535037.572,60.547,583.008,-9.766,3.418,0.000
1727535037.576,-1.465,615.723,-19.043,-11.719,0.000
1727535037.579,-110.840,613.281,-32.227,-41.992,0.000
1727535037.583,-59.082,584.961,-32.715,-14.648,0.000
1727535037.587,78.613,545.898,-34.180,19.531,0.000
1727535037.591,89.355,516.113,-40.527,22.461,0.000
1727535037.595,25.879,479.492,-27.832,5.371,0.000
1727535037.599,-100.098,453.613,-12.207,-43.457,0.000
1727535037.603,-85.449,434.082,-13.672,-39.062,0.000
1727535037.607,42.480,414.551,-16.113,4.395,0.000
1727535037.611,60.059,406.738,-4.395,16.113,0.000
1727535037.615,8.301,394.531,-10.742,2.930,0.000
1727535037.618,-95.703,386.719,-38.574,-35.156,0.000
1727535037.622,-92.285,357.910,-64.941,-38.574,0.000
1727535037.626,54.688,336.914,-53.223,-1.953,0.000
1727535037.630,99.609,340.820,-5.371,9.277,0.000
1727535037.634,51.758,322.266,16.113,-7.324,0.000
1727535037.638,-69.336,302.246,9.277,-47.852,0.000
1727535037.642,-110.840,288.086,-1.465,-62.500,0.000
1727535037.646,19.043,279.297,-16.113,-16.602,0.000
1727535037.650,78.125,283.203,-43.457,23.438,0.000
1727535037.654,64.453,288.086,-55.176,22.949,0.000
1727535037.658,-32.715,279.785,-30.273,-20.020,0.000
1727535037.661,-108.887,268.555,-13.184,-42.480,0.000
1727535037.665,11.230,247.559,-29.297,-0.977,0.000
1727535037.669,93.750,220.215,-20.020,39.062,0.000
1727535037.673,62.988,168.457,0.977,21.484,0.000
1727535037.677,-52.734,115.234,3.418,-39.551,0.000
1727535037.681,-136.230,105.957,-12.207,-62.012,0.000
1727535037.685,-28.320,105.469,-29.297,-13.184,0.000
1727535037.689,66.895,104.980,-21.484,12.695,0.000
1727535037.693,61.523,131.348,-12.207,1.953,0.000
1727535037.697,-38.086,126.953,-22.461,-26.367,0.000
1727535037.700,-146.973,104.004,-32.227,-59.082,0.000
1727535037.704,-47.363,100.098,-42.969,-19.531,0.000
1727535037.708,64.453,100.586,-37.109,21.973,0.000
1727535037.712,41.504,94.727,-27.344,11.719,0.000
1727535037.716,-41.992,109.863,-31.738,-25.391,0.000
1727535037.720,-134.766,132.324,-49.805,-60.059,0.000
1727535037.724,-50.293,131.348,-77.637,-28.809,0.000
1727535037.728,79.102,134.766,-53.223,3.418,0.000
1727535037.732,78.613,130.859,-28.320,-0.488,0.000
1727535037.736,-2.441,111.816,-36.621,-22.461,0.000
1727535037.740,-129.883,95.703,-14.160,-52.734,0.000
1727535037.743,-87.402,101.562,-4.883,-32.715,0.000
1727535037.747,45.898,122.070,-29.785,2.441,0.000
1727535037.751,57.129,131.348,-27.344,3.906,0.000
1727535037.755,11.230,125.488,-21.973,-11.719,0.000
1727535037.759,-98.633,118.652,-37.109,-42.969,0.000
1727535037.763,-92.773,111.816,-56.152,-34.668,0.000
1727535037.767,49.805,109.375,-48.340,9.277,0.000
1727535037.771,72.754,104.004,-29.785,18.555,0.000
1727535037.775,28.809,93.262,-24.902,8.301,0.000
1727535037.779,-66.895,94.727,-10.742,-19.043,0.000
1727535037.782,-70.801,98.633,-27.344,-7.812,0.000
1727535037.786,44.434,89.844,-29.297,18.066,0.000
1727535037.790,62.500,91.797,-4.883,7.812,0.000
1727535037.794,47.363,115.723,-5.371,-0.488,0.000
1727535037.798,-52.734,131.836,-15.625,-42.480,0.000
1727535037.802,-118.164,119.141,-19.531,-59.570,0.000
1727535037.806,-3.906,111.328,-37.109,-20.508,0.000
1727535037.810,52.246,117.676,-54.688,-15.137,0.000
1727535037.814,29.297,109.863,-36.621,-24.414,0.000
1727535037.818,-74.219,89.355,-20.020,-42.969,0.000
1727535037.822,-142.090,78.125,-25.879,-58.105,0.000
1727535037.825,-0.488,82.031,-29.297,-13.184,0.000
1727535037.829,75.684,82.031,-22.461,6.348,0.000
1727535037.833,27.344,81.543,-13.184,-7.812,0.000
1727535037.837,-64.941,74.219,-18.066,-43.457,0.000
1727535037.841,-127.441,82.031,-26.855,-81.055,0.000
1727535037.845,-9.766,97.168,-19.531,-41.504,0.000
1727535037.849,86.426,99.609,-10.254,-4.883,0.000
1727535037.853,72.754,103.027,-4.883,-0.488,0.000
1727535037.857,-26.367,100.098,-24.902,-26.367,0.000
1727535037.861,-143.066,90.332,-29.297,-60.547,0.000
1727535037.865,-57.617,88.867,-29.785,-30.273,0.000
1727535037.868,63.965,95.215,-29.297,2.930,0.000
1727535037.872,65.430,91.797,-10.742,5.371,0.000
1727535037.876,-23.438,81.055,-14.648,-16.113,0.000
1727535037.880,-147.949,71.777,-23.438,-49.316,0.000
1727535037.884,-72.266,73.242,-14.160,-26.367,0.000
1727535037.888,80.078,83.984,-0.488,18.555,0.000
1727535037.892,82.520,83.008,-9.766,18.066,0.000
1727535037.896,12.207,77.148,-3.906,-6.348,0.000
1727535037.900,-94.238,82.031,-3.906,-41.016,0.000
1727535037.904,-59.082,91.309,-29.297,-36.133,0.000
1727535037.908,56.152,89.355,-25.391,-10.742,0.000
1727535037.911,68.359,86.426,-1.465,-5.859,0.000
1727535037.915,15.625,82.520,-6.348,-16.113,0.000
1727535037.919,-105.957,79.102,-15.137,-50.781,0.000
1727535037.923,-98.633,80.078,-2.930,-38.574,0.000
1727535037.927,28.320,73.242,-10.254,8.301,0.000
1727535037.931,60.059,67.383,-9.766,11.230,0.000
1727535037.935,28.809,64.941,-4.395,9.277,0.000
1727535037.939,-68.848,70.312,-11.719,-9.277,0.000
1727535037.943,-92.773,81.055,-15.625,-25.879,0.000
1727535037.947,9.766,68.359,-15.625,8.301,0.000
1727535037.950,48.340,60.547,-10.254,21.973,0.000
1727535037.954,29.785,66.406,-10.254,-2.930,0.000
1727535037.958,-73.242,70.312,-16.113,-45.410,0.000
1727535037.962,-136.230,64.941,-22.949,-49.805,0.000
1727535037.966,-7.812,61.035,-27.344,0.977,0.000
1727535037.970,59.570,70.801,-31.738,23.926,0.000
1727535037.974,47.363,71.777,-4.883,19.043,0.000
1727535037.978,-59.570,75.684,13.184,-8.789,0.000
1727535037.982,-139.648,68.848,2.930,-36.621,0.000
1727535037.986,3.906,57.129,-1.953,-5.859,0.000
1727535037.990,93.262,56.152,-6.348,19.043,0.000
1727535037.993,66.406,54.688,-13.184,10.742,0.000
1727535037.997,-31.738,53.711,-14.648,-12.207,0.000
1727535038.001,-115.723,53.223,-10.254,-32.715,0.000
1727535038.005,-23.926,47.852,-10.254,-11.719,0.000
1727535038.009,62.012,44.434,-14.160,16.113,0.000
1727535038.013,55.664,54.199,-37.109,18.066,0.000
1727535038.017,-30.762,51.270,-48.828,-16.113,0.000
1727535038.021,-134.766,37.109,-29.785,-52.734,0.000
1727535038.025,-43.457,38.086,-20.020,-11.719,0.000
1727535038.029,72.266,51.758,-20.020,9.277,0.000
1727535038.033,62.988,52.734,-20.508,-7.812,0.000
1727535038.036,-13.184,40.527,-34.180,-30.762,0.000
1727535038.040,-135.254,28.320,-37.109,-73.730,0.000
1727535038.044,-77.637,30.273,-31.250,-49.805,0.000
1727535038.048,69.824,43.945,-24.414,4.395,0.000
1727535038.052,69.824,43.945,-20.020,-2.441,0.000
1727535038.056,-4.883,34.180,-33.203,-33.691,0.000
1727535038.060,-105.957,20.996,-26.367,-63.477,0.000
1727535038.064,-71.777,18.555,-19.043,-45.898,0.000
1727535038.068,46.387,24.902,-39.551,0.000,0.000
1727535038.072,64.941,21.484,-65.918,8.301,0.000
1727535038.075,2.930,20.020,-58.594,-10.742,0.000
1727535038.079,-113.770,17.090,-31.250,-41.992,0.000
1727535038.083,-101.074,15.625,-31.250,-28.320,0.000
1727535038.087,26.367,16.602,-26.367,2.441,0.000
1727535038.091,58.105,12.207,2.930,2.930,0.000
1727535038.095,17.090,17.090,14.160,-14.160,0.000
1727535038.099,-101.074,19.531,-8.789,-52.246,0.000
1727535038.103,-120.605,8.301,-36.133,-56.641,0.000
1727535038.107,10.254,2.441,-50.781,-8.301,0.000
1727535038.111,55.176,7.324,-40.527,21.973,0.000
1727535038.114,15.625,7.812,-19.531,15.625,0.000
1727535038.118,-92.285,8.789,-20.996,-34.180,0.000
1727535038.122,-134.766,0.488,-40.039,-56.641,0.000
1727535038.126,9.277,-7.324,-30.273,4.395,0.000
1727535038.130,84.473,2.930,-20.996,33.203,0.000
1727535038.134,40.039,6.348,-37.598,0.000,0.000
1727535038.138,-68.359,8.301,-31.250,-55.664,0.000
1727535038.142,-139.648,4.395,-22.461,-61.523,0.000
1727535038.146,-23.926,6.836,-18.555,-10.742,0.000
1727535038.150,72.266,6.836,-15.625,7.324,0.000
1727535038.153,56.152,0.977,-19.531,5.859,0.000
1727535038.157,-38.086,3.418,-34.180,-14.648,0.000
1727535038.161,-110.840,9.766,-40.527,-27.832,0.000
1727535038.165,-14.160,9.766,-35.156,-1.465,0.000
1727535038.169,83.008,0.977,-43.945,22.461,0.000
1727535038.173,67.871,7.812,-62.988,14.648,0.000
1727535038.177,-9.277,13.672,-57.129,-19.043,0.000
1727535038.181,-113.770,4.883,-20.996,-43.457,0.000
1727535038.185,-53.711,-3.906,3.418,-8.301,0.000
1727535038.189,67.871,-12.695,6.348,24.902,0.000
1727535038.193,74.219,-15.137,-14.160,23.438,0.000
1727535038.196,-0.977,-1.953,-25.879,-0.488,0.000
1727535038.200,-124.023,2.930,-15.625,-46.387,0.000
1727535038.204,-67.871,-4.883,-7.324,-21.973,0.000
1727535038.208,62.012,-8.301,-15.625,21.484,0.000
1727535038.212,64.453,-9.766,-27.344,14.160,0.000
1727535038.216,4.883,-1.953,-14.160,-14.160,0.000
1727535038.220,-99.609,-2.441,-13.672,-42.969,0.000
1727535038.224,-69.336,-10.742,-26.855,-18.555,0.000
1727535038.228,69.824,-4.395,-24.902,24.414,0.000
1727535038.232,90.820,-0.488,-15.625,24.414,0.000
1727535038.236,41.016,2.441,-24.902,10.742,0.000
1727535038.239,-63.477,0.000,-25.879,-27.344,0.000
1727535038.243,-68.848,-9.277,-12.695,-31.250,0.000
1727535038.247,56.641,-2.441,-16.113,15.137,0.000
1727535038.251,74.219,-0.488,-27.832,28.320,0.000
1727535038.255,21.973,-7.812,-18.066,6.836,0.000
1727535038.259,-83.984,-5.371,-4.883,-40.527,0.000
1727535038.263,-103.516,-6.836,-6.836,-37.598,0.000
1727535038.267,17.578,-15.625,3.418,5.859,0.000
1727535038.271,61.035,-5.371,7.324,10.742,0.000
1727535038.275,27.344,8.301,3.906,2.930,0.000
1727535038.278,-86.914,-2.930,-9.277,-32.715,0.000
1727535038.282,-126.953,-6.348,-26.855,-52.734,0.000
1727535038.286,6.836,-2.930,-41.016,-13.184,0.000
1727535038.290,82.520,-3.906,-50.781,8.789,0.000
1727535038.294,66.406,0.488,-44.922,2.930,0.000
1727535038.298,-41.504,7.812,-37.598,-30.762,0.000
1727535038.302,-125.488,7.324,-14.160,-53.223,0.000
1727535038.306,-8.789,10.254,-21.973,-14.160,0.000
1727535038.310,102.051,8.301,-55.176,32.227,0.000
1727535038.314,78.613,2.930,-42.480,25.879,0.000
1727535038.318,-42.480,-10.254,-14.648,-33.203,0.000
1727535038.321,-136.230,-23.926,-10.254,-61.035,0.000
1727535038.325,-39.551,-39.062,-18.555,-25.391,0.000
1727535038.329,65.918,-48.340,-11.719,-4.883,0.000
1727535038.333,46.387,-41.016,-12.695,-12.207,0.000
1727535038.337,-41.992,-39.062,-37.109,-40.527,0.000
1727535038.341,-136.230,-25.879,-36.621,-63.477,0.000
1727535038.345,-61.035,-19.531,-17.090,-30.273,0.000
1727535038.349,55.664,-22.461,-16.602,-4.395,0.000
1727535038.353,52.246,-20.508,-24.414,-8.789,0.000
1727535038.357,-24.902,-14.648,-27.832,-19.531,0.000
1727535038.361,-132.812,-6.348,-11.719,-55.176,0.000
1727535038.364,-83.008,-8.789,9.766,-39.062,0.000
1727535038.368,32.227,-16.602,14.160,-8.789,0.000
1727535038.372,50.781,-11.230,-6.836,-29.785,0.000
1727535038.376,0.000,-7.324,-36.133,-50.293,0.000
1727535038.380,-113.770,-14.648,-34.668,-68.359,0.000
1727535038.384,-83.496,-12.207,-24.414,-44.434,0.000
1727535038.388,41.992,-14.648,-14.160,-7.324,0.000
1727535038.392,52.734,-21.484,-19.043,-8.789,0.000
1727535038.396,-0.488,-22.461,-35.156,-20.996,0.000
1727535038.400,-119.141,-27.344,-51.270,-47.363,0.000
1727535038.403,-131.836,-29.785,-45.898,-46.875,0.000
1727535038.407,18.066,-29.785,-23.926,-17.578,0.000
1727535038.411,77.148,-28.320,-17.578,-11.719,0.000
1727535038.415,27.344,-25.391,-30.273,-21.484,0.000
1727535038.419,-84.961,-21.973,-27.344,-52.734,0.000
1727535038.423,-117.188,-22.461,-5.859,-63.965,0.000
1727535038.427,-5.371,-25.391,2.930,-32.227,0.000
1727535038.431,58.105,-20.020,-5.371,-17.578,0.000
1727535038.435,21.484,-10.254,-16.113,-27.344,0.000
1727535038.439,-97.656,-10.254,-19.531,-51.270,0.000
1727535038.443,-137.695,-17.578,-27.344,-56.152,0.000
1727535038.446,-11.719,-16.602,-45.410,-11.719,0.000
1727535038.450,52.246,-15.625,-37.109,11.719,0.000
1727535038.454,23.438,-22.461,-15.625,-8.789,0.000
1727535038.458,-70.312,-23.438,-11.230,-37.109,0.000
1727535038.462,-145.508,-16.602,-12.207,-50.781,0.000
1727535038.466,-26.367,-22.461,-6.836,-20.020,0.000
1727535038.470,66.406,-26.367,-4.883,5.371,0.000
1727535038.474,39.062,-24.902,-30.273,3.418,0.000
1727535038.478,-42.969,-23.438,-37.598,-26.367,0.000
1727535038.482,-139.160,-26.367,-11.719,-55.176,0.000
1727535038.485,-41.016,-32.227,3.906,-19.531,0.000
1727535038.489,55.176,-31.738,-4.883,8.789,0.000
1727535038.493,43.457,-27.344,-16.602,-5.371,0.000
1727535038.497,-19.043,-18.555,-31.250,-31.738,0.000
1727535038.501,-126.953,-23.438,-33.203,-62.012,0.000
1727535038.505,-71.777,-29.297,-25.879,-39.551,0.000
1727535038.509,52.246,-22.461,-36.133,-0.488,0.000
1727535038.513,59.082,-24.414,-41.992,-7.324,0.000
1727535038.517,-13.184,-29.297,-19.531,-29.785,0.000
1727535038.521,-113.281,-34.668,-20.508,-54.199,0.000
1727535038.524,-65.430,-37.109,-35.645,-34.180,0.000
1727535038.528,56.152,-26.367,-17.090,6.348,0.000
1727535038.532,61.035,-18.555,-13.672,8.301,0.000
1727535038.536,-10.742,-34.180,-17.090,-20.020,0.000
1727535038.540,-132.812,-47.363,-8.301,-60.059,0.000
1727535038.544,-90.820,-37.598,-22.949,-47.852,0.000
1727535038.548,46.387,-32.227,-36.133,-5.859,0.000
1727535038.552,55.664,-33.203,-14.160,4.395,0.000
1727535038.556,-1.953,-18.066,-8.789,-15.625,0.000
1727535038.560,-104.004,-19.531,-14.648,-56.641,0.000
1727535038.564,-101.074,-23.438,-13.672,-52.246,0.000
1727535038.567,23.438,-20.508,-12.695,-4.395,0.000
1727535038.571,59.570,-17.578,-6.348,6.348,0.000
1727535038.575,12.207,-7.324,-5.371,-12.695,0.000
1727535038.579,-108.887,-4.395,-25.879,-53.711,0.000
1727535038.583,-130.371,-0.488,-48.828,-66.406,0.000
1727535038.587,12.207,-0.488,-44.922,-18.066,0.000
1727535038.591,66.406,0.488,-24.902,6.348,0.000
1727535038.595,26.367,-8.789,-3.906,-7.812,0.000
1727535038.599,-84.473,-11.719,-2.930,-44.434,0.000
1727535038.603,-125.977,-8.789,-11.719,-57.129,0.000
1727535038.607,-13.184,-24.414,-20.996,-33.691,0.000
1727535038.610,32.715,-33.691,-38.574,-35.156,0.000
1727535038.614,15.137,-25.879,-42.480,-44.434,0.000
1727535038.618,-96.191,-9.766,-33.203,-77.637,0.000
1727535038.622,-176.758,1.953,-23.926,-98.633,0.000
1727535038.626,-46.387,4.395,-22.461,-43.945,0.000
1727535038.630,45.410,25.391,-20.996,-20.020,0.000
1727535038.634,38.086,47.363,-27.344,-31.738,0.000
1727535038.638,-49.316,48.828,-50.781,-43.945,0.000
1727535038.642,-146.973,45.898,-54.199,-58.105,0.000
1727535038.646,-41.016,40.527,-54.199,-20.508,0.000
1727535038.650,54.199,34.180,-64.941,-1.953,0.000
1727535038.653,41.016,33.691,-37.109,-14.160,0.000
1727535038.657,-35.156,28.320,-17.578,-35.645,0.000
1727535038.661,-152.832,23.438,-13.184,-76.172,0.000
1727535038.665,-62.988,22.461,-1.953,-44.922,0.000
1727535038.669,60.547,23.438,-4.883,-3.418,0.000
1727535038.673,45.898,35.645,-17.090,-2.930,0.000
1727535038.677,-9.766,29.785,-25.391,-16.113,0.000
1727535038.681,-117.188,18.066,-63.965,-53.223,0.000
1727535038.685,-72.266,26.855,-91.797,-19.531,0.000
1727535038.689,61.035,31.250,-49.805,26.367,0.000
1727535038.693,64.453,24.902,2.441,10.742,0.000
1727535038.696,-2.930,15.625,30.273,-14.648,0.000
1727535038.700,-130.859,7.812,22.949,-65.918,0.000
1727535038.704,-103.516,4.395,0.977,-61.035,0.000
1727535038.708,32.227,1.465,-13.672,-16.113,0.000
1727535038.712,55.664,1.953,-18.066,-8.301,0.000
1727535038.716,2.930,1.953,-30.762,-27.344,0.000
1727535038.720,-109.375,6.348,-43.457,-59.570,0.000
1727535038.724,-113.281,8.789,-46.875,-53.223,0.000
1727535038.728,14.160,-6.836,-47.852,-16.602,0.000
1727535038.732,61.523,-17.090,-39.551,2.441,0.000
1727535038.735,14.648,-4.883,-36.133,-15.625,0.000
1727535038.739,-87.891,5.371,-31.250,-51.270,0.000
1727535038.743,-118.164,7.812,-34.668,-51.270,0.000
1727535038.747,4.883,7.324,-37.109,-11.230,0.000
1727535038.751,58.594,-8.301,-12.207,4.395,0.000
1727535038.755,17.090,-19.043,4.395,-11.719,0.000
1727535038.759,-94.727,-14.160,-0.977,-48.340,0.000
1727535038.763,-137.695,-12.207,-10.254,-57.129,0.000
1727535038.767,6.348,-3.906,-29.785,-5.371,0.000
1727535038.771,91.309,-0.488,-41.504,28.809,0.000
1727535038.775,69.336,-2.930,-44.922,20.508,0.000
1727535038.778,-32.715,-3.418,-45.410,-20.020,0.000
1727535038.782,-125.977,-16.113,-16.113,-60.059,0.000
1727535038.786,-26.367,-22.949,-7.324,-28.320,0.000
1727535038.790,68.848,-17.578,-19.531,0.000,0.000
1727535038.794,52.246,-14.160,-19.043,3.418,0.000
1727535038.798,-32.715,-15.625,-23.438,-22.949,0.000
1727535038.802,-115.234,-24.414,-12.207,-61.035,0.000
1727535038.806,-34.180,-40.527,-5.371,-36.621,0.000
1727535038.810,69.824,-47.363,-9.277,-1.953,0.000
1727535038.814,66.406,-40.039,-4.883,4.883,0.000
1727535038.817,-25.879,-41.504,-17.578,-11.230,0.000
1727535038.821,-130.859,-44.434,-44.434,-33.203,0.000
1727535038.825,-65.918,-38.574,-61.035,-12.207,0.000
1727535038.829,36.133,-37.598,-31.738,0.977,0.000
1727535038.833,33.691,-38.574,2.930,-13.184,0.000
1727535038.837,-22.949,-35.645,1.465,-34.668,0.000
1727535038.841,-123.535,-34.180,-7.812,-66.895,0.000
1727535038.845,-80.078,-34.180,-5.859,-41.016,0.000
1727535038.849,52.734,-30.273,-5.371,7.812,0.000
1727535038.853,70.312,-24.414,-7.324,15.137,0.000
1727535038.857,2.930,-26.367,-6.348,-2.930,0.000
1727535038.860,-115.234,-22.949,-27.344,-42.480,0.000
1727535038.864,-79.590,-18.555,-48.828,-25.879,0.000
1727535038.868,35.645,-28.320,-37.109,7.812,0.000
1727535038.872,60.059,-33.691,-33.691,9.277,0.000
1727535038.876,24.414,-30.273,-41.992,-0.488,0.000
1727535038.880,-99.121,-30.762,-25.879,-44.922,0.000
1727535038.884,-114.746,-36.133,-2.930,-48.340,0.000
1727535038.888,9.766,-37.598,2.441,-14.648,0.000
1727535038.892,65.430,-34.180,-9.277,-7.324,0.000
1727535038.896,37.109,-33.203,-46.875,-5.859,0.000
1727535038.899,-90.820,-32.227,-51.270,-41.504,0.000
1727535038.903,-133.789,-41.504,-14.160,-62.988,0.000
1727535038.907,-10.254,-45.898,-6.836,-20.996,0.000
1727535038.911,47.852,-43.457,-8.301,7.812,0.000
1727535038.915,19.043,-35.645,-12.695,-9.766,0.000
1727535038.919,-87.402,-27.344,-21.484,-45.898,0.000
1727535038.923,-144.043,-26.855,-25.391,-57.129,0.000
1727535038.927,-12.207,-16.602,-17.578,-17.578,0.000
1727535038.931,72.266,-11.230,-23.438,2.930,0.000
1727535038.935,41.992,-19.531,-32.715,-12.207,0.000
1727535038.938,-66.406,-21.973,-22.461,-46.875,0.000
1727535038.942,-137.207,-23.438,-17.090,-73.242,0.000
1727535038.946,-9.766,-22.461,-10.254,-26.855,0.000
1727535038.950,86.914,-22.461,-5.859,12.207,0.000
1727535038.954,43.945,-23.926,-23.926,0.488,0.000
1727535038.958,-50.293,-23.926,-50.781,-34.668,0.000
1727535038.962,-115.723,-20.508,-47.852,-54.199,0.000
1727535038.966,-29.297,-17.090,-41.992,-22.949,0.000
1727535038.970,62.988,-29.297,-45.410,11.230,0.000
1727535038.974,52.734,-28.320,-27.832,5.859,0.000
1727535038.978,-29.785,-19.531,-8.789,-30.762,0.000
1727535038.981,-138.672,-21.973,-12.695,-68.848,0.000
1727535038.985,-63.477,-27.832,-14.648,-39.062,0.000
1727535038.989,71.289,-29.785,-16.113,3.906,0.000
1727535038.993,71.289,-31.250,-12.207,0.977,0.000
1727535038.997,-20.020,-29.785,-25.879,-22.461,0.000
1727535039.001,-130.859,-29.297,-61.523,-47.363,0.000
1727535039.005,-74.219,-28.320,-55.176,-24.902,0.000
1727535039.009,57.617,-27.832,-14.648,12.207,0.000
1727535039.013,57.617,-35.645,-10.254,8.301,0.000
1727535039.017,-14.160,-40.039,-18.066,-20.996,0.000
1727535039.021,-125.000,-47.363,-17.090,-67.383,0.000
1727535039.024,-108.398,-46.387,-21.484,-62.500,0.000
1727535039.028,20.020,-35.645,-17.090,-22.949,0.000
1727535039.032,45.898,-38.086,-8.301,-20.996,0.000
1727535039.036,-1.465,-34.180,-17.578,-36.133,0.000
1727535039.040,-107.910,-26.855,-25.879,-59.570,0.000
1727535039.044,-112.793,-20.996,-32.227,-45.410,0.000
1727535039.048,24.414,-21.973,-48.828,-16.113,0.000
1727535039.052,66.406,-35.156,-48.828,-18.555,0.000
1727535039.056,17.578,-38.574,-43.457,-32.227,0.000
1727535039.060,-92.773,-30.273,-36.133,-57.129,0.000
1727535039.064,-114.746,-34.180,-33.203,-44.922,0.000
1727535039.067,30.762,-32.715,-24.414,16.113,0.000
1727535039.071,76.660,-18.555,-21.973,11.719,0.000
1727535039.075,14.648,-29.785,-32.715,-37.598,0.000
1727535039.079,-91.309,-35.645,-38.086,-58.105,0.000
1727535039.083,-141.602,-33.203,-41.016,-60.059,0.000
1727535039.087,-19.531,-31.250,-33.691,-23.438,0.000
1727535039.091,47.363,-19.043,-30.762,-7.812,0.000
1727535039.095,38.574,-5.371,-38.086,-27.344,0.000
1727535039.099,-56.152,-0.488,-46.387,-65.430,0.000
1727535039.103,-151.367,-3.906,-49.805,-88.379,0.000
1727535039.106,-26.855,1.465,-53.711,-45.898,0.000
1727535039.110,75.195,7.812,-59.082,-21.484,0.000
1727535039.114,45.898,2.441,-59.570,-19.531,0.000
1727535039.118,-36.621,-1.953,-88.867,-38.086,0.000
1727535039.122,-128.418,-2.930,-102.539,-65.918,0.000
1727535039.126,-36.133,-5.371,-62.500,-29.785,0.000
1727535039.130,68.848,-14.648,-32.715,-5.371,0.000
1727535039.134,56.641,-22.461,-27.832,-12.695,0.000
1727535039.138,-11.230,-19.043,-30.273,-36.621,0.000
1727535039.142,-124.023,-16.113,-31.250,-75.684,0.000
1727535039.146,-57.617,-14.648,-30.273,-45.410,0.000
1727535039.149,76.660,-14.160,-29.785,3.906,0.000
1727535039.153,69.336,-15.625,-28.809,9.277,0.000
1727535039.157,-10.254,-13.184,-34.668,-21.973,0.000
1727535039.161,-120.117,-10.254,-39.062,-55.176,0.000
1727535039.165,-73.730,-17.090,-40.527,-30.762,0.000
1727535039.169,54.199,-18.066,-51.270,7.812,0.000
1727535039.173,71.777,-13.672,-43.457,16.602,0.000
1727535039.177,1.953,-26.855,-24.414,-5.371,0.000
1727535039.181,-122.070,-31.250,-19.043,-54.688,0.000
1727535039.185,-97.656,-21.484,-16.602,-47.363,0.000
1727535039.188,35.645,-22.949,-17.090,-2.930,0.000
1727535039.192,73.242,-19.531,-37.109,15.137,0.000
1727535039.196,22.949,-25.391,-65.430,-0.488,0.000
1727535039.200,-96.191,-34.180,-42.480,-49.805,0.000
1727535039.204,-108.887,-31.738,-3.906,-44.434,0.000
1727535039.208,15.625,-36.621,0.000,-2.441,0.000
1727535039.212,60.059,-41.016,-8.301,-7.812,0.000
1727535039.216,20.020,-35.645,-12.695,-30.273,0.000
1727535039.220,-89.844,-36.133,-17.090,-62.988,0.000
1727535039.224,-125.000,-38.086,-27.832,-68.359,0.000
1727535039.228,5.859,-38.574,-32.227,-22.949,0.000
1727535039.231,68.848,-37.598,-28.320,-2.441,0.000
1727535039.235,44.434,-37.598,-49.805,-10.742,0.000
1727535039.239,-52.246,-43.945,-59.570,-37.109,0.000
1727535039.243,-116.211,-47.852,-20.020,-53.223,0.000
1727535039.247,0.977,-44.434,-12.207,-20.020,0.000
1727535039.251,63.477,-39.062,-46.875,-1.465,0.000
1727535039.255,23.926,-38.574,-49.805,-7.812,0.000
1727535039.259,-77.148,-30.273,-17.578,-29.785,0.000
1727535039.263,-149.902,-33.691,5.859,-49.805,0.000
1727535039.267,-29.785,-44.434,4.395,-18.066,0.000
1727535039.270,68.359,-41.504,-10.742,11.719,0.000
1727535039.274,51.758,-40.527,-28.809,0.000,0.000
1727535039.278,-41.504,-38.574,-32.715,-41.016,0.000
1727535039.282,-138.672,-37.598,-24.902,-65.430,0.000
1727535039.286,-35.645,-35.156,-22.461,-18.555,0.000
1727535039.290,72.266,-39.551,-24.902,17.578,0.000
1727535039.294,45.898,-53.711,-38.574,5.859,0.000
1727535039.298,-31.738,-54.199,-46.387,-16.113,0.000
1727535039.302,-135.254,-41.504,-33.203,-43.945,0.000
1727535039.306,-76.172,-45.410,-19.531,-28.809,0.000
1727535039.309,53.711,-55.664,-29.297,2.930,0.000
1727535039.313,53.223,-56.152,-40.527,3.906,0.000
1727535039.317,-10.254,-41.992,-30.273,-16.602,0.000
1727535039.321,-112.793,-33.203,-30.273,-50.781,0.000
1727535039.325,-72.266,-39.551,-26.367,-39.062,0.000
1727535039.329,62.500,-40.527,-16.602,-3.906,0.000
1727535039.333,79.590,-34.180,-23.438,7.324,0.000
1727535039.337,25.879,-39.062,-20.020,-2.441,0.000
1727535039.341,-111.328,-47.363,-7.324,-52.734,0.000
1727535039.345,-120.605,-47.363,-4.883,-51.270,0.000
1727535039.349,10.254,-50.781,-9.766,2.930,0.000
1727535039.352,34.180,-48.340,-20.508,8.301,0.000
1727535039.356,-21.484,-49.316,-18.555,-8.789,0.000
1727535039.360,-128.906,-55.664,-8.789,-45.898,0.000
1727535039.364,-137.207,-53.711,-11.719,-57.129,0.000
1727535039.368,-3.906,-51.270,-5.371,-11.230,0.000
1727535039.372,57.129,-52.246,-5.371,12.695,0.000
1727535039.376,28.320,-54.199,-18.066,-5.859,0.000
1727535039.380,-91.797,-51.758,-6.348,-55.664,0.000
1727535039.384,-144.043,-53.711,17.090,-65.918,0.000
1727535039.388,-10.254,-53.711,19.531,-15.625,0.000
1727535039.392,52.246,-40.527,-11.719,1.465,0.000
1727535039.395,11.719,-26.855,-42.480,-17.090,0.000
1727535039.399,-78.125,-22.461,-34.668,-42.480,0.000
1727535039.403,-140.625,-22.949,-0.488,-60.547,0.000
1727535039.407,-25.879,-20.996,19.043,-32.715,0.000
1727535039.411,55.176,-20.020,20.508,-6.348,0.000
1727535039.415,30.273,-19.043,14.160,-15.137,0.000
1727535039.419,-61.523,-14.648,11.719,-49.316,0.000
1727535039.423,-131.348,-11.230,10.742,-65.430,0.000
1727535039.427,-16.113,-10.742,4.883,-34.668,0.000
1727535039.431,71.289,-13.184,7.324,-5.859,0.000
1727535039.434,48.828,-11.719,-17.090,1.953,0.000
1727535039.438,-40.527,-4.883,-41.992,-23.438,0.000
1727535039.442,-132.324,-4.883,-14.160,-59.082,0.000
1727535039.446,-38.574,-11.719,-4.395,-28.809,0.000
1727535039.450,66.895,-13.672,1.465,7.812,0.000
1727535039.454,63.477,-3.906,25.879,6.348,0.000
1727535039.458,-15.137,-6.348,20.020,-24.414,0.000
1727535039.462,-129.395,-29.297,2.930,-57.617,0.000
1727535039.466,-58.105,-30.762,-4.395,-29.297,0.000
1727535039.470,53.223,-20.508,-16.602,4.395,0.000
1727535039.474,47.852,-16.113,-28.809,7.324,0.000
1727535039.477,-9.277,-10.254,-39.062,-15.137,0.000
1727535039.481,-132.324,-8.789,-39.551,-52.734,0.000
1727535039.485,-94.238,-18.066,-15.137,-40.527,0.000
1727535039.489,45.898,-24.414,2.441,-3.418,0.000
1727535039.493,68.848,-16.602,0.000,0.488,0.000
1727535039.497,16.602,-8.789,-5.371,-15.625,0.000
1727535039.501,-101.074,-13.672,-15.625,-47.852,0.000
1727535039.505,-90.332,-14.648,-31.250,-52.246,0.000
1727535039.509,47.852,-9.277,-20.508,-12.207,0.000
1727535039.513,84.961,-12.207,0.488,-2.441,0.000
1727535039.517,21.484,-20.020,1.953,-22.949,0.000
1727535039.521,-103.027,-26.855,-19.531,-59.082,0.000
1727535039.524,-119.629,-29.297,-29.297,-40.527,0.000
1727535039.528,6.836,-24.414,-20.996,9.766,0.000
1727535039.532,63.477,-20.508,-7.324,17.090,0.000
1727535039.536,28.809,-22.461,-20.508,4.883,0.000
1727535039.540,-79.102,-22.949,-43.945,-41.016,0.000
1727535039.544,-120.117,-19.531,-21.484,-57.617,0.000
1727535039.548,0.488,-21.484,-1.465,-20.508,0.000
1727535039.552,62.988,-30.762,-0.977,-8.301,0.000
1727535039.556,32.715,-30.273,-15.625,-16.602,0.000
1727535039.560,-83.008,-28.809,-30.762,-47.852,0.000
1727535039.563,-155.762,-29.297,-20.996,-67.383,0.000
1727535039.567,-30.273,-28.809,-9.277,-23.926,0.000
1727535039.571,48.828,-25.391,-6.836,5.371,0.000
1727535039.575,41.992,-24.902,-12.695,7.812,0.000
1727535039.579,-42.969,-21.484,-20.020,-14.648,0.000
1727535039.583,-132.812,-25.391,-28.809,-45.410,0.000
1727535039.587,-29.297,-37.109,-18.066,-14.160,0.000
1727535039.591,69.824,-38.574,-13.184,13.184,0.000
1727535039.595,53.711,-36.621,-22.949,7.324,0.000
1727535039.599,-33.691,-37.598,-30.273,-23.926,0.000
1727535039.603,-137.695,-44.922,-40.527,-61.035,0.000
1727535039.606,-55.664,-45.898,-23.438,-30.273,0.000
1727535039.610,57.617,-43.945,-0.488,7.324,0.000
1727535039.614,53.223,-39.062,5.859,3.906,0.000
1727535039.618,-19.531,-30.273,0.488,-26.367,0.000
1727535039.622,-135.742,-31.250,-8.789,-69.824,0.000
1727535039.626,-71.777,-28.320,-14.160,-36.621,0.000
1727535039.630,53.223,-32.227,-18.555,4.883,0.000
1727535039.634,53.711,-37.598,-26.367,-7.324,0.000
1727535039.638,-10.742,-40.039,-37.598,-30.273,0.000
1727535039.642,-127.930,-40.527,-50.293,-61.035,0.000
1727535039.645,-94.727,-37.109,-54.199,-50.781,0.000
1727535039.649,45.898,-33.691,-36.621,-11.230,0.000
1727535039.653,76.172,-26.367,-20.508,-8.301,0.000
1727535039.657,5.371,-23.926,-20.996,-28.320,0.000
1727535039.661,-113.281,-36.133,-24.414,-66.895,0.000
1727535039.665,-97.656,-45.410,-27.344,-65.430,0.000
1727535039.669,45.898,-40.527,-23.438,-19.531,0.000
1727535039.673,81.055,-38.574,-20.996,-11.719,0.000
1727535039.677,14.648,-38.574,-38.086,-27.344,0.000
1727535039.681,-96.191,-38.574,-37.598,-60.547,0.000
1727535039.685,-118.652,-41.992,-25.879,-57.617,0.000
1727535039.688,19.531,-44.434,-32.715,-10.254,0.000
1727535039.692,72.754,-43.945,-27.832,-1.465,0.000
1727535039.696,30.273,-43.945,-25.879,-14.648,0.000
1727535039.700,-79.102,-36.621,-29.785,-40.039,0.000
1727535039.704,-132.324,-33.691,-25.391,-52.246,0.000
1727535039.708,4.395,-27.832,-15.625,-8.789,0.000
1727535039.712,79.590,-16.602,-26.367,11.719,0.000
1727535039.716,46.387,-26.367,-48.828,1.465,0.000
1727535039.720,-59.570,-36.621,-37.598,-21.973,0.000
1727535039.724,-124.023,-31.738,-13.184,-40.039,0.000
1727535039.728,-13.184,-35.156,-4.883,-16.113,0.000
1727535039.731,53.223,-45.898,0.977,-1.953,0.000
1727535039.735,47.852,-42.969,1.953,-0.977,0.000
1727535039.739,-36.621,-35.156,-6.348,-23.926,0.000
1727535039.743,-127.441,-43.457,-17.578,-51.758,0.000
1727535039.747,-30.273,-65.430,-27.344,-19.531,0.000
1727535039.751,59.570,-64.453,-23.926,4.395,0.000
1727535039.755,38.086,-56.152,-17.090,-1.465,0.000
1727535039.759,-44.922,-51.270,-28.809,-24.414,0.000
1727535039.763,-137.695,-55.176,-37.598,-52.734,0.000
1727535039.767,-52.246,-58.594,-18.066,-18.066,0.000
1727535039.770,71.289,-52.734,-6.348,12.207,0.000
1727535039.774,66.406,-49.805,-17.090,10.742,0.000
1727535039.778,-21.973,-53.711,-19.531,-14.648,0.000
1727535039.782,-132.812,-64.941,-14.160,-54.688,0.000
1727535039.786,-71.777,-63.477,-12.207,-35.645,0.000
1727535039.790,50.293,-52.246,-4.395,4.883,0.000
1727535039.794,62.012,-47.363,-4.395,8.301,0.000
1727535039.798,-5.371,-53.711,-32.227,-15.625,0.000
1727535039.802,-128.418,-53.223,-47.363,-41.504,0.000
1727535039.806,-81.543,-48.828,-23.926,-27.832,0.000
1727535039.810,63.965,-50.781,-16.602,13.672,0.000
1727535039.813,70.801,-50.293,-35.156,23.926,0.000
1727535039.817,3.906,-50.293,-24.902,-12.207,0.000
1727535039.821,-118.164,-61.035,-6.348,-54.199,0.000
1727535039.825,-113.770,-67.383,-16.113,-51.758,0.000
1727535039.829,10.254,-64.453,-22.461,-11.719,0.000
1727535039.833,50.781,-60.059,-17.578,-3.418,0.000
1727535039.837,15.137,-62.012,-17.090,-18.555,0.000
1727535039.841,-106.445,-51.758,-21.973,-53.223,0.000
1727535039.845,-125.488,-34.180,-17.578,-53.711,0.000
1727535039.849,6.348,-28.320,-20.996,-1.953,0.000
1727535039.853,54.199,-29.785,-22.949,6.348,0.000
1727535039.856,22.949,-31.738,-18.066,-5.859,0.000
1727535039.860,-98.145,-38.086,-17.578,-36.621,0.000
1727535039.864,-145.508,-42.969,-33.691,-45.410,0.000
1727535039.868,-18.555,-43.945,-41.016,-2.441,0.000
1727535039.872,46.387,-47.852,-18.555,5.371,0.000
1727535039.876,25.879,-49.316,-9.277,-9.277,0.000
1727535039.880,-75.684,-47.363,-21.484,-42.969,0.000
1727535039.884,-139.160,-45.898,-30.762,-54.688,0.000
1727535039.888,-23.438,-46.387,-27.344,-10.742,0.000
1727535039.892,56.641,-48.340,-22.949,2.930,0.000
1727535039.896,32.227,-50.293,-20.996,-9.277,0.000
1727535039.899,-62.012,-47.363,-20.508,-28.320,0.000
1727535039.903,-138.184,-36.621,-29.297,-42.969,0.000
1727535039.907,-28.809,-33.691,-50.293,-21.973,0.000
1727535039.911,67.871,-39.551,-45.898,-5.371,0.000
1727535039.915,58.594,-40.039,-22.949,-8.301,0.000
1727535039.919,-35.156,-45.410,-17.578,-47.852,0.000
1727535039.923,-144.531,-52.734,-25.879,-82.031,0.000
1727535039.927,-60.547,-52.734,-28.320,-46.387,0.000
1727535039.931,62.988,-51.270,-23.438,-15.625,0.000
1727535039.935,56.152,-43.457,-24.902,-12.695,0.000
1727535039.938,-23.926,-30.762,-28.320,-32.715,0.000
1727535039.942,-126.465,-34.180,-30.273,-74.219,0.000
1727535039.946,-67.871,-37.109,-34.180,-41.992,0.000
1727535039.950,61.523,-32.227,-43.457,3.906,0.000
1727535039.954,68.359,-36.621,-32.227,-1.465,0.000
1727535039.958,-1.953,-35.645,-17.090,-20.508,0.000
1727535039.962,-127.930,-36.621,-24.902,-57.617,0.000
1727535039.966,-91.797,-39.062,-20.508,-43.945,0.000
1727535039.970,37.598,-37.109,-19.531,-0.488,0.000
1727535039.974,57.617,-37.109,-18.066,4.883,0.000
1727535039.978,16.602,-38.574,-27.832,-16.113,0.000
1727535039.981,-101.562,-30.762,-42.969,-49.805,0.000
1727535039.985,-91.797,-24.902,-27.344,-43.945,0.000
1727535039.989,42.480,-30.762,-16.602,-4.395,0.000
1727535039.993,60.547,-31.738,-30.273,13.184,0.000
1727535039.997,7.812,-39.551,-33.203,-7.324,0.000
1727535040.001,-96.191,-53.223,-28.320,-50.781,0.000
1727535040.005,-115.723,-51.270,-30.273,-52.734,0.000
1727535040.009,7.324,-45.898,-29.297,-15.625,0.000
1727535040.013,48.828,-43.945,-44.922,-7.324,0.000
1727535040.017,16.113,-44.922,-43.457,-17.578,0.000
1727535040.020,-80.566,-43.945,-18.066,-52.246,0.000
1727535040.024,-122.559,-38.574,-14.160,-58.594,0.000
1727535040.028,-2.930,-28.320,-29.785,-16.113,0.000
1727535040.032,64.453,-30.762,-33.203,0.488,0.000
1727535040.036,38.086,-41.016,-27.344,-9.277,0.000
1727535040.040,-65.430,-30.762,-41.016,-42.969,0.000
1727535040.044,-134.766,-24.902,-37.598,-61.035,0.000
1727535040.048,-29.297,-34.668,-9.277,-25.391,0.000
1727535040.052,78.125,-32.715,4.883,-1.953,0.000
1727535040.056,59.570,-25.879,-0.488,-6.836,0.000
1727535040.059,-57.617,-36.621,-15.625,-43.945,0.000
1727535040.063,-132.324,-39.062,-20.020,-70.801,0.000
1727535040.067,-25.391,-38.086,-35.645,-29.297,0.000
1727535040.071,72.266,-43.457,-57.129,1.465,0.000
1727535040.075,49.316,-42.480,-38.086,-7.812,0.000
1727535040.079,-36.621,-46.875,-18.555,-37.109,0.000
1727535040.083,-137.207,-46.875,-18.066,-66.406,0.000
1727535040.087,-70.312,-45.410,-21.973,-40.527,0.000
1727535040.091,52.246,-41.992,-29.297,-2.930,0.000
1727535040.095,51.758,-35.645,-25.391,-1.465,0.000
1727535040.098,-34.668,-41.992,-13.184,-31.738,0.000
1727535040.102,-147.949,-54.688,0.488,-61.035,0.000
1727535040.106,-83.496,-53.711,-2.441,-34.180,0.000
1727535040.110,51.270,-52.734,-10.742,3.418,0.000
1727535040.114,59.082,-51.758,-19.531,2.930,0.000
1727535040.118,-11.230,-48.340,-36.133,-22.461,0.000
1727535040.122,-130.859,-44.434,-36.621,-53.711,0.000
1727535040.126,-92.285,-34.180,-24.414,-31.738,0.000
1727535040.130,45.898,-31.738,-31.738,7.812,0.000
1727535040.134,56.152,-37.598,-28.320,5.859,0.000
1727535040.138,0.000,-41.504,-4.395,-24.414,0.000
1727535040.141,-129.395,-41.504,-5.859,-70.801,0.000
1727535040.145,-132.812,-41.992,-26.855,-65.918,0.000
1727535040.149,26.367,-41.504,-37.109,-12.695,0.000
1727535040.153,63.965,-43.457,-29.785,-0.977,0.000
1727535040.157,12.695,-56.152,-34.180,-21.484,0.000
1727535040.161,-99.609,-58.594,-31.738,-55.664,0.000
1727535040.165,-125.977,-52.246,-20.508,-47.852,0.000
1727535040.169,2.930,-62.988,-22.461,-5.371,0.000
1727535040.173,52.734,-76.172,-32.715,0.000,0.000
1727535040.177,13.184,-67.383,-21.484,-14.160,0.000
1727535040.181,-98.145,-56.152,-10.254,-54.688,0.000
1727535040.184,-135.254,-53.711,-17.578,-54.199,0.000
1727535040.188,3.418,-56.641,-2.930,-3.418,0.000
1727535040.192,74.219,-47.363,-20.996,16.602,0.000
1727535040.196,31.738,-45.410,-61.523,6.836,0.000
1727535040.200,-85.938,-54.688,-42.480,-38.574,0.000
1727535040.204,-151.855,-46.875,-5.371,-63.965,0.000
1727535040.208,-41.992,-42.480,-17.090,-25.391,0.000
1727535040.212,39.062,-47.852,-15.625,0.488,0.000
1727535040.216,43.945,-43.457,-23.438,-0.488,0.000
1727535040.220,-26.855,-33.691,-43.945,-23.926,0.000
1727535040.224,-131.348,-38.574,-16.602,-65.430,0.000
1727535040.227,-46.387,-43.457,3.906,-41.992,0.000
1727535040.231,60.059,-35.645,8.301,1.465,0.000
1727535040.235,44.922,-32.227,-3.906,-6.836,0.000
1727535040.239,-47.363,-36.621,-26.855,-44.922,0.000
1727535040.243,-145.996,-44.434,-31.738,-74.219,0.000
1727535040.247,-55.664,-43.457,-28.809,-30.273,0.000
1727535040.251,66.895,-29.297,-44.434,12.695,0.000
1727535040.255,78.125,-15.625,-60.547,10.742,0.000
1727535040.259,-0.488,-27.344,-73.242,-21.484,0.000
1727535040.263,-121.582,-46.875,-31.738,-59.570,0.000
1727535040.267,-95.703,-40.527,14.160,-61.035,0.000
1727535040.270,10.254,-31.250,3.418,-34.668,0.000
1727535040.274,26.855,-46.387,-8.301,-9.277,0.000
1727535040.278,-22.949,-35.645,-3.418,-24.902,0.000
1727535040.282,-134.277,-1.465,-17.578,-65.918,0.000
1727535040.286,-120.605,-23.926,-54.199,-43.945,0.000
1727535040.290,-11.719,-49.316,-88.379,-35.645,0.000
1727535040.294,11.230,-45.898,-55.176,-47.363,0.000
1727535040.298,-10.254,-21.973,-13.184,-41.016,0.000
1727535040.302,-149.902,-24.902,-27.832,-95.703,0.000
1727535040.306,-156.250,-66.406,-7.812,-91.797,0.000
1727535040.309,45.898,-97.168,29.785,9.277,0.000
1727535040.313,99.609,-86.914,26.367,29.785,0.000
1727535040.317,-1.465,-67.871,-41.504,-31.250,0.000
1727535040.321,-105.957,-101.562,-39.062,-37.598,0.000
1727535040.325,-104.004,-157.715,17.090,-16.113,0.000
1727535040.329,22.461,-246.094,7.812,6.348,0.000
1727535040.333,90.332,-345.703,12.207,28.320,0.000
1727535040.337,30.273,-397.461,0.977,-7.812,0.000
1727535040.341,-112.305,-428.711,-41.504,-62.988,0.000
1727535040.345,-157.227,-549.316,-25.879,-72.266,0.000
1727535040.348,-23.438,-722.656,-1.953,-32.227,0.000
1727535040.352,37.598,-800.781,-66.895,-22.461,0.000
1727535040.356,-7.324,-868.164,-122.559,-24.414,0.000
1727535040.360,-92.773,-966.797,-26.855,-32.227,0.000
1727535040.364,-129.883,-1000.000,85.938,-38.574,0.000
1727535040.368,-48.340,-997.559,108.887,-24.414,0.000
1727535040.372,0.977,-1000.000,70.312,-41.992,0.000
1727535040.376,0.000,-1000.000,-2.441,-24.902,0.000
1727535040.380,-82.520,-1000.000,6.348,-39.062,0.000
1727535040.384,-191.895,-1000.000,7.812,-100.586,0.000
1727535040.388,-100.586,-1000.000,-51.270,-86.426,0.000
1727535040.391,59.082,-1000.000,-15.137,-9.277,0.000
1727535040.395,39.062,-1000.000,26.855,-2.441,0.000
1727535040.399,-105.469,-1000.000,24.902,-73.730,0.000
1727535040.403,-229.004,-1000.000,-27.344,-123.535,0.000
1727535040.407,-139.160,-1000.000,-42.969,-93.750,0.000
1727535040.411,-1.953,-1000.000,11.230,-54.688,0.000
1727535040.415,-2.441,-1000.000,-5.371,-54.688,0.000
1727535040.419,-120.117,-1000.000,-104.980,-119.629,0.000
1727535040.423,-269.531,-1000.000,-136.719,-182.617,0.000
1727535040.427,-201.660,-1000.000,-113.281,-134.766,0.000
1727535040.430,-87.402,-1000.000,-92.285,-105.469,0.000
1727535040.434,-89.355,-1000.000,-33.203,-106.934,0.000
1727535040.438,-96.191,-1000.000,-11.719,-83.008,0.000
1727535040.442,-237.305,-1000.000,-59.570,-149.414,0.000
1727535040.446,-264.160,-1000.000,-102.051,-174.316,0.000
1727535040.450,-63.477,-1000.000,-70.312,-71.777,0.000
1727535040.454,-12.207,-1000.000,-92.773,-37.598,0.000
1727535040.458,-95.703,-1000.000,-167.480,-103.027,0.000
1727535040.462,-245.117,-1000.000,-146.484,-177.734,0.000
1727535040.466,-234.863,-1000.000,-58.594,-146.973,0.000
1727535040.469,-92.773,-1000.000,-62.012,-110.840,0.000
1727535040.473,-79.590,-1000.000,-90.332,-136.230,0.000
1727535040.477,-107.422,-1000.000,-54.199,-132.812,0.000
1727535040.481,-174.316,-1000.000,-95.703,-133.789,0.000
1727535040.485,-169.434,-1000.000,-173.828,-104.492,0.000
1727535040.489,-43.945,-1000.000,-89.844,-44.922,0.000
1727535040.493,-15.137,-1000.000,-16.602,-59.082,0.000
1727535040.497,-65.918,-1000.000,-64.941,-100.586,0.000
1727535040.501,-139.648,-1000.000,-25.391,-90.820,0.000
1727535040.505,-148.926,-1000.000,39.551,-51.758,0.000
1727535040.509,-45.410,-1000.000,9.766,-31.738,0.000
1727535040.512,-28.809,-1000.000,-69.824,-66.895,0.000
1727535040.516,-37.598,-1000.000,-67.383,-45.898,0.000
1727535040.520,-46.875,-1000.000,-20.508,-2.930,0.000
1727535040.524,-126.953,-1000.000,-26.855,-39.062,0.000
1727535040.528,-43.945,-1000.000,-6.836,-30.762,0.000
1727535040.532,34.180,-1000.000,-18.066,-32.227,0.000
1727535040.536,6.836,-1000.000,-35.645,-46.387,0.000
1727535040.540,-103.027,-1000.000,-53.223,-81.055,0.000
1727535040.544,-225.098,-1000.000,-89.355,-131.348,0.000
1727535040.548,-69.336,-1000.000,-103.516,-37.109,0.000
1727535040.552,96.191,-1000.000,-52.734,44.434,0.000
1727535040.555,64.941,-1000.000,-6.348,0.977,0.000
1727535040.559,-42.969,-1000.000,-1.953,-38.574,0.000
1727535040.563,-129.883,-1000.000,-10.742,-46.875,0.000
1727535040.567,-33.691,-1000.000,-16.602,-18.066,0.000
1727535040.571,21.484,-1000.000,-28.320,-37.109,0.000
1727535040.575,-16.602,-1000.000,-38.086,-64.941,0.000
1727535040.579,-61.523,-1000.000,-36.621,-59.570,0.000
1727535040.583,-168.457,-1000.000,-23.926,-72.754,0.000
1727535040.587,-137.207,-1000.000,-33.691,-73.730,0.000
1727535040.591,1.953,-1000.000,-69.336,-41.992,0.000
1727535040.595,72.266,-1000.000,-71.289,6.836,0.000
1727535040.598,-4.883,-1000.000,-80.078,-33.691,0.000
1727535040.602,-149.414,-1000.000,-39.062,-75.684,0.000
1727535040.606,-158.691,-1000.000,-25.879,-89.355,0.000
1727535040.610,-33.203,-1000.000,-24.414,-79.590,0.000
1727535040.614,19.531,-1000.000,-22.949,-48.340,0.000
1727535040.618,-14.160,-1000.000,-58.594,-36.133,0.000
1727535040.622,-123.535,-1000.000,-62.012,-64.941,0.000
1727535040.626,-123.535,-1000.000,-15.137,-59.570,0.000
1727535040.630,2.930,-1000.000,-16.113,-18.066,0.000
1727535040.634,53.711,-1000.000,-21.484,-13.184,0.000
1727535040.638,30.273,-1000.000,-33.203,-5.371,0.000
1727535040.641,-77.637,-1000.000,-93.750,-25.879,0.000
1727535040.645,-135.254,-1000.000,-43.457,-49.316,0.000
1727535040.649,-32.715,-997.070,21.484,-23.926,0.000
1727535040.653,41.992,-1000.000,6.348,-16.602,0.000
1727535040.657,-3.418,-972.168,-29.785,-49.316,0.000
1727535040.661,-105.469,-914.062,-41.992,-64.453,0.000
1727535040.665,-134.277,-849.609,-21.973,-48.340,0.000
1727535040.669,-32.715,-726.074,-14.648,-15.137,0.000
1727535040.673,38.086,-635.254,-23.438,7.324,0.000
1727535040.677,36.133,-544.922,-23.438,3.418,0.000
1727535040.680,-46.875,-459.961,-25.391,-22.949,0.000
1727535040.684,-125.000,-381.836,-39.062,-31.738,0.000
1727535040.688,0.488,-303.711,-31.250,19.043,0.000
1727535040.692,104.004,-235.352,10.742,53.223,0.000
1727535040.696,89.844,-171.387,32.715,42.480,0.000
1727535040.700,3.906,-104.004,44.922,10.254,0.000
1727535040.704,-91.797,6.348,40.039,-23.438,0.000
1727535040.708,7.324,77.637,19.531,14.160,0.000
1727535040.712,144.043,234.863,22.949,75.684,0.000
1727535040.716,136.230,767.578,20.508,83.008,0.000
1727535040.719,35.156,-998.047,9.766,41.016,0.000
1727535040.723,-58.105,946.777,20.996,3.418,0.000
1727535040.727,29.297,970.215,20.996,36.621,0.000
1727535040.731,145.508,968.750,7.812,67.871,0.000
1727535040.735,136.230,968.262,19.043,51.758,0.000
1727535040.739,42.969,968.262,32.715,25.879,0.000
1727535040.743,-69.336,968.262,21.973,-1.465,0.000
1727535040.747,-8.301,968.262,2.441,19.531,0.000
1727535040.751,112.793,968.262,-16.113,55.176,0.000
1727535040.755,166.016,968.262,-42.480,79.590,0.000
1727535040.759,125.488,968.262,-34.180,76.172,0.000
1727535040.763,-42.480,968.262,6.348,6.348,0.000
1727535040.766,-39.551,968.262,40.527,2.441,0.000
1727535040.770,121.094,968.262,35.156,60.059,0.000
1727535040.774,155.762,968.262,14.648,80.566,0.000
1727535040.778,102.051,968.262,8.789,69.336,0.000
1727535040.782,-21.484,968.262,-4.883,21.484,0.000
1727535040.786,-36.133,968.262,5.371,40.039,0.000
1727535040.790,92.285,968.262,8.301,75.195,0.000
1727535040.794,122.070,968.262,7.812,62.012,0.000
1727535040.798,78.125,968.262,16.113,60.059,0.000
1727535040.802,-6.348,968.262,-3.418,10.742,0.000
1727535040.805,-31.738,968.262,-11.230,-16.113,0.000
1727535040.809,92.285,968.262,-13.672,36.133,0.000
1727535040.813,148.926,968.262,-23.926,66.406,0.000
1727535040.817,91.309,968.262,-5.859,48.828,0.000
1727535040.821,-32.227,968.262,7.812,7.812,0.000
1727535040.825,-75.684,967.773,3.906,-5.371,0.000
1727535040.829,54.199,968.262,0.977,39.551,0.000
1727535040.833,126.465,968.262,-13.672,54.688,0.000
1727535040.837,119.141,968.262,-39.551,49.316,0.000
1727535040.841,17.578,968.262,-48.828,18.066,0.000
1727535040.845,-70.801,968.262,-32.715,-4.883,0.000
1727535040.849,38.574,967.773,-49.805,47.852,0.000
1727535040.852,125.488,968.262,-43.945,72.266,0.000
1727535040.856,113.281,968.262,12.695,54.688,0.000
1727535040.860,32.715,968.262,-0.977,14.648,0.000
1727535040.864,-98.633,968.262,-11.719,-29.785,0.000
1727535040.868,-16.602,968.262,24.414,-4.395,0.000
1727535040.872,110.840,968.262,27.344,30.273,0.000
1727535040.876,100.586,968.262,1.953,29.785,0.000
1727535040.880,14.648,968.262,-15.625,13.672,0.000
1727535040.884,-84.961,968.262,-23.438,7.812,0.000
1727535040.888,-7.812,968.262,-31.250,39.062,0.000
1727535040.892,116.699,968.262,-13.672,66.895,0.000
1727535040.895,126.953,968.262,19.531,72.754,0.000
1727535040.899,52.246,968.262,29.785,42.480,0.000
1727535040.903,-64.453,968.262,11.719,-7.812,0.000
1727535040.907,-37.598,968.262,2.441,10.254,0.000
1727535040.911,91.309,968.262,-10.254,40.527,0.000
1727535040.915,122.070,968.262,-33.691,41.016,0.000
1727535040.919,55.664,968.262,-19.531,27.344,0.000
1727535040.923,-67.871,968.262,-2.930,-8.301,0.000
1727535040.927,-30.273,968.262,-4.395,5.859,0.000
1727535040.931,109.863,968.262,19.043,47.363,0.000
1727535040.934,127.930,968.262,42.480,60.059,0.000
1727535040.938,77.148,968.262,29.785,44.434,0.000
1727535040.942,-46.875,968.262,7.812,-1.953,0.000
1727535040.946,-54.688,968.262,7.324,0.977,0.000
1727535040.950,105.957,968.262,5.859,58.105,0.000
1727535040.954,146.484,968.262,4.395,79.102,0.000
1727535040.958,89.844,968.262,16.113,57.129,0.000
1727535040.962,-31.250,968.262,21.484,14.160,0.000
1727535040.966,-69.336,968.262,19.043,0.000,0.000
1727535040.970,59.082,968.262,8.789,25.879,0.000
1727535040.974,93.262,968.262,4.395,36.621,0.000
1727535040.977,54.199,968.262,-1.465,26.855,0.000
1727535040.981,-37.598,968.262,-20.996,-12.695,0.000
1727535040.985,-104.004,968.262,-48.340,-31.738,0.000
1727535040.989,24.902,966.309,-57.129,4.883,0.000
1727535040.993,110.840,969.727,-36.133,22.949,0.000
1727535040.997,80.566,958.008,-4.395,18.555,0.000
1727535041.001,-23.438,895.020,16.602,-11.719,0.000
1727535041.005,-106.445,850.098,20.508,-42.969,0.000
1727535041.009,4.395,842.773,9.766,-0.488,0.000
1727535041.013,104.004,768.555,-10.254,35.645,0.000
1727535041.017,93.750,675.293,-15.625,25.879,0.000
1727535041.020,-8.301,639.160,-32.715,-0.488,0.000
1727535041.024,-109.863,609.863,-43.945,-20.996,0.000
1727535041.028,-4.883,570.312,-37.598,8.301,0.000
1727535041.032,112.793,544.922,-37.598,40.039,0.000
1727535041.036,97.168,533.203,-31.250,31.250,0.000
1727535041.040,11.230,513.184,-16.602,2.441,0.000
1727535041.044,-100.586,496.094,11.719,-29.297,0.000
1727535041.048,-31.250,502.930,14.160,-5.371,0.000
1727535041.052,83.496,522.461,-1.953,35.645,0.000
1727535041.056,79.590,514.160,-5.859,34.668,0.000
1727535041.059,3.418,506.836,5.371,14.648,0.000
1727535041.063,-98.633,500.488,-6.348,-13.184,0.000
1727535041.067,-36.133,484.863,-34.668,2.441,0.000
1727535041.071,69.336,465.820,-27.344,32.227,0.000
1727535041.075,76.660,456.055,-4.395,26.855,0.000
1727535041.079,15.137,447.266,1.953,-6.836,0.000
1727535041.083,-100.098,423.828,1.953,-43.457,0.000
1727535041.087,-62.500,398.438,-3.418,-21.484,0.000
1727535041.091,78.613,380.371,-49.805,27.344,0.000
1727535041.095,99.609,368.164,-74.219,38.574,0.000
1727535041.099,35.156,345.703,-26.855,22.461,0.000
1727535041.102,-88.379,321.777,0.000,-33.203,0.000
1727535041.106,-86.426,318.848,2.441,-33.203,0.000
1727535041.110,59.082,315.918,2.930,17.090,0.000
1727535041.114,87.402,302.246,-26.367,26.367,0.000
1727535041.118,43.945,293.945,-28.320,16.113,0.000
1727535041.122,-54.199,291.016,6.836,-30.762,0.000
1727535041.126,-102.539,274.414,5.371,-48.340,0.000
1727535041.130,21.973,256.348,-12.695,1.953,0.000
1727535041.134,87.402,244.629,-14.648,19.043,0.000
1727535041.138,66.406,228.027,-8.301,0.488,0.000
1727535041.141,-38.086,221.680,-9.277,-36.133,0.000
1727535041.145,-110.840,210.449,-7.812,-48.340,0.000
1727535041.149,8.301,206.543,-8.789,7.324,0.000
1727535041.153,89.844,204.590,-29.785,36.133,0.000
1727535041.157,57.129,193.359,-34.668,25.391,0.000
1727535041.161,-32.715,190.918,-24.414,4.883,0.000
1727535041.165,-105.957,184.570,-26.855,-20.020,0.000
1727535041.169,-17.090,175.781,-10.254,3.906,0.000
1727535041.173,77.637,167.969,15.137,30.762,0.000
1727535041.177,81.055,163.574,3.418,20.996,0.000
1727535041.180,-11.230,158.203,-23.438,-9.766,0.000
1727535041.184,-120.605,149.414,-22.461,-39.062,0.000
1727535041.188,-32.715,151.367,-22.461,-4.395,0.000
1727535041.192,83.496,156.738,-27.344,36.133,0.000
1727535041.196,81.543,160.645,-8.301,19.531,0.000
1727535041.200,-1.465,166.504,6.836,-22.949,0.000
1727535041.204,-117.676,171.387,20.996,-59.082,0.000
1727535041.208,-47.852,166.016,0.488,-20.020,0.000
1727535041.212,83.496,155.762,-22.461,17.578,0.000
1727535041.216,86.914,152.832,0.000,15.625,0.000
1727535041.219,3.906,145.020,-1.465,6.836,0.000
1727535041.223,-104.492,143.555,-47.852,-21.484,0.000
1727535041.227,-49.805,151.855,-37.598,3.418,0.000
1727535041.231,81.543,151.367,-10.254,43.945,0.000
1727535041.235,76.172,135.742,3.906,25.879,0.000
1727535041.239,7.324,129.883,21.973,-2.930,0.000
1727535041.243,-104.004,132.812,13.672,-36.133,0.000
1727535041.247,-100.098,129.395,13.184,-36.133,0.000
1727535041.251,37.109,125.488,-5.371,4.883,0.000
1727535041.255,67.383,111.816,-26.367,14.648,0.000
1727535041.259,22.949,98.633,-20.020,-7.812,0.000
1727535041.262,-79.590,94.238,-8.301,-45.898,0.000
1727535041.266,-96.680,95.215,-0.488,-40.527,0.000
1727535041.270,24.414,87.891,-7.324,6.836,0.000
1727535041.274,74.707,84.473,-23.438,16.113,0.000
1727535041.278,47.852,92.285,-43.457,-0.488,0.000
1727535041.282,-62.012,94.727,-47.363,-34.668,0.000
1727535041.286,-107.910,81.543,2.441,-55.664,0.000
1727535041.290,23.438,69.824,29.785,-17.578,0.000
1727535041.294,89.844,71.289,19.531,15.137,0.000
1727535041.298,64.941,68.848,7.324,10.254,0.000
1727535041.302,-34.180,70.801,-20.508,-20.508,0.000
1727535041.305,-104.980,84.961,-45.410,-42.480,0.000
1727535041.309,2.930,105.469,-34.668,-5.859,0.000
1727535041.313,77.148,115.234,-5.859,14.648,0.000
1727535041.317,41.992,117.676,-5.371,-3.906,0.000
1727535041.321,-49.805,113.281,-25.879,-34.668,0.000
1727535041.325,-127.441,95.215,-18.555,-58.594,0.000
1727535041.329,-19.531,83.984,-6.348,-12.695,0.000
1727535041.333,87.891,83.496,-6.836,26.855,0.000
1727535041.337,78.613,82.031,-9.277,14.160,0.000
1727535041.341,-24.902,78.125,-16.602,-20.020,0.000
1727535041.345,-122.070,82.520,-17.578,-46.875,0.000
1727535041.348,-32.227,78.125,-16.602,-14.648,0.000
1727535041.352,71.289,65.430,-23.438,19.043,0.000
1727535041.356,73.242,66.406,-28.320,27.344,0.000
1727535041.360,-1.465,57.129,-41.504,-1.953,0.000
1727535041.364,-115.723,46.875,-44.434,-46.875,0.000
1727535041.368,-44.922,44.434,-21.973,-26.367,0.000
1727535041.372,76.172,46.387,-0.488,9.277,0.000
1727535041.376,71.289,36.133,-1.953,11.719,0.000
1727535041.380,0.000,32.715,-21.973,-12.207,0.000
1727535041.384,-116.211,39.551,-39.062,-53.223,0.000
1727535041.388,-78.613,38.574,-29.785,-39.551,0.000
1727535041.391,57.129,38.086,-15.625,3.906,0.000
1727535041.395,91.309,29.297,-18.066,17.090,0.000
1727535041.399,23.926,30.273,-49.316,1.465,0.000
1727535041.403,-101.562,38.086,-68.359,-27.832,0.000
1727535041.407,-86.914,35.156,-20.020,-22.461,0.000
1727535041.411,41.992,24.414,1.953,1.953,0.000
1727535041.415,50.293,20.020,-5.859,4.883,0.000
1727535041.419,8.789,25.391,11.719,-12.695,0.000
1727535041.423,-100.586,21.973,12.207,-54.199,0.000
1727535041.427,-130.371,15.625,3.906,-52.734,0.000
1727535041.430,13.184,7.812,-6.836,-4.883,0.000
1727535041.434,55.176,6.836,-22.461,9.766,0.000
1727535041.438,24.414,8.301,-33.691,6.836,0.000
1727535041.442,-62.012,8.301,-42.969,-13.184,0.000
1727535041.446,-91.797,1.465,-19.043,-11.719,0.000
1727535041.450,41.016,1.465,-4.883,21.484,0.000
1727535041.454,104.492,3.906,-11.230,36.133,0.000
1727535041.458,72.754,10.254,-6.348,32.715,0.000
1727535041.462,-46.875,16.113,9.766,-8.789,0.000
1727535041.466,-132.812,1.465,4.883,-41.016,0.000
1727535041.470,-13.672,-0.488,-6.836,-8.789,0.000
1727535041.473,80.078,6.836,-5.859,22.461,0.000
1727535041.477,73.242,7.812,-21.973,23.438,0.000
1727535041.481,-20.508,7.812,-44.922,-12.695,0.000
1727535041.485,-124.512,-7.324,-41.016,-45.898,0.000
1727535041.489,-25.391,-16.602,-38.574,-7.812,0.000
1727535041.493,78.125,-7.324,-20.020,26.855,0.000
1727535041.497,56.152,-3.418,0.488,13.672,0.000
1727535041.501,-26.855,3.418,-10.742,-22.461,0.000
1727535041.505,-117.676,2.930,-16.113,-43.945,0.000
1727535041.509,-31.250,-4.395,-8.789,-11.230,0.000
1727535041.512,75.684,-1.953,-22.461,8.789,0.000
1727535041.516,66.895,3.906,-41.992,9.277,0.000
1727535041.520,-4.883,3.906,-10.742,-7.812,0.000
1727535041.524,-119.141,-4.883,11.230,-53.223,0.000
1727535041.528,-66.406,-12.207,6.348,-33.203,0.000
1727535041.532,57.617,-14.160,-9.277,4.395,0.000
1727535041.536,62.012,-10.742,-21.973,10.742,0.000
1727535041.540,-14.160,-10.254,-10.254,-6.836,0.000
1727535041.544,-126.465,-11.719,-38.086,-47.363,0.000
1727535041.548,-70.801,-10.254,-45.410,-36.133,0.000
1727535041.551,59.082,-15.625,-12.695,-3.906,0.000
1727535041.555,56.641,-27.344,-13.672,-4.395,0.000
1727535041.559,-1.953,-28.320,-20.996,-20.020,0.000
1727535041.563,-107.422,-12.695,-35.156,-44.434,0.000
1727535041.567,-100.586,-12.207,-32.715,-35.156,0.000
1727535041.571,40.527,-24.414,-13.672,-6.348,0.000
1727535041.575,76.172,-19.531,-6.348,9.277,0.000
1727535041.579,23.926,-20.508,-1.465,5.371,0.000
1727535041.583,-107.422,-35.156,-7.812,-44.434,0.000
1727535041.587,-134.277,-31.738,-19.043,-59.082,0.000
1727535041.590,7.812,-20.020,-16.113,-20.996,0.000
1727535041.594,53.711,-19.531,-12.207,-6.836,0.000
1727535041.598,29.785,-13.672,-24.902,-9.277,0.000
1727535041.602,-82.031,-6.836,-38.574,-43.945,0.000
1727535041.606,-141.602,-9.766,-41.504,-62.012,0.000
1727535041.610,6.348,1.465,-31.250,-18.555,0.000
1727535041.614,69.824,2.930,-16.113,3.906,0.000
1727535041.618,23.926,-13.672,-20.508,-15.137,0.000
1727535041.622,-71.289,-14.648,-23.438,-47.852,0.000
1727535041.626,-132.324,-16.602,-19.531,-63.477,0.000
1727535041.630,-21.484,-18.066,-26.855,-26.855,0.000
1727535041.634,57.617,-16.113,-39.062,6.348,0.000
1727535041.637,46.387,-17.090,-37.109,-1.953,0.000
1727535041.641,-42.969,-12.207,-22.949,-40.039,0.000
1727535041.645,-133.301,-4.395,-26.855,-72.266,0.000
1727535041.649,-31.250,-2.441,-23.926,-38.086,0.000
1727535041.653,67.871,-3.418,-28.320,0.000,0.000
1727535041.657,56.152,5.371,-55.176,12.207,0.000
1727535041.661,-33.203,7.812,-54.199,-17.090,0.000
1727535041.665,-134.766,-3.906,-36.621,-56.641,0.000
1727535041.669,-43.945,-4.395,-16.602,-27.832,0.000
1727535041.673,70.801,-0.488,-9.277,8.301,0.000
1727535041.676,65.430,-7.812,-19.531,0.977,0.000
1727535041.680,-8.789,-18.555,-20.996,-34.668,0.000
1727535041.684,-129.395,-22.949,-23.926,-63.965,0.000
1727535041.688,-73.730,-18.555,-19.531,-32.227,0.000
1727535041.692,54.199,-17.090,-22.949,1.465,0.000
1727535041.696,64.453,-13.184,-16.602,9.766,0.000
1727535041.700,-4.395,-7.812,-7.324,-3.418,0.000
1727535041.704,-131.836,-18.555,-13.672,-47.363,0.000
1727535041.708,-85.938,-21.484,-20.508,-43.457,0.000
1727535041.712,52.734,-14.648,-30.762,-2.441,0.000
1727535041.716,65.918,-17.578,-37.598,7.324,0.000
1727535041.719,0.977,-20.996,-28.320,-14.160,0.000
1727535041.723,-112.793,-21.973,-7.812,-51.270,0.000
1727535041.727,-84.473,-17.090,-2.930,-31.250,0.000
1727535041.731,54.199,-9.766,-15.137,18.555,0.000
1727535041.735,81.055,-17.578,-32.227,15.137,0.000
1727535041.739,28.320,-22.949,-30.273,-12.207,0.000
1727535041.743,-101.562,-22.949,-4.395,-58.105,0.000
1727535041.747,-117.188,-31.250,4.883,-51.758,0.000
1727535041.751,21.484,-41.016,-24.902,-9.277,0.000
1727535041.755,58.594,-39.062,-29.297,1.465,0.000
1727535041.759,29.297,-26.855,-14.648,-5.859,0.000
1727535041.762,-72.754,-26.855,-25.391,-41.016,0.000
1727535041.766,-116.699,-27.832,-21.973,-41.992,0.000
1727535041.770,2.441,-30.762,-14.648,1.465,0.000
1727535041.774,56.641,-34.668,-11.230,10.254,0.000
1727535041.778,30.273,-32.715,-8.789,-0.977,0.000
1727535041.782,-65.430,-39.551,-11.719,-43.945,0.000
1727535041.786,-139.160,-47.852,-8.301,-70.312,0.000
1727535041.790,-22.461,-41.504,-21.973,-31.250,0.000
1727535041.794,59.570,-35.156,-58.105,-5.859,0.000
1727535041.798,23.926,-43.945,-51.758,-8.789,0.000
1727535041.801,-82.031,-58.594,-30.273,-50.781,0.000
1727535041.805,-156.250,-62.012,-30.762,-78.613,0.000
1727535041.809,-37.109,-48.828,-39.062,-30.273,0.000
1727535041.813,72.266,-38.086,-48.340,10.254,0.000
1727535041.817,57.129,-47.363,-31.250,4.883,0.000
1727535041.821,-37.109,-56.641,-10.742,-22.949,0.000
1727535041.825,-142.090,-52.246,-7.812,-58.105,0.000
1727535041.829,-46.875,-46.387,-9.277,-35.156,0.000
1727535041.833,73.242,-44.434,-21.484,-1.465,0.000
1727535041.837,62.988,-45.410,-25.879,-8.789,0.000
1727535041.841,-12.207,-46.875,-16.602,-29.297,0.000
1727535041.844,-128.906,-52.246,-21.973,-53.223,0.000
1727535041.848,-63.965,-59.570,-27.832,-24.902,0.000
1727535041.852,63.477,-47.852,-25.391,4.883,0.000
1727535041.856,58.594,-39.062,-19.531,-0.977,0.000
1727535041.860,-21.484,-55.664,-17.578,-21.973,0.000
1727535041.864,-141.602,-69.824,-14.648,-67.871,0.000
1727535041.868,-110.840,-58.594,-21.973,-62.500,0.000
1727535041.872,24.902,-41.504,-13.672,-18.555,0.000
1727535041.876,60.547,-45.410,0.977,-4.883,0.000
1727535041.880,11.230,-44.434,-12.695,-28.320,0.000
1727535041.883,-106.445,-40.039,-33.203,-62.500,0.000
1727535041.887,-108.398,-54.199,-32.715,-55.664,0.000
1727535041.891,20.020,-57.129,-12.695,-12.695,0.000
1727535041.895,54.688,-47.852,10.742,1.953,0.000
1727535041.899,4.883,-51.758,3.418,-15.137,0.000
1727535041.903,-111.328,-56.641,-18.555,-57.129,0.000
1727535041.907,-145.020,-38.086,-23.438,-63.965,0.000
1727535041.911,-4.395,-8.301,-26.855,-1.953,0.000
1727535041.915,60.059,5.859,-24.902,18.555,0.000
