timestamps,TP9,AF7,AF8,TP10,Right AUX
1727534882.715,86.426,11.230,-14.648,32.227,0.000
1727534882.719,-26.367,17.578,-13.184,-5.859,0.000
1727534882.723,-161.621,12.695,-12.207,-73.242,0.000
1727534882.726,-67.383,6.836,-12.207,-50.293,0.000
1727534882.730,80.078,20.508,-7.324,8.301,0.000
1727534882.734,84.961,23.926,-5.859,15.137,0.000
1727534882.738,-7.812,22.461,-10.254,-13.672,0.000
1727534882.742,-157.227,22.949,-8.789,-68.848,0.000
1727534882.746,-69.824,24.902,-14.648,-34.180,0.000
1727534882.750,97.656,19.043,-17.090,25.391,0.000
1727534882.754,95.703,15.137,-12.207,24.414,0.000
1727534882.758,5.371,20.020,-15.137,-1.465,0.000
1727534882.762,-151.855,18.066,-16.602,-67.871,0.000
1727534882.765,-96.191,16.113,-10.254,-50.293,0.000
1727534882.769,85.938,21.973,-8.301,16.602,0.000
1727534882.773,110.840,19.043,-6.348,31.738,0.000
1727534882.777,23.926,13.672,-8.301,5.371,0.000
1727534882.781,-142.578,12.207,-26.367,-61.523,0.000
1727534882.785,-103.027,24.414,-53.711,-37.109,0.000
1727534882.789,91.309,31.738,-47.363,27.344,0.000
1727534882.793,119.629,13.672,-10.254,24.414,0.000
1727534882.797,36.621,5.371,6.348,-6.348,0.000
1727534882.801,-141.113,5.859,4.883,-69.824,0.000
1727534882.805,-164.062,-1.465,1.465,-75.195,0.000
1727534882.808,22.949,-1.953,-6.348,-0.977,0.000
1727534882.812,85.449,1.465,-7.324,15.137,0.000
1727534882.816,32.227,5.859,-5.371,-7.324,0.000
1727534882.820,-117.188,7.812,-5.371,-55.176,0.000
1727534882.824,-157.227,10.742,-4.883,-66.895,0.000
1727534882.828,32.227,16.113,2.930,14.160,0.000
1727534882.832,112.305,14.648,5.371,43.457,0.000
1727534882.836,65.918,8.789,1.953,8.301,0.000
1727534882.840,-76.172,-7.324,0.488,-51.270,0.000
1727534882.844,-160.156,-11.230,-14.160,-81.055,0.000
1727534882.848,1.465,6.348,-24.414,-21.973,0.000
1727534882.851,107.910,18.555,-31.250,16.113,0.000
1727534882.855,68.848,12.695,-27.832,-1.465,0.000
1727534882.859,-81.055,14.160,-4.883,-58.105,0.000
1727534882.863,-181.152,22.461,3.418,-88.867,0.000
1727534882.867,-19.531,19.531,13.672,-30.273,0.000
1727534882.871,105.957,12.695,12.695,6.836,0.000
1727534882.875,80.078,9.766,-0.488,-4.883,0.000
1727534882.879,-58.105,6.348,0.488,-50.781,0.000
1727534882.883,-187.012,7.812,7.324,-91.309,0.000
1727534882.887,-55.664,11.230,14.160,-30.762,0.000
1727534882.891,81.055,15.625,22.949,28.320,0.000
1727534882.894,65.430,17.090,17.090,20.020,0.000
1727534882.898,-45.898,12.695,-0.977,-15.625,0.000
1727534882.902,-182.129,6.836,-5.859,-76.660,0.000
1727534882.906,-69.824,2.441,-2.441,-37.598,0.000
1727534882.910,85.938,8.789,-4.395,24.414,0.000
1727534882.914,68.848,13.184,-7.324,5.371,0.000
1727534882.918,-43.945,4.883,-6.836,-47.852,0.000
1727534882.922,-193.848,-6.348,-2.930,-104.980,0.000
1727534882.926,-109.375,0.488,-1.953,-62.988,0.000
1727534882.930,64.941,7.812,-11.719,9.766,0.000
1727534882.933,81.055,10.742,-14.648,22.949,0.000
1727534882.937,-9.277,10.742,-5.859,-13.184,0.000
1727534882.941,-166.016,14.648,-1.465,-86.914,0.000
1727534882.945,-109.375,8.789,-1.465,-68.359,0.000
1727534882.949,71.289,-0.488,-4.883,8.301,0.000
1727534882.953,92.773,-0.488,-1.465,13.672,0.000
1727534882.957,12.695,1.953,-0.977,-20.020,0.000
1727534882.961,-148.438,6.348,-3.418,-74.707,0.000
1727534882.965,-133.789,4.883,-12.207,-62.988,0.000
1727534882.969,44.434,-4.883,-14.160,1.465,0.000
1727534882.973,72.754,-16.113,-7.812,8.789,0.000
1727534882.976,9.766,-5.859,-12.207,-16.602,0.000
1727534882.980,-140.137,8.789,-14.648,-71.777,0.000
1727534882.984,-156.250,8.789,-4.883,-73.730,0.000
1727534882.988,33.691,6.348,5.371,-8.789,0.000
1727534882.992,92.285,2.441,0.977,16.602,0.000
1727534882.996,23.926,1.465,-11.230,-4.883,0.000
1727534883.000,-135.254,-2.441,-9.766,-65.430,0.000
1727534883.004,-192.871,-23.438,-6.348,-85.938,0.000
1727534883.008,-17.578,-21.973,-18.555,-33.203,0.000
1727534883.012,69.336,-8.789,-11.719,-1.465,0.000
1727534883.016,25.879,-2.441,-6.836,-14.160,0.000
1727534883.019,-116.211,1.953,-14.648,-64.453,0.000
1727534883.023,-197.754,-4.883,-11.230,-92.285,0.000
1727534883.027,-25.879,-3.418,-13.672,-29.785,0.000
1727534883.031,83.496,1.465,-4.883,9.277,0.000
1727534883.035,41.504,-6.348,-4.395,-19.043,0.000
1727534883.039,-99.121,-13.672,-17.090,-70.801,0.000
1727534883.043,-218.262,-14.160,-25.391,-113.770,0.000
1727534883.047,-66.406,-11.719,-20.020,-68.359,0.000
1727534883.051,55.176,-12.695,-23.438,-22.461,0.000
1727534883.055,25.391,-17.578,-38.086,-23.926,0.000
1727534883.058,-93.262,-18.066,-21.973,-65.918,0.000
1727534883.062,-210.449,-15.625,-26.855,-105.957,0.000
1727534883.066,-66.406,-8.301,-49.316,-44.922,0.000
1727534883.070,80.078,-3.418,-37.109,18.555,0.000
1727534883.074,53.223,9.766,-10.254,6.348,0.000
1727534883.078,-66.406,29.297,-0.488,-53.711,0.000
1727534883.082,-220.703,29.785,0.977,-112.305,0.000
1727534883.086,-133.301,19.531,-8.301,-87.891,0.000
1727534883.090,39.062,16.113,-18.555,-16.602,0.000
1727534883.094,47.852,20.020,-5.371,-6.348,0.000
1727534883.098,-68.359,15.625,-2.441,-62.500,0.000
1727534883.101,-236.816,2.441,-10.254,-129.395,0.000
1727534883.105,-151.855,-0.977,-7.324,-82.031,0.000
1727534883.109,30.273,3.418,-15.625,-9.766,0.000
1727534883.113,43.457,1.465,-27.832,-4.395,0.000
1727534883.117,-42.969,0.488,-24.414,-33.203,0.000
1727534883.121,-194.336,-5.859,-30.273,-104.980,0.000
1727534883.125,-150.879,-3.418,-49.805,-92.773,0.000
1727534883.129,38.574,11.719,-34.668,-19.043,0.000
1727534883.133,69.824,10.254,-9.766,-2.930,0.000
1727534883.137,-14.160,8.301,-7.324,-32.227,0.000
1727534883.141,-178.711,13.184,-2.441,-90.820,0.000
1727534883.144,-171.387,6.836,-0.977,-90.332,0.000
1727534883.148,22.949,0.488,1.953,-20.020,0.000
1727534883.152,70.801,2.441,1.465,-2.441,0.000
1727534883.156,3.906,3.906,-0.977,-23.438,0.000
1727534883.160,-150.879,6.348,-0.488,-75.195,0.000
1727534883.164,-165.527,0.977,-12.207,-88.379,0.000
1727534883.168,26.367,-11.719,-19.531,-18.066,0.000
1727534883.172,87.891,-9.766,-21.973,1.953,0.000
1727534883.176,38.086,1.953,-18.066,-14.648,0.000
1727534883.180,-107.422,11.230,-27.344,-74.707,0.000
1727534883.184,-167.969,5.371,-36.133,-94.238,0.000
1727534883.187,-0.488,-8.301,-21.973,-16.113,0.000
1727534883.191,79.590,-3.906,-41.016,5.859,0.000
1727534883.195,41.504,1.465,-37.598,-12.695,0.000
1727534883.199,-99.121,-7.324,-3.418,-62.012,0.000
1727534883.203,-190.430,-20.020,-23.438,-96.191,0.000
1727534883.207,-20.020,-21.484,-31.738,-28.809,0.000
1727534883.211,78.613,-15.137,-8.301,15.137,0.000
1727534883.215,36.133,-5.859,-4.395,-2.441,0.000
1727534883.219,-84.961,-6.836,2.441,-57.617,0.000
1727534883.223,-199.707,-8.301,-12.695,-112.793,0.000
1727534883.226,-53.223,-2.930,-31.250,-61.035,0.000
1727534883.230,74.707,-10.742,-21.484,-10.254,0.000
1727534883.234,37.598,-20.996,-4.395,-26.855,0.000
1727534883.238,-93.750,-18.066,-1.953,-75.684,0.000
1727534883.242,-214.844,-8.789,-34.180,-112.793,0.000
1727534883.246,-84.473,-2.930,-44.922,-56.641,0.000
1727534883.250,67.871,-5.859,-21.484,-13.672,0.000
1727534883.254,68.848,-14.160,-30.762,-20.020,0.000
1727534883.258,-39.062,-26.367,-36.133,-52.246,0.000
1727534883.262,-192.871,-20.020,-30.273,-104.980,0.000
1727534883.266,-102.051,-7.324,-35.156,-64.941,0.000
1727534883.269,68.359,-6.836,-19.043,-3.906,0.000
1727534883.273,56.641,-11.719,-3.906,-9.277,0.000
1727534883.277,-53.711,-17.578,7.324,-54.199,0.000
1727534883.281,-202.148,-23.926,-1.465,-116.211,0.000
1727534883.285,-129.883,-23.926,-5.859,-90.332,0.000
1727534883.289,57.129,-15.625,-5.371,-20.996,0.000
1727534883.293,72.754,-16.113,-20.508,-10.742,0.000
1727534883.297,-24.902,-16.113,-26.855,-43.945,0.000
1727534883.301,-188.477,-20.020,-18.555,-110.352,0.000
1727534883.305,-152.832,-25.391,-11.719,-98.633,0.000
1727534883.309,29.297,-19.531,-16.602,-26.855,0.000
1727534883.312,68.359,-9.277,-25.879,-5.859,0.000
1727534883.316,14.160,-13.672,-24.414,-10.742,0.000
1727534883.320,-147.949,-28.320,-11.719,-69.824,0.000
1727534883.324,-173.340,-27.832,-16.602,-99.609,0.000
1727534883.328,1.953,-19.531,-32.227,-47.363,0.000
1727534883.332,59.082,-23.926,-20.996,-28.809,0.000
1727534883.336,-9.277,-33.203,-16.602,-45.410,0.000
1727534883.340,-177.734,-33.691,-44.434,-108.887,0.000
1727534883.344,-223.633,-28.320,-54.688,-132.812,0.000
1727534883.348,-39.062,-27.832,-23.438,-56.641,0.000
1727534883.351,40.039,-39.551,15.137,-13.184,0.000
1727534883.355,-16.602,-48.340,26.855,-35.645,0.000
1727534883.359,-169.922,-49.805,16.602,-106.934,0.000
1727534883.363,-240.234,-48.828,1.465,-127.930,0.000
1727534883.367,-66.406,-42.969,0.000,-53.711,0.000
1727534883.371,51.270,-39.551,-37.109,-10.742,0.000
1727534883.375,23.438,-42.480,-59.082,-13.184,0.000
1727534883.379,-115.234,-30.273,-49.316,-58.594,0.000
1727534883.383,-212.891,-14.160,-41.992,-102.539,0.000
1727534883.387,-63.965,-25.391,18.555,-54.688,0.000
1727534883.391,51.758,-45.410,43.945,-17.578,0.000
1727534883.394,21.484,-42.969,28.320,-31.250,0.000
1727534883.398,-106.445,-28.320,7.812,-66.895,0.000
1727534883.402,-214.844,-31.738,-2.441,-94.727,0.000
1727534883.406,-71.289,-39.551,-0.977,-46.387,0.000
1727534883.410,60.059,-31.738,6.348,0.488,0.000
1727534883.414,31.738,-28.809,3.906,-11.719,0.000
1727534883.418,-83.984,-22.461,-16.113,-61.523,0.000
1727534883.422,-211.914,-24.902,-17.578,-107.422,0.000
1727534883.426,-100.586,-36.133,-18.555,-69.336,0.000
1727534883.430,53.223,-27.832,-27.344,-5.859,0.000
1727534883.434,52.246,-19.531,-41.016,12.207,0.000
1727534883.437,-49.316,-24.902,-42.480,-32.227,0.000
1727534883.441,-201.172,-29.297,-10.742,-99.609,0.000
1727534883.445,-101.074,-24.414,0.977,-64.941,0.000
1727534883.449,85.449,-27.832,-33.203,2.930,0.000
1727534883.453,70.312,-38.574,-37.109,1.953,0.000
1727534883.457,-62.988,-37.598,2.441,-63.965,0.000
1727534883.461,-231.934,-35.156,6.836,-138.672,0.000
1727534883.465,-157.715,-32.715,-19.531,-108.887,0.000
1727534883.469,32.715,-35.645,-11.719,-34.668,0.000
1727534883.473,31.738,-49.316,12.207,-40.527,0.000
1727534883.476,-59.570,-53.223,9.766,-73.242,0.000
1727534883.480,-228.027,-51.758,-13.672,-136.230,0.000
1727534883.484,-214.844,-66.406,-15.137,-129.883,0.000
1727534883.488,-23.438,-75.195,-13.184,-48.828,0.000
1727534883.492,10.742,-66.895,-1.953,-44.434,0.000
1727534883.496,-60.059,-57.129,-5.371,-71.289,0.000
1727534883.500,-207.031,-51.758,-12.207,-125.488,0.000
1727534883.504,-217.285,-48.340,-6.836,-125.488,0.000
1727534883.508,-38.574,-47.363,-33.691,-51.758,0.000
1727534883.512,25.879,-47.363,1.953,-37.109,0.000
1727534883.515,-32.227,-47.852,35.645,-54.199,0.000
1727534883.519,-187.500,-52.246,9.766,-98.633,0.000
1727534883.523,-215.332,-48.340,-29.785,-108.887,0.000
1727534883.527,-29.785,-52.734,-9.277,-39.551,0.000
1727534883.531,43.945,-60.547,35.156,-10.742,0.000
1727534883.535,-8.301,-57.617,24.414,-35.645,0.000
1727534883.539,-156.738,-46.387,-19.531,-95.703,0.000
1727534883.543,-215.332,-35.156,-75.195,-114.258,0.000
1727534883.547,-28.809,-29.297,-86.914,-37.109,0.000
1727534883.551,70.312,-29.297,-37.598,4.395,0.000
1727534883.555,14.648,-44.434,21.484,-28.809,0.000
1727534883.558,-137.695,-56.641,40.527,-92.285,0.000
1727534883.562,-226.562,-52.734,23.926,-110.352,0.000
1727534883.566,-49.805,-49.316,-6.836,-44.434,0.000
1727534883.570,76.660,-52.246,-33.203,-1.465,0.000
1727534883.574,49.316,-46.387,-55.664,2.441,0.000
1727534883.578,-84.961,-35.645,-47.363,-47.852,0.000
1727534883.582,-215.820,-41.504,-20.996,-101.562,0.000
1727534883.586,-78.613,-50.293,-2.441,-55.664,0.000
1727534883.590,61.523,-49.316,-1.953,-12.207,0.000
1727534883.594,44.434,-41.016,-25.879,-13.184,0.000
1727534883.598,-70.312,-28.320,-66.406,-58.105,0.000
1727534883.601,-213.379,-30.273,-71.777,-110.840,0.000
1727534883.605,-99.121,-29.785,-49.316,-62.500,0.000
1727534883.609,67.383,-23.926,-46.387,0.977,0.000
1727534883.613,64.453,-25.879,-61.523,-6.348,0.000
1727534883.617,-53.223,-34.180,-28.320,-60.059,0.000
1727534883.621,-211.426,-35.156,-1.953,-107.910,0.000
1727534883.625,-110.352,-28.320,-27.344,-70.801,0.000
1727534883.629,57.129,-42.480,-0.977,-18.555,0.000
1727534883.633,44.922,-52.734,26.855,-21.484,0.000
1727534883.637,-48.828,-46.387,0.000,-50.293,0.000
1727534883.641,-201.172,-41.016,-42.480,-106.445,0.000
1727534883.644,-144.531,-38.086,-63.965,-85.938,0.000
1727534883.648,47.852,-35.156,-53.223,-5.859,0.000
1727534883.652,69.336,-36.133,-58.594,-0.977,0.000
1727534883.656,-31.738,-33.203,-105.957,-41.016,0.000
1727534883.660,-178.223,-27.344,-86.914,-93.262,0.000
1727534883.664,-149.902,-31.250,-36.133,-82.031,0.000
1727534883.668,20.508,-34.180,-19.531,-28.809,0.000
1727534883.672,48.828,-31.250,-10.742,-20.996,0.000
1727534883.676,-2.441,-33.691,-6.836,-29.297,0.000
1727534883.680,-135.742,-27.832,8.301,-81.055,0.000
1727534883.683,-153.320,-16.602,23.926,-80.078,0.000
1727534883.687,20.020,-31.250,4.883,-22.461,0.000
1727534883.691,75.684,-38.086,-21.484,-17.578,0.000
1727534883.695,14.160,-18.555,-98.633,-53.223,0.000
1727534883.699,-144.043,-17.090,-117.676,-124.512,0.000
1727534883.703,-177.734,-27.344,-26.367,-109.863,0.000
1727534883.707,19.043,-46.875,43.945,-13.184,0.000
1727534883.711,101.562,-54.688,67.871,22.461,0.000
1727534883.715,38.574,-28.320,15.625,-4.395,0.000
1727534883.719,-135.742,-26.855,-20.508,-77.637,0.000
1727534883.723,-222.168,-38.086,-84.473,-113.770,0.000
1727534883.726,-11.719,-28.320,-87.402,-21.973,0.000
1727534883.730,81.055,-31.250,27.344,26.367,0.000
1727534883.734,7.324,-41.016,76.172,-11.719,0.000
1727534883.738,-165.527,-47.363,54.688,-104.004,0.000
1727534883.742,-293.945,-46.387,-16.602,-155.273,0.000
1727534883.746,-93.262,-54.688,-34.668,-49.805,0.000
1727534883.750,62.988,-84.473,-15.137,14.160,0.000
1727534883.754,45.898,-49.316,-45.410,1.465,0.000
1727534883.758,-91.797,-8.789,-11.230,-71.777,0.000
1727534883.762,-229.492,-35.645,30.762,-119.629,0.000
1727534883.766,-121.094,-32.715,23.438,-87.402,0.000
1727534883.769,15.137,-55.664,44.434,-41.016,0.000
1727534883.773,25.391,-70.801,36.133,-5.371,0.000
1727534883.777,-75.684,-72.754,-64.941,-43.457,0.000
1727534883.781,-192.383,-97.168,-97.168,-88.379,0.000
1727534883.785,-97.168,-135.254,19.531,-62.988,0.000
1727534883.789,41.504,-152.344,71.777,-16.602,0.000
1727534883.793,30.762,-157.715,71.289,-4.395,0.000
1727534883.797,-50.293,-174.316,12.207,-30.762,0.000
1727534883.801,-216.797,-189.453,-55.664,-105.957,0.000
1727534883.805,-187.988,-232.422,-20.020,-103.027,0.000
1727534883.808,12.695,-335.938,-3.418,-29.297,0.000
1727534883.812,27.344,-383.301,37.109,-27.832,0.000
1727534883.816,-69.824,-448.242,18.555,-50.293,0.000
1727534883.820,-190.430,-586.914,-92.285,-67.383,0.000
1727534883.824,-141.113,-713.867,-38.574,-65.918,0.000
1727534883.828,69.824,-892.578,73.242,22.461,0.000
1727534883.832,56.641,-999.512,41.992,21.973,0.000
1727534883.836,-33.203,-997.559,-60.059,-23.926,0.000
1727534883.840,-184.082,-998.535,-14.648,-100.586,0.000
1727534883.844,-259.277,-1000.000,86.426,-162.598,0.000
1727534883.848,-115.234,-1000.000,55.664,-117.188,0.000
1727534883.851,-17.578,-1000.000,13.672,-69.824,0.000
1727534883.855,0.977,-1000.000,47.852,-4.395,0.000
1727534883.859,-156.250,-1000.000,16.602,-36.621,0.000
1727534883.863,-199.219,-1000.000,-10.254,-49.805,0.000
1727534883.867,-38.086,-1000.000,47.852,-4.395,0.000
1727534883.871,0.977,-1000.000,48.340,-27.344,0.000
1727534883.875,-69.824,-1000.000,16.113,-60.059,0.000
1727534883.879,-218.262,-1000.000,-63.477,-116.699,0.000
1727534883.883,-293.457,-1000.000,-125.000,-181.152,0.000
1727534883.887,-129.883,-1000.000,-67.871,-128.418,0.000
1727534883.890,-34.180,-1000.000,-20.996,-75.684,0.000
1727534883.894,-56.641,-1000.000,-7.812,-63.477,0.000
1727534883.898,-216.309,-1000.000,-54.688,-126.953,0.000
1727534883.902,-357.910,-1000.000,-160.645,-191.895,0.000
1727534883.906,-210.938,-1000.000,-182.617,-146.973,0.000
1727534883.910,-82.520,-1000.000,-36.133,-96.680,0.000
1727534883.914,-96.680,-1000.000,40.039,-100.586,0.000
1727534883.918,-190.430,-1000.000,-3.418,-136.719,0.000
1727534883.922,-272.461,-1000.000,-33.691,-158.203,0.000
1727534883.926,-124.512,-1000.000,-7.812,-97.168,0.000
1727534883.929,-4.395,-1000.000,11.230,-44.434,0.000
1727534883.933,-49.316,-1000.000,-52.246,-57.617,0.000
1727534883.937,-196.777,-1000.000,-109.863,-126.465,0.000
1727534883.941,-328.125,-1000.000,-89.844,-178.711,0.000
1727534883.945,-186.035,-1000.000,-83.008,-108.887,0.000
1727534883.949,-11.230,-1000.000,-82.520,-45.898,0.000
1727534883.953,-13.672,-1000.000,-90.820,-65.918,0.000
1727534883.957,-119.141,-1000.000,-79.102,-88.379,0.000
1727534883.961,-248.047,-1000.000,-13.184,-108.398,0.000
1727534883.965,-200.684,-1000.000,24.902,-110.840,0.000
1727534883.969,-48.828,-1000.000,14.648,-71.289,0.000
1727534883.972,-36.621,-1000.000,-20.020,-85.449,0.000
1727534883.976,-137.207,-1000.000,-66.895,-108.398,0.000
1727534883.980,-270.996,-1000.000,-87.402,-127.441,0.000
1727534883.984,-193.848,-1000.000,-89.355,-104.004,0.000
1727534883.988,-32.227,-1000.000,-116.211,-64.453,0.000
1727534883.992,-8.789,-1000.000,-83.496,-52.246,0.000
1727534883.996,-89.844,-1000.000,-43.457,-66.895,0.000
1727534884.000,-283.203,-1000.000,-86.914,-144.043,0.000
1727534884.004,-243.652,-1000.000,-96.191,-127.930,0.000
1727534884.008,-51.758,-1000.000,-76.660,-61.523,0.000
1727534884.012,-8.301,-1000.000,-52.734,-42.480,0.000
1727534884.015,-73.242,-1000.000,-73.730,-61.035,0.000
1727534884.019,-251.953,-1000.000,-87.402,-145.508,0.000
1727534884.023,-240.723,-1000.000,-26.367,-153.809,0.000
1727534884.027,-42.969,-1000.000,-30.273,-87.891,0.000
1727534884.031,26.855,-1000.000,-37.598,-42.480,0.000
1727534884.035,-51.270,-1000.000,-53.711,-64.941,0.000
1727534884.039,-232.422,-1000.000,-92.285,-141.602,0.000
1727534884.043,-233.398,-1000.000,-139.648,-109.375,0.000
1727534884.047,-19.043,-1000.000,-110.352,-27.832,0.000
1727534884.051,41.992,-1000.000,-39.062,-30.762,0.000
1727534884.055,-13.672,-1000.000,-21.484,-46.387,0.000
1727534884.058,-165.039,-1000.000,-8.789,-91.797,0.000
1727534884.062,-234.863,-1000.000,-18.555,-107.910,0.000
1727534884.066,-55.664,-1000.000,-36.133,-42.969,0.000
1727534884.070,55.176,-1000.000,-32.227,-10.742,0.000
1727534884.074,6.348,-1000.000,-37.109,-38.574,0.000
1727534884.078,-149.902,-1000.000,-36.133,-89.844,0.000
1727534884.082,-239.258,-1000.000,-45.898,-109.375,0.000
1727534884.086,-51.758,-1000.000,-62.988,-22.949,0.000
1727534884.090,66.406,-998.047,-52.246,22.949,0.000
1727534884.094,21.973,-1000.000,-40.527,-7.324,0.000
1727534884.098,-86.426,-989.258,-47.852,-50.293,0.000
1727534884.101,-190.430,-904.297,-66.895,-83.496,0.000
1727534884.105,-59.570,-827.148,-52.246,-39.062,0.000
1727534884.109,65.918,-761.719,-15.625,-15.625,0.000
1727534884.113,59.570,-701.172,3.906,-17.578,0.000
1727534884.117,-39.062,-619.141,-0.488,-50.781,0.000
1727534884.121,-193.359,-505.371,-7.812,-112.793,0.000
1727534884.125,-97.656,-427.246,-32.227,-82.520,0.000
1727534884.129,56.641,-385.254,-46.875,-21.484,0.000
1727534884.133,31.738,-234.375,-45.410,-13.672,0.000
1727534884.137,-57.129,-26.367,-44.922,-41.504,0.000
1727534884.140,-183.105,90.332,-49.316,-86.426,0.000
1727534884.144,-83.008,410.645,-64.941,-52.246,0.000
1727534884.148,104.004,808.594,-73.730,11.719,0.000
1727534884.152,102.539,953.125,-67.871,12.207,0.000
1727534884.156,0.977,963.379,-53.223,-18.555,0.000
1727534884.160,-153.320,965.820,-38.574,-63.965,0.000
1727534884.164,-86.914,968.750,-7.324,-38.574,0.000
1727534884.168,86.914,968.262,-24.414,24.414,0.000
1727534884.172,93.750,968.262,-48.828,21.484,0.000
1727534884.176,-7.324,968.262,-29.297,-23.926,0.000
1727534884.180,-175.293,968.262,-17.578,-96.680,0.000
1727534884.183,-126.465,968.262,-19.043,-77.148,0.000
1727534884.187,78.125,968.262,-69.824,20.508,0.000
1727534884.191,108.398,968.262,-139.160,34.668,0.000
1727534884.195,22.949,968.262,-79.590,-8.301,0.000
1727534884.199,-132.812,968.262,-0.488,-82.031,0.000
1727534884.203,-141.602,968.262,-20.996,-81.543,0.000
1727534884.207,40.527,968.262,-34.180,-9.766,0.000
1727534884.211,88.379,968.262,-25.391,8.301,0.000
1727534884.215,28.320,968.262,-6.348,-4.395,0.000
1727534884.219,-113.770,968.262,-5.371,-59.570,0.000
1727534884.222,-151.855,968.262,-42.480,-83.496,0.000
1727534884.226,33.203,968.262,-45.898,-22.461,0.000
1727534884.230,113.281,968.262,-19.043,9.766,0.000
1727534884.234,52.734,968.262,-23.438,-15.625,0.000
1727534884.238,-101.562,968.262,-42.969,-67.383,0.000
1727534884.242,-173.828,967.773,-67.871,-81.543,0.000
1727534884.246,0.000,968.262,-42.969,-15.137,0.000
1727534884.250,105.469,968.262,0.977,20.996,0.000
1727534884.254,61.523,968.262,-10.742,0.488,0.000
1727534884.258,-74.707,968.262,-58.594,-44.922,0.000
1727534884.262,-178.223,968.262,-80.566,-82.520,0.000
1727534884.265,-26.855,968.262,-45.898,-34.180,0.000
1727534884.269,93.750,968.262,-11.719,5.371,0.000
1727534884.273,64.941,968.262,-13.184,-4.395,0.000
1727534884.277,-52.246,968.262,-39.062,-38.574,0.000
1727534884.281,-173.828,968.262,-26.367,-66.406,0.000
1727534884.285,-46.875,968.262,8.301,-13.672,0.000
1727534884.289,107.910,968.262,-12.207,32.227,0.000
1727534884.293,96.191,968.262,-38.574,20.508,0.000
1727534884.297,-26.367,968.262,-42.480,-43.457,0.000
1727534884.301,-174.316,968.262,-31.250,-104.492,0.000
1727534884.304,-69.336,968.262,-5.371,-47.852,0.000
1727534884.308,87.891,968.262,-7.812,14.160,0.000
1727534884.312,75.684,966.309,-13.184,5.859,0.000
1727534884.316,-31.738,971.680,-22.461,-33.203,0.000
1727534884.320,-174.316,943.359,-44.922,-89.355,0.000
1727534884.324,-86.914,894.043,-51.270,-51.270,0.000
1727534884.328,83.008,863.770,-26.855,22.949,0.000
1727534884.332,90.820,853.027,-29.297,16.602,0.000
1727534884.336,-7.324,876.465,-80.078,-27.344,0.000
1727534884.340,-160.645,867.188,-107.910,-78.613,0.000
1727534884.344,-113.770,817.383,-44.434,-52.734,0.000
1727534884.347,52.734,776.855,18.066,7.324,0.000
1727534884.351,81.543,765.625,3.906,4.883,0.000
1727534884.355,14.160,744.629,-32.227,-21.973,0.000
1727534884.359,-150.391,705.566,-39.062,-80.078,0.000
1727534884.363,-143.555,676.270,-33.691,-65.430,0.000
1727534884.367,45.898,676.270,-31.738,7.812,0.000
1727534884.371,95.703,663.086,-38.574,20.508,0.000
1727534884.375,18.555,658.691,-56.152,-10.254,0.000
1727534884.379,-151.367,662.109,-48.828,-69.336,0.000
1727534884.383,-166.992,637.207,-37.109,-67.871,0.000
1727534884.387,22.949,620.605,-34.180,-3.906,0.000
1727534884.390,91.309,629.883,-17.090,12.207,0.000
1727534884.394,47.363,623.535,-29.297,6.348,0.000
1727534884.398,-101.074,619.629,-45.410,-41.504,0.000
1727534884.402,-173.340,626.953,-31.738,-78.613,0.000
1727534884.406,-0.977,604.492,-35.645,-23.438,0.000
1727534884.410,93.750,585.449,-32.227,1.465,0.000
1727534884.414,45.898,572.754,-42.969,-17.090,0.000
1727534884.418,-104.980,551.270,-73.730,-71.289,0.000
1727534884.422,-201.172,518.555,-48.340,-102.051,0.000
1727534884.426,-32.715,490.723,-6.348,-40.527,0.000
1727534884.430,93.262,478.027,-17.090,6.836,0.000
1727534884.433,58.594,458.008,-41.504,12.695,0.000
1727534884.437,-75.684,431.152,-57.129,-33.203,0.000
1727534884.441,-175.781,421.875,-52.734,-81.055,0.000
1727534884.445,-30.273,420.410,-40.039,-20.996,0.000
1727534884.449,87.402,408.691,-33.203,27.344,0.000
1727534884.453,65.430,389.160,-22.949,7.324,0.000
1727534884.457,-56.152,368.164,-27.832,-42.480,0.000
1727534884.461,-184.570,344.727,-16.602,-84.961,0.000
1727534884.465,-55.664,328.613,-15.625,-36.133,0.000
1727534884.469,85.449,314.453,-37.598,6.348,0.000
1727534884.472,80.566,295.410,-30.273,-2.441,0.000
1727534884.476,-37.109,268.555,-20.996,-27.832,0.000
1727534884.480,-193.848,245.117,-28.320,-74.707,0.000
1727534884.484,-92.773,234.375,-28.320,-45.898,0.000
1727534884.488,86.426,228.027,-25.879,12.207,0.000
1727534884.492,96.680,218.750,-34.180,13.672,0.000
1727534884.496,-24.414,208.008,-46.875,-31.250,0.000
1727534884.500,-174.805,194.336,-53.223,-82.520,0.000
1727534884.504,-89.844,183.594,-44.922,-38.086,0.000
1727534884.508,70.801,177.246,-42.969,25.391,0.000
1727534884.512,80.566,169.434,-32.227,14.648,0.000
1727534884.515,-0.488,161.133,-5.371,-26.367,0.000
1727534884.519,-171.387,137.207,-8.301,-76.660,0.000
1727534884.523,-138.184,121.582,-45.410,-51.270,0.000
1727534884.527,59.570,124.512,-59.082,16.113,0.000
1727534884.531,104.004,124.023,-52.246,36.621,0.000
1727534884.535,31.738,119.141,-38.574,-1.465,0.000
1727534884.539,-148.926,107.910,-42.969,-75.684,0.000
1727534884.543,-151.367,98.633,-57.617,-73.242,0.000
1727534884.547,41.992,95.215,-27.344,-2.441,0.000
1727534884.551,76.660,82.031,0.488,12.695,0.000
1727534884.555,4.395,72.754,-19.043,-23.926,0.000
1727534884.558,-144.043,80.566,-32.715,-85.938,0.000
1727534884.562,-159.180,85.449,-38.086,-88.379,0.000
1727534884.566,27.832,86.426,-38.086,-9.277,0.000
1727534884.570,83.496,85.449,-29.297,19.531,0.000
1727534884.574,34.180,77.148,-70.312,5.371,0.000
1727534884.578,-106.934,77.148,-106.934,-41.016,0.000
1727534884.582,-166.016,73.730,-78.125,-61.035,0.000
1727534884.586,9.766,55.176,-32.227,-0.488,0.000
1727534884.590,87.891,39.551,3.418,20.996,0.000
1727534884.594,27.344,26.367,0.488,-7.324,0.000
1727534884.597,-114.258,19.043,-9.766,-64.941,0.000
1727534884.601,-203.613,32.715,-38.086,-102.051,0.000
1727534884.605,-30.762,42.480,-64.453,-32.715,0.000
1727534884.609,94.727,37.109,-53.711,18.066,0.000
1727534884.613,53.711,32.715,-44.434,1.953,0.000
1727534884.617,-83.496,25.391,-59.570,-40.039,0.000
1727534884.621,-194.824,20.508,-78.613,-79.590,0.000
1727534884.625,-40.039,28.320,-67.871,-22.949,0.000
1727534884.629,94.727,18.555,-33.691,16.602,0.000
1727534884.633,73.242,12.207,-16.113,-10.254,0.000
1727534884.636,-40.527,20.508,-30.762,-47.363,0.000
1727534884.640,-176.270,5.371,-64.453,-86.914,0.000
1727534884.644,-58.594,-0.977,-71.777,-37.598,0.000
1727534884.648,89.355,14.648,-45.898,11.719,0.000
1727534884.652,80.566,27.344,-27.344,-5.371,0.000
1727534884.656,-27.832,27.832,-22.461,-34.180,0.000
1727534884.660,-178.223,17.578,-20.996,-82.520,0.000
1727534884.664,-83.008,9.766,-24.414,-54.199,0.000
1727534884.668,98.145,15.625,-40.527,14.160,0.000
1727534884.672,99.609,17.578,-60.059,19.531,0.000
1727534884.676,-6.348,17.578,-60.547,-20.020,0.000
1727534884.679,-161.133,17.578,-51.270,-82.031,0.000
1727534884.683,-101.562,19.531,-58.594,-45.898,0.000
1727534884.687,77.148,20.996,-46.875,22.461,0.000
1727534884.691,95.215,15.625,-16.602,10.254,0.000
1727534884.695,7.324,9.277,-19.531,-27.344,0.000
1727534884.699,-154.297,0.488,-38.574,-83.984,0.000
1727534884.703,-123.047,-5.859,-29.785,-62.012,0.000
1727534884.707,61.035,-11.719,-20.996,3.418,0.000
1727534884.711,94.238,-4.883,-43.457,7.324,0.000
1727534884.715,27.832,8.301,-88.379,-9.277,0.000
1727534884.719,-125.977,12.695,-85.938,-55.664,0.000
1727534884.722,-129.883,8.789,-46.387,-60.059,0.000
1727534884.726,48.340,-4.395,-37.598,3.906,0.000
1727534884.730,102.051,-8.789,-34.668,21.973,0.000
1727534884.734,46.387,-0.488,-13.672,-1.465,0.000
1727534884.738,-106.934,-6.836,-28.320,-62.500,0.000
1727534884.742,-153.809,-20.508,-49.805,-74.219,0.000
1727534884.746,22.949,-18.066,-53.711,-8.789,0.000
1727534884.750,113.281,-18.066,-43.945,27.344,0.000
1727534884.754,68.359,-20.020,-30.273,26.367,0.000
1727534884.758,-89.355,-23.438,-40.039,-38.574,0.000
1727534884.762,-175.781,-27.832,-41.992,-70.801,0.000
1727534884.765,-7.812,-27.832,-22.949,-0.977,0.000
1727534884.769,104.004,-23.438,-23.438,34.668,0.000
1727534884.773,69.336,-7.324,-38.574,21.484,0.000
1727534884.777,-74.219,2.441,-63.965,-30.273,0.000
1727534884.781,-163.086,4.395,-85.938,-66.406,0.000
1727534884.785,0.000,7.812,-80.566,-2.930,0.000
1727534884.789,119.629,-2.441,-69.824,42.969,0.000
1727534884.793,88.867,-9.277,-69.336,28.320,0.000
1727534884.797,-51.758,-10.742,-54.199,-37.109,0.000
1727534884.801,-182.617,-20.996,-33.691,-87.891,0.000
1727534884.804,-35.156,-29.785,-23.926,-19.531,0.000
1727534884.808,107.910,-35.156,-46.875,42.480,0.000
1727534884.812,77.637,-41.016,-46.875,29.297,0.000
1727534884.816,-47.852,-44.434,-11.230,-35.156,0.000
1727534884.820,-187.500,-46.875,-27.344,-101.074,0.000
1727534884.824,-59.082,-50.781,-66.895,-51.758,0.000
1727534884.828,104.980,-48.340,-60.059,27.344,0.000
1727534884.832,100.586,-37.109,-58.105,36.133,0.000
1727534884.836,-9.277,-28.320,-58.105,3.418,0.000
1727534884.840,-165.039,-31.738,-33.203,-59.082,0.000
1727534884.844,-90.332,-42.480,-30.762,-41.992,0.000
1727534884.847,85.938,-47.363,-33.691,21.973,0.000
1727534884.851,107.910,-41.992,-78.125,36.621,0.000
1727534884.855,15.137,-37.109,-99.609,11.230,0.000
1727534884.859,-136.230,-44.434,-42.969,-46.875,0.000
1727534884.863,-68.848,-48.828,-6.348,-10.742,0.000
1727534884.867,106.934,-55.664,-14.160,58.105,0.000
1727534884.871,108.887,-44.922,-44.434,47.852,0.000
1727534884.875,29.297,-22.461,-45.410,4.883,0.000
1727534884.879,-124.512,-10.742,-46.387,-59.082,0.000
1727534884.883,-101.074,-3.418,-53.223,-32.715,0.000
1727534884.887,77.148,-10.254,-48.828,32.227,0.000
1727534884.890,119.141,-13.184,-76.660,48.340,0.000
1727534884.894,58.105,-8.789,-90.332,28.320,0.000
1727534884.898,-113.281,-12.695,-62.012,-42.969,0.000
1727534884.902,-137.207,-12.695,-35.156,-56.641,0.000
1727534884.906,46.875,1.465,-21.973,19.531,0.000
1727534884.910,113.770,5.859,-23.926,37.109,0.000
1727534884.914,56.152,5.371,-36.133,6.348,0.000
1727534884.918,-107.422,7.324,-41.992,-45.410,0.000
1727534884.922,-153.809,1.953,-48.340,-58.594,0.000
1727534884.926,33.691,4.883,-57.129,16.602,0.000
1727534884.930,110.352,8.789,-64.453,46.387,0.000
1727534884.933,64.453,1.465,-83.984,27.832,0.000
1727534884.937,-73.242,4.883,-65.918,-41.016,0.000
1727534884.941,-159.180,6.348,-27.344,-74.707,0.000
1727534884.945,15.625,0.488,-14.160,2.441,0.000
1727534884.949,119.629,16.113,-20.020,33.691,0.000
1727534884.953,73.730,32.227,-28.809,15.625,0.000
1727534884.957,-62.988,28.809,-46.875,-24.902,0.000
1727534884.961,-156.250,38.086,-81.055,-50.781,0.000
1727534884.965,5.859,41.992,-98.145,9.766,0.000
1727534884.969,132.812,31.250,-73.730,43.457,0.000
1727534884.972,87.891,31.250,-53.223,21.973,0.000
1727534884.976,-51.270,45.898,-31.738,-18.066,0.000
1727534884.980,-169.922,59.082,-9.277,-51.270,0.000
1727534884.984,-24.902,61.523,-28.809,1.465,0.000
1727534884.988,132.324,62.500,-27.832,58.594,0.000
1727534884.992,112.793,65.918,-31.250,54.199,0.000
1727534884.996,-3.418,65.918,-78.125,8.789,0.000
1727534885.000,-138.672,51.270,-94.238,-44.434,0.000
1727534885.004,-20.020,54.199,-70.312,4.395,0.000
1727534885.008,147.461,67.383,-64.453,67.383,0.000
1727534885.012,131.836,54.199,-65.918,53.223,0.000
1727534885.015,6.836,34.180,-31.250,-6.836,0.000
1727534885.019,-150.879,31.250,20.508,-62.988,0.000
1727534885.023,-61.035,32.227,10.254,-18.066,0.000
1727534885.027,102.051,32.227,-32.227,39.062,0.000
1727534885.031,110.352,39.551,-41.016,41.016,0.000
1727534885.035,20.020,37.598,-42.969,13.184,0.000
1727534885.039,-140.625,40.039,-40.039,-47.363,0.000
1727534885.043,-83.496,45.898,-49.316,-20.996,0.000
1727534885.047,110.352,38.086,-71.289,62.500,0.000
1727534885.051,135.254,45.898,-78.613,67.383,0.000
1727534885.054,51.758,55.664,-75.684,35.645,0.000
1727534885.058,-101.562,49.316,-41.016,-17.090,0.000
1727534885.062,-101.074,43.457,-15.625,-21.973,0.000
1727534885.066,84.473,30.273,-40.527,48.828,0.000
1727534885.070,132.812,20.508,-37.109,70.312,0.000
1727534885.074,64.453,25.391,-37.598,41.016,0.000
1727534885.078,-80.566,33.203,-76.660,-15.137,0.000
1727534885.082,-101.562,36.133,-94.238,-30.762,0.000
1727534885.086,70.801,32.715,-51.758,34.180,0.000
1727534885.090,128.906,24.902,-8.789,73.242,0.000
1727534885.094,83.496,30.273,-12.695,60.059,0.000
1727534885.097,-66.406,27.832,-10.742,-6.836,0.000
1727534885.101,-130.859,15.625,-28.320,-35.645,0.000
1727534885.105,45.898,16.602,-57.129,32.715,0.000
1727534885.109,142.578,9.766,-57.129,59.082,0.000
1727534885.113,100.098,7.812,-51.270,39.551,0.000
1727534885.117,-42.969,14.648,-70.312,-5.859,0.000
1727534885.121,-110.352,11.719,-79.590,-22.949,0.000
1727534885.125,64.453,6.836,-46.875,47.363,0.000
1727534885.129,161.621,9.766,-21.484,72.754,0.000
1727534885.133,109.375,7.324,-16.113,55.664,0.000
1727534885.137,-22.461,2.441,-17.578,13.184,0.000
1727534885.140,-128.906,2.930,-51.758,-17.578,0.000
1727534885.144,21.484,6.836,-71.289,41.504,0.000
1727534885.148,159.668,10.254,-40.039,82.520,0.000
1727534885.152,143.066,11.230,-41.504,67.383,0.000
1727534885.156,21.484,17.578,-61.035,28.320,0.000
1727534885.160,-115.723,13.672,-46.387,-20.996,0.000
1727534885.164,11.230,10.254,-16.602,30.273,0.000
1727534885.168,170.898,0.000,-8.301,94.238,0.000
1727534885.172,152.832,-19.531,-21.484,79.102,0.000
1727534885.176,28.320,-9.766,-31.250,32.715,0.000
1727534885.180,-114.746,11.230,-42.480,-20.020,0.000
1727534885.183,-3.906,25.879,-45.410,26.367,0.000
1727534885.187,165.039,23.438,-55.664,88.867,0.000
1727534885.191,156.250,12.207,-50.293,86.426,0.000
1727534885.195,44.922,8.301,-25.879,53.711,0.000
1727534885.199,-120.117,-4.395,-20.020,-14.160,0.000
1727534885.203,-47.852,-1.465,-34.668,9.277,0.000
1727534885.207,145.020,11.230,-66.406,77.637,0.000
1727534885.211,163.574,3.906,-50.293,80.566,0.000
1727534885.215,73.730,-4.883,-25.879,45.898,0.000
1727534885.219,-89.844,-4.395,-34.668,-10.742,0.000
1727534885.222,-47.852,0.488,-53.223,-1.465,0.000
1727534885.226,143.555,7.324,-55.176,71.289,0.000
1727534885.230,166.504,19.531,-30.273,94.238,0.000
1727534885.234,91.309,29.785,-7.324,68.359,0.000
1727534885.238,-62.500,30.762,-14.648,6.836,0.000
1727534885.242,-60.059,33.203,-31.738,1.953,0.000
1727534885.246,130.859,28.320,-28.320,78.613,0.000
1727534885.250,179.199,22.949,-22.949,100.586,0.000
1727534885.254,122.559,25.879,-18.555,88.867,0.000
1727534885.258,-35.645,18.066,-16.602,30.762,0.000
1727534885.262,-74.707,5.859,-20.508,13.672,0.000
1727534885.265,106.934,3.906,-21.484,86.914,0.000
1727534885.269,171.875,20.996,-23.926,94.727,0.000
1727534885.273,119.629,22.949,-10.254,63.965,0.000
1727534885.277,-34.180,11.719,3.418,0.977,0.000
1727534885.281,-93.750,13.184,-6.348,-20.996,0.000
1727534885.285,90.332,19.531,-22.461,64.453,0.000
1727534885.289,189.453,20.996,-27.344,102.051,0.000
1727534885.293,172.852,27.344,-17.090,101.074,0.000
1727534885.297,39.551,23.926,-14.648,61.035,0.000
1727534885.301,-74.219,3.418,-3.418,18.555,0.000
1727534885.305,83.008,-0.977,15.625,75.195,0.000
1727534885.308,189.453,11.719,20.996,113.770,0.000
1727534885.312,160.645,22.949,0.000,100.586,0.000
1727534885.316,40.039,22.949,-17.578,64.453,0.000
1727534885.320,-71.777,21.484,-4.883,34.668,0.000
1727534885.324,76.660,23.438,26.855,84.473,0.000
1727534885.328,212.891,19.531,25.391,125.488,0.000
1727534885.332,191.406,17.090,0.977,106.445,0.000
1727534885.336,51.270,19.531,-3.906,55.176,0.000
1727534885.340,-92.285,13.184,-10.254,6.348,0.000
1727534885.344,38.574,8.301,-8.789,55.176,0.000
1727534885.347,202.637,12.695,8.301,112.793,0.000
1727534885.351,195.312,9.277,11.719,103.516,0.000
1727534885.355,87.402,12.695,2.441,73.242,0.000
1727534885.359,-66.895,11.230,-3.906,22.949,0.000
1727534885.363,9.766,-0.488,3.906,45.410,0.000
1727534885.367,174.805,-4.883,8.301,94.238,0.000
1727534885.371,178.711,-0.977,-17.578,97.168,0.000
1727534885.375,89.844,4.395,-28.320,76.172,0.000
1727534885.379,-65.430,0.488,-4.395,7.324,0.000
1727534885.383,-20.020,-7.812,24.902,6.836,0.000
1727534885.386,157.227,0.488,44.434,73.242,0.000
1727534885.390,181.152,11.719,47.363,92.285,0.000
1727534885.394,100.098,8.789,32.715,56.641,0.000
1727534885.398,-75.195,5.859,20.996,-1.953,0.000
1727534885.402,-52.734,9.766,24.902,7.812,0.000
1727534885.406,148.438,12.207,17.090,86.426,0.000
1727534885.410,177.734,11.719,4.395,95.215,0.000
1727534885.414,98.633,17.578,2.930,57.617,0.000
1727534885.418,-49.316,19.043,10.742,13.184,0.000
1727534885.422,-52.246,26.367,-13.672,17.578,0.000
1727534885.426,127.930,49.316,-44.434,78.613,0.000
1727534885.429,178.223,45.898,-13.184,94.238,0.000
1727534885.433,114.258,43.457,14.648,68.359,0.000
1727534885.437,-47.363,37.109,35.156,4.395,0.000
1727534885.441,-94.238,26.855,46.875,-14.648,0.000
1727534885.445,91.309,41.992,16.602,57.129,0.000
1727534885.449,170.898,36.133,11.230,91.309,0.000
1727534885.453,116.699,20.020,46.875,71.777,0.000
1727534885.457,-37.598,26.855,58.105,9.277,0.000
1727534885.461,-98.633,41.992,49.316,-23.926,0.000
1727534885.465,92.285,51.758,26.367,49.316,0.000
1727534885.469,196.777,50.781,28.320,96.191,0.000
1727534885.472,151.367,41.504,41.992,84.473,0.000
1727534885.476,0.977,40.039,33.691,24.902,0.000
1727534885.480,-94.727,40.039,23.926,-13.672,0.000
1727534885.484,74.707,39.551,5.371,46.875,0.000
1727534885.488,204.590,51.270,14.160,94.727,0.000
1727534885.492,170.898,49.316,31.738,81.543,0.000
1727534885.496,35.645,44.434,30.762,28.809,0.000
1727534885.500,-83.008,56.641,44.922,-7.324,0.000
1727534885.504,59.082,63.965,31.738,51.758,0.000
1727534885.508,198.242,54.199,9.277,103.516,0.000
1727534885.512,178.223,49.316,14.160,103.516,0.000
1727534885.515,57.129,46.875,20.996,60.547,0.000
1727534885.519,-85.449,36.133,42.969,-2.930,0.000
1727534885.523,22.461,37.109,71.289,32.227,0.000
1727534885.527,181.641,43.945,83.496,88.867,0.000
1727534885.531,173.828,34.668,77.637,80.566,0.000
1727534885.535,62.012,35.156,57.617,38.574,0.000
1727534885.539,-91.309,39.551,39.062,-18.555,0.000
1727534885.543,-3.418,34.668,28.809,18.555,0.000
1727534885.547,175.781,27.344,-28.320,96.680,0.000
1727534885.551,175.781,22.461,-33.203,98.633,0.000
1727534885.554,70.801,31.738,54.199,60.059,0.000
1727534885.558,-96.191,43.457,95.703,4.883,0.000
1727534885.562,-35.645,40.527,69.824,23.926,0.000
1727534885.566,160.645,37.598,59.570,97.656,0.000
1727534885.570,169.922,38.086,68.359,88.379,0.000
1727534885.574,72.754,41.992,81.543,34.180,0.000
1727534885.578,-78.613,51.758,62.012,-13.672,0.000
1727534885.582,-48.340,65.430,14.648,5.371,0.000
1727534885.586,139.160,64.453,27.832,67.871,0.000
1727534885.590,181.641,63.965,69.824,78.613,0.000
1727534885.594,109.863,73.242,60.059,52.734,0.000
1727534885.597,-58.594,66.895,37.109,-11.230,0.000
1727534885.601,-87.891,66.895,62.988,-10.742,0.000
1727534885.605,106.934,99.121,87.402,69.336,0.000
1727534885.609,189.941,150.879,73.730,87.891,0.000
1727534885.613,128.418,177.734,74.707,49.805,0.000
1727534885.617,-37.598,174.316,79.590,-13.184,0.000
1727534885.621,-87.402,169.922,54.688,-21.484,0.000
1727534885.625,90.332,162.598,41.016,48.340,0.000
1727534885.629,163.574,133.301,40.527,71.777,0.000
1727534885.633,115.234,208.008,38.574,53.711,0.000
1727534885.637,-24.414,336.426,36.621,-5.371,0.000
1727534885.640,-101.074,371.582,43.945,-38.574,0.000
1727534885.644,63.965,391.602,53.711,37.109,0.000
1727534885.648,157.227,385.254,63.965,80.078,0.000
1727534885.652,113.281,369.141,46.875,63.965,0.000
1727534885.656,-11.230,350.586,23.438,24.414,0.000
1727534885.660,-109.375,325.684,14.160,-14.160,0.000
1727534885.664,35.156,315.430,26.855,27.832,0.000
1727534885.668,147.461,310.059,42.480,55.664,0.000
1727534885.672,114.258,301.270,34.668,31.250,0.000
1727534885.676,2.441,305.664,13.184,-11.230,0.000
1727534885.679,-127.441,306.152,15.625,-51.758,0.000
1727534885.683,5.371,287.109,39.062,0.000,0.000
1727534885.687,151.367,270.996,44.922,43.945,0.000
1727534885.691,123.535,265.137,42.969,41.992,0.000
1727534885.695,14.648,260.742,13.672,6.348,0.000
1727534885.699,-136.719,241.211,14.160,-66.406,0.000
1727534885.703,-49.805,234.863,35.645,-28.809,0.000
1727534885.707,119.629,233.887,29.785,41.016,0.000
1727534885.711,113.770,237.305,30.762,31.250,0.000
1727534885.715,-5.371,297.363,33.691,-11.230,0.000
1727534885.719,-155.273,361.816,23.926,-64.941,0.000
1727534885.722,-81.543,364.746,25.879,-43.945,0.000
1727534885.726,96.191,348.145,34.180,27.344,0.000
1727534885.730,112.793,339.355,18.066,39.551,0.000
1727534885.734,7.812,330.078,18.066,-5.859,0.000
1727534885.738,-168.945,299.316,45.410,-73.730,0.000
1727534885.742,-140.137,266.113,30.273,-76.172,0.000
1727534885.746,50.293,254.395,-18.066,-16.602,0.000
1727534885.750,86.426,242.676,-7.812,3.906,0.000
1727534885.754,-4.883,215.820,21.484,-37.598,0.000
1727534885.758,-182.129,193.848,28.809,-106.445,0.000
1727534885.761,-168.945,181.152,4.395,-92.285,0.000
1727534885.765,35.156,200.684,-10.742,-20.020,0.000
1727534885.769,79.590,256.348,-0.488,-11.719,0.000
1727534885.773,2.930,276.855,-6.836,-42.969,0.000
1727534885.777,-148.438,270.020,-6.836,-102.539,0.000
1727534885.781,-168.945,266.113,7.324,-94.727,0.000
1727534885.785,0.488,269.043,-5.371,-17.578,0.000
1727534885.789,71.777,257.324,-11.719,-5.859,0.000
1727534885.793,25.391,230.469,13.184,-34.180,0.000
1727534885.797,-136.230,219.238,5.371,-97.656,0.000
1727534885.800,-196.289,221.191,0.977,-112.305,0.000
1727534885.804,-16.602,210.449,0.000,-31.738,0.000
1727534885.808,70.312,197.754,-12.207,-8.789,0.000
1727534885.812,26.855,196.289,-18.555,-32.227,0.000
1727534885.816,-110.840,184.082,-22.949,-75.684,0.000
1727534885.820,-205.078,169.434,4.395,-118.164,0.000
1727534885.824,-49.805,170.898,27.832,-63.965,0.000
1727534885.828,69.336,173.340,-7.812,-8.301,0.000
1727534885.832,40.527,161.133,-46.875,-20.996,0.000
1727534885.836,-91.309,152.344,-12.695,-78.125,0.000
1727534885.840,-205.566,136.230,29.297,-120.117,0.000
1727534885.843,-74.707,108.887,18.066,-70.801,0.000
1727534885.847,64.941,123.047,-5.859,-27.344,0.000
1727534885.851,60.059,151.855,-7.812,-21.973,0.000
1727534885.855,-65.430,147.461,-16.113,-55.176,0.000
1727534885.859,-208.984,138.184,-5.371,-112.305,0.000
1727534885.863,-93.750,133.301,10.742,-72.266,0.000
1727534885.867,59.082,118.652,8.789,-21.484,0.000
1727534885.871,59.082,104.492,0.488,-28.320,0.000
1727534885.875,-49.805,94.727,4.883,-69.824,0.000
1727534885.879,-202.148,92.773,24.414,-128.418,0.000
1727534885.883,-117.188,87.402,6.348,-92.285,0.000
1727534885.886,45.898,89.844,-19.043,-29.785,0.000
1727534885.890,44.434,91.797,-21.484,-28.809,0.000
1727534885.894,-53.223,81.543,-31.738,-70.312,0.000
1727534885.898,-195.801,69.824,-20.996,-130.859,0.000
1727534885.902,-131.348,53.223,7.812,-105.469,0.000
1727534885.906,52.246,51.758,27.344,-38.574,0.000
1727534885.910,71.289,57.617,12.695,-37.598,0.000
1727534885.914,-32.715,52.246,-10.742,-81.543,0.000
1727534885.918,-193.359,54.688,-14.160,-128.418,0.000
1727534885.922,-167.480,55.664,-37.598,-108.398,0.000
1727534885.926,2.441,42.969,-29.297,-49.316,0.000
1727534885.929,38.086,31.738,4.395,-43.457,0.000
1727534885.933,-40.039,27.344,17.578,-72.754,0.000
1727534885.937,-191.406,23.438,8.789,-126.953,0.000
1727534885.941,-190.430,19.043,-11.719,-124.023,0.000
1727534885.945,-4.395,14.648,-6.836,-45.898,0.000
1727534885.949,48.828,16.113,12.207,-30.273,0.000
1727534885.953,-17.090,13.184,3.906,-59.082,0.000
1727534885.957,-170.410,6.836,-22.461,-122.070,0.000
1727534885.961,-213.379,3.418,-4.395,-142.578,0.000
1727534885.965,-48.340,-9.277,18.555,-74.707,0.000
1727534885.969,22.461,-12.695,12.207,-52.246,0.000
1727534885.972,-21.484,-7.812,-4.395,-71.777,0.000
1727534885.976,-179.199,-12.207,-14.160,-123.535,0.000
1727534885.980,-239.746,-7.812,-18.555,-135.742,0.000
1727534885.984,-54.199,-5.859,-34.668,-68.359,0.000
1727534885.988,42.480,-13.672,-33.691,-42.480,0.000
1727534885.992,-3.418,-9.766,-18.555,-62.012,0.000
1727534885.996,-148.438,-10.742,-4.395,-105.957,0.000
1727534886.000,-239.746,-17.578,-3.418,-143.066,0.000
1727534886.004,-82.520,-20.996,0.000,-90.820,0.000
1727534886.008,37.598,-17.578,-4.883,-44.434,0.000
1727534886.011,16.602,-6.348,-13.184,-55.664,0.000
1727534886.015,-109.375,-3.906,-7.812,-106.445,0.000
1727534886.019,-237.305,-17.090,-16.602,-147.461,0.000
1727534886.023,-105.469,-25.879,-21.484,-86.426,0.000
1727534886.027,41.992,-28.320,-20.996,-38.574,0.000
1727534886.031,18.066,-30.273,-26.855,-51.758,0.000
1727534886.035,-110.352,-26.367,-35.156,-86.914,0.000
1727534886.039,-245.117,-19.043,-13.184,-134.277,0.000
1727534886.043,-132.812,-24.902,9.277,-93.262,0.000
1727534886.047,29.785,-28.809,7.812,-42.480,0.000
1727534886.051,30.273,-28.320,5.371,-40.527,0.000
1727534886.054,-87.891,-35.156,-2.930,-88.379,0.000
1727534886.058,-231.934,-32.227,-26.367,-156.738,0.000
1727534886.062,-136.230,-28.809,-41.504,-119.629,0.000
1727534886.066,22.949,-30.273,-30.762,-58.594,0.000
1727534886.070,33.691,-27.344,-24.902,-47.852,0.000
1727534886.074,-63.477,-32.715,-12.695,-85.938,0.000
1727534886.078,-231.934,-43.945,-9.766,-145.020,0.000
1727534886.082,-177.246,-45.410,-12.695,-118.652,0.000
1727534886.086,0.977,-44.434,4.883,-51.270,0.000
1727534886.090,19.043,-36.621,0.977,-50.781,0.000
1727534886.093,-70.801,-37.598,-27.832,-92.285,0.000
1727534886.097,-229.004,-37.598,-26.855,-145.508,0.000
1727534886.101,-196.777,-35.156,-31.738,-125.977,0.000
1727534886.105,-16.113,-37.598,-36.621,-71.289,0.000
1727534886.109,20.996,-38.086,-20.508,-66.895,0.000
1727534886.113,-47.852,-46.875,-12.695,-83.008,0.000
1727534886.117,-206.543,-51.758,-4.395,-141.602,0.000
1727534886.121,-219.238,-49.805,-10.254,-142.578,0.000
1727534886.125,-33.691,-50.781,-42.480,-68.359,0.000
1727534886.129,33.203,-46.387,-55.664,-38.086,0.000
1727534886.133,-25.391,-56.152,-36.133,-65.430,0.000
1727534886.136,-198.730,-67.383,-10.742,-134.766,0.000
1727534886.140,-253.418,-61.035,0.000,-153.809,0.000
1727534886.144,-66.406,-56.152,-0.488,-84.961,0.000
1727534886.148,20.508,-49.805,-41.992,-55.664,0.000
1727534886.152,-25.879,-48.828,-87.891,-76.660,0.000
1727534886.156,-162.598,-57.129,-79.102,-129.395,0.000
1727534886.160,-243.652,-63.965,-23.926,-157.227,0.000
1727534886.164,-91.309,-71.289,2.930,-109.863,0.000
1727534886.168,18.555,-62.012,0.000,-67.871,0.000
1727534886.172,-20.508,-57.617,-5.859,-66.406,0.000
1727534886.175,-166.992,-65.430,-35.156,-122.559,0.000
1727534886.179,-253.906,-58.105,-49.316,-165.527,0.000
1727534886.183,-89.844,-58.594,-46.875,-97.168,0.000
1727534886.187,24.414,-66.406,-38.574,-44.922,0.000
1727534886.191,-7.324,-66.406,-23.926,-59.570,0.000
1727534886.195,-126.953,-59.570,-21.484,-111.816,0.000
1727534886.199,-245.117,-53.711,-30.762,-151.367,0.000
1727534886.203,-115.234,-66.895,-52.734,-101.074,0.000
1727534886.207,24.414,-74.707,-92.285,-53.711,0.000
1727534886.211,12.695,-69.336,-86.914,-58.594,0.000
1727534886.215,-111.816,-71.777,-34.668,-102.051,0.000
1727534886.218,-260.742,-64.941,-5.859,-152.344,0.000
1727534886.222,-150.391,-55.176,5.371,-113.770,0.000
1727534886.226,14.648,-51.758,-6.836,-62.012,0.000
1727534886.230,10.254,-39.062,-43.945,-67.383,0.000
1727534886.234,-83.984,-31.738,-62.988,-101.074,0.000
1727534886.238,-246.094,-35.156,-55.176,-162.598,0.000
1727534886.242,-182.617,-47.363,-49.805,-138.672,0.000
1727534886.246,-3.906,-57.617,-40.527,-74.219,0.000
1727534886.250,4.883,-59.570,-33.691,-77.637,0.000
1727534886.254,-85.938,-59.082,-26.855,-111.816,0.000
1727534886.258,-253.418,-55.176,-21.973,-173.340,0.000
1727534886.261,-205.566,-51.270,-21.973,-142.090,0.000
1727534886.265,-18.066,-49.316,-26.367,-62.500,0.000
1727534886.269,20.508,-49.805,-34.668,-55.176,0.000
1727534886.273,-54.199,-48.828,-42.480,-82.520,0.000
1727534886.277,-229.004,-40.527,-56.641,-156.738,0.000
1727534886.281,-227.539,-39.062,-64.453,-151.367,0.000
1727534886.285,-44.922,-49.316,-52.734,-85.938,0.000
1727534886.289,0.977,-52.734,-42.480,-77.637,0.000
1727534886.293,-67.871,-64.453,-22.949,-99.121,0.000
1727534886.297,-220.215,-69.336,-23.438,-158.691,0.000
1727534886.301,-236.328,-62.500,-48.340,-161.133,0.000
1727534886.304,-56.152,-66.406,-49.805,-86.914,0.000
1727534886.308,-1.953,-70.312,-40.527,-55.176,0.000
1727534886.312,-48.340,-62.012,-37.598,-70.312,0.000
1727534886.316,-190.918,-62.988,-48.340,-134.277,0.000
1727534886.320,-259.766,-71.289,-48.828,-162.109,0.000
1727534886.324,-83.008,-70.312,-29.297,-100.586,0.000
1727534886.328,6.836,-64.941,-19.043,-75.684,0.000
1727534886.332,-39.062,-70.312,-21.484,-88.379,0.000
1727534886.336,-178.223,-74.219,-21.973,-136.230,0.000
1727534886.340,-267.090,-65.430,-24.414,-166.504,0.000
1727534886.344,-99.609,-60.059,-40.039,-95.703,0.000
1727534886.347,22.461,-59.082,-59.082,-47.363,0.000
1727534886.351,-11.719,-61.035,-62.012,-64.453,0.000
1727534886.355,-158.203,-63.965,-59.570,-119.629,0.000
1727534886.359,-276.855,-67.383,-56.641,-173.828,0.000
1727534886.363,-123.535,-73.730,-46.387,-119.141,0.000
1727534886.367,18.555,-75.684,-27.344,-63.965,0.000
1727534886.371,-3.906,-71.289,-21.973,-73.730,0.000
1727534886.375,-141.602,-68.359,-41.504,-116.211,0.000
1727534886.379,-276.855,-63.965,-56.152,-154.785,0.000
1727534886.383,-146.484,-64.941,-62.500,-108.887,0.000
1727534886.386,4.883,-71.777,-59.570,-54.688,0.000
1727534886.390,-10.254,-70.312,-49.805,-56.152,0.000
1727534886.394,-114.258,-66.406,-61.523,-101.074,0.000
1727534886.398,-260.254,-70.312,-73.242,-149.902,0.000
1727534886.402,-174.316,-76.172,-54.688,-114.746,0.000
1727534886.406,-12.695,-80.078,-47.852,-66.895,0.000
1727534886.410,-9.277,-71.777,-55.664,-75.684,0.000
1727534886.414,-95.703,-62.012,-63.965,-106.934,0.000
1727534886.418,-253.418,-56.152,-64.453,-153.320,0.000
1727534886.422,-189.941,-57.617,-70.312,-127.441,0.000
1727534886.426,-19.043,-63.965,-66.406,-63.965,0.000
1727534886.429,-19.531,-65.918,-60.547,-79.590,0.000
1727534886.433,-107.910,-73.730,-71.289,-121.094,0.000
1727534886.437,-265.625,-82.520,-60.059,-172.852,0.000
1727534886.441,-231.934,-83.008,-49.805,-161.133,0.000
1727534886.445,-38.574,-74.707,-64.453,-87.402,0.000
1727534886.449,1.953,-73.730,-77.637,-80.078,0.000
1727534886.453,-76.660,-78.613,-83.984,-105.957,0.000
1727534886.457,-238.770,-75.684,-89.355,-160.156,0.000
1727534886.461,-239.746,-74.219,-75.195,-162.598,0.000
1727534886.465,-48.340,-73.730,-62.988,-92.773,0.000
1727534886.468,1.953,-71.289,-53.711,-74.219,0.000
1727534886.472,-75.195,-71.777,-38.574,-98.633,0.000
1727534886.476,-243.164,-82.031,-40.527,-158.691,0.000
1727534886.480,-272.949,-87.402,-44.922,-175.781,0.000
1727534886.484,-93.750,-84.961,-47.852,-113.770,0.000
1727534886.488,-18.555,-84.961,-67.383,-77.148,0.000
1727534886.492,-58.105,-90.820,-89.355,-86.426,0.000
1727534886.496,-206.543,-83.984,-105.469,-147.461,0.000
1727534886.500,-272.949,-75.195,-83.496,-172.363,0.000
1727534886.504,-104.980,-63.477,-68.848,-107.422,0.000
1727534886.508,-8.301,-30.273,-82.520,-77.148,0.000
1727534886.511,-43.457,-20.020,-67.871,-92.285,0.000
1727534886.515,-187.012,-32.227,-44.922,-139.648,0.000
1727534886.519,-278.320,-48.828,-49.805,-178.711,0.000
1727534886.523,-112.793,-33.691,-56.641,-113.281,0.000
1727534886.527,12.207,1.953,-59.082,-60.059,0.000
1727534886.531,-11.719,6.836,-74.219,-74.707,0.000
1727534886.535,-156.738,-3.418,-78.613,-127.930,0.000
1727534886.539,-280.273,-5.859,-70.312,-179.199,0.000
1727534886.543,-139.160,-0.977,-62.012,-134.766,0.000
1727534886.547,-0.488,-0.488,-53.223,-79.102,0.000
1727534886.550,-18.066,-10.254,-57.129,-88.379,0.000
1727534886.554,-137.207,-14.648,-88.867,-125.977,0.000
1727534886.558,-277.832,-13.672,-90.332,-167.969,0.000
1727534886.562,-159.180,-10.742,-67.871,-122.559,0.000
1727534886.566,10.254,-9.277,-92.773,-64.453,0.000
1727534886.570,-3.418,-10.254,-75.195,-65.918,0.000
1727534886.574,-112.793,-15.625,-33.203,-100.098,0.000
1727534886.578,-254.395,-26.367,-60.059,-158.203,0.000
1727534886.582,-168.457,-34.180,-70.801,-127.441,0.000
1727534886.586,-13.184,-40.039,-62.500,-71.289,0.000
1727534886.590,-13.672,-43.457,-63.965,-71.289,0.000
1727534886.593,-100.098,-41.504,-50.781,-102.539,0.000
1727534886.597,-260.742,-37.598,-44.922,-167.480,0.000
1727534886.601,-203.613,-30.273,-44.434,-143.066,0.000
1727534886.605,-20.996,-34.180,-61.035,-76.172,0.000
1727534886.609,-3.418,-41.504,-67.383,-73.242,0.000
1727534886.613,-90.332,-43.457,-62.988,-97.168,0.000
1727534886.617,-250.488,-45.410,-81.055,-158.691,0.000
1727534886.621,-225.098,-41.992,-89.844,-144.043,0.000
1727534886.625,-31.738,-37.598,-77.148,-67.383,0.000
1727534886.629,13.672,-50.293,-57.129,-70.801,0.000
1727534886.633,-65.430,-67.871,-42.969,-110.352,0.000
1727534886.636,-232.422,-71.289,-40.527,-162.598,0.000
1727534886.640,-236.816,-64.941,-40.527,-147.461,0.000
1727534886.644,-40.039,-55.176,-56.152,-73.730,0.000
1727534886.648,11.719,-55.176,-71.777,-62.988,0.000
1727534886.652,-41.504,-57.617,-59.082,-86.426,0.000
1727534886.656,-187.988,-54.199,-46.387,-137.695,0.000
1727534886.660,-234.863,-55.176,-60.547,-151.367,0.000
1727534886.664,-47.363,-47.852,-78.125,-72.266,0.000
1727534886.668,31.250,-43.457,-80.566,-41.992,0.000
1727534886.672,-27.832,-56.152,-78.125,-79.590,0.000
1727534886.676,-185.547,-61.035,-59.082,-136.719,0.000
1727534886.679,-260.254,-60.059,-38.574,-163.086,0.000
1727534886.683,-92.773,-59.570,-37.598,-101.562,0.000
1727534886.687,4.395,-57.617,-53.223,-55.176,0.000
1727534886.691,-21.484,-52.246,-64.453,-63.477,0.000
1727534886.695,-161.133,-44.434,-75.195,-120.117,0.000
1727534886.699,-257.324,-46.387,-82.031,-170.410,0.000
1727534886.703,-88.379,-24.902,-56.152,-108.398,0.000
1727534886.707,31.738,9.277,-60.547,-62.012,0.000
1727534886.711,-10.742,40.039,-80.078,-78.125,0.000
1727534886.715,-143.555,86.914,-69.824,-124.512,0.000
1727534886.719,-265.625,111.328,-58.105,-170.410,0.000
1727534886.722,-128.418,113.770,-46.875,-127.930,0.000
1727534886.726,22.461,106.934,-50.293,-65.918,0.000
1727534886.730,-4.883,92.773,-67.871,-65.430,0.000
1727534886.734,-133.789,82.520,-65.918,-117.188,0.000
1727534886.738,-257.812,76.660,-72.266,-164.062,0.000
1727534886.742,-144.043,72.266,-76.660,-114.746,0.000
1727534886.746,13.184,61.523,-57.129,-58.594,0.000
1727534886.750,16.113,50.781,-66.406,-68.359,0.000
1727534886.754,-96.191,45.410,-79.590,-106.445,0.000
1727534886.758,-252.441,35.645,-61.523,-167.480,0.000
1727534886.762,-170.410,23.926,-57.129,-131.348,0.000
1727534886.765,2.441,18.066,-72.266,-63.965,0.000
1727534886.769,22.461,16.602,-78.613,-63.965,0.000
1727534886.773,-69.824,10.742,-69.824,-89.355,0.000
1727534886.777,-248.047,6.836,-52.246,-144.531,0.000
1727534886.781,-212.402,-0.488,-48.828,-141.113,0.000
1727534886.785,-24.414,-14.648,-52.734,-89.355,0.000
1727534886.789,7.812,-19.043,-59.082,-79.590,0.000
1727534886.793,-67.383,-14.160,-95.703,-99.609,0.000
1727534886.797,-223.145,-12.207,-112.793,-156.738,0.000
1727534886.801,-211.914,-14.648,-84.473,-143.555,0.000
1727534886.804,-36.621,-20.508,-70.801,-67.871,0.000
1727534886.808,-1.465,-35.156,-73.242,-62.012,0.000
1727534886.812,-66.406,-39.062,-53.711,-91.797,0.000
1727534886.816,-219.238,-31.250,-34.180,-132.812,0.000
1727534886.820,-247.559,-38.574,-44.434,-139.160,0.000
1727534886.824,-63.965,-45.898,-60.547,-88.379,0.000
1727534886.828,5.371,-41.992,-67.383,-56.641,0.000
1727534886.832,-38.086,-37.109,-66.895,-57.617,0.000
1727534886.836,-180.664,-34.668,-73.730,-105.469,0.000
1727534886.840,-239.746,-32.227,-83.008,-130.859,0.000
1727534886.844,-64.453,-32.715,-73.730,-77.148,0.000
1727534886.847,22.949,-36.621,-68.359,-43.457,0.000
1727534886.851,-21.484,-41.504,-61.523,-52.734,0.000
1727534886.855,-173.828,-45.898,-42.969,-113.770,0.000
1727534886.859,-265.625,-50.781,-48.828,-157.715,0.000
1727534886.863,-97.168,-54.199,-57.617,-81.055,0.000
1727534886.867,19.043,-55.664,-50.293,-32.227,0.000
1727534886.871,-4.883,-49.805,-66.895,-51.270,0.000
1727534886.875,-145.508,-51.758,-108.887,-104.980,0.000
1727534886.879,-268.066,-57.129,-85.449,-149.414,0.000
1727534886.883,-120.117,-57.617,-42.969,-104.004,0.000
1727534886.886,11.719,-57.617,-44.922,-67.871,0.000
1727534886.890,-24.414,-59.570,-35.645,-66.406,0.000
1727534886.894,-145.020,-63.965,-25.391,-108.887,0.000
1727534886.898,-267.578,-67.383,-45.410,-170.410,0.000
1727534886.902,-143.555,-69.824,-60.059,-115.234,0.000
1727534886.906,10.254,-67.871,-53.223,-53.711,0.000
1727534886.910,0.977,-62.012,-62.012,-61.523,0.000
1727534886.914,-111.328,-63.965,-70.801,-103.516,0.000
1727534886.918,-258.301,-72.266,-74.707,-157.715,0.000
1727534886.922,-156.250,-71.289,-94.727,-113.281,0.000
1727534886.925,9.766,-67.383,-84.473,-55.176,0.000
1727534886.929,1.953,-62.500,-66.406,-62.012,0.000
1727534886.933,-102.539,-62.500,-72.266,-92.773,0.000
1727534886.937,-257.324,-71.777,-63.477,-147.949,0.000
1727534886.941,-181.152,-65.918,-51.270,-117.188,0.000
1727534886.945,3.906,-62.012,-57.617,-55.664,0.000
1727534886.949,9.766,-71.777,-77.148,-52.734,0.000
1727534886.953,-81.543,-78.125,-76.660,-83.008,0.000
1727534886.957,-237.793,-76.660,-57.129,-151.855,0.000
1727534886.961,-207.520,-77.637,-46.387,-140.137,0.000
1727534886.965,-24.902,-71.289,-45.898,-65.918,0.000
1727534886.968,15.625,-63.965,-56.641,-39.551,0.000
1727534886.972,-63.965,-70.801,-71.289,-71.289,0.000
1727534886.976,-223.145,-71.777,-75.684,-139.160,0.000
1727534886.980,-207.520,-62.012,-68.359,-136.230,0.000
1727534886.984,-33.691,-67.383,-75.195,-73.242,0.000
1727534886.988,8.789,-75.684,-85.449,-56.641,0.000
1727534886.992,-41.016,-72.266,-77.148,-78.613,0.000
1727534886.996,-195.312,-73.242,-69.336,-131.836,0.000
1727534887.000,-232.422,-75.195,-80.566,-144.531,0.000
1727534887.004,-49.316,-76.660,-86.914,-75.684,0.000
1727534887.008,16.113,-78.125,-71.289,-52.734,0.000
1727534887.011,-38.574,-77.148,-57.617,-70.312,0.000
1727534887.015,-187.012,-77.148,-57.129,-113.281,0.000
1727534887.019,-248.535,-68.359,-73.242,-137.207,0.000
1727534887.023,-69.824,-71.289,-74.219,-90.332,0.000
1727534887.027,20.020,-79.590,-69.336,-63.477,0.000
1727534887.031,-34.180,-74.707,-68.848,-75.195,0.000
1727534887.035,-188.965,-80.566,-76.660,-131.836,0.000
1727534887.039,-266.602,-83.984,-95.215,-160.645,0.000
1727534887.043,-89.355,-82.520,-80.078,-96.680,0.000
1727534887.047,25.879,-80.566,-65.430,-51.270,0.000
1727534887.051,-5.859,-73.242,-63.477,-63.477,0.000
1727534887.054,-149.902,-72.754,-53.711,-123.535,0.000
1727534887.058,-275.391,-73.730,-51.270,-162.109,0.000
1727534887.062,-114.258,-71.289,-51.270,-100.098,0.000
1727534887.066,29.785,-70.312,-52.734,-55.664,0.000
1727534887.070,-0.488,-68.359,-67.871,-63.965,0.000
1727534887.074,-127.441,-66.406,-73.730,-96.680,0.000
1727534887.078,-261.230,-59.082,-71.777,-144.531,0.000
1727534887.082,-135.742,-55.664,-87.891,-116.211,0.000
1727534887.086,21.484,-64.941,-88.867,-63.965,0.000
1727534887.090,0.488,-70.801,-68.359,-70.801,0.000
1727534887.094,-119.629,-81.055,-65.918,-123.535,0.000
1727534887.097,-257.324,-86.426,-60.547,-167.480,0.000
1727534887.101,-153.809,-78.613,-43.457,-106.934,0.000
1727534887.105,17.090,-72.266,-56.641,-38.086,0.000
1727534887.109,24.414,-72.754,-77.637,-53.223,0.000
1727534887.113,-72.266,-77.148,-72.754,-97.168,0.000
1727534887.117,-231.934,-74.707,-79.590,-151.367,0.000
1727534887.121,-165.039,-63.965,-103.516,-110.352,0.000
1727534887.125,17.578,-66.406,-105.957,-47.852,0.000
1727534887.129,30.762,-75.195,-73.242,-54.688,0.000
1727534887.133,-60.547,-80.078,-42.969,-87.402,0.000
1727534887.136,-222.656,-84.473,-29.785,-150.879,0.000
1727534887.140,-200.195,-85.938,-27.344,-135.742,0.000
1727534887.144,-25.391,-85.938,-44.922,-62.012,0.000
1727534887.148,13.672,-81.543,-59.570,-34.668,0.000
1727534887.152,-51.270,-79.102,-69.824,-60.059,0.000
1727534887.156,-213.867,-78.613,-103.027,-138.672,0.000
1727534887.160,-217.773,-72.754,-133.789,-138.184,0.000
1727534887.164,-34.180,-70.801,-102.539,-66.406,0.000
1727534887.168,15.625,-74.707,-65.430,-62.012,0.000
1727534887.172,-40.039,-78.613,-62.500,-92.285,0.000
1727534887.176,-206.055,-82.031,-63.477,-150.391,0.000
1727534887.179,-245.117,-79.102,-50.293,-166.504,0.000
1727534887.183,-50.293,-75.684,-49.316,-86.914,0.000
1727534887.187,25.391,-78.613,-55.176,-55.664,0.000
1727534887.191,-28.809,-80.566,-74.219,-71.289,0.000
1727534887.195,-167.969,-71.777,-91.797,-107.422,0.000
1727534887.199,-225.098,-67.871,-68.848,-125.488,0.000
1727534887.203,-53.223,-73.242,-53.223,-65.918,0.000
1727534887.207,29.785,-80.078,-46.875,-40.039,0.000
1727534887.211,-17.090,-88.379,-32.227,-58.105,0.000
1727534887.215,-156.738,-86.914,-33.203,-113.770,0.000
1727534887.218,-248.535,-83.496,-51.758,-153.320,0.000
1727534887.222,-92.285,-81.543,-65.430,-80.566,0.000
1727534887.226,39.551,-79.590,-68.848,-31.250,0.000
1727534887.230,29.297,-76.660,-68.359,-43.457,0.000
1727534887.234,-116.211,-78.125,-77.148,-93.750,0.000
1727534887.238,-249.023,-80.566,-81.543,-142.090,0.000
1727534887.242,-106.445,-74.219,-63.965,-80.078,0.000
1727534887.246,39.062,-66.406,-51.270,-33.203,0.000
1727534887.250,17.090,-68.359,-68.848,-52.246,0.000
1727534887.254,-102.539,-74.707,-66.895,-93.750,0.000
1727534887.258,-241.211,-78.613,-30.273,-136.719,0.000
1727534887.261,-134.766,-81.055,-17.578,-101.074,0.000
1727534887.265,19.531,-86.426,-23.438,-52.734,0.000
1727534887.269,16.113,-82.520,-42.480,-48.340,0.000
1727534887.273,-97.168,-80.566,-57.617,-80.078,0.000
1727534887.277,-250.488,-81.055,-78.613,-137.207,0.000
1727534887.281,-143.555,-67.383,-123.047,-97.168,0.000
1727534887.285,32.227,-68.359,-106.934,-23.438,0.000
1727534887.289,24.414,-77.637,-46.875,-34.180,0.000
1727534887.293,-80.078,-82.031,-17.090,-86.914,0.000
1727534887.297,-242.188,-85.449,-13.184,-149.414,0.000
1727534887.300,-192.871,-82.520,-17.090,-128.418,0.000
1727534887.304,-14.648,-83.008,-32.227,-69.824,0.000
1727534887.308,19.043,-76.660,-47.363,-48.828,0.000
1727534887.312,-42.969,-65.430,-67.383,-62.988,0.000
1727534887.316,-197.754,-63.477,-76.660,-122.559,0.000
1727534887.320,-195.801,-70.801,-69.824,-122.559,0.000
1727534887.324,-13.184,-70.312,-68.359,-50.781,0.000
1727534887.328,35.156,-69.824,-79.102,-31.250,0.000
1727534887.332,-45.410,-83.008,-77.148,-65.430,0.000
1727534887.336,-211.426,-83.496,-54.199,-126.465,0.000
1727534887.340,-219.238,-80.078,-32.227,-126.953,0.000
1727534887.343,-30.273,-82.520,-57.617,-40.039,0.000
1727534887.347,32.715,-79.102,-71.289,-23.926,0.000
1727534887.351,-9.766,-74.219,-70.801,-69.336,0.000
1727534887.355,-152.344,-74.219,-73.242,-130.859,0.000
1727534887.359,-209.961,-76.172,-40.527,-145.996,0.000
1727534887.363,-28.320,-67.383,-54.199,-64.941,0.000
1727534887.367,62.500,-62.500,-63.477,-30.762,0.000
1727534887.371,6.836,-76.172,-32.715,-45.410,0.000
1727534887.375,-140.137,-76.172,-27.344,-89.355,0.000
1727534887.379,-222.656,-66.406,-47.363,-112.793,0.000
1727534887.383,-47.852,-56.641,-45.410,-48.340,0.000
1727534887.386,77.637,-58.105,-40.039,-0.488,0.000
1727534887.390,33.203,-67.871,-45.410,-1.953,0.000
1727534887.394,-114.746,-65.430,-66.895,-64.941,0.000
1727534887.398,-209.473,-56.641,-91.309,-108.398,0.000
1727534887.402,-55.664,-59.082,-72.754,-50.293,0.000
1727534887.406,58.594,-65.430,-35.156,-16.113,0.000
1727534887.410,15.137,-71.777,-22.949,-41.504,0.000
1727534887.414,-111.328,-72.754,-27.344,-93.262,0.000
1727534887.418,-224.609,-63.965,-37.109,-128.418,0.000
1727534887.422,-90.820,-56.641,-43.945,-64.453,0.000
1727534887.426,54.199,-56.641,-78.125,-11.230,0.000
1727534887.429,41.504,-58.105,-123.047,-7.324,0.000
1727534887.433,-78.613,-63.477,-70.801,-39.551,0.000
1727534887.437,-229.004,-74.219,-15.137,-109.863,0.000
1727534887.441,-124.023,-78.125,-8.301,-85.938,0.000
1727534887.445,38.574,-75.195,-20.996,-32.227,0.000
1727534887.449,31.738,-71.777,-42.969,-34.668,0.000
1727534887.453,-65.918,-67.383,-53.711,-65.430,0.000
1727534887.457,-218.262,-73.242,-60.059,-125.000,0.000
1727534887.461,-149.902,-75.684,-71.289,-104.004,0.000
1727534887.465,21.484,-64.941,-98.633,-39.062,0.000
1727534887.469,31.738,-64.941,-80.566,-32.227,0.000
1727534887.472,-56.641,-68.359,-46.875,-65.430,0.000
1727534887.476,-208.496,-72.266,-43.457,-116.699,0.000
1727534887.480,-175.781,-82.031,-51.270,-93.262,0.000
1727534887.484,14.160,-78.613,-67.383,-29.297,0.000
1727534887.488,46.387,-73.242,-60.059,-21.973,0.000
1727534887.492,-37.109,-70.312,-82.520,-45.898,0.000
1727534887.496,-187.988,-65.918,-82.520,-95.215,0.000
1727534887.500,-191.895,-69.824,-20.996,-95.703,0.000
1727534887.504,-11.719,-72.266,-2.930,-30.273,0.000
1727534887.508,41.504,-75.684,-19.043,-15.625,0.000
1727534887.511,-19.531,-83.496,-38.574,-38.574,0.000
1727534887.515,-187.012,-74.707,-71.777,-92.773,0.000
1727534887.519,-208.984,-64.453,-102.051,-102.051,0.000
1727534887.523,-18.066,-64.453,-79.590,-26.855,0.000
1727534887.527,56.152,-58.594,-51.758,4.883,0.000
1727534887.531,4.883,-57.129,-41.504,-21.973,0.000
1727534887.535,-157.715,-81.543,-22.461,-86.426,0.000
1727534887.539,-206.055,-85.938,-20.508,-90.332,0.000
1727534887.543,-32.715,-59.570,-67.383,-25.879,0.000
1727534887.547,65.430,-54.199,-44.434,-9.277,0.000
1727534887.551,32.715,-65.430,-55.176,-22.949,0.000
1727534887.554,-128.906,-72.266,-92.285,-83.984,0.000
1727534887.558,-238.281,-68.848,-41.992,-124.512,0.000
1727534887.562,-67.383,-61.035,-13.672,-74.707,0.000
1727534887.566,50.781,-66.406,-34.668,-44.434,0.000
1727534887.570,18.066,-59.082,-66.406,-36.133,0.000
1727534887.574,-99.121,-51.758,-44.922,-68.848,0.000
1727534887.578,-229.492,-48.340,-25.391,-138.672,0.000
1727534887.582,-100.586,-50.293,-27.344,-104.004,0.000
1727534887.586,41.992,-67.383,-40.527,-35.645,0.000
1727534887.590,19.531,-34.180,-56.152,-46.387,0.000
1727534887.593,-102.539,-48.828,-53.711,-85.449,0.000
1727534887.597,-238.770,-67.383,-75.684,-123.047,0.000
1727534887.601,-107.910,-61.523,-59.570,-73.242,0.000
1727534887.605,45.898,-98.633,-26.367,-22.461,0.000
1727534887.609,13.672,-85.449,-61.035,-44.434,0.000
1727534887.613,-80.566,-55.176,-107.910,-58.105,0.000
1727534887.617,-219.238,-81.055,-83.008,-110.840,0.000
1727534887.621,-135.254,-93.750,-11.719,-88.379,0.000
1727534887.625,4.395,-46.875,-27.832,-44.434,0.000
1727534887.629,18.066,-95.703,-56.152,-45.898,0.000
1727534887.633,-49.805,-208.496,-24.414,-49.805,0.000
1727534887.636,-246.582,-232.422,-40.527,-126.953,0.000
1727534887.640,-172.363,-226.562,-60.059,-87.891,0.000
1727534887.644,2.441,-306.641,-84.473,-33.691,0.000
1727534887.648,-20.020,-353.516,-68.848,-72.754,0.000
1727534887.652,-50.293,-431.152,-30.273,-63.477,0.000
1727534887.656,-192.871,-660.156,-27.344,-103.516,0.000
1727534887.660,-202.637,-791.016,-10.742,-106.445,0.000
1727534887.664,-5.371,-830.078,-8.789,-27.344,0.000
1727534887.668,40.039,-894.043,8.789,-16.113,0.000
1727534887.672,-64.941,-990.723,26.855,-76.172,0.000
1727534887.675,-239.258,-1000.000,-5.371,-153.320,0.000
1727534887.679,-244.141,-997.070,-5.371,-141.602,0.000
1727534887.683,-70.801,-1000.000,11.230,-58.105,0.000
1727534887.687,-17.090,-1000.000,-42.480,-59.082,0.000
1727534887.691,-37.598,-1000.000,-84.473,-52.246,0.000
1727534887.695,-175.293,-1000.000,-127.441,-74.707,0.000
1727534887.699,-217.773,-1000.000,-80.566,-100.098,0.000
1727534887.703,-46.387,-1000.000,25.391,-54.688,0.000
1727534887.707,1.953,-1000.000,5.371,-42.969,0.000
1727534887.711,-48.340,-1000.000,-66.406,-57.617,0.000
1727534887.715,-203.125,-1000.000,-115.234,-121.582,0.000
1727534887.718,-289.551,-1000.000,-60.547,-158.691,0.000
1727534887.722,-126.465,-1000.000,48.828,-96.680,0.000
1727534887.726,-54.199,-1000.000,22.461,-100.586,0.000
1727534887.730,-105.469,-1000.000,-27.344,-141.602,0.000
1727534887.734,-228.516,-1000.000,10.742,-149.414,0.000
1727534887.738,-286.133,-1000.000,16.602,-137.695,0.000
1727534887.742,-107.910,-1000.000,-52.246,-75.684,0.000
1727534887.746,20.996,-1000.000,-74.707,-20.508,0.000
1727534887.750,-21.973,-1000.000,-41.992,-36.621,0.000
1727534887.754,-169.922,-1000.000,-27.832,-101.562,0.000
1727534887.758,-346.191,-1000.000,-95.215,-191.406,0.000
1727534887.761,-191.406,-1000.000,-118.652,-117.676,0.000
1727534887.765,37.109,-1000.000,-43.945,22.461,0.000
1727534887.769,-9.766,-1000.000,-1.465,-21.973,0.000
1727534887.773,-141.602,-1000.000,4.883,-87.402,0.000
1727534887.777,-243.164,-1000.000,13.672,-95.703,0.000
1727534887.781,-136.230,-1000.000,-41.016,-59.570,0.000
1727534887.785,17.090,-1000.000,-52.734,-6.348,0.000
1727534887.789,-21.973,-1000.000,-3.906,-34.668,0.000
1727534887.793,-199.707,-1000.000,-40.039,-122.070,0.000
1727534887.797,-374.023,-1000.000,-68.359,-199.219,0.000
1727534887.801,-238.281,-1000.000,-64.941,-131.836,0.000
1727534887.804,-21.973,-1000.000,-74.707,-21.484,0.000
1727534887.808,-23.438,-1000.000,-112.793,-17.090,0.000
1727534887.812,-81.543,-1000.000,-103.516,-28.809,0.000
1727534887.816,-232.422,-1000.000,-22.461,-116.211,0.000
1727534887.820,-232.910,-1000.000,13.672,-157.227,0.000
1727534887.824,-48.340,-1000.000,2.930,-78.613,0.000
1727534887.828,1.953,-1000.000,-23.926,-44.922,0.000
1727534887.832,-80.078,-1000.000,-35.645,-60.547,0.000
1727534887.836,-272.461,-1000.000,-83.496,-140.625,0.000
1727534887.840,-266.113,-1000.000,-113.770,-143.066,0.000
1727534887.843,-105.469,-1000.000,-99.609,-91.797,0.000
1727534887.847,-50.293,-1000.000,-74.219,-84.961,0.000
1727534887.851,-64.941,-1000.000,-26.367,-71.777,0.000
1727534887.855,-250.488,-1000.000,-40.039,-133.301,0.000
1727534887.859,-250.977,-1000.000,-93.262,-119.629,0.000
1727534887.863,-28.809,-1000.000,-115.234,-24.902,0.000
1727534887.867,39.551,-1000.000,-44.434,-9.277,0.000
1727534887.871,-42.969,-1000.000,-18.555,-50.293,0.000
1727534887.875,-245.117,-1000.000,-49.805,-142.578,0.000
1727534887.879,-291.504,-1000.000,-35.156,-164.062,0.000
1727534887.883,-96.191,-1000.000,-37.598,-87.891,0.000
1727534887.886,-20.996,-1000.000,-62.988,-57.617,0.000
1727534887.890,-34.668,-1000.000,-53.711,-42.969,0.000
1727534887.894,-179.688,-1000.000,-95.215,-83.984,0.000
1727534887.898,-242.676,-1000.000,-110.352,-93.262,0.000
1727534887.902,-58.594,-1000.000,-70.312,-28.320,0.000
1727534887.906,24.902,-1000.000,-58.105,-32.227,0.000
1727534887.910,9.766,-1000.000,-28.320,-37.109,0.000
1727534887.914,-133.789,-1000.000,-38.086,-78.613,0.000
1727534887.918,-236.328,-1000.000,-54.199,-108.398,0.000
1727534887.922,-74.707,-1000.000,-45.410,-54.688,0.000
1727534887.925,34.180,-1000.000,-51.270,-23.926,0.000
1727534887.929,15.137,-1000.000,-66.895,-29.297,0.000
1727534887.933,-115.234,-1000.000,-84.961,-82.520,0.000
1727534887.937,-235.840,-1000.000,-86.426,-124.512,0.000
1727534887.941,-100.586,-999.023,-77.148,-75.195,0.000
1727534887.945,39.062,-999.512,-58.105,-26.855,0.000
1727534887.949,50.781,-992.676,-38.086,-5.859,0.000
1727534887.953,-64.941,-958.008,-50.781,-45.410,0.000
1727534887.957,-227.539,-903.809,-100.586,-108.887,0.000
1727534887.961,-102.051,-843.750,-114.746,-54.688,0.000
1727534887.965,65.918,-793.457,-52.734,-2.930,0.000
1727534887.968,29.785,-729.004,-39.551,-42.969,0.000
1727534887.972,-52.734,-676.270,-51.270,-65.918,0.000
1727534887.976,-172.363,-655.762,-33.203,-88.867,0.000
1727534887.980,-103.516,-608.887,-29.297,-69.824,0.000
1727534887.984,65.430,-538.086,-41.992,-16.602,0.000
1727534887.988,74.707,-458.984,-44.434,-0.488,0.000
1727534887.992,-17.090,-394.043,-53.223,-28.320,0.000
1727534887.996,-164.062,-360.352,-72.266,-90.820,0.000
1727534888.000,-114.258,-329.102,-80.078,-68.848,0.000
1727534888.004,74.707,-297.363,-79.102,11.719,0.000
1727534888.007,98.145,-246.582,-63.477,20.996,0.000
1727534888.011,6.348,-157.715,-39.551,-15.625,0.000
1727534888.015,-139.648,-73.730,-37.598,-68.359,0.000
1727534888.019,-108.398,30.273,-71.289,-51.758,0.000
1727534888.023,79.102,164.551,-64.941,10.254,0.000
1727534888.027,110.352,392.578,-29.785,4.395,0.000
1727534888.031,21.484,807.617,-30.762,-25.391,0.000
1727534888.035,-145.508,983.887,-45.410,-84.961,0.000
1727534888.039,-163.574,956.055,-57.617,-98.633,0.000
1727534888.043,39.551,967.773,-46.875,-16.602,0.000
1727534888.047,119.141,968.750,-50.781,21.484,0.000
1727534888.050,65.918,968.262,-47.363,3.906,0.000
1727534888.054,-81.543,968.262,-34.668,-45.898,0.000
1727534888.058,-149.414,968.262,-59.570,-67.871,0.000
1727534888.062,26.367,968.262,-58.594,-11.719,0.000
1727534888.066,120.605,968.262,-75.195,12.207,0.000
1727534888.070,84.473,968.262,-60.547,9.766,0.000
1727534888.074,-47.363,968.262,2.441,-33.691,0.000
1727534888.078,-162.109,968.262,-3.906,-79.590,0.000
1727534888.082,-14.648,968.262,-9.277,-21.973,0.000
1727534888.086,105.957,967.773,-5.371,23.438,0.000
1727534888.090,67.383,968.262,-11.230,12.207,0.000
1727534888.093,-73.242,968.262,-28.320,-34.668,0.000
1727534888.097,-189.941,968.262,-45.898,-90.332,0.000
1727534888.101,-37.109,968.262,-39.551,-39.551,0.000
1727534888.105,109.863,968.262,-37.598,21.484,0.000
1727534888.109,93.262,968.262,-59.570,14.160,0.000
1727534888.113,-31.250,968.262,-53.711,-34.180,0.000
1727534888.117,-178.711,968.262,-31.250,-88.867,0.000
1727534888.121,-68.848,968.262,-37.109,-42.969,0.000
1727534888.125,90.820,968.262,-35.645,28.809,0.000
1727534888.129,86.426,968.262,-28.320,28.320,0.000
1727534888.133,-30.273,968.262,-30.273,-22.461,0.000
1727534888.136,-184.570,968.262,-50.781,-71.777,0.000
1727534888.140,-86.426,968.262,-62.500,-40.039,0.000
1727534888.144,83.496,968.262,-17.090,8.301,0.000
1727534888.148,82.520,968.262,5.859,12.207,0.000
1727534888.152,-24.414,968.262,-45.898,-26.855,0.000
1727534888.156,-185.059,968.262,-51.270,-99.121,0.000
1727534888.160,-110.352,968.262,-30.762,-70.312,0.000
1727534888.164,71.777,968.262,-32.227,0.000,0.000
1727534888.168,83.984,968.262,-31.250,7.324,0.000
1727534888.172,-7.324,968.262,-43.457,-14.648,0.000
1727534888.176,-173.828,968.262,-38.086,-84.961,0.000
1727534888.179,-149.902,968.262,-17.578,-79.590,0.000
1727534888.183,41.504,968.262,-16.602,0.000,0.000
1727534888.187,79.590,968.262,-29.785,14.648,0.000
1727534888.191,-2.930,968.262,-51.270,-21.973,0.000
1727534888.195,-168.945,967.773,-44.922,-84.961,0.000
1727534888.199,-165.039,968.262,-58.105,-77.148,0.000
1727534888.203,26.855,968.262,-67.383,-8.789,0.000
1727534888.207,84.961,968.262,-29.785,16.113,0.000
1727534888.211,30.762,968.262,-20.020,-0.977,0.000
1727534888.215,-129.883,968.262,-27.344,-69.336,0.000
1727534888.219,-173.828,968.262,-34.180,-90.332,0.000
1727534888.222,8.301,968.262,-44.434,-21.484,0.000
1727534888.226,100.098,968.262,-28.809,21.484,0.000
1727534888.230,70.801,968.262,0.977,32.227,0.000
1727534888.234,-93.750,968.262,1.953,-37.109,0.000
1727534888.238,-183.105,968.262,-22.949,-81.055,0.000
1727534888.242,-7.324,968.262,-50.293,-25.879,0.000
1727534888.246,100.098,968.262,-45.410,3.906,0.000
1727534888.250,59.082,968.262,-26.367,3.418,0.000
1727534888.254,-100.586,968.262,-23.438,-55.664,0.000
1727534888.258,-211.914,966.797,-24.414,-101.074,0.000
1727534888.261,-59.570,969.238,-31.738,-46.875,0.000
1727534888.265,66.895,958.984,-35.156,-1.465,0.000
1727534888.269,61.523,915.039,-32.227,-2.441,0.000
1727534888.273,-62.500,868.164,-40.039,-38.574,0.000
1727534888.277,-190.918,817.383,-60.059,-78.613,0.000
1727534888.281,-58.594,754.395,-64.453,-31.738,0.000
1727534888.285,86.914,718.262,-46.387,17.578,0.000
1727534888.289,67.383,701.660,-20.020,0.977,0.000
1727534888.293,-69.336,663.086,-10.742,-47.363,0.000
1727534888.297,-200.684,625.977,-21.484,-84.473,0.000
1727534888.301,-78.613,590.820,-20.996,-36.133,0.000
1727534888.304,72.754,563.477,-13.672,6.836,0.000
1727534888.308,84.473,531.738,-16.602,2.930,0.000
1727534888.312,-12.695,486.328,-34.668,-36.133,0.000
1727534888.316,-182.617,469.727,-41.504,-92.773,0.000
1727534888.320,-108.398,453.613,-28.809,-61.035,0.000
1727534888.324,64.453,433.105,-20.996,-11.230,0.000
1727534888.328,71.289,450.195,-5.371,-9.277,0.000
1727534888.332,-32.715,445.801,-28.320,-42.969,0.000
1727534888.336,-186.523,411.133,-55.664,-104.004,0.000
1727534888.340,-124.512,397.949,-34.180,-73.730,0.000
1727534888.343,67.383,388.184,-26.855,7.812,0.000
1727534888.347,90.332,382.812,-30.762,7.812,0.000
1727534888.351,-8.789,379.395,-33.691,-35.645,0.000
1727534888.355,-183.105,373.047,-37.598,-97.168,0.000
1727534888.359,-158.691,354.004,-55.664,-82.520,0.000
1727534888.363,35.645,323.730,-57.129,-4.395,0.000
1727534888.367,67.383,316.406,-31.738,7.324,0.000
1727534888.371,4.395,325.684,-22.461,-20.508,0.000
1727534888.375,-141.602,322.754,-23.438,-78.125,0.000
1727534888.379,-160.156,310.059,-44.922,-79.590,0.000
1727534888.383,32.227,292.480,-77.637,-0.977,0.000
1727534888.386,80.078,276.855,-61.035,13.184,0.000
1727534888.390,22.461,271.973,-50.293,-9.766,0.000
1727534888.394,-119.629,282.715,-54.688,-51.270,0.000
1727534888.398,-179.688,299.805,-32.715,-76.172,0.000
1727534888.402,-4.883,309.570,-17.578,-25.391,0.000
1727534888.406,80.566,302.734,-27.832,12.695,0.000
1727534888.410,37.109,294.434,-50.293,11.230,0.000
1727534888.414,-104.004,284.668,-40.039,-42.480,0.000
1727534888.418,-178.711,265.625,-29.785,-83.984,0.000
1727534888.422,-23.438,243.164,-47.852,-34.180,0.000
1727534888.425,74.707,222.656,-44.434,2.441,0.000
1727534888.429,47.852,214.355,-41.992,-9.277,0.000
1727534888.433,-89.844,212.891,-57.129,-62.012,0.000
1727534888.437,-195.312,205.566,-57.617,-99.121,0.000
1727534888.441,-41.992,189.941,-57.617,-42.969,0.000
1727534888.445,92.285,180.664,-71.289,4.395,0.000
1727534888.449,56.641,172.852,-49.316,2.930,0.000
1727534888.453,-90.332,154.297,-20.996,-50.293,0.000
1727534888.457,-216.309,142.090,-39.551,-107.422,0.000
1727534888.461,-85.938,138.672,-45.898,-61.523,0.000
1727534888.465,61.035,135.254,-46.387,-7.324,0.000
1727534888.468,56.152,127.930,-48.828,-3.906,0.000
1727534888.472,-61.523,119.629,-60.059,-41.992,0.000
1727534888.476,-202.637,113.770,-77.148,-91.797,0.000
1727534888.480,-88.379,110.352,-59.082,-48.340,0.000
1727534888.484,73.730,102.539,-54.688,8.301,0.000
1727534888.488,70.312,81.543,-71.289,14.160,0.000
1727534888.492,-28.320,56.152,-49.805,-27.344,0.000
1727534888.496,-168.457,44.434,-40.039,-84.473,0.000
1727534888.500,-93.262,33.203,-55.176,-48.828,0.000
1727534888.504,73.730,16.602,-24.902,3.906,0.000
1727534888.508,84.961,24.414,-21.973,-1.953,0.000
1727534888.511,-10.742,30.762,-49.805,-27.344,0.000
1727534888.515,-174.805,15.137,-26.855,-78.125,0.000
1727534888.519,-135.254,-6.348,-22.461,-73.242,0.000
1727534888.523,44.434,-19.043,-41.992,-8.789,0.000
1727534888.527,80.078,-24.902,-44.922,13.184,0.000
1727534888.531,-0.977,-25.391,-42.480,-20.020,0.000
1727534888.535,-169.434,-24.414,-42.480,-92.773,0.000
1727534888.539,-151.855,-20.020,-41.992,-86.914,0.000
1727534888.543,43.457,-16.113,-38.574,-12.695,0.000
1727534888.547,88.867,-19.043,-55.176,6.348,0.000
1727534888.551,18.555,-20.020,-69.336,-15.625,0.000
1727534888.554,-126.953,-19.531,-65.430,-78.125,0.000
1727534888.558,-141.113,-9.277,-64.453,-63.477,0.000
1727534888.562,30.762,-7.324,-63.965,8.301,0.000
1727534888.566,78.613,-24.902,-54.199,0.977,0.000
1727534888.570,22.949,-30.762,-44.434,-18.066,0.000
1727534888.574,-125.488,-31.738,-35.156,-68.359,0.000
1727534888.578,-187.012,-28.320,-47.852,-86.914,0.000
1727534888.582,-9.277,-24.902,-62.500,-24.414,0.000
1727534888.586,70.801,-20.508,-51.758,-3.418,0.000
1727534888.590,22.949,-15.137,-48.340,-32.227,0.000
1727534888.593,-108.887,-22.949,-59.082,-81.055,0.000
1727534888.597,-182.129,-36.621,-61.035,-103.516,0.000
1727534888.601,-14.160,-42.480,-57.617,-34.180,0.000
1727534888.605,93.750,-27.344,-72.754,16.602,0.000
1727534888.609,56.641,-29.785,-59.082,5.371,0.000
1727534888.613,-82.031,-43.945,-43.457,-51.758,0.000
1727534888.617,-184.570,-43.457,-48.340,-88.867,0.000
1727534888.621,-30.762,-40.527,-49.805,-28.809,0.000
1727534888.625,95.703,-39.551,-61.035,6.348,0.000
1727534888.629,81.055,-37.598,-41.992,3.906,0.000
1727534888.633,-45.410,-28.320,-26.367,-28.320,0.000
1727534888.636,-188.965,-28.809,-50.781,-75.684,0.000
1727534888.640,-74.707,-26.855,-88.379,-26.367,0.000
1727534888.644,75.195,-25.391,-92.773,31.250,0.000
1727534888.648,62.500,18.066,-41.992,25.391,0.000
1727534888.652,-52.734,68.359,-7.324,-15.137,0.000
1727534888.656,-181.152,61.523,-25.879,-78.125,0.000
1727534888.660,-78.613,56.152,-30.762,-42.480,0.000
1727534888.664,94.727,58.105,-24.414,21.484,0.000
1727534888.668,96.191,48.340,-47.852,11.719,0.000
1727534888.672,-10.742,28.320,-45.410,-33.203,0.000
1727534888.676,-164.062,21.973,-52.734,-85.938,0.000
1727534888.679,-99.121,17.578,-62.012,-51.270,0.000
1727534888.683,85.938,22.949,-65.430,24.414,0.000
1727534888.687,109.863,37.109,-82.031,28.320,0.000
1727534888.691,10.254,39.062,-54.688,-7.324,0.000
1727534888.695,-152.344,35.645,-32.227,-62.012,0.000
1727534888.699,-110.352,29.785,-28.320,-46.387,0.000
1727534888.703,78.125,32.715,-31.738,17.090,0.000
1727534888.707,110.840,30.273,-58.105,32.715,0.000
1727534888.711,27.344,23.438,-71.289,7.324,0.000
1727534888.715,-124.512,18.555,-65.430,-61.523,0.000
1727534888.718,-117.676,17.090,-49.805,-54.199,0.000
1727534888.722,57.129,15.137,-38.086,13.672,0.000
1727534888.726,106.445,11.719,-33.691,38.086,0.000
1727534888.730,55.176,9.766,-27.832,24.414,0.000
1727534888.734,-101.074,-4.883,-29.785,-45.410,0.000
1727534888.738,-145.996,-16.602,-41.992,-58.594,0.000
1727534888.742,41.504,-11.719,-61.035,12.207,0.000
1727534888.746,127.930,-4.395,-62.988,41.504,0.000
1727534888.750,62.988,-19.531,-50.781,10.742,0.000
1727534888.754,-97.656,-36.621,-46.387,-54.199,0.000
1727534888.758,-151.855,-24.902,-59.570,-67.383,0.000
1727534888.761,28.809,-10.254,-58.105,-1.953,0.000
1727534888.765,126.953,-17.090,-45.898,27.832,0.000
1727534888.769,81.055,-29.785,-29.297,10.742,0.000
1727534888.773,-71.289,-32.715,-33.203,-35.156,0.000
1727534888.777,-157.227,-37.109,-60.059,-69.336,0.000
1727534888.781,2.441,-45.898,-64.453,-5.371,0.000
1727534888.785,114.258,-37.598,-66.406,42.969,0.000
1727534888.789,84.473,-24.414,-59.082,29.785,0.000
1727534888.793,-51.270,-30.762,-44.922,-19.043,0.000
1727534888.797,-173.340,-44.922,-46.875,-67.871,0.000
1727534888.800,-34.668,-42.969,-47.852,-20.996,0.000
1727534888.804,112.305,-34.180,-38.574,37.598,0.000
1727534888.808,95.215,-34.668,-38.086,35.156,0.000
1727534888.812,-23.438,-40.039,-41.504,-17.090,0.000
1727534888.816,-150.879,-44.922,-65.918,-63.477,0.000
1727534888.820,-32.715,-46.387,-83.496,-11.230,0.000
1727534888.824,116.211,-51.270,-53.223,44.922,0.000
1727534888.828,99.609,-48.340,-28.320,43.945,0.000
1727534888.832,-18.066,-45.410,-26.367,3.418,0.000
1727534888.836,-165.527,-49.805,-39.062,-50.781,0.000
1727534888.840,-59.082,-43.457,-38.086,-4.395,0.000
1727534888.843,111.328,-53.223,-30.273,51.270,0.000
1727534888.847,105.957,-64.453,-43.457,42.969,0.000
1727534888.851,26.855,-49.316,-70.801,1.953,0.000
1727534888.855,-121.094,-43.945,-65.918,-51.270,0.000
1727534888.859,-67.383,-39.551,-56.152,-16.113,0.000
1727534888.863,101.074,-30.762,-55.176,42.969,0.000
1727534888.867,124.023,-32.227,-29.297,46.387,0.000
1727534888.871,56.641,-35.156,-14.648,24.414,0.000
1727534888.875,-116.699,-41.992,-29.785,-44.922,0.000
1727534888.879,-91.309,-41.016,-25.879,-36.133,0.000
1727534888.883,108.398,-34.180,-20.508,47.852,0.000
1727534888.886,135.254,-33.203,-45.410,68.848,0.000
1727534888.890,52.734,-39.062,-50.293,45.898,0.000
1727534888.894,-105.957,-41.992,-41.016,-24.414,0.000
1727534888.898,-111.328,-44.922,-57.617,-29.785,0.000
1727534888.902,75.684,-44.922,-56.152,42.969,0.000
1727534888.906,136.719,-44.434,-31.738,60.547,0.000
1727534888.910,86.914,-42.969,-32.715,39.062,0.000
1727534888.914,-72.754,-44.922,-49.316,-16.602,0.000
1727534888.918,-110.352,-48.340,-41.992,-25.391,0.000
1727534888.922,68.359,-47.852,-22.949,48.828,0.000
1727534888.926,141.113,-51.270,-31.738,83.496,0.000
1727534888.929,83.496,-50.293,-45.898,63.965,0.000
1727534888.933,-62.500,-40.527,-48.828,8.301,0.000
1727534888.937,-128.418,-45.410,-51.270,-18.066,0.000
1727534888.941,36.133,-51.270,-48.340,29.297,0.000
1727534888.945,149.414,-51.758,-48.828,69.336,0.000
1727534888.949,117.676,-55.664,-39.062,57.617,0.000
1727534888.953,-36.621,-42.969,-28.320,-8.789,0.000
1727534888.957,-149.414,-37.598,-25.391,-44.922,0.000
1727534888.961,12.207,-38.086,-35.156,16.113,0.000
1727534888.965,136.230,-36.621,-41.504,62.988,0.000
1727534888.968,110.352,-29.297,-50.293,62.500,0.000
1727534888.972,-10.254,-23.926,-63.965,19.531,0.000
1727534888.976,-131.836,-22.949,-53.223,-23.926,0.000
1727534888.980,-1.465,8.789,-42.969,40.527,0.000
1727534888.984,129.883,45.898,-28.809,89.355,0.000
1727534888.988,114.258,52.246,-23.438,77.148,0.000
1727534888.992,1.953,44.434,-33.691,31.738,0.000
1727534888.996,-138.184,40.039,-30.762,-29.785,0.000
1727534889.000,-31.250,38.574,-27.344,3.906,0.000
1727534889.004,131.836,40.527,-27.344,68.359,0.000
1727534889.008,142.090,43.945,-49.805,78.613,0.000
1727534889.011,36.133,36.621,-50.781,37.598,0.000
1727534889.015,-130.371,20.508,-7.324,-25.391,0.000
1727534889.019,-56.641,18.555,16.113,1.953,0.000
1727534889.023,113.770,17.090,-1.465,73.730,0.000
1727534889.027,120.117,10.742,-32.715,74.219,0.000
1727534889.031,30.273,10.742,-26.855,23.438,0.000
1727534889.035,-117.676,10.742,-20.508,-27.832,0.000
1727534889.039,-63.965,9.277,-28.809,15.137,0.000
1727534889.043,114.258,9.766,-36.133,80.078,0.000
1727534889.047,143.555,6.836,-41.504,80.566,0.000
1727534889.050,68.359,-6.348,-31.250,55.176,0.000
1727534889.054,-99.121,-9.277,-35.645,-11.230,0.000
1727534889.058,-84.473,-2.930,-21.973,-9.277,0.000
1727534889.062,100.586,-9.766,9.277,56.641,0.000
1727534889.066,142.578,-14.648,5.859,75.684,0.000
1727534889.070,87.891,-6.836,-17.578,66.895,0.000
1727534889.074,-68.848,-4.395,-23.926,17.090,0.000
1727534889.078,-89.844,-0.488,-5.859,9.277,0.000
1727534889.082,93.262,-5.371,12.207,70.312,0.000
1727534889.086,147.949,-25.879,8.789,83.496,0.000
1727534889.090,88.867,-36.621,-5.859,58.594,0.000
1727534889.093,-61.035,-22.461,-4.395,4.883,0.000
1727534889.097,-116.699,-18.555,-5.371,-7.812,0.000
1727534889.101,62.500,-23.926,-14.160,55.664,0.000
1727534889.105,160.645,-19.531,-18.555,79.102,0.000
1727534889.109,121.582,-8.301,-15.625,67.871,0.000
1727534889.113,-21.973,-5.371,-17.578,23.438,0.000
1727534889.117,-108.887,-13.184,-16.602,-9.766,0.000
1727534889.121,56.152,-11.719,-15.625,48.828,0.000
1727534889.125,173.828,-10.742,-35.156,91.309,0.000
1727534889.129,139.160,-13.672,-26.367,79.590,0.000
1727534889.132,4.883,-8.301,-2.441,31.738,0.000
1727534889.136,-114.258,-12.695,2.930,-13.184,0.000
1727534889.140,17.578,-16.602,4.883,33.691,0.000
1727534889.144,151.855,-15.625,10.254,77.148,0.000
1727534889.148,134.766,-14.648,2.930,77.148,0.000
1727534889.152,20.020,-5.371,-19.043,39.551,0.000
1727534889.156,-109.863,-8.301,-18.555,-4.395,0.000
1727534889.160,12.695,-17.090,-7.324,43.945,0.000
1727534889.164,162.598,-20.508,7.324,89.355,0.000
1727534889.168,143.066,-20.020,4.395,76.660,0.000
1727534889.172,31.738,-20.020,-25.879,36.133,0.000
1727534889.176,-106.445,-25.879,-21.973,-22.949,0.000
1727534889.179,-16.113,-20.508,-3.906,6.836,0.000
1727534889.183,138.184,-11.719,-8.789,66.895,0.000
1727534889.187,147.949,-19.531,-17.578,72.754,0.000
1727534889.191,43.945,-20.020,-22.461,40.527,0.000
1727534889.195,-112.793,-14.648,3.418,-22.461,0.000
1727534889.199,-36.133,-20.996,14.648,8.789,0.000
1727534889.203,146.484,-21.484,12.207,78.613,0.000
1727534889.207,158.691,-18.555,17.090,79.590,0.000
1727534889.211,61.523,-20.508,17.578,49.805,0.000
1727534889.215,-104.980,-22.949,17.578,-16.113,0.000
1727534889.219,-62.988,-24.414,-3.906,2.930,0.000
1727534889.222,130.371,-20.996,-28.320,75.684,0.000
1727534889.226,156.250,-20.508,-12.695,76.172,0.000
1727534889.230,78.125,-21.973,26.855,49.805,0.000
1727534889.234,-86.914,-19.531,41.504,-14.648,0.000
1727534889.238,-99.121,-26.367,33.203,-16.602,0.000
1727534889.242,92.285,-29.785,21.973,54.199,0.000
1727534889.246,147.949,-20.996,5.859,66.406,0.000
1727534889.250,76.660,-19.043,7.812,47.363,0.000
1727534889.254,-76.660,-19.531,8.789,-11.719,0.000
1727534889.258,-105.469,-18.555,-2.930,-30.273,0.000
1727534889.261,63.965,-27.832,1.465,49.316,0.000
1727534889.265,132.324,-23.438,-12.207,71.289,0.000
1727534889.269,84.961,-6.348,-18.066,40.039,0.000
1727534889.273,-63.965,-5.371,16.113,-16.113,0.000
1727534889.277,-123.047,-15.137,9.277,-55.664,0.000
1727534889.281,53.711,-18.066,-15.625,8.301,0.000
1727534889.285,148.926,-17.090,-2.930,46.387,0.000
1727534889.289,103.027,-16.602,0.488,31.738,0.000
1727534889.293,-45.898,-18.066,6.836,-6.348,0.000
1727534889.297,-146.973,-21.484,29.785,-35.645,0.000
1727534889.301,15.137,-17.578,46.875,21.973,0.000
1727534889.304,136.719,-12.695,41.016,65.430,0.000
1727534889.308,97.168,-9.766,26.367,50.781,0.000
1727534889.312,-25.391,-1.953,17.090,4.395,0.000
1727534889.316,-128.418,-4.883,5.859,-36.133,0.000
1727534889.320,6.348,-18.555,-18.066,13.672,0.000
1727534889.324,133.301,-16.602,-20.508,59.570,0.000
1727534889.328,116.211,-2.930,4.883,59.082,0.000
1727534889.332,-7.812,0.000,25.391,11.230,0.000
1727534889.336,-146.973,-6.836,17.090,-53.223,0.000
1727534889.340,-35.156,-12.695,8.301,-7.812,0.000
1727534889.344,110.840,-19.043,10.742,46.387,0.000
1727534889.347,109.375,-9.766,17.090,41.992,0.000
1727534889.351,1.953,-0.488,12.695,10.254,0.000
1727534889.355,-145.020,-5.859,10.254,-33.691,0.000
1727534889.359,-48.828,-8.301,18.066,4.395,0.000
1727534889.363,118.164,-15.137,17.090,61.035,0.000
1727534889.367,119.629,-22.461,22.949,54.199,0.000
1727534889.371,35.645,-17.090,27.832,18.066,0.000
1727534889.375,-120.117,-13.672,21.973,-36.621,0.000
1727534889.379,-71.777,-19.043,11.719,-18.066,0.000
1727534889.383,100.098,-10.254,14.648,41.016,0.000
1727534889.386,116.211,4.395,19.531,39.551,0.000
1727534889.390,42.480,4.883,9.277,11.719,0.000
1727534889.394,-116.699,0.977,-7.812,-41.016,0.000
1727534889.398,-94.727,2.441,-18.066,-26.855,0.000
1727534889.402,98.633,5.371,7.324,53.711,0.000
1727534889.406,146.484,-4.883,46.387,66.406,0.000
1727534889.410,59.570,-16.602,52.246,30.762,0.000
1727534889.414,-108.398,-17.578,35.645,-38.086,0.000
1727534889.418,-109.863,-19.531,10.254,-36.621,0.000
1727534889.422,66.895,-15.625,3.906,38.574,0.000
1727534889.426,117.676,-10.742,22.949,50.293,0.000
1727534889.429,53.223,-13.672,26.367,26.855,0.000
1727534889.433,-104.004,-17.578,21.484,-33.691,0.000
1727534889.437,-141.113,-18.555,18.066,-52.246,0.000
1727534889.441,36.621,-11.230,19.531,22.949,0.000
1727534889.445,117.188,-3.418,4.883,61.523,0.000
1727534889.449,71.289,-5.371,-8.301,36.133,0.000
1727534889.453,-74.707,-10.254,15.625,-25.879,0.000
1727534889.457,-140.625,-9.766,7.324,-48.340,0.000
1727534889.461,42.480,-4.395,-2.930,22.461,0.000
1727534889.465,137.207,-7.812,27.832,63.965,0.000
1727534889.468,87.891,-13.184,47.363,34.180,0.000
1727534889.472,-62.500,0.488,40.527,-36.621,0.000
1727534889.476,-167.969,12.207,31.738,-80.078,0.000
1727534889.480,2.441,17.090,20.020,-4.395,0.000
1727534889.484,133.789,18.066,-6.348,47.363,0.000
1727534889.488,99.121,15.137,8.301,36.621,0.000
1727534889.492,-27.344,16.602,29.297,-0.977,0.000
1727534889.496,-140.137,15.137,26.367,-41.504,0.000
1727534889.500,-4.883,9.277,23.438,3.418,0.000
1727534889.504,136.230,3.418,8.789,44.922,0.000
1727534889.508,110.352,-6.348,3.418,29.785,0.000
1727534889.511,-14.648,-11.719,-3.906,-17.090,0.000
1727534889.515,-151.367,-10.742,3.906,-66.406,0.000
1727534889.519,-34.180,-6.836,21.973,-19.531,0.000
1727534889.523,128.418,-5.371,32.715,41.016,0.000
1727534889.527,124.512,-10.254,36.621,34.668,0.000
1727534889.531,18.555,-8.789,30.762,-2.930,0.000
1727534889.535,-135.254,2.930,23.926,-46.387,0.000
1727534889.539,-64.453,6.836,22.461,-19.043,0.000
1727534889.543,97.168,11.230,19.531,30.273,0.000
1727534889.547,94.727,8.789,15.625,24.414,0.000
1727534889.550,3.906,7.812,12.695,-5.371,0.000
1727534889.554,-143.066,23.438,1.953,-59.082,0.000
1727534889.558,-96.680,25.879,7.324,-39.551,0.000
1727534889.562,84.473,20.020,19.043,31.738,0.000
1727534889.566,119.141,24.414,13.672,36.621,0.000
1727534889.570,41.992,28.320,5.859,7.324,0.000
1727534889.574,-121.094,32.227,4.395,-59.082,0.000
1727534889.578,-109.863,34.180,10.742,-57.129,0.000
1727534889.582,55.664,18.555,16.113,5.371,0.000
1727534889.586,98.633,1.953,8.789,0.977,0.000
1727534889.590,41.992,-8.789,14.648,-12.207,0.000
1727534889.593,-121.094,-12.695,20.508,-52.734,0.000
1727534889.597,-145.996,-19.043,7.324,-56.641,0.000
1727534889.601,51.270,-13.672,8.789,19.043,0.000
1727534889.605,112.793,-4.395,17.090,48.828,0.000
1727534889.609,56.641,-10.742,0.488,16.602,0.000
1727534889.613,-95.215,-17.090,10.254,-52.246,0.000
1727534889.617,-155.273,-19.043,28.320,-73.242,0.000
1727534889.621,16.602,-23.438,29.785,-15.625,0.000
1727534889.625,94.727,-24.902,15.625,12.695,0.000
1727534889.629,54.199,-23.926,-7.812,-6.348,0.000
1727534889.633,-97.168,-20.508,13.672,-64.941,0.000
1727534889.636,-179.199,-20.508,28.809,-83.496,0.000
1727534889.640,-4.395,7.324,9.766,-7.812,0.000
1727534889.644,100.586,52.246,6.836,30.273,0.000
1727534889.648,63.477,63.477,-5.859,13.184,0.000
1727534889.652,-62.988,60.547,-14.160,-32.227,0.000
1727534889.656,-173.340,102.051,25.391,-65.918,0.000
1727534889.660,-34.668,225.586,45.898,-14.648,0.000
1727534889.664,92.773,291.016,25.879,26.855,0.000
1727534889.668,62.500,276.855,3.418,3.906,0.000
1727534889.672,-61.035,261.719,3.906,-54.688,0.000
1727534889.676,-190.918,237.793,20.020,-92.773,0.000
1727534889.679,-61.035,214.355,24.902,-44.922,0.000
1727534889.683,96.191,205.078,11.230,23.926,0.000
1727534889.687,90.332,198.242,6.348,21.973,0.000
1727534889.691,-26.367,185.547,12.695,-44.922,0.000
1727534889.695,-171.387,174.316,11.719,-98.145,0.000
1727534889.699,-64.941,162.109,15.625,-45.410,0.000
1727534889.703,87.402,153.320,8.789,10.254,0.000
1727534889.707,77.637,144.043,3.906,-4.395,0.000
1727534889.711,-26.367,123.535,-3.906,-40.039,0.000
1727534889.715,-184.082,111.816,-27.832,-94.727,0.000
1727534889.719,-110.840,109.375,-21.973,-63.965,0.000
1727534889.722,61.523,104.492,-4.395,4.883,0.000
1727534889.726,87.402,98.633,-13.672,15.137,0.000
1727534889.730,1.465,84.473,2.441,-8.301,0.000
1727534889.734,-164.062,73.730,8.301,-71.289,0.000
1727534889.738,-122.559,78.613,7.324,-54.688,0.000
1727534889.742,51.270,72.754,22.461,12.207,0.000
1727534889.746,75.684,59.082,13.672,0.488,0.000
1727534889.750,7.324,58.105,10.254,-33.691,0.000
1727534889.754,-156.250,51.270,5.859,-91.797,0.000
1727534889.758,-150.391,46.387,-17.578,-97.168,0.000
1727534889.761,41.992,48.828,-19.043,-9.766,0.000
1727534889.765,93.750,77.148,0.488,14.160,0.000
1727534889.769,22.949,122.070,6.836,-6.348,0.000
1727534889.773,-131.836,125.000,1.465,-57.129,0.000
1727534889.777,-158.691,113.770,-15.137,-82.520,0.000
1727534889.781,19.043,104.492,-20.508,-24.414,0.000
1727534889.785,85.449,97.168,0.977,-0.977,0.000
1727534889.789,34.668,91.797,28.320,-18.066,0.000
1727534889.793,-119.141,84.961,20.508,-75.684,0.000
1727534889.797,-179.199,79.590,5.371,-97.656,0.000
1727534889.801,0.000,77.637,10.742,-26.367,0.000
1727534889.804,93.262,78.613,15.137,13.184,0.000
1727534889.808,53.223,77.637,-9.277,-0.488,0.000
1727534889.812,-90.820,64.941,-24.902,-57.129,0.000
1727534889.816,-195.801,53.223,7.812,-88.379,0.000
1727534889.820,-30.273,50.781,29.785,-19.531,0.000
1727534889.824,92.285,42.480,9.277,21.484,0.000
1727534889.828,57.129,36.621,-15.137,6.348,0.000
1727534889.832,-71.289,33.691,-11.230,-48.340,0.000
1727534889.836,-193.848,27.344,-0.977,-104.004,0.000
1727534889.840,-60.547,25.879,4.883,-60.059,0.000
1727534889.843,69.824,23.926,-8.301,-8.789,0.000
1727534889.847,47.363,24.414,-24.414,-8.789,0.000
1727534889.851,-77.637,27.832,-2.930,-53.711,0.000
1727534889.855,-210.938,20.508,4.883,-104.980,0.000
1727534889.859,-85.938,17.578,-13.184,-59.570,0.000
1727534889.863,75.195,27.344,-5.859,7.324,0.000
1727534889.867,62.500,24.414,-0.488,6.348,0.000
1727534889.871,-66.895,7.324,-9.766,-48.340,0.000
1727534889.875,-201.660,-1.465,-7.324,-108.398,0.000
1727534889.879,-96.680,2.441,-4.395,-81.543,0.000
1727534889.883,69.336,9.766,-10.254,-18.066,0.000
1727534889.886,68.359,5.859,-11.230,-10.254,0.000
1727534889.890,-33.691,1.465,-10.742,-47.852,0.000
1727534889.894,-188.477,-2.441,-21.484,-111.328,0.000
1727534889.898,-126.953,-3.906,-17.090,-78.613,0.000
1727534889.902,50.781,-3.418,7.324,-8.789,0.000
1727534889.906,62.988,-6.348,17.090,-9.766,0.000
1727534889.910,-20.020,-4.395,8.789,-41.016,0.000
1727534889.914,-178.223,-2.930,-15.137,-108.887,0.000
1727534889.918,-147.461,-8.789,-30.762,-96.680,0.000
1727534889.922,35.645,-15.137,-41.504,-16.113,0.000
1727534889.925,60.059,-14.160,-39.551,-4.395,0.000
1727534889.929,-27.344,-11.230,-12.695,-42.969,0.000
1727534889.933,-189.941,-10.254,10.254,-108.887,0.000
1727534889.937,-189.941,-11.719,17.090,-105.957,0.000
1727534889.941,-3.906,-9.766,-2.441,-35.156,0.000
1727534889.945,60.547,-2.930,-2.441,-16.113,0.000
1727534889.949,-3.906,2.930,12.207,-38.574,0.000
1727534889.953,-166.016,-2.441,2.930,-88.379,0.000
1727534889.957,-207.031,-12.695,4.395,-106.445,0.000
1727534889.961,-23.926,-13.184,-0.977,-43.945,0.000
1727534889.965,58.594,-9.766,-9.766,-8.301,0.000
1727534889.968,10.254,-13.672,-12.207,-20.996,0.000
1727534889.972,-124.512,-6.348,-25.879,-73.730,0.000
1727534889.976,-195.312,-7.324,-20.508,-105.469,0.000
1727534889.980,-35.156,-10.742,-4.395,-48.340,0.000
1727534889.984,62.012,-8.789,5.371,-9.766,0.000
1727534889.988,22.461,-12.695,9.766,-26.367,0.000
1727534889.992,-122.559,-11.719,4.395,-78.125,0.000
1727534889.996,-215.332,-3.906,-11.719,-102.539,0.000
1727534890.000,-46.387,-6.836,-15.625,-35.645,0.000
1727534890.004,58.594,-18.555,-9.277,4.395,0.000
1727534890.008,29.297,-18.555,-17.578,-3.906,0.000
1727534890.011,-85.449,-15.137,-30.273,-49.316,0.000
1727534890.015,-205.078,-17.578,-17.578,-100.098,0.000
1727534890.019,-71.289,-20.020,7.324,-54.688,0.000
1727534890.023,61.523,-24.902,13.184,-5.859,0.000
1727534890.027,30.762,-29.785,0.000,-18.555,0.000
1727534890.031,-94.727,-33.691,-13.672,-65.918,0.000
1727534890.035,-230.957,-33.691,-21.973,-115.234,0.000
1727534890.039,-114.258,-30.273,-32.715,-78.125,0.000
1727534890.043,38.574,-34.180,-19.043,-25.391,0.000
1727534890.047,27.832,-36.133,-7.324,-21.484,0.000
1727534890.051,-64.453,-28.809,-9.766,-63.477,0.000
1727534890.054,-216.309,-30.762,-11.230,-134.277,0.000
1727534890.058,-147.949,-40.039,-17.090,-107.422,0.000
1727534890.062,31.250,-41.016,-13.184,-41.016,0.000
1727534890.066,35.156,-42.969,-3.418,-42.480,0.000
1727534890.070,-56.641,-46.387,-16.113,-69.336,0.000
1727534890.074,-203.125,-42.480,-39.551,-114.258,0.000
1727534890.078,-155.273,-40.527,-25.391,-95.703,0.000
1727534890.082,29.297,-40.039,-35.645,-32.715,0.000
1727534890.086,47.852,-34.180,-50.781,-30.273,0.000
1727534890.090,-37.598,-33.203,-41.016,-57.129,0.000
1727534890.093,-190.430,-34.668,-48.340,-109.375,0.000
1727534890.097,-184.570,-39.551,-29.785,-119.141,0.000
1727534890.101,-4.395,-40.039,-10.254,-46.875,0.000
1727534890.105,28.809,-45.410,-7.812,-23.926,0.000
1727534890.109,-45.410,-53.223,-14.160,-60.547,0.000
1727534890.113,-197.266,-50.781,-19.043,-124.512,0.000
1727534890.117,-211.426,-49.805,-7.812,-123.535,0.000
1727534890.121,-25.879,-53.223,-13.184,-47.852,0.000
1727534890.125,32.227,-55.176,-15.625,-28.320,0.000
1727534890.129,-14.648,-51.270,-28.809,-54.688,0.000
1727534890.133,-154.785,-41.504,-73.730,-99.609,0.000
1727534890.136,-207.031,-39.062,-62.988,-108.887,0.000
1727534890.140,-31.738,-45.410,-31.738,-61.035,0.000
1727534890.144,57.129,-44.434,-27.832,-41.992,0.000
1727534890.148,7.812,-44.922,-17.090,-52.246,0.000
1727534890.152,-142.578,-44.922,-5.859,-110.840,0.000
1727534890.156,-224.609,-46.875,-6.836,-147.949,0.000
1727534890.160,-67.871,-48.828,-16.113,-77.148,0.000
1727534890.164,44.922,-43.457,-11.719,-24.902,0.000
1727534890.168,22.949,-48.828,-22.461,-40.039,0.000
1727534890.172,-118.164,-49.316,-48.340,-94.727,0.000
1727534890.176,-229.004,-48.828,-34.180,-127.441,0.000
1727534890.179,-74.707,-49.316,-7.812,-65.918,0.000
1727534890.183,47.363,-47.363,-17.090,-20.020,0.000
1727534890.187,16.602,-45.898,-38.574,-37.598,0.000
1727534890.191,-109.375,-49.316,-43.457,-85.449,0.000
1727534890.195,-246.094,-58.105,-45.898,-127.930,0.000
1727534890.199,-118.164,-50.293,-39.551,-79.102,0.000
1727534890.203,37.109,-42.969,-28.809,-26.367,0.000
1727534890.207,35.156,-44.922,-22.949,-26.367,0.000
1727534890.211,-78.125,-41.016,-4.883,-62.988,0.000
1727534890.215,-226.562,-45.898,0.977,-125.488,0.000
1727534890.218,-130.371,-46.875,-13.184,-88.867,0.000
1727534890.222,33.203,-41.016,-26.855,-29.297,0.000
1727534890.226,38.574,-45.410,-28.809,-36.621,0.000
1727534890.230,-59.082,-37.598,-32.715,-64.453,0.000
1727534890.234,-212.891,-33.691,-59.082,-109.863,0.000
1727534890.238,-147.949,-45.898,-64.453,-87.891,0.000
1727534890.242,20.996,-48.340,-44.922,-35.156,0.000
1727534890.246,28.809,-43.945,-21.484,-48.340,0.000
1727534890.250,-46.387,-39.062,-6.348,-75.684,0.000
1727534890.254,-203.125,-43.457,-21.484,-125.488,0.000
1727534890.258,-173.828,-45.410,-32.715,-109.863,0.000
1727534890.261,16.113,-40.527,-20.996,-37.598,0.000
1727534890.265,46.875,-40.039,-27.344,-24.902,0.000
1727534890.269,-31.738,-39.551,-44.922,-53.223,0.000
1727534890.273,-187.012,-38.574,-33.691,-112.305,0.000
1727534890.277,-175.781,-38.574,-26.367,-108.398,0.000
1727534890.281,17.578,-31.250,-43.457,-37.109,0.000
1727534890.285,62.988,-34.668,-48.828,-13.184,0.000
1727534890.289,-11.719,-51.270,-37.598,-43.457,0.000
1727534890.293,-164.062,-51.758,-47.852,-105.957,0.000
1727534890.297,-186.523,-50.293,-46.387,-104.004,0.000
1727534890.300,-12.207,-55.664,-13.672,-41.992,0.000
1727534890.304,50.781,-57.617,-10.742,-32.715,0.000
1727534890.308,-3.418,-64.453,-27.344,-61.035,0.000
1727534890.312,-158.691,-65.430,-21.973,-118.652,0.000
1727534890.316,-217.773,-58.594,-29.297,-140.625,0.000
1727534890.320,-31.738,-51.270,-41.992,-69.336,0.000
1727534890.324,61.523,-44.434,-37.109,-30.273,0.000
1727534890.328,2.441,-48.828,-43.457,-47.363,0.000
1727534890.332,-146.484,-55.664,-50.781,-96.191,0.000
1727534890.336,-230.957,-57.129,-50.293,-124.512,0.000
1727534890.340,-71.777,-57.617,-42.480,-63.965,0.000
1727534890.343,47.852,-64.453,-36.621,-20.020,0.000
1727534890.347,28.809,-65.430,-43.945,-37.109,0.000
1727534890.351,-104.980,-67.383,-30.762,-98.145,0.000
1727534890.355,-219.727,-67.383,-28.809,-136.719,0.000
1727534890.359,-80.078,-61.523,-50.781,-77.637,0.000
1727534890.363,45.410,-61.035,-64.941,-28.320,0.000
1727534890.367,20.020,-59.570,-57.129,-41.016,0.000
1727534890.371,-105.957,-65.430,-22.461,-87.402,0.000
1727534890.375,-244.141,-73.242,-14.160,-134.766,0.000
1727534890.379,-116.211,-64.453,-26.367,-86.914,0.000
1727534890.383,52.734,-59.570,-26.367,-21.973,0.000
1727534890.386,37.109,-62.988,-26.855,-18.066,0.000
1727534890.390,-82.520,-59.570,-55.176,-56.641,0.000
1727534890.394,-225.586,-50.781,-70.312,-116.699,0.000
1727534890.398,-128.418,-59.082,-48.828,-72.266,0.000
1727534890.402,41.992,-64.453,-33.691,-11.230,0.000
1727534890.406,44.434,-53.711,-40.527,-29.785,0.000
1727534890.410,-59.082,-55.176,-33.203,-72.754,0.000
1727534890.414,-217.285,-58.594,-21.973,-132.324,0.000
1727534890.418,-149.414,-53.711,-36.621,-102.539,0.000
1727534890.422,36.621,-50.293,-46.875,-23.926,0.000
1727534890.426,54.688,-51.270,-45.898,-32.227,0.000
1727534890.429,-34.668,-54.199,-28.320,-69.824,0.000
1727534890.433,-196.777,-61.523,-20.996,-113.281,0.000
1727534890.437,-161.133,-55.664,-48.340,-86.426,0.000
1727534890.441,21.973,-51.270,-65.430,-19.531,0.000
1727534890.445,51.758,-53.711,-44.434,-16.113,0.000
1727534890.449,-30.762,-58.594,-26.367,-42.480,0.000
1727534890.453,-199.707,-64.453,-10.742,-101.074,0.000
1727534890.457,-198.242,-62.500,-5.859,-106.445,0.000
1727534890.461,-9.766,-61.523,-8.789,-39.062,0.000
1727534890.465,50.781,-54.688,-11.230,-13.672,0.000
1727534890.468,-9.766,-50.293,-20.996,-35.645,0.000
1727534890.472,-169.434,-54.199,-32.227,-100.586,0.000
1727534890.476,-204.102,-53.711,-58.594,-115.723,0.000
1727534890.480,-32.227,-53.711,-66.895,-35.156,0.000
1727534890.484,32.715,-59.570,-43.945,-20.996,0.000
1727534890.488,-10.254,-58.594,-44.434,-49.805,0.000
1727534890.492,-147.949,-55.176,-40.527,-95.703,0.000
1727534890.496,-219.727,-58.105,-14.648,-118.164,0.000
1727534890.500,-51.270,-63.965,-13.184,-57.129,0.000
1727534890.504,51.758,-64.941,-22.949,-27.344,0.000
1727534890.508,5.859,-63.965,-31.738,-44.922,0.000
1727534890.511,-129.395,-63.965,-39.062,-87.891,0.000
1727534890.515,-213.867,-64.453,-48.828,-114.746,0.000
1727534890.519,-67.871,-62.500,-67.383,-60.547,0.000
1727534890.523,47.363,-59.082,-70.801,-20.996,0.000
1727534890.527,27.832,-56.641,-30.762,-29.785,0.000
1727534890.531,-111.816,-62.988,4.395,-93.262,0.000
1727534890.535,-250.977,-73.730,1.465,-142.578,0.000
1727534890.539,-104.004,-70.801,-7.324,-86.426,0.000
1727534890.543,54.199,-63.477,-20.020,-30.273,0.000
1727534890.547,42.480,-55.176,-32.227,-29.297,0.000
1727534890.550,-85.938,-55.176,-40.527,-79.102,0.000
1727534890.554,-233.887,-62.012,-54.688,-134.277,0.000
1727534890.558,-122.559,-60.059,-45.898,-83.008,0.000
1727534890.562,26.855,-63.477,-43.945,-28.809,0.000
1727534890.566,17.578,-64.453,-82.031,-23.926,0.000
1727534890.570,-84.473,-64.941,-83.496,-53.711,0.000
1727534890.574,-238.770,-75.195,-47.852,-120.117,0.000
1727534890.578,-155.273,-79.102,-36.621,-97.656,0.000
1727534890.582,16.113,-81.055,-41.992,-43.945,0.000
1727534890.586,20.996,-74.219,-27.344,-34.668,0.000
1727534890.590,-74.219,-59.570,-21.973,-63.477,0.000
1727534890.593,-217.773,-59.082,-49.316,-116.699,0.000
1727534890.597,-144.531,-61.035,-52.246,-83.008,0.000
1727534890.601,36.133,-58.594,-50.293,-8.301,0.000
1727534890.605,57.617,-56.152,-75.684,-2.441,0.000
1727534890.609,-18.066,-55.176,-73.242,-37.109,0.000
1727534890.613,-181.152,-61.035,-41.016,-105.469,0.000
1727534890.617,-160.645,-65.918,-30.762,-103.027,0.000
1727534890.621,23.926,-64.453,-39.551,-38.574,0.000
1727534890.625,46.875,-65.430,-37.109,-35.156,0.000
1727534890.629,-22.949,-68.848,-30.762,-67.871,0.000
1727534890.632,-175.781,-69.336,-35.156,-135.742,0.000
1727534890.636,-199.219,-72.266,-31.250,-138.184,0.000
1727534890.640,-24.414,-78.613,-44.922,-61.035,0.000
1727534890.644,39.062,-75.684,-60.059,-35.645,0.000
1727534890.648,-18.066,-71.777,-47.852,-48.340,0.000
1727534890.652,-163.574,-73.730,-50.781,-100.098,0.000
1727534890.656,-209.473,-71.777,-49.805,-111.328,0.000
1727534890.660,-36.621,-71.777,-27.832,-31.738,0.000
1727534890.664,42.969,-68.848,-23.926,-12.207,0.000
1727534890.668,-1.953,-64.453,-32.227,-38.086,0.000
1727534890.672,-161.133,-72.266,-36.133,-104.492,0.000
1727534890.675,-232.910,-75.684,-51.758,-133.789,0.000
1727534890.679,-56.641,-71.289,-91.309,-62.500,0.000
1727534890.683,44.434,-66.895,-75.684,-34.180,0.000
1727534890.687,22.461,-62.012,-65.918,-45.410,0.000
1727534890.691,-117.676,-58.105,-61.035,-93.750,0.000
1727534890.695,-222.168,-54.688,-37.109,-121.582,0.000
1727534890.699,-67.383,-66.406,-47.852,-68.359,0.000
1727534890.703,41.504,-78.125,-31.250,-37.598,0.000
1727534890.707,-3.906,-79.102,-15.137,-59.570,0.000
1727534890.711,-125.000,-73.730,-21.484,-106.445,0.000
1727534890.715,-229.004,-66.895,-35.156,-130.859,0.000
1727534890.718,-86.426,-63.477,-52.246,-63.477,0.000
1727534890.722,59.570,-59.082,-84.961,-2.441,0.000
1727534890.726,34.180,-59.082,-70.801,-20.508,0.000
1727534890.730,-88.379,-64.941,-31.250,-80.078,0.000
1727534890.734,-222.168,-69.824,-20.020,-129.395,0.000
1727534890.738,-108.398,-68.359,-14.160,-86.426,0.000
1727534890.742,51.758,-60.059,-20.508,-25.391,0.000
1727534890.746,40.039,-57.129,-31.250,-30.762,0.000
1727534890.750,-64.453,-60.059,-41.016,-71.289,0.000
1727534890.754,-217.773,-57.617,-86.426,-121.094,0.000
1727534890.758,-152.832,-56.152,-103.027,-91.309,0.000
1727534890.761,26.367,-51.758,-66.406,-14.648,0.000
1727534890.765,38.574,-49.316,-62.012,-3.906,0.000
1727534890.769,-54.199,-65.430,-46.387,-57.617,0.000
1727534890.773,-209.961,-72.754,6.836,-108.398,0.000
1727534890.777,-163.574,-70.801,2.441,-79.102,0.000
1727534890.781,25.879,-72.754,-47.852,-13.672,0.000
1727534890.785,53.223,-68.359,-50.781,-13.184,0.000
1727534890.789,-30.762,-64.941,-15.137,-50.293,0.000
1727534890.793,-206.543,-60.547,-4.395,-102.051,0.000
1727534890.797,-210.449,-54.688,-45.410,-107.422,0.000
1727534890.800,-11.719,-65.430,-53.711,-41.504,0.000
1727534890.804,38.086,-65.918,-41.016,-17.090,0.000
1727534890.808,-33.691,-59.570,-63.477,-30.762,0.000
1727534890.812,-167.480,-60.547,-58.594,-79.590,0.000
1727534890.816,-187.012,-38.086,-54.199,-96.191,0.000
1727534890.820,-5.371,-49.316,-56.641,-30.273,0.000
1727534890.824,48.340,-86.426,-36.621,-28.320,0.000
1727534890.828,-38.086,-62.988,-71.777,-76.172,0.000
1727534890.832,-199.707,-29.297,-94.727,-140.625,0.000
1727534890.836,-227.539,-80.566,-55.664,-133.301,0.000
1727534890.840,-12.695,-104.004,-33.203,-40.039,0.000
1727534890.843,67.871,-69.824,-29.785,-24.414,0.000
1727534890.847,27.832,-78.613,-21.973,-30.273,0.000
1727534890.851,-113.281,-69.824,-26.367,-63.477,0.000
1727534890.855,-218.262,-68.848,-25.879,-104.980,0.000
1727534890.859,-52.734,-70.801,-42.969,-43.457,0.000
1727534890.863,74.707,-84.473,-51.270,1.953,0.000
1727534890.867,23.926,-98.633,-56.641,-24.902,0.000
1727534890.871,-146.484,-63.477,-100.586,-100.586,0.000
1727534890.875,-248.047,-89.355,-41.016,-133.789,0.000
1727534890.879,-61.523,-157.715,-11.719,-57.129,0.000
1727534890.883,80.566,-162.598,-43.945,-9.766,0.000
1727534890.886,53.711,-156.250,-55.176,-12.695,0.000
1727534890.890,-89.844,-176.758,-50.781,-75.684,0.000
1727534890.894,-217.285,-267.578,11.230,-121.094,0.000
1727534890.898,-104.004,-334.473,34.180,-71.777,0.000
1727534890.902,31.738,-413.574,16.113,-34.668,0.000
1727534890.906,47.852,-496.094,6.348,-21.973,0.000
1727534890.910,-70.801,-559.570,-0.488,-52.246,0.000
1727534890.914,-254.883,-631.836,-94.238,-128.418,0.000
1727534890.918,-129.395,-691.895,-147.949,-91.309,0.000
1727534890.922,47.852,-773.926,-39.062,-15.625,0.000
1727534890.925,38.574,-823.730,-8.301,-4.395,0.000
1727534890.929,-58.105,-928.223,-49.805,-40.039,0.000
1727534890.933,-225.098,-1000.000,-27.344,-119.629,0.000
1727534890.937,-155.273,-997.559,26.367,-117.188,0.000
1727534890.941,-11.719,-999.512,9.766,-78.125,0.000
1727534890.945,36.133,-1000.000,26.367,-21.484,0.000
1727534890.949,-40.039,-1000.000,-6.348,-34.668,0.000
1727534890.953,-249.512,-1000.000,-73.242,-134.766,0.000
1727534890.957,-189.453,-1000.000,-15.137,-89.844,0.000
1727534890.961,55.664,-1000.000,-8.301,29.297,0.000
1727534890.965,48.828,-1000.000,-90.820,0.000,0.000
1727534890.968,-86.426,-1000.000,-32.227,-81.055,0.000
1727534890.972,-216.309,-1000.000,37.598,-111.328,0.000
1727534890.976,-226.562,-1000.000,-1.953,-119.141,0.000
1727534890.980,-41.992,-1000.000,-30.762,-55.664,0.000
1727534890.984,59.570,-1000.000,-31.738,16.602,0.000
1727534890.988,-16.602,-1000.000,-8.789,-6.348,0.000
1727534890.992,-203.613,-1000.000,-7.812,-98.145,0.000
1727534890.996,-246.582,-1000.000,-26.367,-128.418,0.000
1727534891.000,-88.867,-1000.000,-39.062,-82.520,0.000
1727534891.004,-13.184,-1000.000,-63.965,-65.430,0.000
1727534891.007,-53.711,-1000.000,-50.781,-79.102,0.000
1727534891.011,-217.285,-1000.000,-37.598,-134.277,0.000
1727534891.015,-282.715,-1000.000,-54.688,-169.922,0.000
1727534891.019,-93.750,-1000.000,-54.199,-110.352,0.000
1727534891.023,18.066,-1000.000,-40.527,-57.129,0.000
1727534891.027,-26.367,-1000.000,-33.691,-62.988,0.000
1727534891.031,-192.383,-1000.000,-11.719,-108.887,0.000
1727534891.035,-315.918,-1000.000,-51.758,-165.039,0.000
1727534891.039,-169.922,-1000.000,-68.359,-126.953,0.000
1727534891.043,-33.691,-1000.000,-45.898,-65.918,0.000
1727534891.047,-45.410,-1000.000,-70.312,-50.781,0.000
1727534891.050,-174.316,-1000.000,-70.312,-96.191,0.000
1727534891.054,-268.555,-1000.000,-83.008,-120.117,0.000
1727534891.058,-125.977,-1000.000,-90.332,-61.523,0.000
1727534891.062,-7.812,-1000.000,-61.035,-48.828,0.000
1727534891.066,-22.949,-1000.000,-12.695,-51.270,0.000
1727534891.070,-166.504,-1000.000,-20.996,-120.605,0.000
1727534891.074,-294.434,-1000.000,-43.945,-170.410,0.000
1727534891.078,-129.883,-1000.000,-59.570,-72.754,0.000
1727534891.082,35.645,-1000.000,-49.316,1.465,0.000
1727534891.086,-0.977,-1000.000,-41.504,-40.039,0.000
1727534891.090,-113.770,-1000.000,-42.480,-104.980,0.000
1727534891.093,-263.184,-1000.000,-26.855,-153.320,0.000
1727534891.097,-179.199,-1000.000,-60.547,-123.535,0.000
1727534891.101,9.277,-1000.000,-99.121,-54.199,0.000
1727534891.105,30.762,-1000.000,-62.012,-29.785,0.000
1727534891.109,-64.453,-1000.000,-48.828,-53.223,0.000
1727534891.113,-236.816,-1000.000,-85.938,-121.582,0.000
1727534891.117,-169.434,-1000.000,-45.898,-87.402,0.000
1727534891.121,6.836,-1000.000,-43.945,-38.574,0.000
1727534891.125,12.207,-1000.000,-71.289,-48.340,0.000
1727534891.129,-39.551,-1000.000,-42.480,-48.340,0.000
1727534891.132,-219.727,-1000.000,-37.598,-135.254,0.000
1727534891.136,-191.895,-1000.000,-77.637,-104.980,0.000
1727534891.140,31.250,-1000.000,-94.238,6.836,0.000
1727534891.144,62.500,-1000.000,-36.621,3.906,0.000
1727534891.148,-23.926,-1000.000,-3.906,-38.086,0.000
1727534891.152,-200.684,-1000.000,-31.250,-114.258,0.000
1727534891.156,-179.688,-1000.000,-40.039,-104.492,0.000
1727534891.160,33.203,-1000.000,-36.621,-30.273,0.000
1727534891.164,68.848,-1000.000,-36.133,-27.832,0.000
1727534891.168,11.719,-1000.000,-23.926,-41.504,0.000
1727534891.172,-132.324,-1000.000,-36.133,-101.074,0.000
1727534891.175,-175.293,-1000.000,-64.453,-118.164,0.000
1727534891.179,10.742,-1000.000,-111.328,-36.621,0.000
1727534891.183,83.008,-997.559,-104.492,-3.906,0.000
1727534891.187,15.137,-1000.000,-30.762,-24.414,0.000
1727534891.191,-163.574,-964.355,-21.973,-106.445,0.000
1727534891.195,-210.938,-904.297,-22.461,-114.258,0.000
1727534891.199,-16.602,-837.891,-18.066,-27.832,0.000
1727534891.203,83.008,-726.074,-28.320,5.859,0.000
1727534891.207,83.496,-654.297,-32.227,20.020,0.000
1727534891.211,-66.895,-596.680,-47.363,-41.992,0.000
1727534891.215,-199.707,-537.109,-58.105,-110.840,0.000
1727534891.218,-43.945,-484.863,-63.965,-50.781,0.000
1727534891.222,98.633,-473.145,-67.383,18.066,0.000
1727534891.226,76.660,-424.316,-63.477,18.555,0.000
1727534891.230,-58.594,-368.164,-75.195,-26.367,0.000
1727534891.234,-185.059,-346.191,-33.203,-86.914,0.000
1727534891.238,-44.434,-301.758,-29.297,-42.969,0.000
1727534891.242,117.188,-238.770,-67.383,32.227,0.000
1727534891.246,102.051,-179.199,-5.859,34.180,0.000
1727534891.250,-41.016,-137.695,26.367,-30.762,0.000
1727534891.254,-191.406,-104.004,7.324,-90.820,0.000
1727534891.258,-68.848,4.883,-2.930,-40.039,0.000
1727534891.261,111.328,125.977,-15.137,25.879,0.000
1727534891.265,118.652,333.008,-49.316,33.691,0.000
1727534891.269,3.906,633.301,-65.918,-0.488,0.000
1727534891.273,-162.109,848.633,-47.852,-63.477,0.000
1727534891.277,-84.473,965.332,-23.926,-36.133,0.000
1727534891.281,108.887,966.309,-20.020,32.227,0.000
1727534891.285,118.164,965.820,-16.602,28.320,0.000
1727534891.289,-11.230,968.750,-18.066,-31.738,0.000
1727534891.293,-177.734,968.262,-30.273,-87.891,0.000
1727534891.297,-104.004,968.262,-30.762,-47.852,0.000
1727534891.300,89.844,968.262,-27.832,30.762,0.000
1727534891.304,115.723,968.262,-30.762,41.504,0.000
1727534891.308,37.598,968.262,-40.527,7.812,0.000
1727534891.312,-114.746,968.262,-60.547,-52.734,0.000
1727534891.316,-95.215,968.262,-51.270,-38.086,0.000
1727534891.320,80.566,968.262,-41.016,28.320,0.000
1727534891.324,116.211,968.262,-42.969,30.762,0.000
1727534891.328,44.434,968.262,-10.742,-7.812,0.000
1727534891.332,-121.582,968.262,-8.789,-73.242,0.000
1727534891.336,-145.996,968.262,-27.344,-71.289,0.000
1727534891.339,37.598,968.262,-20.020,-3.906,0.000
1727534891.343,114.746,968.262,-2.441,23.926,0.000
1727534891.347,46.875,967.773,-6.348,8.301,0.000
1727534891.351,-120.605,968.262,-29.785,-51.758,0.000
1727534891.355,-147.461,968.262,-35.156,-54.688,0.000
1727534891.359,33.203,968.262,-36.133,7.812,0.000
1727534891.363,111.328,968.262,-20.996,27.832,0.000
1727534891.367,66.406,968.262,-0.488,16.113,0.000
1727534891.371,-79.102,968.262,-22.949,-40.039,0.000
1727534891.375,-161.621,968.262,-64.941,-71.289,0.000
1727534891.379,11.230,968.262,-46.875,-2.930,0.000
1727534891.382,126.465,968.262,-20.020,28.809,0.000
1727534891.386,76.660,968.262,-36.621,9.766,0.000
1727534891.390,-62.500,968.262,-21.484,-37.109,0.000
1727534891.394,-158.691,968.262,0.488,-76.172,0.000
1727534891.398,-11.230,968.262,-3.906,-25.391,0.000
1727534891.402,116.211,968.262,-24.902,23.926,0.000
1727534891.406,85.449,968.262,-27.832,17.578,0.000
1727534891.410,-43.457,967.773,-14.648,-30.273,0.000
1727534891.414,-174.316,967.773,-5.859,-79.590,0.000
1727534891.418,-56.641,967.773,-10.742,-35.156,0.000
1727534891.421,86.426,967.773,-36.133,17.090,0.000
1727534891.425,68.848,968.262,-52.246,2.930,0.000
1727534891.429,-53.223,968.262,-35.645,-45.898,0.000
1727534891.433,-193.848,968.262,-22.461,-90.332,0.000
1727534891.437,-81.543,968.262,-29.785,-33.203,0.000
1727534891.441,76.172,968.262,-32.715,31.738,0.000
1727534891.445,64.453,968.262,-31.738,19.531,0.000
1727534891.449,-31.250,968.262,-33.691,-23.438,0.000
1727534891.453,-177.734,968.262,-33.691,-79.590,0.000
1727534891.457,-105.957,968.262,-37.598,-46.387,0.000
1727534891.461,67.871,968.262,-57.617,11.230,0.000
1727534891.464,83.984,968.262,-73.242,7.812,0.000
1727534891.468,-9.277,968.262,-59.570,-21.973,0.000
1727534891.472,-171.387,967.773,-38.086,-83.984,0.000
1727534891.476,-128.906,967.773,-6.836,-62.500,0.000
1727534891.480,42.480,968.262,4.883,1.465,0.000
1727534891.484,62.988,968.262,-15.625,-1.953,0.000
1727534891.488,-4.883,968.262,-29.297,-23.926,0.000
1727534891.492,-140.137,968.262,-42.480,-67.383,0.000
1727534891.496,-122.559,968.262,-67.383,-51.758,0.000
1727534891.500,48.828,968.262,-56.641,9.277,0.000
1727534891.504,82.520,968.750,-33.691,15.137,0.000
1727534891.507,19.043,966.309,-42.480,-13.184,0.000
1727534891.511,-136.719,970.215,-29.785,-65.918,0.000
1727534891.515,-165.039,958.496,-1.953,-69.336,0.000
1727534891.519,19.043,907.715,5.859,-5.859,0.000
1727534891.523,89.844,871.582,-11.230,19.531,0.000
1727534891.527,39.551,872.070,-26.855,-6.836,0.000
1727534891.531,-120.605,877.930,-32.715,-65.918,0.000
1727534891.535,-183.105,872.559,-36.621,-82.520,0.000
1727534891.539,-3.418,883.301,-33.691,-13.184,0.000
1727534891.543,93.750,872.559,-35.156,27.832,0.000
1727534891.547,62.988,825.195,-64.453,0.977,0.000
1727534891.550,-82.031,796.875,-78.125,-64.453,0.000
1727534891.554,-168.457,773.438,-43.945,-91.309,0.000
1727534891.558,-24.902,761.230,-21.973,-31.738,0.000
1727534891.562,78.613,770.508,-11.719,0.000,0.000
1727534891.566,53.711,748.047,-12.207,-20.508,0.000
1727534891.570,-84.961,712.891,-26.855,-64.941,0.000
1727534891.574,-197.266,710.938,-37.598,-104.492,0.000
1727534891.578,-55.664,702.637,-41.016,-50.293,0.000
1727534891.582,80.566,683.594,-47.852,9.277,0.000
1727534891.586,65.430,657.227,-49.316,9.277,0.000
1727534891.590,-56.152,608.398,-57.617,-39.062,0.000
1727534891.593,-185.547,572.754,-86.914,-94.238,0.000
1727534891.597,-59.082,544.922,-61.035,-45.898,0.000
1727534891.601,79.102,512.207,-25.391,2.930,0.000
1727534891.605,64.941,484.375,-41.016,-3.906,0.000
1727534891.609,-30.273,468.750,-44.434,-31.250,0.000
1727534891.613,-179.688,445.312,-25.879,-82.520,0.000
1727534891.617,-92.285,412.598,-14.648,-53.223,0.000
1727534891.621,78.125,386.230,-21.973,6.836,0.000
1727534891.625,77.148,364.258,-21.973,11.719,0.000
1727534891.629,-27.832,354.004,-32.227,-22.949,0.000
1727534891.632,-187.012,340.820,-53.711,-94.238,0.000
1727534891.636,-121.582,323.730,-45.898,-73.730,0.000
1727534891.640,67.871,320.801,-42.969,0.000,0.000
1727534891.644,79.590,318.359,-51.270,8.789,0.000
1727534891.648,-7.812,297.852,-33.691,-8.301,0.000
1727534891.652,-165.039,288.086,-29.785,-62.988,0.000
1727534891.656,-138.672,282.715,-38.086,-62.012,0.000
1727534891.660,46.387,267.090,-35.645,3.418,0.000
