timestamps,TP9,AF7,AF8,TP10,Right AUX
1727575395.534,3.906,-19.043,-37.598,-2.930,0.000
1727575395.538,14.648,-23.926,-45.410,-24.414,0.000
1727575395.542,7.812,-36.133,-52.734,-40.039,0.000
1727575395.546,-39.062,-47.852,-62.988,-54.688,0.000
1727575395.550,-43.945,-35.156,-48.340,-13.672,0.000
1727575395.554,-6.836,-29.297,-32.715,19.043,0.000
1727575395.558,22.461,-29.297,-37.598,-12.207,0.000
1727575395.561,28.320,-29.785,-40.039,-27.832,0.000
1727575395.565,-37.598,-34.180,-39.551,-58.594,0.000
1727575395.569,-64.941,-37.109,-42.969,-41.016,0.000
1727575395.573,-35.645,-30.273,-43.945,1.465,0.000
1727575395.577,-16.113,-22.461,-42.480,-12.207,0.000
1727575395.581,-5.859,-32.715,-40.039,-24.902,0.000
1727575395.585,-37.109,-55.664,-43.945,-51.270,0.000
1727575395.589,-53.711,-41.992,-42.480,-37.109,0.000
1727575395.593,-38.086,-19.043,-34.180,-0.488,0.000
1727575395.597,-17.578,-23.438,-31.250,-19.531,0.000
1727575395.600,1.953,-37.598,-36.621,-29.785,0.000
1727575395.604,-41.016,-55.176,-49.316,-40.039,0.000
1727575395.608,-81.055,-50.781,-48.340,-43.457,0.000
1727575395.612,-54.688,-31.250,-31.250,-18.555,0.000
1727575395.616,-21.484,-39.551,-33.203,-21.484,0.000
1727575395.620,-7.812,-44.434,-41.992,-35.156,0.000
1727575395.624,-38.574,-42.969,-43.945,-58.105,0.000
1727575395.628,-79.590,-38.086,-46.387,-57.617,0.000
1727575395.632,-48.340,-40.527,-41.992,-6.836,0.000
1727575395.636,-14.648,-49.805,-33.203,-4.883,0.000
1727575395.639,-2.930,-39.551,-31.250,-27.832,0.000
1727575395.643,-15.137,-42.480,-31.250,-49.805,0.000
1727575395.647,-46.875,-46.875,-34.180,-39.551,0.000
1727575395.651,-30.273,-23.438,-30.273,0.488,0.000
1727575395.655,-14.160,-17.090,-21.973,-10.254,0.000
1727575395.659,8.789,-26.367,-21.973,-14.648,0.000
1727575395.663,2.441,-39.551,-40.039,-13.184,0.000
1727575395.667,-49.805,-46.875,-44.922,-21.973,0.000
1727575395.671,-38.574,-19.531,-36.621,3.418,0.000
1727575395.675,-6.836,-16.602,-40.527,5.859,0.000
1727575395.679,7.324,-22.461,-40.039,-19.531,0.000
1727575395.682,-4.883,-30.273,-38.574,-40.039,0.000
1727575395.686,-52.246,-31.250,-31.738,-46.875,0.000
1727575395.690,-34.180,-17.578,-22.461,-2.441,0.000
1727575395.694,-2.930,-25.879,-26.367,17.578,0.000
1727575395.698,10.254,-27.832,-27.832,-9.766,0.000
1727575395.702,12.207,-24.414,-33.691,-29.297,0.000
1727575395.706,-30.762,-28.809,-41.992,-43.945,0.000
1727575395.710,-39.062,-26.367,-42.480,-12.695,0.000
1727575395.714,-28.809,-22.949,-38.086,-12.695,0.000
1727575395.718,-19.531,-20.020,-39.062,-49.805,0.000
1727575395.722,-0.488,-32.715,-50.781,-49.316,0.000
1727575395.726,-45.898,-38.574,-48.828,-60.547,0.000
1727575395.729,-68.848,-19.531,-37.598,-33.203,0.000
1727575395.733,-26.367,-25.879,-40.039,-1.465,0.000
1727575395.737,-2.930,-34.668,-45.410,-16.113,0.000
1727575395.741,-11.230,-31.738,-39.062,-22.949,0.000
1727575395.745,-64.941,-27.344,-42.969,-51.270,0.000
1727575395.749,-72.754,-24.902,-41.504,-24.414,0.000
1727575395.753,-36.621,-33.203,-33.203,15.625,0.000
1727575395.757,-20.996,-29.785,-31.738,-19.043,0.000
1727575395.761,-5.371,-15.137,-31.250,-41.992,0.000
1727575395.765,-37.109,-24.902,-35.156,-54.199,0.000
1727575395.769,-60.547,-33.691,-26.367,-36.133,0.000
1727575395.772,-36.133,-29.297,-24.902,4.395,0.000
1727575395.776,-22.949,-23.438,-34.180,-23.438,0.000
1727575395.780,6.836,-24.414,-28.320,-26.855,0.000
1727575395.784,-34.668,-15.625,-40.527,-47.363,0.000
1727575395.788,-64.453,-21.973,-34.180,-41.992,0.000
1727575395.792,-7.324,-31.738,-12.695,24.414,0.000
1727575395.796,8.789,-26.367,-22.461,-4.883,0.000
1727575395.800,20.996,-25.391,-38.086,-30.762,0.000
1727575395.804,-19.043,-21.484,-43.457,-46.387,0.000
1727575395.808,-50.781,-17.578,-39.551,-52.734,0.000
1727575395.811,-29.297,-24.902,-43.945,-19.043,0.000
1727575395.815,-29.297,-36.621,-50.293,-22.949,0.000
1727575395.819,-1.953,-29.785,-41.504,-23.926,0.000
1727575395.823,-23.926,-28.320,-44.434,-33.691,0.000
1727575395.827,-69.824,-30.273,-43.457,-39.062,0.000
1727575395.831,-36.621,-16.113,-24.414,9.766,0.000
1727575395.835,-26.367,-15.137,-23.438,6.836,0.000
1727575395.839,-14.160,-18.555,-31.250,-23.438,0.000
1727575395.843,-11.230,-25.879,-33.203,-37.109,0.000
1727575395.847,-69.824,-44.922,-45.898,-57.129,0.000
1727575395.851,-72.754,-33.203,-41.992,-34.668,0.000
1727575395.854,-35.156,-32.715,-36.133,-25.879,0.000
1727575395.858,-13.672,-38.574,-45.410,-46.387,0.000
1727575395.862,0.000,-43.457,-49.316,-65.430,0.000
1727575395.866,0.000,-34.668,-44.434,-72.266,0.000
1727575395.870,0.000,-19.043,-37.109,-15.137,0.000
1727575395.874,0.000,-21.973,-31.738,1.465,0.000
1727575395.878,0.000,-32.227,-28.809,-27.344,0.000
1727575395.882,0.000,-35.156,-36.133,-37.598,0.000
1727575395.886,0.000,-37.598,-37.109,-55.664,0.000
1727575395.890,0.000,-38.574,-35.156,-20.996,0.000
1727575395.894,0.000,-26.855,-38.086,1.953,0.000
1727575395.897,0.000,-12.207,-30.273,-21.484,0.000
1727575395.901,0.000,-9.277,-35.645,-35.645,0.000
1727575395.905,0.000,-31.250,-42.480,-47.852,0.000
1727575395.909,-39.062,-27.832,-31.738,-12.207,0.000
1727575395.913,-14.160,-10.742,-27.832,10.742,0.000
1727575395.917,17.090,-19.043,-27.344,-0.977,0.000
1727575395.921,34.668,-20.508,-32.227,-18.555,0.000
1727575395.925,-22.949,-31.250,-44.434,-55.176,0.000
1727575395.929,-49.805,-37.109,-31.738,-43.945,0.000
1727575395.933,-13.672,-32.715,-33.691,-1.953,0.000
1727575395.936,8.301,-28.809,-51.270,-0.977,0.000
1727575395.940,20.996,-17.090,-47.852,-20.996,0.000
1727575395.944,-33.691,-21.973,-43.945,-42.480,0.000
1727575395.948,-71.777,-26.367,-36.621,-23.438,0.000
1727575395.952,-37.598,-31.250,-35.645,0.977,0.000
1727575395.956,-12.695,-50.781,-33.203,-16.602,0.000
1727575395.960,16.602,-43.457,-34.180,-27.344,0.000
1727575395.964,-19.043,-32.227,-45.410,-50.781,0.000
1727575395.968,-63.477,-29.297,-38.574,-29.785,0.000
1727575395.972,-29.297,-25.879,-23.926,17.578,0.000
1727575395.975,0.977,-39.551,-20.508,7.324,0.000
1727575395.979,27.344,-40.039,-21.973,-4.395,0.000
1727575395.983,-11.230,-39.551,-33.691,-36.133,0.000
1727575395.987,-55.664,-40.527,-37.109,-30.762,0.000
1727575395.991,-22.461,-29.297,-22.461,21.484,0.000
1727575395.995,0.977,-35.156,-26.855,12.695,0.000
1727575395.999,13.184,-36.621,-36.621,-12.207,0.000
1727575396.003,-15.625,-36.133,-37.598,-45.410,0.000
1727575396.007,-60.547,-41.992,-41.992,-48.828,0.000
1727575396.011,-46.875,-40.527,-30.273,9.277,0.000
1727575396.014,-41.016,-32.715,-27.344,-6.348,0.000
1727575396.018,-11.719,-30.762,-34.668,-34.180,0.000
1727575396.022,-16.113,-62.500,-34.668,-38.574,0.000
1727575396.026,-74.219,-52.734,-37.109,-52.246,0.000
1727575396.030,-52.734,-8.789,-21.973,-14.160,0.000
1727575396.034,-22.461,-4.883,-15.625,-1.953,0.000
1727575396.038,3.418,-19.043,-22.949,-10.254,0.000
1727575396.042,-5.859,-34.180,-27.832,-29.785,0.000
1727575396.046,-63.477,-41.016,-33.691,-53.711,0.000
1727575396.050,-46.875,-30.273,-40.039,-8.789,0.000
1727575396.054,-20.020,-26.367,-35.156,4.883,0.000
1727575396.058,3.906,-13.184,-36.621,-26.367,0.000
1727575396.061,4.395,-18.555,-43.457,-46.387,0.000
1727575396.065,-68.359,-46.875,-47.852,-61.523,0.000
1727575396.069,-56.641,-38.574,-36.621,-15.137,0.000
1727575396.073,-19.043,-15.625,-27.344,-0.488,0.000
1727575396.077,-5.859,-4.395,-31.250,-31.738,0.000
1727575396.081,9.766,-17.090,-36.133,-36.621,0.000
1727575396.085,-40.527,-35.645,-42.480,-53.711,0.000
1727575396.089,-49.805,-24.902,-30.762,-29.785,0.000
1727575396.093,-32.227,-22.461,-23.926,-0.977,0.000
1727575396.097,-26.855,-31.250,-29.297,-19.531,0.000
1727575396.101,-4.395,-34.668,-37.598,-39.551,0.000
1727575396.104,-45.410,-38.574,-40.039,-58.105,0.000
1727575396.108,-57.129,-23.438,-21.973,-23.926,0.000
1727575396.112,-20.508,-14.648,-16.602,23.438,0.000
1727575396.116,-3.906,-19.043,-30.273,4.883,0.000
1727575396.120,9.766,-17.090,-36.133,-22.461,0.000
1727575396.124,-35.645,-37.109,-34.180,-55.664,0.000
1727575396.128,-52.246,-40.039,-25.879,-30.273,0.000
1727575396.132,-27.344,-25.879,-21.973,17.090,0.000
1727575396.136,-1.953,-20.508,-22.949,-4.883,0.000
1727575396.140,38.086,-24.414,-29.785,-20.996,0.000
1727575396.144,-11.230,-34.180,-38.086,-41.992,0.000
1727575396.147,-58.594,-27.344,-35.156,-35.156,0.000
1727575396.151,-35.645,-28.320,-28.320,0.977,0.000
1727575396.155,-11.719,-37.109,-34.668,-8.301,0.000
1727575396.159,12.207,-34.180,-37.598,-29.297,0.000
1727575396.163,-32.715,-50.293,-28.320,-54.688,0.000
1727575396.167,-56.152,-46.387,-27.832,-44.434,0.000
1727575396.171,-23.926,-43.945,-25.879,-1.953,0.000
1727575396.175,-36.133,-40.527,-28.809,-8.301,0.000
1727575396.179,-20.020,-19.531,-35.156,-22.461,0.000
1727575396.183,-36.133,-26.855,-28.809,-53.711,0.000
1727575396.186,-77.637,-33.691,-32.715,-52.246,0.000
1727575396.190,-54.688,-19.043,-35.645,5.371,0.000
1727575396.194,-37.109,-19.531,-37.109,0.977,0.000
1727575396.198,-11.230,-30.762,-33.691,-6.348,0.000
1727575396.202,-20.996,-40.527,-36.133,-33.203,0.000
1727575396.206,-71.777,-41.016,-43.945,-61.035,0.000
1727575396.210,-57.617,-27.832,-41.504,-15.625,0.000
1727575396.214,-32.715,-29.785,-46.387,-14.648,0.000
1727575396.218,-7.324,-38.086,-41.016,-34.668,0.000
1727575396.222,-9.766,-40.527,-38.574,-51.758,0.000
1727575396.226,-61.035,-40.527,-37.109,-68.848,0.000
1727575396.229,-50.293,-40.527,-30.273,-19.043,0.000
1727575396.233,-27.832,-24.902,-34.180,-6.348,0.000
1727575396.237,-3.906,-21.484,-36.621,-31.250,0.000
1727575396.241,-2.930,-31.250,-34.180,-43.457,0.000
1727575396.245,-65.430,-38.086,-34.180,-56.641,0.000
1727575396.249,-57.617,-31.738,-18.555,-28.320,0.000
1727575396.253,-31.250,-26.367,-21.484,-21.973,0.000
1727575396.257,-27.832,-34.668,-35.156,-42.969,0.000
1727575396.261,-29.785,-30.273,-35.156,-55.664,0.000
1727575396.265,-75.684,-28.809,-34.180,-66.895,0.000
1727575396.269,-66.895,-31.250,-15.625,-21.484,0.000
1727575396.272,-37.598,-24.902,-14.160,-1.465,0.000
1727575396.276,-18.555,-28.320,-29.785,-22.461,0.000
1727575396.280,-1.465,-43.945,-38.574,-23.926,0.000
1727575396.284,-52.734,-43.945,-39.551,-51.270,0.000
1727575396.288,-50.781,-28.809,-23.926,-11.230,0.000
1727575396.292,-5.371,-24.414,-13.184,42.969,0.000
1727575396.296,-2.441,-29.297,-16.602,13.184,0.000
1727575396.300,6.836,-36.133,-19.531,-5.859,0.000
1727575396.304,-24.414,-37.598,-34.668,-34.180,0.000
1727575396.308,-44.434,-19.531,-32.715,-23.926,0.000
1727575396.311,-27.832,-7.812,-15.625,6.348,0.000
1727575396.315,-18.555,-14.648,-22.461,-6.836,0.000
1727575396.319,4.395,-15.137,-36.133,-23.438,0.000
1727575396.323,-34.668,-32.227,-43.945,-57.617,0.000
1727575396.327,-73.242,-35.645,-44.922,-44.922,0.000
1727575396.331,-51.758,-23.926,-36.621,-12.695,0.000
1727575396.335,-34.180,-17.090,-39.551,-24.414,0.000
1727575396.339,-11.230,-12.207,-45.410,-29.785,0.000
1727575396.343,-47.852,-20.508,-50.781,-64.453,0.000
1727575396.347,-87.891,-22.949,-52.246,-77.637,0.000
1727575396.350,-58.105,-27.344,-49.805,-37.598,0.000
1727575396.354,-46.387,-33.691,-58.594,-49.316,0.000
1727575396.358,-21.484,-20.508,-54.688,-60.059,0.000
1727575396.362,-29.785,-24.902,-48.828,-71.777,0.000
1727575396.366,-78.613,-27.832,-49.316,-71.777,0.000
1727575396.370,-55.664,-13.672,-38.086,-10.742,0.000
1727575396.374,-28.809,-15.625,-34.180,-10.742,0.000
1727575396.378,-3.418,-12.695,-38.574,-41.504,0.000
1727575396.382,-27.344,-21.973,-42.480,-60.547,0.000
1727575396.386,-74.219,-42.480,-44.434,-70.801,0.000
1727575396.389,-57.617,-23.438,-38.574,-22.949,0.000
1727575396.393,-38.086,-10.742,-39.062,-8.789,0.000
1727575396.397,3.418,-28.320,-37.109,-13.184,0.000
1727575396.401,3.906,-40.527,-35.156,-21.484,0.000
1727575396.405,-45.410,-30.273,-27.832,-30.273,0.000
1727575396.409,-29.297,-20.508,-26.367,13.672,0.000
1727575396.413,-11.230,-24.414,-28.320,13.672,0.000
1727575396.417,12.695,-16.113,-25.879,-6.836,0.000
1727575396.421,18.555,-17.090,-38.086,-25.391,0.000
1727575396.425,-26.367,-29.297,-39.551,-45.410,0.000
1727575396.429,-7.324,-17.578,-22.949,-3.418,0.000
1727575396.433,18.555,-6.348,-22.461,11.719,0.000
1727575396.436,38.086,-6.348,-28.809,-2.930,0.000
1727575396.440,48.828,-24.414,-31.250,-8.789,0.000
1727575396.444,-18.555,-30.762,-41.992,-33.691,0.000
1727575396.448,-40.527,-13.672,-33.691,7.324,0.000
1727575396.452,-7.812,-20.508,-20.020,41.992,0.000
1727575396.456,16.113,-22.949,-28.809,0.488,0.000
1727575396.460,18.066,-17.090,-37.598,-23.438,0.000
1727575396.464,-41.992,-24.902,-32.715,-47.363,0.000
1727575396.468,-53.223,-14.160,-28.809,-29.785,0.000
1727575396.472,-19.531,-7.812,-39.551,6.836,0.000
1727575396.476,-5.371,-13.184,-42.480,-20.020,0.000
1727575396.479,10.742,-18.555,-36.621,-41.016,0.000
1727575396.483,-41.504,-27.832,-47.363,-61.035,0.000
1727575396.487,-64.941,-19.043,-40.527,-40.039,0.000
1727575396.491,-33.691,-20.020,-30.273,-2.930,0.000
1727575396.495,-10.254,-30.273,-35.156,-20.508,0.000
1727575396.499,14.160,-31.250,-35.645,-29.297,0.000
1727575396.503,-33.203,-53.223,-44.922,-52.734,0.000
1727575396.507,-71.777,-50.293,-44.922,-55.176,0.000
1727575396.511,-44.922,-30.762,-28.809,-20.996,0.000
1727575396.515,-20.996,-35.645,-30.762,-24.902,0.000
1727575396.519,-0.488,-26.855,-40.039,-33.203,0.000
1727575396.522,-34.180,-34.668,-47.852,-59.570,0.000
1727575396.526,-61.523,-35.645,-47.363,-48.828,0.000
1727575396.530,-36.133,-28.809,-38.086,0.977,0.000
1727575396.534,-23.926,-40.039,-38.086,-7.812,0.000
1727575396.538,1.953,-39.551,-45.898,-26.367,0.000
1727575396.542,-33.203,-50.781,-47.852,-54.688,0.000
1727575396.546,-81.055,-49.316,-46.875,-61.035,0.000
1727575396.550,-47.852,-33.203,-42.480,-14.160,0.000
1727575396.554,-31.250,-26.367,-35.156,-17.090,0.000
1727575396.558,-9.766,-27.832,-37.109,-41.992,0.000
1727575396.562,-18.555,-43.945,-55.176,-52.734,0.000
1727575396.565,-64.453,-53.711,-46.387,-41.016,0.000
1727575396.569,-38.574,-38.574,-18.555,18.066,0.000
1727575396.573,-14.160,-20.020,-16.113,16.113,0.000
1727575396.577,7.324,-17.578,-16.113,-7.812,0.000
1727575396.581,7.812,-27.832,-22.461,-18.066,0.000
1727575396.585,-36.621,-26.855,-32.715,-39.062,0.000
1727575396.589,-16.113,-2.441,-23.438,-3.906,0.000
1727575396.593,6.836,-8.301,-21.973,15.137,0.000
1727575396.597,20.508,-13.184,-26.367,-3.418,0.000
1727575396.601,18.555,0.488,-27.344,-24.414,0.000
1727575396.604,-27.832,-14.648,-32.227,-35.645,0.000
1727575396.608,-19.043,-6.348,-27.832,3.418,0.000
1727575396.612,-2.441,-7.324,-26.855,20.508,0.000
1727575396.616,3.906,-14.160,-20.996,0.488,0.000
1727575396.620,5.859,-17.578,-27.832,-20.508,0.000
1727575396.624,-33.203,-33.203,-39.062,-43.945,0.000
1727575396.628,-30.273,-14.160,-27.344,-15.625,0.000
1727575396.632,-18.555,-18.066,-22.461,1.465,0.000
1727575396.636,-0.488,-27.832,-25.391,-17.578,0.000
1727575396.640,23.438,-30.762,-26.367,-33.203,0.000
1727575396.644,-52.246,-32.227,-22.949,-53.223,0.000
1727575396.647,-60.547,-18.066,-15.625,-16.113,0.000
1727575396.651,-28.320,-30.762,-20.508,15.137,0.000
1727575396.655,-24.414,-38.086,-24.902,-23.926,0.000
1727575396.659,8.789,-32.715,-30.273,-47.852,0.000
1727575396.663,-50.781,-48.828,-41.016,-72.754,0.000
1727575396.667,-87.402,-62.012,-40.527,-51.270,0.000
1727575396.671,-55.176,-44.922,-36.621,-15.625,0.000
1727575396.675,-29.785,-36.133,-33.691,-27.344,0.000
1727575396.679,-1.465,-38.574,-31.738,-31.738,0.000
1727575396.683,-37.598,-44.434,-43.457,-46.875,0.000
1727575396.686,-62.012,-44.434,-52.734,-30.273,0.000
1727575396.690,-31.250,-26.367,-32.715,1.465,0.000
1727575396.694,-20.996,-29.785,-31.250,-10.254,0.000
1727575396.698,0.977,-38.574,-41.016,-25.391,0.000
1727575396.702,-23.438,-38.574,-42.480,-51.270,0.000
1727575396.706,-52.246,-39.062,-39.551,-35.645,0.000
1727575396.710,-33.203,-42.480,-28.320,-1.465,0.000
1727575396.714,-20.508,-38.574,-37.109,-28.320,0.000
1727575396.718,0.000,-28.320,-43.457,-31.250,0.000
1727575396.722,-28.320,-34.668,-40.527,-30.762,0.000
1727575396.725,-66.406,-37.598,-37.598,-29.297,0.000
1727575396.729,-33.691,-35.156,-24.902,8.789,0.000
1727575396.733,-11.230,-25.391,-19.043,-5.371,0.000
1727575396.737,13.184,-20.020,-14.160,-34.180,0.000
1727575396.741,-1.953,-38.574,-20.020,-39.551,0.000
1727575396.745,-50.781,-31.738,-27.344,-32.715,0.000
1727575396.749,-31.738,-7.324,-22.461,-0.977,0.000
1727575396.753,6.348,-17.090,-23.438,0.488,0.000
1727575396.757,33.691,-26.367,-22.461,-4.883,0.000
1727575396.761,20.020,-18.066,-28.320,-22.949,0.000
1727575396.764,-28.320,-20.020,-33.203,-49.805,0.000
1727575396.768,-38.574,-7.812,-29.297,-9.277,0.000
1727575396.772,-31.250,-18.555,-30.762,3.906,0.000
1727575396.776,-16.113,-41.504,-32.227,-23.926,0.000
1727575396.780,-26.855,-26.367,-20.996,-31.738,0.000
1727575396.784,-79.590,-26.855,-13.184,-63.477,0.000
1727575396.788,-94.727,-34.180,83.496,-71.777,0.000
1727575396.792,-69.336,-29.297,63.477,-61.523,0.000
1727575396.796,12.207,-60.059,-76.660,-25.391,0.000
1727575396.800,-66.895,4.883,-69.824,-85.938,0.000
1727575396.804,-134.766,23.926,-16.602,-103.027,0.000
1727575396.808,-69.824,-64.941,43.457,-42.480,0.000
1727575396.811,-106.934,-58.594,9.766,-73.242,0.000
1727575396.815,7.812,-88.867,-25.879,-12.207,0.000
1727575396.819,121.094,-112.793,-34.668,43.457,0.000
1727575396.823,-18.066,-20.020,38.574,-6.836,0.000
1727575396.827,-379.395,130.859,77.637,-290.527,0.000
1727575396.831,-428.711,56.641,-56.641,-340.332,0.000
1727575396.835,-140.625,-39.062,-48.828,-83.008,0.000
1727575396.839,114.258,-42.480,-83.496,77.148,0.000
1727575396.843,172.363,-70.312,-129.883,127.930,0.000
1727575396.847,175.293,-79.590,-131.348,171.875,0.000
1727575396.851,103.516,-22.949,-123.047,137.207,0.000
1727575396.854,-79.102,10.742,-91.309,52.246,0.000
1727575396.858,-181.152,8.789,-12.695,-104.492,0.000
1727575396.862,-107.910,44.922,-38.086,-132.324,0.000
1727575396.866,60.547,118.164,-108.398,85.938,0.000
1727575396.870,113.770,72.754,-65.430,124.023,0.000
1727575396.874,-30.273,81.055,-78.613,0.488,0.000
1727575396.878,45.410,6.836,-101.562,79.590,0.000
1727575396.882,165.039,-41.992,-67.383,98.633,0.000
1727575396.886,19.531,15.625,-31.250,33.691,0.000
1727575396.890,66.895,90.820,-86.914,134.277,0.000
1727575396.894,134.277,98.145,-102.539,100.098,0.000
1727575396.897,119.141,60.547,-61.035,51.758,0.000
1727575396.901,72.754,66.406,-17.090,43.457,0.000
1727575396.905,58.594,67.383,-51.270,48.340,0.000
1727575396.909,23.926,148.438,-111.816,70.312,0.000
1727575396.913,34.180,127.441,-95.703,67.871,0.000
1727575396.917,25.391,107.422,-82.031,45.410,0.000
1727575396.921,10.254,77.148,-29.297,-17.090,0.000
1727575396.925,48.340,22.949,-30.762,7.812,0.000
1727575396.929,35.645,19.043,-29.297,52.246,0.000
1727575396.933,47.852,47.852,-16.113,19.043,0.000
1727575396.936,94.238,86.914,-58.105,13.672,0.000
1727575396.940,23.438,49.316,0.000,-19.531,0.000
1727575396.944,-47.852,39.062,0.000,-54.688,0.000
1727575396.948,-16.113,62.012,0.000,35.645,0.000
1727575396.952,7.812,39.551,0.000,33.691,0.000
1727575396.956,18.066,42.480,0.000,-55.664,0.000
1727575396.960,-108.398,72.754,0.000,-102.051,0.000
1727575396.964,-145.996,40.527,0.000,-67.871,0.000
1727575396.968,62.500,-64.453,0.000,37.109,0.000
1727575396.972,48.340,7.812,0.000,27.344,0.000
1727575396.976,10.742,39.062,0.000,7.812,0.000
1727575396.979,56.641,-20.020,0.000,-5.859,0.000
1727575396.983,-6.348,7.812,0.000,-35.645,0.000
1727575396.987,21.484,32.715,-68.848,20.996,0.000
1727575396.991,-39.062,30.762,-46.387,-8.301,0.000
1727575396.995,-47.852,13.672,-53.711,-43.457,0.000
1727575396.999,30.762,4.883,-6.348,-30.762,0.000
1727575397.003,-42.480,6.836,-8.301,-60.547,0.000
1727575397.007,-22.461,38.086,-78.125,7.324,0.000
1727575397.011,-22.949,55.176,-80.566,17.578,0.000
1727575397.015,-5.859,-17.578,-68.359,-5.371,0.000
1727575397.019,66.406,-31.250,-50.293,0.977,0.000
1727575397.022,-2.441,-4.395,-41.016,-34.180,0.000
1727575397.026,-39.551,-13.672,-32.227,-12.695,0.000
1727575397.030,-2.441,-19.531,-16.602,23.438,0.000
1727575397.034,5.859,-13.672,-11.230,-3.906,0.000
1727575397.038,15.137,-19.531,-16.602,-22.949,0.000
1727575397.042,-24.902,-33.203,-29.297,-45.898,0.000
1727575397.046,-42.969,-28.809,-23.926,-20.508,0.000
1727575397.050,-14.648,-25.391,-17.578,24.414,0.000
1727575397.054,-1.953,-30.273,-22.461,0.488,0.000
1727575397.058,22.949,-42.969,-28.320,-18.066,0.000
1727575397.061,-15.137,-57.129,-36.621,-29.785,0.000
1727575397.065,-47.852,-37.109,-27.344,-31.250,0.000
1727575397.069,-24.902,-20.020,-24.902,0.488,0.000
1727575397.073,-8.789,-29.785,-29.785,-9.277,0.000
1727575397.077,12.695,-32.227,-25.879,-31.738,0.000
1727575397.081,-20.020,-43.457,-35.156,-52.246,0.000
1727575397.085,-67.871,-43.457,-33.691,-40.039,0.000
1727575397.089,-51.270,-38.086,-20.996,4.395,0.000
1727575397.093,-24.414,-42.969,-14.648,-11.230,0.000
1727575397.097,3.418,-33.691,-11.719,-24.902,0.000
1727575397.100,-22.949,-43.945,-24.414,-40.527,0.000
1727575397.104,-63.965,-59.570,-29.297,-42.480,0.000
1727575397.108,-45.898,-36.621,-25.391,-5.371,0.000
1727575397.112,-30.273,-27.344,-32.227,-20.508,0.000
1727575397.116,-3.906,-43.945,-34.668,-37.109,0.000
1727575397.120,-16.602,-51.758,-32.715,-53.711,0.000
1727575397.124,-62.988,-55.176,-34.668,-65.918,0.000
1727575397.128,-46.387,-48.828,-33.203,-13.184,0.000
1727575397.132,-30.273,-45.410,-37.598,-4.883,0.000
1727575397.136,-0.977,-43.945,-34.668,-35.156,0.000
1727575397.139,6.836,-46.387,-33.691,-46.387,0.000
1727575397.143,-52.734,-51.758,-32.227,-61.523,0.000
1727575397.147,-51.270,-51.758,-32.715,-22.949,0.000
1727575397.151,-31.738,-50.781,-37.598,-19.043,0.000
1727575397.155,-7.324,-39.551,-25.879,-49.805,0.000
1727575397.159,9.277,-49.316,-27.344,-59.570,0.000
1727575397.163,-40.039,-69.336,-31.250,-63.477,0.000
1727575397.167,-42.969,-52.246,-19.043,-10.254,0.000
1727575397.171,-40.039,-42.480,-22.461,-4.883,0.000
1727575397.175,-19.043,-54.199,-34.180,-29.785,0.000
1727575397.179,20.996,-59.570,-23.438,-39.551,0.000
1727575397.183,-43.457,-56.152,-26.367,-55.664,0.000
1727575397.186,-79.590,-46.387,-37.109,-25.879,0.000
1727575397.190,-39.551,-59.082,-30.762,-3.906,0.000
1727575397.194,-5.859,-71.777,-26.367,-27.344,0.000
1727575397.198,-0.488,-62.500,-27.344,-55.176,0.000
1727575397.202,-52.734,-55.176,-30.762,-68.848,0.000
1727575397.206,-60.547,-71.289,-26.855,-33.203,0.000
1727575397.210,-33.691,-81.543,-21.484,-3.418,0.000
1727575397.214,-23.438,-72.266,-23.926,-22.949,0.000
1727575397.218,0.488,-74.219,-22.949,-41.016,0.000
1727575397.222,-37.598,-79.590,-24.902,-54.199,0.000
1727575397.226,-71.289,-69.824,-31.738,-39.551,0.000
1727575397.229,-53.711,-64.941,-34.668,-9.766,0.000
1727575397.233,-35.156,-88.867,-30.762,-29.297,0.000
1727575397.237,-22.461,-98.633,-32.715,-57.129,0.000
1727575397.241,-69.824,-105.469,-42.969,-82.031,0.000
1727575397.245,-84.961,-95.215,-37.109,-54.199,0.000
1727575397.249,-35.645,-65.918,-27.344,-2.441,0.000
1727575397.253,-28.320,-74.219,-33.203,-14.648,0.000
1727575397.257,-21.484,-83.984,-40.039,-41.504,0.000
1727575397.261,-42.969,-92.285,-42.969,-79.590,0.000
1727575397.265,-77.148,-88.379,-43.457,-70.801,0.000
1727575397.269,-61.035,-73.730,-41.504,-22.461,0.000
1727575397.272,-42.969,-81.055,-30.273,-16.602,0.000
1727575397.276,-12.695,-67.383,-25.391,-23.926,0.000
1727575397.280,-34.668,-66.895,-46.875,-69.824,0.000
1727575397.284,-88.867,-63.965,-56.152,-88.379,0.000
1727575397.288,-69.336,-45.410,-54.199,-33.203,0.000
1727575397.292,-53.711,-50.781,-46.387,-30.762,0.000
1727575397.296,-28.809,-59.082,-36.133,-48.340,0.000
1727575397.300,-29.785,-73.242,-43.945,-62.012,0.000
1727575397.304,-87.402,-66.895,-41.992,-64.941,0.000
1727575397.308,-62.500,-48.340,-31.250,-22.461,0.000
1727575397.312,-30.762,-45.898,-29.297,-23.438,0.000
1727575397.315,-2.441,-39.551,-28.809,-31.250,0.000
1727575397.319,-3.418,-45.898,-34.180,-44.922,0.000
1727575397.323,-65.918,-56.152,-38.086,-57.617,0.000
1727575397.327,-56.152,-50.293,-35.156,-5.859,0.000
1727575397.331,-18.555,-43.945,-30.273,-8.301,0.000
1727575397.335,-0.977,-32.715,-32.715,-28.809,0.000
1727575397.339,-3.418,-36.133,-31.738,-32.227,0.000
1727575397.343,-45.898,-50.293,-28.809,-42.480,0.000
1727575397.347,-53.223,-39.062,-24.414,-9.277,0.000
1727575397.351,-39.551,-27.344,-21.484,-12.207,0.000
1727575397.354,-4.395,-36.621,-23.926,-25.879,0.000
1727575397.358,10.254,-47.852,-20.508,-26.855,0.000
1727575397.362,-51.758,-56.641,-27.832,-47.363,0.000
1727575397.366,-62.012,-39.062,-34.180,-29.785,0.000
1727575397.370,-22.461,-25.879,-30.273,-9.766,0.000
1727575397.374,-4.883,-31.250,-29.297,-17.578,0.000
1727575397.378,0.977,-34.180,-29.785,-24.414,0.000
1727575397.382,-38.574,-50.293,-34.668,-51.270,0.000
1727575397.386,-52.246,-51.758,-34.668,-41.504,0.000
1727575397.390,-57.617,-57.617,-35.645,-13.184,0.000
1727575397.394,-48.828,-47.852,-34.180,-33.203,0.000
1727575397.397,-24.414,-34.180,-30.273,-51.270,0.000
1727575397.401,-64.941,-54.199,-34.180,-68.359,0.000
1727575397.405,-78.125,-64.453,-30.273,-52.246,0.000
1727575397.409,-57.617,-52.246,-28.809,-23.438,0.000
1727575397.413,-32.227,-40.527,-33.691,-26.367,0.000
1727575397.417,5.859,-50.293,-35.645,-23.438,0.000
1727575397.421,-69.336,-26.855,-42.480,-54.199,0.000
1727575397.425,-88.379,-28.320,-32.715,-29.785,0.000
1727575397.429,-19.043,-40.527,-25.391,7.812,0.000
1727575397.433,-14.648,-42.480,-31.250,-21.484,0.000
1727575397.436,0.488,-40.527,-32.227,-33.203,0.000
1727575397.440,-31.250,-29.785,-33.203,-60.059,0.000
1727575397.444,-57.617,-43.457,-34.180,-58.594,0.000
1727575397.448,-22.461,-39.062,-28.320,-6.836,0.000
1727575397.452,-6.348,-31.250,-30.273,-6.836,0.000
1727575397.456,4.883,-35.645,-31.738,-27.832,0.000
1727575397.460,-22.461,-47.852,-35.156,-48.828,0.000
1727575397.464,-60.059,-45.898,-37.598,-49.316,0.000
1727575397.468,-36.621,-22.461,-27.832,-2.441,0.000
1727575397.472,-12.207,-29.785,-29.785,-3.906,0.000
1727575397.475,20.020,-42.480,-37.109,-31.738,0.000
1727575397.479,-15.625,-61.523,-45.410,-40.527,0.000
1727575397.483,-70.801,-50.293,-40.527,-39.062,0.000
1727575397.487,-41.016,-19.043,-18.555,-18.066,0.000
1727575397.491,-41.992,-38.574,-29.297,-29.297,0.000
1727575397.495,-28.320,-41.504,-37.598,-43.457,0.000
1727575397.499,-25.879,-34.668,-29.297,-49.805,0.000
1727575397.503,-75.684,-45.898,-23.926,-59.570,0.000
1727575397.507,-52.246,-43.945,-21.973,-13.184,0.000
1727575397.511,-25.879,-44.434,-26.367,-5.859,0.000
1727575397.514,-20.020,-45.898,-26.367,-27.344,0.000
1727575397.518,-6.348,-41.992,-26.855,-38.574,0.000
1727575397.522,-61.035,-34.668,-40.039,-68.848,0.000
1727575397.526,-79.102,-47.363,-32.227,-37.109,0.000
1727575397.530,-42.480,-45.410,-22.461,-29.297,0.000
1727575397.534,-19.531,-36.621,-30.273,-46.387,0.000
1727575397.538,-8.789,-56.641,-25.391,-59.570,0.000
1727575397.542,-56.641,-62.012,-32.715,-72.754,0.000
1727575397.546,-71.777,-33.203,-41.992,-41.504,0.000
1727575397.550,-40.039,-39.551,-40.527,-26.855,0.000
1727575397.554,-18.066,-47.852,-37.598,-46.875,0.000
1727575397.558,-4.883,-30.762,-32.227,-45.410,0.000
1727575397.561,-49.316,-39.551,-30.762,-39.551,0.000
1727575397.565,-63.477,-48.340,-32.715,-14.648,0.000
1727575397.569,-48.340,-52.246,-33.691,-5.859,0.000
1727575397.573,-19.043,-47.363,-31.250,-34.668,0.000
1727575397.577,4.395,-32.715,-32.227,-44.922,0.000
1727575397.581,-49.316,-42.480,-40.527,-62.500,0.000
1727575397.585,-75.195,-46.875,-37.109,-28.809,0.000
1727575397.589,-50.293,-28.809,-22.949,1.953,0.000
1727575397.593,-14.648,-18.066,-23.926,-20.996,0.000
1727575397.597,0.977,-22.949,-38.086,-31.738,0.000
1727575397.601,-29.785,-41.016,-42.480,-49.805,0.000
1727575397.604,-50.781,-34.180,-32.715,-33.203,0.000
1727575397.608,-44.922,-25.879,-28.320,-1.465,0.000
1727575397.612,-27.832,-35.645,-29.297,-9.277,0.000
1727575397.616,0.977,-42.969,-31.250,-17.578,0.000
1727575397.620,-36.133,-48.828,-41.504,-44.922,0.000
1727575397.624,-76.172,-26.855,-37.598,-38.086,0.000
1727575397.628,-34.668,-16.602,-29.297,0.488,0.000
1727575397.632,-2.930,-26.367,-31.738,-2.930,0.000
1727575397.636,-4.883,-14.160,-33.691,-31.250,0.000
1727575397.640,-45.410,-28.809,-40.527,-65.430,0.000
1727575397.644,-69.824,-44.922,-38.574,-47.363,0.000
1727575397.647,-41.016,-30.273,-29.785,-1.465,0.000
1727575397.651,-30.762,-29.785,-29.297,-10.742,0.000
1727575397.655,-12.207,-38.086,-31.250,-22.949,0.000
1727575397.659,-23.438,-54.199,-30.273,-43.457,0.000
1727575397.663,-44.922,-65.430,-24.414,-43.457,0.000
1727575397.667,-44.434,-47.363,-18.555,3.906,0.000
1727575397.671,-47.363,-51.758,-29.297,-5.859,0.000
1727575397.675,-10.742,-60.547,-41.992,-24.414,0.000
1727575397.679,-11.719,-41.016,-37.109,-43.457,0.000
1727575397.683,-69.824,-23.926,-39.551,-71.289,0.000
1727575397.686,-52.246,-20.996,-40.527,-21.973,0.000
1727575397.690,0.000,-30.762,-34.668,-3.418,0.000
1727575397.694,0.000,-31.738,-25.879,-25.879,0.000
1727575397.698,0.000,-37.109,-33.203,-47.852,0.000
1727575397.702,0.000,-60.547,-45.410,-70.801,0.000
1727575397.706,0.000,-50.781,-28.809,-25.879,0.000
1727575397.710,0.000,-31.250,-35.156,0.488,0.000
1727575397.714,0.000,-24.414,-41.992,-21.484,0.000
1727575397.718,0.000,-42.480,-41.992,-44.922,0.000
1727575397.722,0.000,-49.805,-43.945,-61.523,0.000
1727575397.726,0.000,-16.602,-27.344,-26.855,0.000
1727575397.729,0.000,-14.648,-23.438,-2.441,0.000
1727575397.733,0.000,-30.762,-36.133,-20.996,0.000
1727575397.737,-3.418,-28.320,-36.621,-18.066,0.000
1727575397.741,-35.156,-23.438,-35.645,-23.438,0.000
1727575397.745,-43.945,-21.484,-34.668,-5.859,0.000
1727575397.749,-14.160,-18.555,-31.250,17.090,0.000
1727575397.753,12.207,-13.672,-25.391,5.859,0.000
1727575397.757,33.691,-19.043,-27.344,-2.930,0.000
1727575397.761,-24.414,-25.879,-38.574,-43.457,0.000
1727575397.765,-49.316,-27.832,-39.062,-24.414,0.000
1727575397.769,-16.113,-11.719,-27.832,5.371,0.000
1727575397.772,0.977,-0.488,-28.320,-32.715,0.000
1727575397.776,4.883,-1.465,-36.133,-39.062,0.000
1727575397.780,-37.109,-20.996,-36.133,-51.270,0.000
1727575397.784,-53.711,-28.320,-24.414,-27.832,0.000
1727575397.788,-33.691,-15.137,-18.555,0.488,0.000
1727575397.792,-14.160,-33.203,-29.785,-17.578,0.000
1727575397.796,6.836,-31.738,-37.109,-25.391,0.000
1727575397.800,-35.645,-35.156,-36.133,-61.035,0.000
1727575397.804,-69.824,-43.945,-39.551,-56.152,0.000
1727575397.808,-37.109,-32.715,-49.805,-9.277,0.000
1727575397.811,-9.766,-31.250,-48.828,-22.461,0.000
1727575397.815,1.465,-25.391,-33.691,-32.715,0.000
1727575397.819,-31.738,-32.715,-42.480,-45.410,0.000
1727575397.823,-74.707,-41.016,-48.340,-51.758,0.000
1727575397.827,-69.824,-24.414,-39.551,-24.902,0.000
1727575397.831,-47.363,-24.414,-41.016,-30.762,0.000
1727575397.835,-18.066,-35.645,-42.480,-46.875,0.000
1727575397.839,-34.180,-43.945,-39.551,-69.336,0.000
1727575397.843,-70.312,-45.898,-30.273,-65.430,0.000
1727575397.847,-55.176,-33.691,-35.645,-12.207,0.000
1727575397.850,-33.203,-29.785,-45.410,-8.301,0.000
1727575397.854,-2.441,-42.969,-38.086,-19.531,0.000
1727575397.858,3.418,-39.551,-37.598,-34.668,0.000
1727575397.862,-56.152,-18.555,-39.551,-58.594,0.000
1727575397.866,-70.801,-14.648,-37.109,-20.508,0.000
1727575397.870,-33.203,-16.602,-30.273,-12.695,0.000
1727575397.874,0.488,-10.742,-21.484,-29.297,0.000
1727575397.878,0.488,-15.625,-27.344,-41.992,0.000
1727575397.882,-47.852,-33.203,-34.668,-60.547,0.000
1727575397.886,-42.480,-32.227,-33.691,-28.320,0.000
1727575397.889,-10.742,-25.391,-32.227,-0.977,0.000
1727575397.893,11.719,-13.184,-32.715,-2.441,0.000
1727575397.897,18.555,-20.508,-38.574,-17.090,0.000
1727575397.901,-36.621,-37.598,-45.898,-43.457,0.000
1727575397.905,-42.480,-20.020,-31.738,-7.812,0.000
1727575397.909,-8.301,-13.672,-21.484,19.531,0.000
1727575397.913,9.277,-19.043,-29.297,-2.930,0.000
1727575397.917,17.578,-8.301,-29.785,-24.902,0.000
1727575397.921,-40.527,-9.766,-33.203,-53.223,0.000
1727575397.925,0.000,-20.508,-37.109,-23.438,0.000
1727575397.929,0.000,-12.695,-30.273,9.766,0.000
1727575397.933,0.000,-5.859,-25.879,-13.184,0.000
1727575397.936,0.000,-8.301,-28.809,-41.992,0.000
1727575397.940,0.000,-22.949,-36.621,-71.289,0.000
1727575397.944,0.000,-31.250,-31.250,-37.109,0.000
1727575397.948,0.000,-21.973,-30.273,-9.766,0.000
1727575397.952,0.000,-21.973,-42.969,-43.945,0.000
1727575397.956,0.000,-30.762,-37.109,-41.016,0.000
1727575397.960,0.000,-31.738,-41.992,-49.316,0.000
1727575397.964,0.000,-17.578,-38.574,-39.062,0.000
1727575397.968,0.000,-13.672,-29.785,1.953,0.000
1727575397.972,-20.508,-26.855,-29.785,-1.465,0.000
1727575397.976,-6.348,-42.480,-31.250,-22.461,0.000
1727575397.979,-41.992,-41.992,-46.387,-63.477,0.000
1727575397.983,-77.637,-40.039,-45.898,-63.477,0.000
1727575397.987,-48.828,-42.480,-38.574,-26.367,0.000
1727575397.991,-28.809,-39.551,-39.551,-21.973,0.000
1727575397.995,-8.789,-27.344,-34.668,-32.715,0.000
1727575397.999,-33.691,-31.250,-34.668,-53.711,0.000
1727575398.003,-61.035,-51.270,-31.250,-30.762,0.000
1727575398.007,-35.645,-34.180,-23.438,12.695,0.000
1727575398.011,-20.020,-14.160,-20.508,-8.789,0.000
1727575398.015,23.926,-27.344,-22.949,-14.648,0.000
1727575398.019,1.465,-34.668,-37.109,-38.574,0.000
1727575398.022,-47.363,-33.691,-41.016,-57.129,0.000
1727575398.026,-15.625,-19.531,-23.926,0.977,0.000
1727575398.030,-15.137,-10.254,-24.414,1.465,0.000
1727575398.034,1.953,-12.695,-30.762,-24.414,0.000
1727575398.038,-2.930,-26.855,-36.133,-39.062,0.000
1727575398.042,-66.406,-40.039,-36.133,-56.641,0.000
1727575398.046,-48.828,-29.297,-28.320,-20.020,0.000
1727575398.050,-11.230,-23.926,-22.461,3.906,0.000
1727575398.054,-0.488,-10.254,-22.461,-10.742,0.000
1727575398.058,11.719,-17.578,-25.879,-25.391,0.000
1727575398.062,-30.762,-31.250,-25.391,-22.461,0.000
1727575398.065,-48.340,-19.043,-21.484,-7.812,0.000
1727575398.069,-32.227,-26.367,-30.273,-15.625,0.000
1727575398.073,-1.465,-24.414,-35.645,-23.438,0.000
1727575398.077,8.301,-28.809,-32.715,-29.785,0.000
1727575398.081,-50.293,-48.340,-40.527,-56.152,0.000
1727575398.085,-61.523,-42.969,-36.621,-22.949,0.000
1727575398.089,-43.945,-20.020,-33.203,2.441,0.000
1727575398.093,-0.488,-26.367,-38.574,-13.672,0.000
1727575398.097,20.996,-40.039,-35.156,-21.973,0.000
1727575398.101,-41.016,-38.086,-33.203,-50.781,0.000
1727575398.104,-54.688,-34.180,-21.973,-20.996,0.000
1727575398.108,-38.086,-20.020,-20.020,6.348,0.000
1727575398.112,0.000,-24.414,-30.273,-23.926,0.000
1727575398.116,0.000,-29.785,-21.484,-32.227,0.000
1727575398.120,0.000,-41.016,-27.344,-47.363,0.000
1727575398.124,0.000,-40.527,-34.180,-29.297,0.000
1727575398.128,0.000,-35.156,-30.762,3.418,0.000
1727575398.132,0.000,-42.969,-40.039,-15.625,0.000
1727575398.136,0.000,-41.016,-44.434,-33.691,0.000
1727575398.140,0.000,-35.645,-46.387,-48.340,0.000
1727575398.144,0.000,-20.020,-33.691,-19.043,0.000
1727575398.147,0.000,-3.418,-20.508,17.090,0.000
1727575398.151,0.000,-12.695,-20.996,-3.906,0.000
1727575398.155,0.000,-24.414,-34.180,-23.438,0.000
1727575398.159,-35.156,-32.715,-46.875,-51.758,0.000
1727575398.163,-62.012,-29.297,-33.691,-35.156,0.000
1727575398.167,-20.508,-16.113,-27.344,12.207,0.000
1727575398.171,-0.977,-19.531,-28.809,-2.441,0.000
1727575398.175,19.531,-22.461,-25.879,-11.230,0.000
1727575398.179,-14.648,-24.902,-31.738,-24.902,0.000
1727575398.183,-54.688,-26.367,-38.574,-25.391,0.000
1727575398.186,-10.742,-26.855,-33.691,8.789,0.000
1727575398.190,-16.602,-10.742,-35.156,-0.977,0.000
1727575398.194,-2.441,-21.484,-37.109,-8.789,0.000
1727575398.198,-4.395,-39.062,-40.039,-26.855,0.000
1727575398.202,-49.805,-23.926,-36.133,-33.203,0.000
1727575398.206,-23.926,-15.625,-19.043,2.930,0.000
1727575398.210,-10.742,-15.137,-25.391,-14.648,0.000
1727575398.214,1.465,-12.695,-30.273,-33.203,0.000
1727575398.218,-0.977,-20.020,-28.809,-43.945,0.000
1727575398.222,-51.758,-31.250,-29.297,-58.594,0.000
1727575398.225,-52.734,-33.203,-27.832,-25.391,0.000
1727575398.229,-23.438,-33.203,-31.738,-4.395,0.000
1727575398.233,-1.465,-19.531,-29.297,-33.203,0.000
1727575398.237,-7.324,-17.578,-37.109,-66.895,0.000
1727575398.241,-66.406,-35.156,-51.270,-76.172,0.000
1727575398.245,-64.941,-34.668,-44.434,-44.922,0.000
1727575398.249,-31.738,-32.227,-38.086,-22.461,0.000
1727575398.253,-15.137,-31.738,-37.598,-30.273,0.000
1727575398.257,-17.090,-40.527,-39.551,-33.691,0.000
1727575398.261,-72.266,-43.945,-49.316,-57.129,0.000
1727575398.264,-69.336,-35.645,-41.016,-32.227,0.000
1727575398.268,-36.621,-30.762,-36.621,-0.977,0.000
1727575398.272,-21.973,-33.691,-41.504,-20.020,0.000
1727575398.276,-7.812,-45.410,-42.969,-34.180,0.000
1727575398.280,-65.430,-37.109,-45.410,-55.664,0.000
1727575398.284,-81.543,-25.879,-40.527,-31.738,0.000
1727575398.288,-34.180,-37.598,-40.039,-3.418,0.000
1727575398.292,-11.719,-36.621,-39.062,-22.461,0.000
1727575398.296,-13.672,-36.621,-42.480,-44.434,0.000
1727575398.300,-68.359,-51.758,-52.246,-67.871,0.000
1727575398.304,-69.824,-44.434,-43.945,-33.203,0.000
1727575398.308,-32.227,-30.762,-38.086,1.953,0.000
1727575398.311,-9.766,-28.809,-41.992,-18.555,0.000
1727575398.315,16.113,-25.879,-42.969,-38.086,0.000
1727575398.319,-27.832,-30.273,-48.340,-60.059,0.000
1727575398.323,-56.641,-14.648,-41.992,-34.180,0.000
1727575398.327,-34.668,-1.465,-32.715,1.953,0.000
1727575398.331,-15.625,-25.879,-26.367,-6.348,0.000
1727575398.335,11.230,-39.551,-31.250,-10.742,0.000
1727575398.339,-30.762,-28.320,-40.527,-42.969,0.000
1727575398.343,-60.547,-15.625,-34.180,-35.645,0.000
1727575398.347,-29.785,-7.812,-21.973,10.742,0.000
1727575398.351,-10.254,-12.207,-16.602,1.465,0.000
1727575398.354,-6.348,-8.301,-23.438,-32.227,0.000
1727575398.358,-46.875,-23.926,-33.691,-64.941,0.000
1727575398.362,-69.336,-44.434,-41.016,-52.246,0.000
1727575398.366,-46.387,-25.879,-43.945,-1.465,0.000
1727575398.370,-34.180,-17.090,-45.410,-16.602,0.000
1727575398.374,1.465,-14.648,-41.016,-38.086,0.000
1727575398.378,-5.371,-29.785,-41.992,-42.480,0.000
1727575398.382,-56.152,-36.133,-46.875,-41.504,0.000
1727575398.386,-46.875,-7.812,-39.062,1.465,0.000
1727575398.390,-33.203,-10.742,-39.062,-9.277,0.000
1727575398.394,-25.879,-24.902,-50.293,-39.551,0.000
1727575398.397,-37.598,-40.039,-54.688,-48.340,0.000
1727575398.401,-78.125,-45.410,-52.734,-55.664,0.000
1727575398.405,-63.477,-34.180,-45.898,-20.020,0.000
1727575398.409,-33.203,-39.551,-37.598,-18.066,0.000
1727575398.413,-15.625,-39.551,-47.852,-40.039,0.000
1727575398.417,-15.625,-32.227,-50.781,-52.246,0.000
1727575398.421,-57.617,-41.504,-44.922,-61.035,0.000
1727575398.425,-54.199,-43.945,-44.434,-13.672,0.000
1727575398.429,-31.250,-26.367,-28.320,9.766,0.000
1727575398.433,-8.301,-9.766,-25.391,-15.625,0.000
1727575398.437,-1.465,-31.250,-40.527,-41.504,0.000
1727575398.440,-66.406,-50.293,-50.781,-62.012,0.000
1727575398.444,-73.242,-34.180,-43.945,-30.273,0.000
1727575398.448,-32.227,-40.527,-35.156,-10.254,0.000
1727575398.452,-13.672,-41.992,-41.992,-23.926,0.000
1727575398.456,-5.371,-32.227,-41.504,-36.133,0.000
1727575398.460,-39.062,-37.598,-46.387,-55.176,0.000
1727575398.464,-47.363,-25.879,-43.945,-22.949,0.000
1727575398.468,-28.809,-18.066,-39.062,15.137,0.000
1727575398.472,-2.441,-24.902,-39.062,1.953,0.000
1727575398.476,25.391,-25.879,-34.180,-24.414,0.000
1727575398.479,-25.391,-32.227,-39.551,-42.969,0.000
1727575398.483,-46.387,-41.016,-35.156,-6.836,0.000
1727575398.487,-15.137,-36.621,-35.156,9.766,0.000
1727575398.491,-0.977,-14.160,-38.574,-15.625,0.000
1727575398.495,20.020,-21.484,-34.668,-17.578,0.000
1727575398.499,-23.438,-43.945,-38.574,-50.781,0.000
1727575398.503,-62.012,-26.855,-43.457,-48.340,0.000
1727575398.507,-33.691,-15.137,-34.668,-13.184,0.000
1727575398.511,-17.090,-22.949,-38.574,-27.832,0.000
1727575398.515,3.418,-23.438,-43.457,-30.273,0.000
1727575398.519,-20.508,-21.484,-32.227,-36.133,0.000
1727575398.522,-54.199,-19.043,-25.391,-36.621,0.000
1727575398.526,-38.086,-20.508,-29.297,-13.672,0.000
1727575398.530,-20.020,-27.832,-32.227,-16.602,0.000
1727575398.534,5.859,-30.273,-32.227,-33.203,0.000
1727575398.538,-33.691,-27.344,-41.504,-66.406,0.000
1727575398.542,-67.871,-25.391,-41.504,-56.152,0.000
1727575398.546,-28.320,-23.926,-32.227,8.789,0.000
1727575398.550,-12.207,-23.926,-35.645,-4.395,0.000
1727575398.554,18.066,-29.785,-38.086,-34.668,0.000
1727575398.558,-0.977,-38.086,-48.828,-49.316,0.000
1727575398.561,-63.477,-40.039,-49.316,-52.246,0.000
1727575398.565,-52.246,-17.578,-35.645,-12.695,0.000
1727575398.569,-26.855,-16.113,-32.715,-17.090,0.000
1727575398.573,3.906,-15.137,-26.855,-29.297,0.000
1727575398.577,-16.602,-25.391,-33.691,-46.875,0.000
1727575398.581,-70.801,-50.781,-43.945,-64.453,0.000
1727575398.585,-42.480,-39.551,-36.133,-11.230,0.000
1727575398.589,-22.461,-34.180,-34.668,8.789,0.000
1727575398.593,-16.602,-38.086,-43.457,-30.762,0.000
1727575398.597,-25.391,-34.668,-49.805,-57.617,0.000
1727575398.600,-65.918,-34.668,-44.434,-67.871,0.000
1727575398.604,-45.410,-33.203,-34.180,-3.418,0.000
1727575398.608,-35.645,-23.438,-31.250,10.254,0.000
1727575398.612,-14.648,-15.137,-28.809,-35.156,0.000
1727575398.616,2.930,-26.367,-36.621,-47.852,0.000
1727575398.620,-38.086,-30.273,-41.016,-44.922,0.000
1727575398.624,-21.973,-14.160,-27.832,2.441,0.000
1727575398.628,-3.906,-16.602,-20.508,8.301,0.000
1727575398.632,7.812,-29.785,-30.273,-14.160,0.000
1727575398.636,15.625,-29.297,-32.715,-25.879,0.000
1727575398.639,-38.086,-28.809,-37.109,-46.387,0.000
1727575398.643,-51.758,-22.461,-40.527,-15.625,0.000
1727575398.647,-14.648,-21.973,-33.691,6.836,0.000
1727575398.651,1.953,-24.414,-32.227,-20.020,0.000
1727575398.655,2.930,-14.160,-33.203,-43.457,0.000
1727575398.659,-41.016,-37.598,-34.180,-48.828,0.000
1727575398.663,-51.270,-44.922,-28.809,-12.207,0.000
1727575398.667,-10.742,-36.621,-27.344,1.953,0.000
1727575398.671,4.395,-22.949,-27.344,-26.367,0.000
1727575398.675,5.859,-30.273,-33.691,-41.504,0.000
1727575398.679,-37.598,-42.969,-42.480,-56.152,0.000
1727575398.683,-59.570,-33.691,-33.691,-34.180,0.000
1727575398.686,-37.598,-14.648,-24.414,2.930,0.000
1727575398.690,-26.855,-9.277,-32.227,-10.254,0.000
1727575398.694,-1.465,-32.715,-37.598,-27.344,0.000
1727575398.698,-28.809,-40.039,-41.992,-44.922,0.000
1727575398.702,-59.570,-32.715,-41.992,-38.574,0.000
1727575398.706,-33.203,-38.574,-34.668,-5.859,0.000
1727575398.710,-16.602,-36.621,-43.457,-8.301,0.000
1727575398.714,3.906,-24.902,-46.875,-34.180,0.000
1727575398.718,-22.949,-31.250,-43.457,-59.082,0.000
1727575398.722,-58.594,-33.203,-40.527,-43.945,0.000
1727575398.726,-39.551,-15.137,-39.551,-2.930,0.000
1727575398.730,-27.344,-14.648,-31.738,-18.066,0.000
1727575398.734,0.000,-35.156,-29.297,-28.320,0.000
1727575398.737,-16.113,-57.617,-43.945,-37.598,0.000
1727575398.741,-66.406,-51.270,-49.805,-42.969,0.000
1727575398.745,-46.875,-28.320,-40.039,-4.395,0.000
1727575398.749,-23.438,-21.484,-35.645,-7.812,0.000
1727575398.753,0.000,-22.461,-38.574,-11.230,0.000
1727575398.757,-18.066,-30.273,-44.922,-31.738,0.000
1727575398.761,-68.359,-23.926,-38.086,-48.340,0.000
1727575398.765,-43.457,-12.207,-28.809,9.277,0.000
1727575398.769,-25.879,-24.414,-28.320,19.531,0.000
1727575398.773,10.254,-22.461,-15.625,2.930,0.000
1727575398.777,9.277,-15.137,-16.113,-18.066,0.000
1727575398.780,-60.059,-33.691,-22.949,-34.180,0.000
1727575398.784,-41.504,-29.297,-16.113,10.254,0.000
1727575398.788,-3.418,-26.855,-18.066,18.066,0.000
1727575398.792,4.395,-30.273,-22.461,-7.812,0.000
1727575398.796,-15.137,-44.922,-33.691,-36.621,0.000
1727575398.800,-67.383,-46.875,-43.457,-59.082,0.000
1727575398.804,-59.082,-22.949,-30.762,-21.973,0.000
1727575398.808,-30.762,-18.066,-27.832,-8.301,0.000
1727575398.812,-6.836,-18.555,-33.203,-26.367,0.000
1727575398.816,5.371,-33.691,-37.109,-24.414,0.000
1727575398.819,-64.941,-35.156,-41.016,-45.410,0.000
1727575398.823,-72.266,-21.484,-32.715,-21.973,0.000
1727575398.827,-31.250,-31.738,-39.062,-4.883,0.000
1727575398.831,-14.160,-37.109,-42.480,-36.133,0.000
1727575398.835,-7.324,-34.180,-43.457,-55.664,0.000
1727575398.839,-59.082,-36.621,-52.734,-74.219,0.000
1727575398.843,-75.195,-34.668,-51.270,-40.039,0.000
1727575398.847,-49.805,-27.832,-48.828,-6.836,0.000
1727575398.851,-22.949,-16.113,-46.387,-26.855,0.000
1727575398.855,14.648,-19.043,-48.828,-32.715,0.000
1727575398.859,-34.180,-36.621,-48.828,-49.805,0.000
1727575398.862,-74.707,-29.785,-36.621,-32.227,0.000
1727575398.866,-41.504,-9.277,-37.598,-0.488,0.000
1727575398.870,-19.531,-16.602,-44.434,-23.438,0.000
1727575398.874,0.000,-36.133,-50.293,-41.016,0.000
1727575398.878,-48.828,-48.828,-56.152,-63.477,0.000
1727575398.882,-81.543,-40.039,-42.480,-41.504,0.000
1727575398.886,-45.898,-20.996,-24.414,-1.465,0.000
1727575398.890,-11.719,-34.180,-29.785,-8.301,0.000
1727575398.894,7.324,-33.691,-31.250,-26.367,0.000
1727575398.898,-36.621,-39.062,-29.297,-61.523,0.000
1727575398.901,-58.594,-49.805,-35.645,-47.852,0.000
1727575398.905,-17.578,-34.180,-32.227,7.324,0.000
1727575398.909,-7.324,-20.508,-20.996,0.000,0.000
1727575398.913,7.324,-10.742,-24.414,-17.578,0.000
1727575398.917,-17.578,-23.438,-40.039,-38.574,0.000
1727575398.921,-59.570,-24.902,-39.062,-41.504,0.000
1727575398.925,-28.809,-7.812,-29.297,5.371,0.000
1727575398.929,-1.953,-20.508,-29.297,8.301,0.000
1727575398.933,6.348,-33.203,-36.133,-5.371,0.000
1727575398.937,-18.066,-40.527,-42.480,-27.832,0.000
1727575398.941,-67.383,-23.438,-37.109,-52.246,0.000
1727575398.944,-55.176,-10.254,-28.320,-25.879,0.000
1727575398.948,-20.996,-23.926,-34.668,-13.672,0.000
1727575398.952,-2.441,-22.949,-39.062,-33.203,0.000
1727575398.956,-17.090,-20.508,-30.273,-43.945,0.000
1727575398.960,-42.480,-28.320,-23.438,-30.273,0.000
1727575398.964,-25.879,-26.367,-12.695,-1.953,0.000
1727575398.968,-20.996,-20.508,-20.020,-10.742,0.000
1727575398.972,-7.812,-14.648,-33.691,-31.250,0.000
1727575398.976,-11.230,-29.297,-41.016,-53.223,0.000
1727575398.980,-65.430,-62.500,-45.410,-69.824,0.000
1727575398.983,-61.035,-50.781,-33.691,-33.691,0.000
1727575398.987,-34.668,-26.367,-24.902,-9.277,0.000
1727575398.991,-19.043,-31.250,-25.391,-20.020,0.000
1727575398.995,-7.812,-27.832,-30.762,-28.809,0.000
1727575398.999,-51.758,-29.297,-31.250,-41.504,0.000
1727575399.003,-52.734,-24.414,-28.320,-13.672,0.000
1727575399.007,-38.574,-29.297,-34.180,0.000,0.000
1727575399.011,-39.062,-30.273,-43.945,-27.344,0.000
1727575399.015,-11.719,-32.227,-42.480,-30.762,0.000
1727575399.019,-54.199,-47.363,-37.598,-62.988,0.000
1727575399.022,-60.059,-49.805,-31.738,-39.062,0.000
1727575399.026,-31.250,-50.781,-32.715,0.488,0.000
1727575399.030,-23.438,-46.875,-32.227,-18.555,0.000
1727575399.034,1.465,-50.293,-32.715,-32.715,0.000
1727575399.038,-38.086,-54.688,-37.109,-54.199,0.000
1727575399.042,-60.059,-27.344,-27.344,-41.016,0.000
1727575399.046,-29.785,-16.602,-33.203,-11.719,0.000
1727575399.050,-0.977,-22.949,-41.992,-26.367,0.000
1727575399.054,12.207,0.000,-41.504,-29.785,0.000
1727575399.058,-39.062,-12.207,-43.457,-52.246,0.000
1727575399.062,-62.988,-26.855,-35.645,-44.922,0.000
1727575399.065,-29.785,-24.902,-28.320,2.930,0.000
1727575399.069,-15.625,-38.086,-30.762,-6.836,0.000
1727575399.073,-0.977,-43.457,-33.691,-26.855,0.000
1727575399.077,-30.762,-41.016,-32.227,-45.898,0.000
1727575399.081,-50.293,-20.508,-31.250,-27.344,0.000
1727575399.085,-30.273,-6.348,-32.715,15.625,0.000
1727575399.089,-11.230,-1.953,-30.273,4.883,0.000
1727575399.093,19.043,-19.043,-25.391,-8.301,0.000
1727575399.097,-16.602,-47.363,-39.551,-34.180,0.000
1727575399.101,-65.430,-36.621,-49.316,-55.176,0.000
1727575399.105,-45.898,-7.812,-42.969,-21.484,0.000
1727575399.108,-32.227,-5.859,-35.156,-20.020,0.000
1727575399.112,-8.789,-27.832,-33.691,-25.879,0.000
1727575399.116,-28.320,-51.270,-43.457,-52.734,0.000
1727575399.120,-76.172,-54.199,-43.457,-73.730,0.000
1727575399.124,-51.270,-34.668,-33.203,-20.020,0.000
1727575399.128,-25.879,-42.969,-41.504,-13.184,0.000
1727575399.132,-18.555,-42.969,-47.363,-48.828,0.000
1727575399.136,-29.297,-34.180,-38.086,-66.406,0.000
1727575399.140,-59.082,-48.828,-43.945,-65.430,0.000
1727575399.144,-46.875,-48.340,-46.387,-26.855,0.000
1727575399.148,-35.156,-44.434,-38.086,-23.926,0.000
1727575399.151,-28.320,-33.691,-44.434,-50.781,0.000
1727575399.155,-32.227,-38.086,-53.711,-54.199,0.000
1727575399.159,-69.336,-46.387,-51.758,-56.641,0.000
1727575399.163,-58.594,-31.738,-44.434,-10.742,0.000
1727575399.167,-30.762,-21.973,-33.203,11.230,0.000
1727575399.171,-4.395,-26.367,-26.367,-17.578,0.000
1727575399.175,-3.906,-42.480,-37.109,-27.832,0.000
1727575399.179,-53.711,-54.199,-40.527,-36.621,0.000
1727575399.183,-62.500,-27.344,-33.203,-22.949,0.000
1727575399.187,-43.457,-27.344,-33.203,-7.812,0.000
1727575399.191,-16.113,-35.645,-30.762,-19.531,0.000
1727575399.194,17.090,-19.043,-33.691,-30.273,0.000
1727575399.198,-27.344,-29.785,-42.969,-52.734,0.000
1727575399.202,-59.570,-40.527,-30.762,-16.602,0.000
1727575399.206,-32.227,-34.180,-27.344,25.879,0.000
1727575399.210,-2.930,-27.344,-34.668,-11.719,0.000
1727575399.214,10.742,-25.391,-31.738,-39.062,0.000
1727575399.218,-35.156,-36.621,-43.457,-54.688,0.000
1727575399.222,-57.129,-35.645,-43.457,-30.762,0.000
1727575399.226,-36.621,-20.020,-29.297,-2.930,0.000
1727575399.230,-8.789,-26.367,-30.762,-25.879,0.000
1727575399.234,13.184,-33.691,-42.969,-39.062,0.000
1727575399.237,-35.156,-36.133,-42.969,-49.805,0.000
1727575399.241,-63.477,-18.066,-34.180,-37.598,0.000
1727575399.245,-35.156,-12.695,-33.203,-0.488,0.000
1727575399.249,-12.695,-27.832,-38.574,-12.207,0.000
1727575399.253,7.812,-21.973,-47.852,-25.391,0.000
1727575399.257,-29.785,-32.715,-49.805,-42.969,0.000
1727575399.261,-64.941,-31.250,-41.504,-42.969,0.000
1727575399.265,-34.180,-22.949,-41.504,-6.348,0.000
1727575399.269,-10.742,-30.762,-45.898,-14.160,0.000
1727575399.273,4.395,-15.625,-37.109,-27.344,0.000
1727575399.277,-28.809,-30.762,-39.062,-48.828,0.000
1727575399.280,-56.641,-36.621,-40.039,-49.316,0.000
1727575399.284,-36.133,-13.672,-38.086,-9.277,0.000
1727575399.288,-35.156,-13.672,-42.480,-26.367,0.000
1727575399.292,-3.906,-18.555,-38.574,-41.016,0.000
1727575399.296,-14.160,-33.203,-40.039,-46.875,0.000
1727575399.300,-56.641,-39.062,-37.598,-42.480,0.000
1727575399.304,-29.297,-23.926,-33.203,0.000,0.000
1727575399.308,-7.812,-28.809,-33.691,1.465,0.000
1727575399.312,12.695,-29.297,-34.180,-5.859,0.000
1727575399.316,-7.812,-18.066,-36.133,-33.203,0.000
1727575399.320,-61.523,-32.227,-39.062,-62.012,0.000
1727575399.324,-45.898,-29.297,-33.691,-20.508,0.000
1727575399.327,-17.578,-23.438,-28.320,-4.395,0.000
1727575399.331,10.742,-25.879,-24.902,-17.090,0.000
1727575399.335,10.742,-37.598,-22.461,-28.320,0.000
1727575399.339,-49.316,-38.086,-24.414,-41.992,0.000
1727575399.343,-43.945,-16.602,-19.043,-3.418,0.000
1727575399.347,-2.441,-12.207,-16.602,15.625,0.000
1727575399.351,24.414,-17.090,-20.508,4.883,0.000
1727575399.355,30.273,-17.578,-21.973,-15.625,0.000
1727575399.359,-30.273,-18.066,-23.926,-44.922,0.000
1727575399.363,-50.293,-14.648,-22.461,-19.043,0.000
1727575399.366,-10.254,-8.789,-21.484,2.441,0.000
1727575399.370,14.160,-20.508,-20.508,0.977,0.000
1727575399.374,5.859,-41.016,-22.461,-11.230,0.000
1727575399.378,0.000,-35.645,-30.273,-41.016,0.000
1727575399.382,0.000,-24.414,-33.203,-22.461,0.000
1727575399.386,0.000,-28.320,-25.391,-8.789,0.000
1727575399.390,0.000,-20.508,-31.738,-33.203,0.000
1727575399.394,0.000,-18.555,-35.156,-47.363,0.000
1727575399.398,0.000,-43.457,-34.668,-63.965,0.000
1727575399.402,0.000,-43.457,-34.180,-23.926,0.000
1727575399.405,0.000,-20.020,-24.902,2.930,0.000
1727575399.409,0.000,-18.555,-31.738,-23.926,0.000
1727575399.413,0.000,-27.344,-45.410,-23.438,0.000
1727575399.417,0.000,-36.621,-50.293,-51.758,0.000
1727575399.421,0.000,-31.738,-46.387,-52.246,0.000
1727575399.425,-48.340,-27.832,-41.992,-8.789,0.000
1727575399.428,-57.129,-34.668,-46.875,-18.555,0.000
1727575399.432,-33.203,-40.527,-46.875,-44.434,0.000
1727575399.436,-15.137,-44.922,-51.270,-71.777,0.000
1727575399.440,0.000,-50.293,-48.340,-54.199,0.000
1727575399.444,-35.645,-49.316,-36.133,-2.441,0.000
1727575399.448,-51.758,-43.457,-31.738,-12.207,0.000
1727575399.452,-33.691,-38.086,-29.785,-25.391,0.000
1727575399.456,-11.719,-33.203,-40.527,-36.133,0.000
1727575399.460,4.395,-34.180,-39.551,-31.250,0.000
1727575399.464,-51.270,-27.344,-27.344,1.465,0.000
1727575399.468,-80.078,-23.926,-27.344,-8.789,0.000
1727575399.471,14.160,-32.715,-30.273,-29.297,0.000
1727575399.475,-8.789,-36.133,-40.039,-41.504,0.000
1727575399.479,-55.176,-33.203,-36.621,-31.250,0.000
1727575399.483,-33.203,-17.578,-20.508,7.812,0.000
1727575399.487,-10.254,-18.555,-22.949,1.465,0.000
1727575399.491,16.602,-29.785,-31.738,-20.020,0.000
1727575399.495,6.836,-29.297,-34.668,-35.645,0.000
1727575399.499,-51.758,-29.785,-40.527,-44.922,0.000
1727575399.503,-43.945,-27.832,-38.574,-2.930,0.000
1727575399.507,-28.809,-30.273,-41.992,7.812,0.000
1727575399.511,-14.160,-15.137,-43.945,-19.043,0.000
1727575399.514,-2.930,-20.996,-40.039,-40.527,0.000
1727575399.518,-57.617,-41.992,-41.016,-41.016,0.000
1727575399.522,-65.918,-21.484,-35.156,-11.230,0.000
1727575399.526,-31.738,-10.742,-27.832,-15.137,0.000
1727575399.530,-7.324,-17.090,-30.762,-30.273,0.000
1727575399.534,-12.207,-26.855,-39.551,-40.039,0.000
1727575399.538,-74.219,-39.062,-43.945,-64.453,0.000
1727575399.542,-67.871,-37.598,-34.180,-19.531,0.000
1727575399.546,-40.039,-34.180,-25.879,8.301,0.000
1727575399.550,-13.672,-39.062,-32.227,1.465,0.000
1727575399.554,18.066,-34.180,-32.227,-13.184,0.000
1727575399.557,-37.598,-28.320,-37.598,-42.480,0.000
1727575399.561,-59.082,-30.762,-38.574,3.418,0.000
1727575399.565,-29.297,-29.297,-30.762,21.973,0.000
1727575399.569,-4.883,-26.367,-30.762,-10.254,0.000
1727575399.573,21.973,-22.461,-32.715,-24.902,0.000
1727575399.577,-28.809,-34.180,-31.738,-39.551,0.000
1727575399.581,-52.734,-44.434,-28.809,-12.695,0.000
1727575399.585,-27.344,-41.992,-24.902,20.996,0.000
1727575399.589,-5.371,-36.621,-26.367,4.883,0.000
1727575399.593,21.973,-34.180,-34.180,-13.672,0.000
1727575399.597,-24.414,-34.180,-38.086,-40.527,0.000
1727575399.600,-54.199,-23.438,-28.320,-26.367,0.000
1727575399.604,-25.391,-9.766,-18.066,13.672,0.000
1727575399.608,-8.301,-13.184,-31.250,-2.441,0.000
1727575399.612,2.441,-33.691,-40.527,-16.602,0.000
1727575399.616,-35.645,-41.992,-36.621,-48.828,0.000
1727575399.620,-58.105,-42.480,-39.551,-36.133,0.000
1727575399.624,-40.039,-39.062,-40.527,7.324,0.000
1727575399.628,-32.715,-27.832,-41.992,-24.902,0.000
1727575399.632,-8.789,-17.090,-41.016,-42.969,0.000
1727575399.636,-33.691,-32.715,-41.504,-64.453,0.000
1727575399.640,-68.848,-52.246,-47.852,-56.152,0.000
1727575399.643,-46.387,-38.574,-36.621,-11.230,0.000
1727575399.647,-38.574,-21.484,-32.715,-33.203,0.000
1727575399.651,-13.184,-20.996,-37.598,-46.875,0.000
1727575399.655,-20.996,-30.273,-40.039,-46.387,0.000
1727575399.659,-67.871,-39.551,-34.180,-43.457,0.000
1727575399.663,-47.852,-39.062,-24.414,4.395,0.000
1727575399.667,-29.785,-28.809,-20.020,8.301,0.000
1727575399.671,-16.113,-20.996,-24.414,-17.090,0.000
1727575399.675,-22.949,-29.785,-31.250,-36.133,0.000
1727575399.679,-59.082,-42.480,-32.227,-39.062,0.000
1727575399.682,-42.480,-41.992,-26.855,10.742,0.000
1727575399.686,-35.156,-39.551,-20.508,3.906,0.000
1727575399.690,-20.508,-24.902,-27.344,-34.180,0.000
1727575399.694,-20.508,-35.645,-35.645,-48.340,0.000
1727575399.698,-65.918,-52.734,-36.133,-57.129,0.000
1727575399.702,-46.387,-34.180,-32.227,-24.414,0.000
1727575399.706,-33.203,-27.832,-32.715,-16.602,0.000
1727575399.710,-14.648,-32.715,-33.691,-27.832,0.000
1727575399.714,-2.441,-38.574,-37.598,-42.480,0.000
1727575399.718,-59.082,-39.062,-37.109,-66.895,0.000
1727575399.722,-58.594,-20.508,-29.785,-14.160,0.000
1727575399.726,-32.715,-18.555,-31.250,8.789,0.000
1727575399.729,-15.625,-26.855,-40.527,-12.207,0.000
1727575399.733,-17.578,-22.461,-41.016,-20.020,0.000
1727575399.737,-59.570,-28.809,-29.297,-42.969,0.000
1727575399.741,-50.293,-25.879,-28.320,-18.066,0.000
1727575399.745,-27.832,-19.043,-29.297,0.977,0.000
1727575399.749,-1.953,-7.324,-23.438,-17.090,0.000
1727575399.753,15.625,-7.812,-25.391,-16.602,0.000
1727575399.757,-40.527,-31.250,-39.551,-37.109,0.000
1727575399.761,-56.152,-21.973,-40.039,-22.461,0.000
1727575399.765,-24.414,-6.348,-37.109,10.742,0.000
1727575399.768,-9.277,-10.254,-37.109,-16.113,0.000
1727575399.772,14.160,-20.508,-46.875,-31.738,0.000
1727575399.776,-25.391,-34.180,-47.852,-56.152,0.000
1727575399.780,-44.434,-18.066,-33.691,-38.574,0.000
1727575399.784,-9.277,3.418,-31.738,0.488,0.000
1727575399.788,0.000,-19.043,-34.180,-10.254,0.000
1727575399.792,19.043,-27.344,-33.203,-17.090,0.000
1727575399.796,-20.996,-27.344,-39.062,-45.410,0.000
1727575399.800,-52.734,-32.715,-34.668,-32.715,0.000
1727575399.804,-18.066,-17.090,-16.602,7.812,0.000
1727575399.808,11.230,-6.348,-13.672,2.441,0.000
1727575399.811,25.879,-14.160,-20.020,-3.906,0.000
1727575399.815,-19.043,-45.410,-27.832,-24.902,0.000
1727575399.819,-55.664,-44.922,-25.879,-20.996,0.000
1727575399.823,-17.090,-10.254,-19.531,20.996,0.000
1727575399.827,-0.977,-2.441,-21.484,7.324,0.000
1727575399.831,9.277,-17.578,-23.438,-18.066,0.000
1727575399.835,-17.090,-28.320,-40.527,-38.574,0.000
1727575399.839,-60.547,-30.273,-38.574,-40.039,0.000
1727575399.843,-26.855,-10.742,-20.996,1.465,0.000
1727575399.847,-4.395,-8.301,-21.484,0.000,0.000
1727575399.851,17.090,-24.414,-24.902,-28.809,0.000
1727575399.854,-2.441,-35.645,-26.855,-52.246,0.000
1727575399.858,-59.082,-28.809,-32.715,-57.617,0.000
1727575399.862,-52.734,-21.484,-25.391,-11.230,0.000
1727575399.866,-36.133,-23.926,-14.160,-6.348,0.000
1727575399.870,-21.973,-12.207,-25.879,-26.367,0.000
1727575399.874,-17.090,-13.184,-35.645,-37.598,0.000
1727575399.878,-45.898,-24.414,-41.504,-54.688,0.000
1727575399.882,-36.133,-17.578,-43.945,-14.160,0.000
1727575399.886,-13.184,5.371,-37.109,-16.113,0.000
1727575399.890,-3.418,-9.766,-38.574,-29.785,0.000
1727575399.894,-13.184,-35.645,-44.434,-24.414,0.000
1727575399.897,-66.895,-33.203,-44.434,-54.199,0.000
1727575399.901,-40.527,-9.277,-41.504,-23.438,0.000
1727575399.905,-3.906,-3.418,-46.387,2.441,0.000
1727575399.909,-16.113,-12.695,-45.898,-9.277,0.000
1727575399.913,-7.324,-14.648,-41.992,-17.090,0.000
1727575399.917,-53.223,-26.367,-47.852,-39.062,0.000
1727575399.921,-40.039,-21.973,-48.340,-17.090,0.000
1727575399.925,-2.441,-16.113,-43.945,7.324,0.000
1727575399.929,-19.043,-10.254,-38.574,-17.578,0.000
1727575399.933,-0.488,-5.371,-31.738,-32.715,0.000
1727575399.937,-34.180,-26.367,-38.574,-53.711,0.000
1727575399.940,0.000,-34.668,-34.180,-39.551,0.000
1727575399.944,0.000,-26.855,-26.367,-8.789,0.000
1727575399.948,0.000,-29.297,-21.973,-13.184,0.000
1727575399.952,0.000,-37.598,-25.391,-29.297,0.000
1727575399.956,0.000,-46.875,-39.551,-65.918,0.000
1727575399.960,0.000,-49.316,-33.203,-50.293,0.000
1727575399.964,0.000,-36.133,-29.297,-18.066,0.000
1727575399.968,0.000,-31.738,-36.133,-34.180,0.000
1727575399.972,0.000,-40.039,-36.621,-47.852,0.000
1727575399.976,0.000,-34.668,-38.574,-64.453,0.000
1727575399.980,0.000,-25.879,-37.109,-42.969,0.000
1727575399.983,0.000,-20.020,-36.621,-5.371,0.000
1727575399.987,-14.160,-20.996,-40.527,-20.508,0.000
1727575399.991,-3.418,-20.996,-37.109,-34.180,0.000
1727575399.995,-24.414,-20.508,-41.016,-53.711,0.000
1727575399.999,-43.945,-8.789,-37.109,-36.621,0.000
1727575400.003,-20.996,1.953,-27.344,12.207,0.000
1727575400.007,-12.695,-14.160,-38.086,-0.488,0.000
1727575400.011,2.930,-19.043,-43.457,-25.879,0.000
1727575400.015,-17.578,-32.227,-49.316,-47.852,0.000
1727575400.019,-58.594,-32.227,-49.316,-40.039,0.000
1727575400.022,-32.227,5.859,-36.133,-1.465,0.000
1727575400.026,-16.113,1.953,-41.016,-11.230,0.000
1727575400.030,6.836,-18.066,-45.410,-20.996,0.000
1727575400.034,-16.602,-26.855,-46.387,-38.086,0.000
1727575400.038,-72.266,-29.785,-40.527,-59.082,0.000
1727575400.042,-48.340,-18.555,-33.691,-17.578,0.000
1727575400.046,-25.391,-9.766,-40.039,-11.719,0.000
1727575400.050,2.930,-13.184,-37.109,-23.926,0.000
1727575400.054,-3.906,-32.227,-37.109,-40.039,0.000
1727575400.058,-64.453,-39.062,-40.527,-47.852,0.000
1727575400.062,-51.758,-28.809,-31.250,13.672,0.000
1727575400.065,-25.391,-18.066,-19.043,19.531,0.000
1727575400.069,-0.977,-26.367,-27.344,-17.578,0.000
1727575400.073,-22.461,-51.758,-41.016,-54.688,0.000
1727575400.077,-66.895,-58.105,-48.340,-74.219,0.000
1727575400.081,0.000,-38.574,-41.504,-31.738,0.000
1727575400.085,0.000,-28.320,-37.109,-12.695,0.000
1727575400.089,0.000,-25.879,-37.109,-30.762,0.000
1727575400.093,0.000,-22.461,-37.598,-41.016,0.000
1727575400.097,0.000,-24.902,-43.457,-56.641,0.000
1727575400.101,0.000,-30.762,-40.527,-23.926,0.000
1727575400.104,0.000,-35.156,-42.969,-2.930,0.000
1727575400.108,0.000,-27.832,-45.410,-34.180,0.000
1727575400.112,0.000,-19.531,-47.363,-51.758,0.000
1727575400.116,0.000,-29.297,-52.246,-50.781,0.000
1727575400.120,0.000,-19.043,-38.086,-14.160,0.000
1727575400.124,0.000,0.488,-28.809,14.648,0.000
1727575400.128,10.742,1.953,-35.156,-5.859,0.000
1727575400.132,21.484,-12.207,-41.504,-11.719,0.000
1727575400.136,-27.344,-19.531,-42.480,-40.527,0.000
1727575400.140,-47.363,-5.371,-35.645,-27.344,0.000
1727575400.143,-28.809,-8.301,-33.203,4.883,0.000
1727575400.147,-9.766,-16.602,-34.180,-18.555,0.000
1727575400.151,13.672,-20.508,-34.180,-29.297,0.000
1727575400.155,-19.043,-34.180,-35.645,-48.828,0.000
1727575400.159,-42.480,-24.414,-35.156,-33.203,0.000
1727575400.163,-35.645,-33.203,-33.203,1.953,0.000
1727575400.167,-30.762,-43.945,-41.016,-14.160,0.000
1727575400.171,-11.230,-24.414,-37.109,-30.762,0.000
1727575400.175,0.000,-38.086,-36.133,-62.012,0.000
1727575400.179,0.000,-45.410,-33.691,-57.617,0.000
1727575400.183,0.000,-30.273,-33.203,-8.301,0.000
1727575400.186,0.000,-27.344,-29.297,-19.531,0.000
1727575400.190,0.000,-21.484,-25.879,-40.039,0.000
1727575400.194,0.000,-41.504,-36.621,-49.316,0.000
1727575400.198,0.000,-53.223,-39.551,-42.969,0.000
1727575400.202,0.000,-35.156,-33.203,-7.324,0.000
1727575400.206,0.000,-27.344,-41.504,-19.531,0.000
1727575400.210,0.000,-31.738,-52.734,-29.785,0.000
1727575400.214,0.000,-38.086,-51.270,-44.434,0.000
1727575400.218,0.000,-29.785,-40.527,-50.293,0.000
1727575400.222,-24.902,-20.508,-35.645,-4.883,0.000
1727575400.226,-19.043,-30.762,-41.504,7.812,0.000
1727575400.229,4.395,-21.484,-43.457,0.000,0.000
1727575400.233,-4.395,-26.855,-47.363,-31.250,0.000
1727575400.237,-53.223,-43.457,-44.922,-40.039,0.000
1727575400.241,-41.016,-32.715,-48.340,-0.977,0.000
1727575400.245,-29.297,-42.969,-50.781,7.324,0.000
1727575400.249,11.719,-30.273,-45.410,-7.812,0.000
1727575400.253,15.137,-21.973,-54.688,-31.738,0.000
1727575400.257,-55.664,-28.809,-59.570,-38.086,0.000
1727575400.261,-52.734,-12.695,-49.316,-4.395,0.000
1727575400.265,-28.320,-11.719,-47.852,-2.441,0.000
1727575400.269,-9.766,-14.160,-51.270,-18.555,0.000
1727575400.272,11.230,-13.672,-52.246,-34.668,0.000
1727575400.276,-40.039,-22.461,-49.805,-52.734,0.000
1727575400.280,-59.082,-19.531,-44.434,-18.555,0.000
1727575400.284,-37.598,-25.879,-46.875,-9.277,0.000
1727575400.288,-14.648,-45.898,-43.457,-32.715,0.000
1727575400.292,-7.812,-46.875,-39.062,-45.410,0.000
1727575400.296,-61.523,-52.734,-49.316,-71.289,0.000
1727575400.300,-59.570,-44.922,-44.434,-44.922,0.000
1727575400.304,-20.996,-29.297,-37.598,-11.230,0.000
1727575400.308,-27.832,-24.902,-45.898,-33.203,0.000
1727575400.312,-27.344,-39.062,-55.176,-41.504,0.000
1727575400.315,-62.012,-64.941,-51.270,-55.176,0.000
1727575400.319,-60.059,-53.223,-36.133,-32.715,0.000
1727575400.323,-8.789,-29.297,-37.598,-1.465,0.000
1727575400.327,-20.996,-22.949,-41.992,-25.391,0.000
1727575400.331,-10.742,-29.785,-40.039,-31.738,0.000
1727575400.335,-32.715,-53.223,-39.062,-47.363,0.000
1727575400.339,-59.082,-36.133,-37.598,-54.199,0.000
1727575400.343,-36.133,-29.297,-35.645,0.977,0.000
1727575400.347,-19.043,-42.969,-37.598,13.672,0.000
1727575400.351,-3.418,-25.879,-35.645,-23.438,0.000
1727575400.355,-36.621,-26.855,-48.828,-57.129,0.000
1727575400.358,-67.383,-22.949,-51.270,-57.129,0.000
1727575400.362,-48.340,-20.508,-41.504,-23.438,0.000
1727575400.366,-25.391,-19.043,-44.922,-19.531,0.000
1727575400.370,14.648,-13.184,-42.969,-29.297,0.000
1727575400.374,3.418,-32.227,-51.270,-43.457,0.000
1727575400.378,-52.734,-28.809,-50.293,-49.805,0.000
1727575400.382,-36.133,-15.625,-39.551,-9.277,0.000
1727575400.386,-18.555,-24.414,-41.016,-1.953,0.000
1727575400.390,0.488,-38.574,-42.969,-18.066,0.000
1727575400.394,-7.324,-42.480,-40.039,-35.156,0.000
1727575400.398,-47.363,-24.902,-30.273,-43.457,0.000
1727575400.401,-40.039,-15.625,-27.344,-9.277,0.000
1727575400.405,-35.156,-27.832,-29.785,-9.766,0.000
1727575400.409,-16.113,-30.762,-29.297,-32.227,0.000
1727575400.413,-36.621,-33.203,-29.297,-57.129,0.000
1727575400.417,-83.496,-38.086,-31.738,-66.895,0.000
1727575400.421,-72.754,-33.691,-21.484,-24.902,0.000
1727575400.425,-50.293,-30.762,-21.973,-20.996,0.000
1727575400.429,9.766,-26.855,-34.668,-46.387,0.000
1727575400.433,4.395,-35.645,-32.227,-64.453,0.000
1727575400.437,-76.660,-47.852,-35.156,-69.824,0.000
1727575400.440,-73.242,-29.785,-32.715,-23.926,0.000
1727575400.444,-51.270,-26.855,-29.785,-2.930,0.000
1727575400.448,-33.203,-36.621,-34.180,-22.461,0.000
1727575400.452,-16.113,-39.062,-34.180,-34.668,0.000
1727575400.456,-56.152,-45.898,-33.691,-45.898,0.000
1727575400.460,-53.223,-36.621,-32.715,-15.137,0.000
1727575400.464,-30.762,-33.691,-31.250,-9.766,0.000
1727575400.468,-16.113,-30.762,-28.809,-24.902,0.000
1727575400.472,12.695,-32.715,-28.809,-17.578,0.000
1727575400.476,-24.902,-50.293,-36.621,-41.992,0.000
1727575400.479,-55.664,-45.898,-47.363,-15.137,0.000
1727575400.483,-42.480,-41.016,-47.363,16.113,0.000
1727575400.487,-6.348,-32.715,-30.273,-6.348,0.000
1727575400.491,17.090,-26.855,-30.273,-23.926,0.000
1727575400.495,-42.480,-39.551,-41.016,-61.523,0.000
1727575400.499,-62.012,-29.785,-36.133,-35.156,0.000
1727575400.503,-39.062,-14.160,-26.855,5.859,0.000
1727575400.507,-25.391,-15.137,-28.809,-15.625,0.000
1727575400.511,4.883,-16.113,-36.621,-32.227,0.000
1727575400.515,-39.062,-24.414,-40.527,-45.898,0.000
1727575400.518,-56.641,-22.949,-25.879,-21.973,0.000
1727575400.522,-16.113,-27.832,-19.531,22.949,0.000
1727575400.526,-10.742,-31.738,-18.555,16.602,0.000
1727575400.530,5.859,-20.020,-19.531,-16.113,0.000
1727575400.534,-23.438,-33.203,-40.039,-47.363,0.000
1727575400.538,-47.852,-43.945,-39.062,-39.062,0.000
1727575400.542,-32.227,-33.203,-26.367,-4.395,0.000
1727575400.546,-33.203,-29.785,-28.809,-19.043,0.000
1727575400.550,0.000,-34.180,-25.879,-29.297,0.000
1727575400.554,0.000,-49.805,-25.391,-48.340,0.000
1727575400.558,0.000,-40.039,-27.832,-53.711,0.000
1727575400.562,0.000,-23.926,-25.391,-15.137,0.000
1727575400.565,0.000,-34.180,-32.715,-19.531,0.000
1727575400.569,0.000,-42.969,-36.621,-26.855,0.000
1727575400.573,0.000,-51.270,-34.668,-42.969,0.000
1727575400.577,0.000,-42.480,-30.273,-58.594,0.000
1727575400.581,0.000,-35.645,-26.367,-15.625,0.000
1727575400.585,0.000,-39.551,-31.250,-9.277,0.000
1727575400.589,0.000,-26.855,-31.738,-36.133,0.000
1727575400.593,0.000,-36.133,-38.574,-55.664,0.000
1727575400.597,-69.824,-46.875,-44.922,-57.129,0.000
1727575400.601,-43.457,-31.250,-39.062,-5.371,0.000
1727575400.605,-28.320,-28.320,-34.668,5.859,0.000
1727575400.608,-3.906,-27.344,-31.738,-17.578,0.000
1727575400.612,-2.930,-25.879,-38.086,-38.574,0.000
1727575400.616,-52.246,-36.133,-37.109,-39.551,0.000
1727575400.620,-26.367,-25.879,-23.926,7.324,0.000
1727575400.624,-17.578,-22.461,-22.461,2.441,0.000
1727575400.628,-10.742,-41.016,-26.855,-15.137,0.000
1727575400.632,3.418,-34.668,-27.832,-10.742,0.000
1727575400.636,-43.457,-23.438,-22.949,-36.621,0.000
1727575400.640,-45.410,-24.414,-11.719,-10.742,0.000
1727575400.644,-20.508,-10.742,-8.301,29.297,0.000
1727575400.648,-6.836,-6.836,-20.508,10.742,0.000
1727575400.651,-0.977,-21.484,-23.926,-35.645,0.000
1727575400.655,-50.781,-36.621,-37.109,-71.289,0.000
1727575400.659,-58.105,-28.320,-32.227,-35.645,0.000
1727575400.663,-13.672,-17.578,-22.461,10.742,0.000
1727575400.667,6.348,-19.043,-22.949,-11.230,0.000
1727575400.671,13.184,-25.879,-29.785,-39.062,0.000
1727575400.675,-44.922,-33.203,-35.645,-51.758,0.000
1727575400.679,-66.895,-11.230,-29.785,-29.297,0.000
1727575400.683,-17.578,-3.418,-26.855,-1.465,0.000
1727575400.687,4.883,-22.461,-29.785,-14.160,0.000
1727575400.691,0.488,-37.598,-32.715,-30.762,0.000
1727575400.694,-40.527,-45.898,-39.551,-52.246,0.000
1727575400.698,-58.594,-39.551,-36.133,-38.574,0.000
1727575400.702,-41.992,-31.250,-36.621,-3.906,0.000
1727575400.706,-22.949,-37.598,-44.922,-16.602,0.000
1727575400.710,-0.977,-34.668,-44.434,-31.250,0.000
1727575400.714,-39.062,-30.273,-48.340,-53.223,0.000
1727575400.718,-63.477,-25.879,-45.410,-42.969,0.000
1727575400.722,-39.551,-20.996,-31.738,7.324,0.000
1727575400.726,-19.531,-26.367,-21.484,2.930,0.000
1727575400.730,17.090,-30.762,-30.273,-23.438,0.000
1727575400.733,-18.555,-34.180,-47.852,-46.387,0.000
1727575400.737,-57.129,-22.949,-45.410,-37.109,0.000
1727575400.741,-25.879,-12.695,-33.691,-9.277,0.000
1727575400.745,-20.996,-24.414,-40.039,-22.461,0.000
1727575400.749,8.789,-23.438,-40.039,-20.020,0.000
1727575400.753,-6.348,-29.785,-37.598,-32.715,0.000
1727575400.757,-55.176,-42.969,-43.457,-48.340,0.000
1727575400.761,-30.762,-26.855,-35.645,-7.812,0.000
1727575400.765,-19.043,-27.344,-36.621,-7.812,0.000
1727575400.769,-4.883,-18.066,-41.016,-25.879,0.000
1727575400.773,-21.484,-16.113,-35.156,-45.410,0.000
1727575400.776,-68.359,-41.504,-36.133,-50.781,0.000
1727575400.780,-48.828,-27.832,-29.297,-4.395,0.000
1727575400.784,-29.785,-22.461,-30.273,7.812,0.000
1727575400.788,-8.789,-35.156,-30.762,-13.672,0.000
1727575400.792,-10.742,-49.805,-35.156,-33.203,0.000
1727575400.796,-54.688,-46.875,-41.016,-45.898,0.000
1727575400.800,-39.551,-29.297,-27.832,-15.625,0.000
1727575400.804,-25.391,-26.367,-35.645,-22.461,0.000
1727575400.808,-3.906,-37.109,-41.992,-32.227,0.000
1727575400.812,3.906,-49.316,-38.086,-21.973,0.000
1727575400.815,-58.594,-30.762,-38.086,-55.664,0.000
1727575400.819,-54.688,-20.996,-28.809,-22.949,0.000
1727575400.823,-29.297,-28.320,-27.344,-7.324,0.000
1727575400.827,-21.973,-36.133,-34.668,-38.574,0.000
1727575400.831,-7.324,-44.434,-44.922,-48.828,0.000
1727575400.835,-51.270,-56.641,-57.617,-69.336,0.000
1727575400.839,-55.176,-43.945,-48.828,-32.227,0.000
1727575400.843,-30.273,-28.809,-37.598,-13.184,0.000
1727575400.847,-8.301,-17.578,-39.062,-34.180,0.000
1727575400.851,7.324,-12.695,-34.180,-43.457,0.000
1727575400.854,-58.105,-38.086,-48.828,-66.406,0.000
1727575400.858,-76.172,-28.809,-45.898,-30.762,0.000
1727575400.862,-39.062,-14.160,-28.809,0.000,0.000
1727575400.866,-15.137,-34.668,-32.227,-20.996,0.000
1727575400.870,9.277,-46.387,-33.203,-27.832,0.000
1727575400.874,-50.781,-44.434,-35.156,-53.223,0.000
1727575400.878,-64.453,-27.832,-35.156,-24.902,0.000
1727575400.882,-28.809,-41.504,-24.414,23.926,0.000
1727575400.886,-15.625,-38.574,-25.879,-10.254,0.000
1727575400.890,1.953,-20.508,-5.859,-46.875,0.000
1727575400.893,-41.992,-38.086,-14.648,-58.594,0.000
1727575400.897,-61.035,-39.062,-52.734,-34.180,0.000
1727575400.901,-27.344,-48.828,-34.180,22.949,0.000
1727575400.905,-25.879,-46.875,0.000,-12.695,0.000
1727575400.909,-3.906,-27.344,-0.977,-41.992,0.000
1727575400.913,-13.184,-43.945,-23.438,-27.832,0.000
1727575400.917,-83.008,-23.926,-33.203,-53.223,0.000
1727575400.921,-97.168,-19.531,13.672,-65.918,0.000
1727575400.925,-43.457,-66.406,-13.672,-38.574,0.000
1727575400.929,-23.926,-43.457,-13.672,-19.043,0.000
1727575400.933,-75.684,-46.875,16.602,-70.312,0.000
1727575400.937,-127.441,5.371,-85.449,-115.723,0.000
1727575400.940,-107.910,-0.488,0.977,-71.289,0.000
1727575400.944,-192.871,-0.488,99.121,-139.648,0.000
1727575400.948,-112.305,-9.277,41.016,-113.281,0.000
1727575400.952,-84.961,5.859,-83.008,-79.590,0.000
1727575400.956,-265.625,45.410,-92.773,-166.992,0.000
1727575400.960,-11.230,-38.574,-105.469,104.492,0.000
1727575400.964,129.395,-52.734,-143.066,166.504,0.000
1727575400.968,17.090,-84.473,-20.020,-23.926,0.000
1727575400.972,33.691,-66.406,-69.824,-12.207,0.000
1727575400.976,56.641,-52.734,-157.715,9.277,0.000
1727575400.980,-200.684,-13.184,-57.129,-121.582,0.000
1727575400.983,-446.289,53.223,-14.648,-199.219,0.000
1727575400.987,-106.934,-51.270,-24.902,-17.090,0.000
1727575400.991,-56.641,-33.203,-106.934,-74.707,0.000
1727575400.995,-126.465,35.645,-188.477,-74.219,0.000
1727575400.999,163.086,1.953,-61.035,110.352,0.000
1727575401.003,299.316,-7.812,-49.805,210.449,0.000
1727575401.007,144.043,16.113,-167.480,162.109,0.000
1727575401.011,40.527,21.484,-117.188,98.633,0.000
1727575401.015,145.996,65.918,-58.594,124.023,0.000
1727575401.019,0.000,39.062,12.207,4.883,0.000
1727575401.023,0.000,41.992,-31.250,16.602,0.000
1727575401.026,0.000,154.785,-154.297,99.609,0.000
1727575401.030,0.000,87.891,-83.008,77.148,0.000
1727575401.034,0.000,26.855,-61.035,29.785,0.000
1727575401.038,0.000,85.938,-96.680,52.734,0.000
1727575401.042,0.000,107.910,-54.199,72.266,0.000
1727575401.046,0.000,21.484,-34.668,74.219,0.000
1727575401.050,0.000,23.438,-69.336,97.168,0.000
1727575401.054,0.000,62.500,-78.125,18.555,0.000
1727575401.058,0.000,51.758,-48.828,-10.742,0.000
1727575401.062,0.000,48.828,-55.664,43.457,0.000
1727575401.066,49.316,62.988,-80.566,33.203,0.000
1727575401.069,13.184,65.918,-89.844,-8.789,0.000
1727575401.073,-34.180,41.016,-80.566,-31.738,0.000
1727575401.077,-24.414,4.883,-62.012,7.812,0.000
1727575401.081,19.043,38.574,-62.988,44.922,0.000
1727575401.085,4.883,52.734,-64.453,11.230,0.000
1727575401.089,1.465,46.875,-58.105,-29.785,0.000
1727575401.093,27.344,-4.395,-45.898,-19.531,0.000
1727575401.097,-2.441,-15.137,-43.457,-22.461,0.000
1727575401.101,10.254,20.508,-36.133,9.766,0.000
1727575401.105,12.695,23.926,-38.574,9.766,0.000
1727575401.108,44.434,25.879,-40.527,-5.859,0.000
1727575401.112,0.000,18.066,-37.598,-27.344,0.000
1727575401.116,0.000,25.879,-32.715,-33.691,0.000
1727575401.120,0.000,26.855,-17.578,17.578,0.000
1727575401.124,0.000,5.371,-16.602,13.672,0.000
1727575401.128,0.000,11.230,-20.508,-20.020,0.000
1727575401.132,0.000,1.465,-25.879,-35.645,0.000
1727575401.136,0.000,-22.461,-29.785,-31.250,0.000
1727575401.140,0.000,-29.297,-22.949,23.438,0.000
1727575401.144,0.000,-20.020,-25.391,20.020,0.000
1727575401.148,0.000,-3.418,-22.461,-24.414,0.000
1727575401.151,0.000,-22.461,-23.438,-33.691,0.000
1727575401.155,0.000,-22.949,-26.367,-36.133,0.000
1727575401.159,-38.574,1.465,-11.719,6.348,0.000
1727575401.163,-0.488,0.488,-14.648,5.371,0.000
1727575401.167,-0.977,-24.414,-24.414,-20.508,0.000
1727575401.171,6.348,-27.832,-23.926,-26.855,0.000
1727575401.175,-51.758,-21.973,-23.438,-57.617,0.000
1727575401.179,-58.105,-28.809,-10.254,-22.949,0.000
1727575401.183,-16.113,-29.785,-16.602,1.465,0.000
1727575401.187,3.418,-39.062,-32.227,-25.879,0.000
1727575401.190,7.324,-32.715,-30.273,-48.340,0.000
1727575401.194,-50.781,-31.738,-30.762,-66.406,0.000
1727575401.198,-58.105,-26.855,-28.809,-41.992,0.000
1727575401.202,-26.855,-34.668,-31.250,-28.320,0.000
1727575401.206,-7.812,-40.039,-33.691,-38.086,0.000
1727575401.210,8.301,-39.062,-37.598,-56.641,0.000
1727575401.214,-33.203,-50.781,-41.016,-77.148,0.000
1727575401.218,-66.895,-35.645,-28.809,-36.621,0.000
1727575401.222,-30.273,-22.949,-18.555,-2.930,0.000
1727575401.226,0.000,-29.297,-24.414,-27.832,0.000
1727575401.229,0.977,-47.852,-36.621,-40.527,0.000
1727575401.233,-53.711,-52.246,-45.898,-62.500,0.000
1727575401.237,-78.613,-32.227,-37.109,-44.922,0.000
1727575401.241,-37.598,-33.691,-24.902,-0.977,0.000
1727575401.245,-10.742,-37.598,-30.273,-19.043,0.000
1727575401.249,3.906,-50.293,-26.855,-33.203,0.000
1727575401.253,-36.133,-63.965,-23.926,-46.387,0.000
1727575401.257,-57.129,-55.176,-25.879,-34.180,0.000
1727575401.261,-31.250,-50.293,-21.973,-5.859,0.000
1727575401.265,-18.066,-47.852,-27.832,-23.438,0.000
1727575401.268,1.465,-53.711,-26.855,-34.668,0.000
1727575401.272,-24.902,-67.383,-32.227,-53.711,0.000
1727575401.276,-55.664,-58.105,-33.203,-49.316,0.000
1727575401.280,-38.574,-42.480,-16.113,-14.648,0.000
1727575401.284,-14.160,-46.875,-13.184,-26.855,0.000
1727575401.288,18.066,-46.387,-14.648,-33.203,0.000
1727575401.292,-20.996,-52.734,-27.344,-52.246,0.000
1727575401.296,-61.523,-55.664,-24.414,-62.988,0.000
1727575401.300,-34.180,-48.340,-20.020,-6.836,0.000
1727575401.304,-20.996,-66.406,-32.715,-8.789,0.000
1727575401.308,-2.441,-71.289,-26.855,-31.250,0.000
1727575401.312,-22.949,-64.453,-34.668,-54.688,0.000
1727575401.315,-87.402,-68.848,-40.527,-85.938,0.000
1727575401.319,-68.848,-70.801,-32.227,-41.992,0.000
1727575401.323,-29.297,-73.242,-28.809,-21.484,0.000
1727575401.327,-5.371,-46.387,-25.879,-44.434,0.000
1727575401.331,-21.484,-47.363,-37.598,-68.848,0.000
1727575401.335,-78.125,-60.547,-51.758,-84.473,0.000
1727575401.339,-68.359,-42.480,-41.016,-40.039,0.000
1727575401.343,-41.504,-50.293,-29.785,-31.250,0.000
1727575401.347,-24.902,-69.824,-34.180,-50.781,0.000
1727575401.351,-35.645,-61.035,-44.922,-57.129,0.000
1727575401.355,-82.031,-59.570,-45.410,-75.195,0.000
1727575401.358,-59.570,-55.664,-27.344,-28.809,0.000
1727575401.362,-37.109,-39.062,-22.949,-8.301,0.000
1727575401.366,-31.738,-41.992,-33.691,-45.898,0.000
1727575401.370,-29.785,-49.316,-39.551,-73.730,0.000
1727575401.374,-70.801,-50.781,-43.945,-90.820,0.000
1727575401.378,-66.895,-45.898,-43.457,-50.293,0.000
1727575401.382,-51.758,-54.688,-33.203,-11.230,0.000
1727575401.386,-44.434,-43.457,-28.809,-32.227,0.000
1727575401.390,-34.180,-40.039,-30.273,-48.340,0.000
1727575401.394,-83.496,-61.523,-33.203,-63.477,0.000
1727575401.398,-90.332,-60.547,-28.320,-37.109,0.000
1727575401.401,-48.340,-47.852,-20.996,-5.371,0.000
1727575401.405,-23.438,-55.176,-22.949,-24.414,0.000
1727575401.409,0.488,-58.594,-22.461,-43.945,0.000
1727575401.413,-45.410,-54.199,-34.180,-69.824,0.000
1727575401.417,-77.148,-45.410,-34.180,-46.387,0.000
1727575401.421,-46.387,-42.480,-20.508,-11.230,0.000
1727575401.425,-19.043,-48.340,-29.785,-17.090,0.000
1727575401.429,1.953,-48.828,-24.902,-25.391,0.000
1727575401.433,-23.926,-40.527,-21.973,-52.246,0.000
1727575401.437,-52.734,-37.109,-27.832,-35.156,0.000
1727575401.441,-44.922,-32.227,-16.602,6.348,0.000
1727575401.444,-6.836,-26.855,-17.090,-14.648,0.000
1727575401.448,10.254,-27.832,-17.578,-44.922,0.000
1727575401.452,-39.551,-45.898,-26.855,-64.941,0.000
1727575401.456,-39.062,-52.734,-39.062,-45.410,0.000
1727575401.460,-11.230,-51.758,-29.785,-4.883,0.000
1727575401.464,-21.973,-52.246,-26.367,-18.555,0.000
1727575401.468,-16.602,-46.875,-36.133,-49.316,0.000
1727575401.472,-52.246,-51.270,-47.363,-72.266,0.000
1727575401.476,-87.402,-39.551,-45.898,-64.453,0.000
1727575401.480,-71.777,-20.508,-40.527,-27.832,0.000
1727575401.483,-58.105,-41.016,-38.574,-21.484,0.000
1727575401.487,-10.742,-45.898,-41.016,-31.250,0.000
1727575401.491,-7.812,-37.109,-45.898,-50.781,0.000
1727575401.495,-68.848,-53.711,-39.062,-52.246,0.000
1727575401.499,-63.965,-47.852,-34.180,-15.625,0.000
1727575401.503,-32.227,-45.410,-37.109,-13.184,0.000
1727575401.507,-16.602,-41.992,-34.668,-30.762,0.000
1727575401.511,-45.410,-40.039,-41.992,-60.059,0.000
1727575401.515,-93.750,-58.594,-46.387,-70.312,0.000
1727575401.519,-69.336,-39.551,-34.180,-27.832,0.000
1727575401.523,-34.180,-23.926,-36.621,-22.949,0.000
1727575401.526,-9.277,-44.434,-42.969,-43.945,0.000
1727575401.530,-12.695,-55.664,-43.945,-55.176,0.000
1727575401.534,-62.012,-44.434,-43.945,-64.941,0.000
1727575401.538,-48.828,-23.926,-28.809,-20.020,0.000
1727575401.542,-20.996,-23.926,-23.438,5.859,0.000
1727575401.546,-2.441,-31.738,-28.809,0.000,0.000
1727575401.550,-12.695,-36.133,-29.297,-12.695,0.000
1727575401.554,-56.641,-44.922,-38.574,-48.828,0.000
1727575401.558,-41.992,-39.551,-38.574,-21.973,0.000
1727575401.562,-14.160,-36.133,-34.180,4.395,0.000
1727575401.565,-3.418,-19.043,-32.227,-21.484,0.000
1727575401.569,-6.836,-19.531,-27.344,-38.086,0.000
1727575401.573,-50.293,-41.992,-32.227,-48.828,0.000
1727575401.577,-52.734,-36.621,-30.273,-20.020,0.000
1727575401.581,-35.645,-38.086,-37.109,-4.883,0.000
1727575401.585,-33.691,-42.480,-40.527,-23.926,0.000
1727575401.589,-15.625,-39.551,-38.574,-36.133,0.000
1727575401.593,-43.945,-33.203,-45.898,-64.941,0.000
1727575401.597,-58.105,-24.414,-46.875,-43.945,0.000
1727575401.601,-44.922,-39.062,-42.480,-19.531,0.000
1727575401.604,-25.391,-50.293,-49.316,-34.668,0.000
1727575401.608,2.930,-47.363,-50.293,-43.457,0.000
1727575401.612,-49.316,-49.316,-49.316,-67.871,0.000
1727575401.616,-80.566,-56.641,-48.340,-51.758,0.000
1727575401.620,-47.363,-46.387,-43.457,-27.344,0.000
1727575401.624,-28.320,-35.645,-41.016,-35.645,0.000
1727575401.628,-15.625,-24.902,-40.527,-42.969,0.000
1727575401.632,-47.363,-32.227,-41.504,-59.082,0.000
1727575401.636,-77.148,-48.340,-35.156,-42.969,0.000
1727575401.640,-62.012,-32.227,-26.855,-1.953,0.000
1727575401.643,-39.062,-31.250,-24.902,-6.836,0.000
1727575401.647,3.418,-35.645,-30.762,-25.391,0.000
1727575401.651,-16.602,-44.434,-37.109,-49.316,0.000
1727575401.655,-66.406,-35.645,-33.203,-50.293,0.000
1727575401.659,-51.270,-11.719,-28.809,-7.324,0.000
1727575401.663,-28.320,-20.996,-27.832,-1.465,0.000
1727575401.667,5.859,-24.414,-19.043,-8.789,0.000
1727575401.671,-17.578,-19.531,-23.438,-37.109,0.000
1727575401.675,0.000,-34.668,-25.879,-46.875,0.000
1727575401.679,0.000,-20.020,-18.555,-14.648,0.000
1727575401.682,0.000,-8.301,-11.719,-3.906,0.000
1727575401.686,0.000,-22.949,-11.719,-9.766,0.000
1727575401.690,0.000,-24.902,-18.555,-21.484,0.000
1727575401.694,0.000,-38.086,-27.832,-33.203,0.000
1727575401.698,0.000,-40.527,-23.438,5.859,0.000
1727575401.702,0.000,-19.043,-21.973,15.625,0.000
1727575401.706,0.000,-16.113,-28.809,-15.137,0.000
1727575401.710,0.000,-35.156,-31.250,-20.508,0.000
1727575401.714,0.000,-37.598,-32.227,-27.832,0.000
1727575401.718,0.000,-21.973,-27.344,-7.812,0.000
1727575401.722,-22.949,-26.367,-22.949,11.719,0.000
1727575401.725,-9.277,-30.762,-25.879,-7.812,0.000
1727575401.729,-5.371,-44.434,-34.668,-40.039,0.000
1727575401.733,-62.012,-54.199,-43.457,-56.152,0.000
1727575401.737,-71.777,-23.438,-40.039,-12.207,0.000
1727575401.741,-38.086,-22.949,-38.574,2.441,0.000
1727575401.745,-28.320,-27.344,-41.016,-26.367,0.000
1727575401.749,-18.555,-15.625,-41.992,-38.086,0.000
1727575401.753,-63.477,-37.109,-46.387,-50.293,0.000
1727575401.757,-65.430,-32.227,-40.039,-20.508,0.000
1727575401.761,-42.480,-15.625,-40.039,-7.812,0.000
1727575401.765,-27.344,-28.320,-48.340,-35.156,0.000
1727575401.768,-3.418,-33.691,0.000,-53.711,0.000
1727575401.772,-60.547,-44.434,0.000,-81.543,0.000
1727575401.776,-81.543,-37.109,0.000,-56.152,0.000
1727575401.780,-33.691,-21.973,0.000,-10.742,0.000
1727575401.784,-11.719,-12.695,0.000,-34.180,0.000
1727575401.788,-6.836,-16.602,0.000,-63.477,0.000
1727575401.792,-43.457,-24.414,0.000,-75.684,0.000
1727575401.796,-66.895,-7.812,0.000,-57.617,0.000
1727575401.800,-37.109,-19.531,0.000,-20.508,0.000
1727575401.804,-20.996,-28.320,0.000,-26.855,0.000
1727575401.808,2.930,-6.348,0.000,-39.062,0.000
1727575401.811,-23.438,-39.551,0.000,-49.316,0.000
1727575401.815,-54.688,-53.223,-47.363,-32.715,0.000
1727575401.819,-29.297,-14.160,-51.270,14.648,0.000
1727575401.823,-10.254,-17.090,-47.852,1.465,0.000
1727575401.827,12.207,-27.344,-45.898,-18.066,0.000
1727575401.831,-21.484,-21.973,-52.246,-45.898,0.000
1727575401.834,-65.918,-17.578,-57.617,-43.945,0.000
1727575401.838,-29.785,-13.672,-61.035,9.277,0.000
1727575401.842,0.488,-16.113,-50.781,-7.324,0.000
1727575401.846,20.508,-12.695,-40.039,-27.832,0.000
1727575401.850,-10.254,-19.043,-37.109,-41.504,0.000
1727575401.854,-69.824,-43.945,-28.809,-49.316,0.000
1727575401.858,-50.781,-41.504,-31.738,-1.953,0.000
1727575401.862,-22.949,-35.156,-33.203,0.977,0.000
1727575401.866,-18.066,-27.344,-37.598,-41.992,0.000
1727575401.870,-38.086,-34.180,-41.016,-78.125,0.000
1727575401.874,-70.312,-47.363,-46.387,-65.430,0.000
1727575401.877,-47.363,-33.203,-39.062,-6.836,0.000
1727575401.881,-25.879,-29.785,-30.762,-9.766,0.000
1727575401.885,-12.695,-28.320,-37.598,-41.992,0.000
1727575401.889,-18.555,-45.898,-51.758,-49.805,0.000
1727575401.893,-64.453,-41.992,-51.758,-54.199,0.000
1727575401.897,-71.777,-12.207,-38.086,-26.855,0.000
1727575401.901,-55.664,-35.645,-37.109,-28.320,0.000
1727575401.905,-26.367,-41.504,-38.574,-58.594,0.000
1727575401.909,-22.461,-35.645,-38.574,-64.453,0.000
1727575401.913,-75.684,-38.086,-44.922,-75.684,0.000
1727575401.916,-65.430,-31.250,-40.039,-43.945,0.000
1727575401.920,-46.875,-21.973,-39.062,-21.973,0.000
1727575401.924,-32.227,-13.184,-45.898,-44.434,0.000
1727575401.928,-4.883,-31.250,-41.504,-37.598,0.000
1727575401.932,-44.434,-44.434,-42.480,-55.176,0.000
1727575401.936,-48.340,-38.574,-42.969,-40.527,0.000
1727575401.940,-19.531,-29.297,-30.762,-17.090,0.000
1727575401.944,8.789,-21.973,-32.227,-26.367,0.000
1727575401.948,6.348,-37.598,-46.387,-26.855,0.000
1727575401.952,-52.734,-50.781,-45.898,-44.434,0.000
1727575401.955,-58.105,-35.645,-31.738,-25.391,0.000
1727575401.959,-31.250,-21.973,-29.785,-0.977,0.000
1727575401.963,-16.113,-22.949,-29.785,-10.254,0.000
1727575401.967,3.418,-20.508,-18.555,-15.625,0.000
1727575401.971,-34.668,-29.785,-21.484,-36.133,0.000
1727575401.975,-49.316,-37.109,-24.902,-30.762,0.000
1727575401.979,-28.320,-19.043,-21.973,-8.789,0.000
1727575401.983,-18.555,-16.113,-16.602,-12.695,0.000
1727575401.987,5.859,-23.438,-20.020,-32.227,0.000
1727575401.991,-24.414,-25.879,-33.691,-64.453,0.000
1727575401.995,-52.734,-30.762,-32.715,-48.340,0.000
1727575401.998,-38.086,-28.320,-33.691,-12.695,0.000
1727575402.002,-34.668,-26.367,-35.156,-32.715,0.000
1727575402.006,-13.672,-29.785,-31.738,-51.758,0.000
1727575402.010,-35.645,-33.203,-37.598,-68.848,0.000
1727575402.014,-68.848,-26.367,-32.715,-55.664,0.000
1727575402.018,-49.316,-21.484,-27.832,1.953,0.000
1727575402.022,-34.668,-25.879,-32.227,-17.578,0.000
1727575402.026,-6.348,-37.109,-36.621,-40.039,0.000
1727575402.030,-35.156,-35.645,-43.457,-59.570,0.000
1727575402.034,-77.148,-27.344,-41.992,-62.988,0.000
1727575402.037,-39.551,-22.461,-37.109,-12.207,0.000
1727575402.041,-37.109,-22.461,-38.086,-24.902,0.000
1727575402.045,-13.672,-31.250,-37.598,-35.645,0.000
1727575402.049,-11.230,-50.293,0.000,-42.969,0.000
1727575402.053,-51.270,-42.969,0.000,-54.688,0.000
1727575402.057,-26.367,-21.484,0.000,-7.324,0.000
1727575402.061,-23.926,-18.066,0.000,-20.508,0.000
1727575402.065,-10.742,-21.484,0.000,-37.109,0.000
1727575402.069,-13.184,-41.992,0.000,-34.180,0.000
1727575402.073,-56.641,-47.363,0.000,-53.711,0.000
1727575402.077,-42.480,-21.484,0.000,-20.020,0.000
1727575402.080,-23.438,-34.180,0.000,-7.324,0.000
1727575402.084,-11.719,-52.246,0.000,-29.297,0.000
1727575402.088,-7.812,-36.133,0.000,-50.293,0.000
1727575402.092,-46.387,-30.273,0.000,-63.477,0.000
1727575402.096,-54.199,-24.902,-37.109,-30.762,0.000
1727575402.100,-45.410,-19.531,-37.598,-17.578,0.000
1727575402.104,-19.043,-29.785,-32.227,-15.625,0.000
1727575402.108,-1.465,-29.297,-37.109,-16.602,0.000
1727575402.112,-64.453,-35.156,-48.340,-55.664,0.000
1727575402.116,-67.871,-39.062,-37.109,-23.438,0.000
1727575402.120,-36.621,-31.250,-31.250,9.277,0.000
1727575402.123,-12.207,-22.949,-35.156,-23.926,0.000
1727575402.127,-3.418,-32.715,-36.621,-36.133,0.000
1727575402.131,-63.965,-44.922,-40.039,-42.480,0.000
1727575402.135,-69.824,-19.531,-38.574,-24.902,0.000
1727575402.139,-27.344,-19.531,-44.434,-5.371,0.000
1727575402.143,-7.324,-35.156,-47.363,-27.344,0.000
1727575402.147,-2.441,-33.203,-43.945,-39.062,0.000
1727575402.151,-44.434,-44.434,-50.781,-59.082,0.000
1727575402.155,-55.176,-42.480,-42.480,-34.668,0.000
1727575402.159,-33.203,-38.086,-32.227,-5.371,0.000
1727575402.163,-30.273,-53.711,-43.457,-20.996,0.000
1727575402.166,8.301,-41.016,-38.574,-28.809,0.000
1727575402.170,-21.973,-40.527,-31.250,-59.082,0.000
1727575402.174,-71.777,-53.711,-39.062,-47.852,0.000
1727575402.178,-61.523,-33.691,-44.922,-19.531,0.000
1727575402.182,-46.387,-27.344,-45.898,-43.457,0.000
1727575402.186,-14.160,-33.691,-50.781,-54.199,0.000
1727575402.190,-43.945,-45.898,-55.176,-75.195,0.000
1727575402.194,-75.195,-48.828,-50.781,-61.035,0.000
1727575402.198,-46.387,-32.227,-43.945,-14.160,0.000
1727575402.202,-32.227,-39.551,-42.969,-13.672,0.000
1727575402.206,-7.324,-45.410,-42.480,-20.020,0.000
1727575402.209,-35.645,-44.922,-47.852,-47.852,0.000
1727575402.213,-79.102,-44.922,-37.598,-44.922,0.000
1727575402.217,-45.410,-32.715,-26.855,9.277,0.000
1727575402.221,-23.438,-29.785,-34.180,1.953,0.000
1727575402.225,2.441,-20.996,-33.691,-16.602,0.000
1727575402.229,8.301,-24.414,-40.527,-34.180,0.000
1727575402.233,-40.527,-48.828,-39.062,-28.320,0.000
1727575402.237,-48.828,-49.805,-26.367,12.695,0.000
1727575402.241,-28.809,-29.785,-24.902,-8.789,0.000
1727575402.245,1.953,-24.902,-29.785,-37.598,0.000
1727575402.249,-11.719,-38.086,-41.504,-44.922,0.000
1727575402.252,-68.359,-44.434,-43.945,-41.016,0.000
1727575402.256,-43.457,-34.668,-37.598,-4.395,0.000
1727575402.260,-13.184,-33.203,-37.109,-9.277,0.000
1727575402.264,2.441,-37.109,-44.922,-28.809,0.000
1727575402.268,-17.090,-38.574,-41.504,-40.527,0.000
1727575402.272,-74.219,-35.156,-36.621,-61.035,0.000
1727575402.276,-58.594,-36.621,-35.156,-23.438,0.000
1727575402.280,-36.621,-36.133,-32.227,-7.812,0.000
1727575402.284,-22.461,-33.203,-34.668,-34.180,0.000
1727575402.288,-11.230,-32.715,-38.086,-45.898,0.000
1727575402.291,-63.477,-43.945,-42.480,-51.758,0.000
1727575402.295,-70.312,-46.387,-43.945,-14.160,0.000
1727575402.299,-35.156,-45.410,-34.668,1.465,0.000
1727575402.303,-15.625,-46.387,-41.016,-29.785,0.000
1727575402.307,8.789,-42.480,-41.992,-34.180,0.000
1727575402.311,-40.039,-46.387,-37.109,-40.039,0.000
1727575402.315,-58.594,-25.879,-21.973,-14.160,0.000
1727575402.319,-17.578,-20.996,-17.090,10.742,0.000
1727575402.323,-3.418,-38.086,-35.156,-14.648,0.000
1727575402.327,-3.906,-41.992,-34.668,-25.879,0.000
1727575402.331,-56.641,-41.992,-34.668,-48.828,0.000
1727575402.334,-77.148,-34.180,-34.180,-28.809,0.000
1727575402.338,-35.645,-21.973,-27.344,12.695,0.000
1727575402.342,-5.859,-7.812,-29.297,-14.648,0.000
1727575402.346,3.418,-14.648,-35.645,-27.832,0.000
1727575402.350,-39.062,-34.668,-41.992,-42.480,0.000
1727575402.354,-36.133,-36.621,-40.527,-29.297,0.000
1727575402.358,-11.719,-16.602,-29.297,10.254,0.000
1727575402.362,-18.555,-0.977,-28.320,-10.742,0.000
1727575402.366,-1.465,-15.625,-37.109,-26.855,0.000
1727575402.370,-28.320,-40.039,-36.133,-45.410,0.000
1727575402.373,-66.895,-36.133,-32.227,-44.434,0.000
1727575402.377,-46.875,-25.391,-29.297,-15.625,0.000
1727575402.381,-24.902,-35.156,-31.250,-22.461,0.000
1727575402.385,1.953,-22.461,-32.715,-28.320,0.000
1727575402.389,-26.367,-16.602,-35.156,-39.551,0.000
1727575402.393,-61.035,-23.926,-30.762,-25.879,0.000
1727575402.397,-22.461,-21.973,-26.367,18.066,0.000
1727575402.401,-5.859,-19.531,-27.344,15.625,0.000
1727575402.405,2.930,-9.277,-22.949,-4.395,0.000
1727575402.409,-20.996,-28.320,-28.809,-36.621,0.000
1727575402.412,-59.570,-39.062,-34.180,-41.016,0.000
1727575402.416,-41.016,-21.973,-25.879,1.953,0.000
1727575402.420,-36.133,-24.902,-29.297,-7.324,0.000
1727575402.424,-7.812,-34.668,-30.762,-40.039,0.000
1727575402.428,-19.043,-31.738,-41.016,-62.988,0.000
1727575402.432,-71.777,-32.227,-52.734,-56.641,0.000
1727575402.436,-48.828,-29.785,-39.062,-2.441,0.000
1727575402.440,-27.832,-20.508,-41.016,-15.137,0.000
1727575402.444,-8.301,-36.133,-45.410,-48.828,0.000
1727575402.448,-3.906,-39.062,-39.062,-51.270,0.000
1727575402.451,-47.363,-42.969,-41.016,-71.777,0.000
1727575402.455,-41.992,-50.781,-29.297,-25.391,0.000
1727575402.459,-17.578,-59.570,-20.996,2.441,0.000
1727575402.463,-8.301,-44.434,-32.227,-32.715,0.000
1727575402.467,-16.602,-35.156,-36.133,-48.828,0.000
1727575402.471,-62.500,-52.246,-38.086,-57.129,0.000
1727575402.475,-66.895,-40.039,-35.156,-21.973,0.000
1727575402.479,-31.738,-29.297,-32.715,-6.348,0.000
1727575402.483,-0.488,-27.344,-32.715,-14.160,0.000
1727575402.487,16.113,-24.902,-29.785,-13.672,0.000
1727575402.491,-35.645,-40.527,-37.109,-41.016,0.000
1727575402.494,-57.617,-29.297,-34.668,-23.926,0.000
1727575402.498,-40.039,-19.043,-30.273,-1.465,0.000
1727575402.502,-20.508,-36.621,-32.715,-12.695,0.000
1727575402.506,10.742,-46.875,-39.062,-29.297,0.000
1727575402.510,-30.273,-42.480,-38.574,-57.617,0.000
1727575402.514,-52.734,-14.160,-29.297,-30.762,0.000
1727575402.518,-33.203,-19.043,-22.949,2.441,0.000
1727575402.522,-16.113,-39.551,-28.320,-20.996,0.000
1727575402.526,8.301,-29.297,-32.715,-29.297,0.000
1727575402.530,-14.648,-37.598,-33.203,-33.691,0.000
1727575402.534,-36.133,-36.133,-31.250,-20.020,0.000
1727575402.537,-17.090,-29.785,-32.227,0.000,0.000
1727575402.541,-5.859,-32.227,-28.320,-15.625,0.000
1727575402.545,11.230,-30.762,-31.250,-25.391,0.000
1727575402.549,-35.156,-44.434,-44.922,-46.387,0.000
1727575402.553,-71.289,-44.434,-41.016,-46.875,0.000
1727575402.557,-38.574,-27.832,-31.250,-12.207,0.000
1727575402.561,-21.973,-33.203,-27.344,-20.996,0.000
1727575402.565,0.977,-37.109,-25.391,-31.250,0.000
1727575402.569,-20.996,-32.227,-33.203,-45.410,0.000
1727575402.573,-62.500,-32.715,-29.785,-39.062,0.000
1727575402.577,-47.363,-35.156,-27.344,15.137,0.000
1727575402.580,-21.973,-31.250,-34.180,5.859,0.000
1727575402.584,5.859,-24.902,-30.273,-23.438,0.000
1727575402.588,-21.484,-34.668,-33.691,-49.805,0.000
1727575402.592,-62.988,-47.363,-41.016,-54.688,0.000
1727575402.596,-37.109,-39.062,-41.016,-8.789,0.000
1727575402.600,-26.367,-24.902,-38.574,-10.254,0.000
1727575402.604,-10.254,-23.926,-35.645,-28.809,0.000
1727575402.608,-26.367,-37.109,-42.969,-49.316,0.000
1727575402.612,-74.707,-43.945,-43.457,-44.434,0.000
1727575402.616,-51.270,-17.578,-34.668,8.301,0.000
1727575402.620,-22.461,-14.648,-41.504,2.930,0.000
1727575402.623,11.719,-30.762,-38.574,-19.043,0.000
1727575402.627,14.648,-28.320,-34.668,-21.484,0.000
1727575402.631,-46.875,-35.645,-39.062,-33.691,0.000
1727575402.635,-50.781,-31.250,-29.785,-4.395,0.000
1727575402.639,-23.438,-36.621,-32.715,1.953,0.000
1727575402.643,-6.836,-33.691,-34.180,-22.949,0.000
1727575402.647,-4.883,-18.555,-34.180,-35.156,0.000
1727575402.651,-53.711,-28.809,-43.945,-42.480,0.000
1727575402.655,-54.199,-29.785,-36.133,-8.789,0.000
1727575402.659,-30.273,-39.551,-29.297,1.465,0.000
1727575402.662,-13.184,-35.156,-31.738,-20.996,0.000
1727575402.666,5.371,-27.832,-43.457,-32.227,0.000
1727575402.670,-44.434,-40.527,-48.828,-45.410,0.000
1727575402.674,-77.637,-34.668,-45.898,-22.461,0.000
1727575402.678,-41.016,-30.273,-45.898,-6.836,0.000
1727575402.682,2.930,-29.297,-43.457,-32.227,0.000
1727575402.686,3.906,-30.273,-43.457,-44.434,0.000
1727575402.690,-49.805,-38.086,-43.945,-74.219,0.000
1727575402.694,-62.988,-28.809,-40.527,-57.129,0.000
1727575402.698,-36.133,-19.531,-38.086,-18.555,0.000
1727575402.702,-16.602,-28.809,-37.598,-40.039,0.000
1727575402.705,5.371,-34.668,-41.016,-53.223,0.000
1727575402.709,-51.758,-42.480,-51.270,-76.172,0.000
1727575402.713,-79.590,-45.410,-42.969,-56.152,0.000
1727575402.717,-42.480,-30.273,-33.203,3.906,0.000
1727575402.721,-20.996,-16.602,-29.297,1.953,0.000
1727575402.725,-0.488,-22.949,-27.344,-26.855,0.000
1727575402.729,-34.668,-51.758,-46.387,-47.852,0.000
1727575402.733,-63.477,-42.969,-47.852,-40.527,0.000
1727575402.737,-41.504,-13.184,-31.738,-14.160,0.000
1727575402.741,-28.320,-26.367,-36.133,-20.996,0.000
1727575402.744,-4.883,-25.879,-40.527,-36.621,0.000
1727575402.748,-30.762,-35.156,-35.645,-53.223,0.000
1727575402.752,-62.500,-32.715,-28.320,-38.574,0.000
1727575402.756,-31.738,-20.996,-24.414,4.883,0.000
1727575402.760,-15.625,-19.043,-28.809,1.465,0.000
1727575402.764,0.977,-15.137,-29.297,-13.672,0.000
1727575402.768,-5.859,-20.020,-30.273,-21.484,0.000
1727575402.772,-39.551,-18.066,-28.320,-21.484,0.000
1727575402.776,-33.691,-13.672,-22.949,7.324,0.000
1727575402.780,-14.648,-7.324,-20.996,0.000,0.000
1727575402.783,19.043,-6.348,-18.555,-18.066,0.000
1727575402.787,-2.930,-25.879,-31.738,-37.598,0.000
1727575402.791,-49.316,-35.645,-40.039,-48.340,0.000
1727575402.795,-31.738,-21.973,-32.715,-2.441,0.000
1727575402.799,-26.855,-19.531,-33.203,0.000,0.000
1727575402.803,-5.859,-20.020,-36.621,-17.578,0.000
1727575402.807,-7.812,-24.414,-39.062,-36.621,0.000
1727575402.811,-57.617,-26.855,-36.621,-51.758,0.000
1727575402.815,-43.945,-14.648,-33.691,-13.672,0.000
1727575402.819,-28.809,-28.320,-41.016,-17.578,0.000
1727575402.822,-21.973,-24.414,-42.480,-42.480,0.000
1727575402.826,-19.531,-26.855,-38.574,-47.363,0.000
1727575402.830,-71.777,-41.504,-40.039,-57.129,0.000
1727575402.834,-68.848,-26.855,-33.691,-20.508,0.000
1727575402.838,-45.898,-9.277,-30.273,-14.160,0.000
1727575402.842,-26.855,-14.648,-32.227,-49.805,0.000
1727575402.846,-13.184,-34.180,-35.645,-54.688,0.000
1727575402.850,-65.430,-40.039,-40.527,-62.012,0.000
1727575402.854,-72.266,-20.020,-32.227,-37.598,0.000
1727575402.858,-37.598,-17.090,-30.273,-11.230,0.000
1727575402.862,-8.789,-29.785,-36.621,-17.578,0.000
1727575402.865,7.812,-34.180,-39.551,-25.879,0.000
1727575402.869,-39.551,-28.320,-43.457,-55.176,0.000
1727575402.873,-53.711,-19.043,-37.598,-38.574,0.000
1727575402.877,-44.434,-33.203,-33.203,-12.207,0.000
1727575402.881,-24.902,-25.879,-30.273,-27.344,0.000
1727575402.885,15.137,-1.953,-26.367,-26.367,0.000
1727575402.889,-27.832,-9.766,-32.227,-41.504,0.000
1727575402.893,-48.828,-13.672,-33.203,-22.461,0.000
1727575402.897,-9.766,-11.230,-27.832,10.742,0.000
1727575402.901,-4.883,-11.230,-20.508,-6.836,0.000
1727575402.905,25.391,-14.160,-17.578,-17.578,0.000
1727575402.908,0.000,-29.297,-24.902,-36.133,0.000
1727575402.912,-37.598,-19.531,-18.555,-20.996,0.000
1727575402.916,-19.043,-2.441,-6.348,12.207,0.000
1727575402.920,5.859,-9.766,-9.766,-0.488,0.000
1727575402.924,37.598,-24.414,-18.066,1.953,0.000
1727575402.928,-3.418,-27.344,-23.438,-18.066,0.000
1727575402.932,-43.945,-2.441,-15.625,-14.160,0.000
1727575402.936,-25.879,-2.930,-11.230,27.832,0.000
1727575402.940,-10.254,-21.973,-11.719,5.859,0.000
1727575402.944,13.672,-20.508,-15.137,-15.625,0.000
1727575402.948,-16.602,-24.414,-33.691,-36.133,0.000
1727575402.951,-66.406,-31.250,-38.574,-46.875,0.000
1727575402.955,-34.180,-18.066,-28.809,-5.371,0.000
1727575402.959,-26.367,-23.926,-28.320,-11.230,0.000
1727575402.963,-29.785,-34.180,-26.855,-41.504,0.000
1727575402.967,-35.156,-41.016,-27.832,-55.176,0.000
1727575402.971,-69.336,-42.969,-35.156,-48.828,0.000
1727575402.975,-58.594,-15.137,-33.691,-6.836,0.000
1727575402.979,-35.156,-13.184,-36.133,-12.695,0.000
1727575402.983,-17.578,-29.297,-38.574,-33.203,0.000
1727575402.987,-31.250,-37.598,-37.109,-50.293,0.000
1727575402.991,-74.219,-41.992,-45.898,-74.219,0.000
1727575402.995,-51.758,-39.062,-42.969,-35.156,0.000
1727575402.998,-30.273,-41.016,-40.039,-15.137,0.000
1727575403.002,-24.414,-36.621,-41.992,-33.691,0.000
1727575403.006,-21.484,-43.457,-41.016,-45.898,0.000
1727575403.010,-72.754,-46.387,-45.898,-56.641,0.000
1727575403.014,-66.895,-36.133,-43.457,-19.531,0.000
1727575403.018,-39.062,-26.855,-37.109,-4.395,0.000
1727575403.022,-22.461,-24.902,-32.227,-32.715,0.000
1727575403.026,-6.348,-37.598,-31.738,-41.016,0.000
1727575403.030,-61.035,-47.363,-34.668,-61.523,0.000
1727575403.034,-64.941,-30.762,-30.762,-19.043,0.000
1727575403.038,-25.879,-19.043,-32.715,8.301,0.000
1727575403.041,1.953,-23.926,-36.133,-14.648,0.000
1727575403.045,14.648,-22.461,-35.156,-24.902,0.000
1727575403.049,-41.504,-27.832,-36.621,-46.875,0.000
1727575403.053,-48.828,-25.879,-30.762,-11.230,0.000
1727575403.057,-22.461,-20.508,-20.996,23.926,0.000
1727575403.061,-2.441,-18.555,-19.531,4.395,0.000
1727575403.065,24.902,-10.742,-20.508,-11.230,0.000
1727575403.069,-18.066,-13.672,-23.438,-32.715,0.000
1727575403.073,-34.668,-20.996,-23.926,-8.789,0.000
1727575403.077,-1.953,-19.043,-28.809,19.531,0.000
1727575403.080,2.930,-13.672,-28.809,-7.812,0.000
1727575403.084,12.695,-18.555,-27.344,-18.066,0.000
1727575403.088,-20.020,-23.926,-39.062,-40.527,0.000
1727575403.092,-58.594,-22.949,-32.715,-36.133,0.000
1727575403.096,-42.969,-18.066,-28.320,-6.348,0.000
1727575403.100,-27.344,-35.645,-41.016,-19.043,0.000
1727575403.104,-15.137,-55.176,-46.875,-31.738,0.000
1727575403.108,-43.457,-43.945,-47.363,-57.129,0.000
1727575403.112,-79.590,-21.973,-43.945,-59.082,0.000
1727575403.116,-57.617,-25.391,-40.527,-22.949,0.000
1727575403.119,-29.785,-32.715,-41.992,-36.621,0.000
1727575403.123,-1.465,-30.273,-46.387,-51.270,0.000
1727575403.127,-33.691,-35.645,-46.387,-62.012,0.000
1727575403.131,-78.613,-44.434,-43.457,-55.664,0.000
1727575403.135,-50.293,-35.645,-36.621,-3.906,0.000
1727575403.139,-28.320,-31.738,-33.203,-14.648,0.000
1727575403.143,-0.977,-33.691,-35.645,-39.062,0.000
1727575403.147,-14.648,-42.969,-41.016,-43.945,0.000
1727575403.151,-67.383,-49.316,-49.316,-44.922,0.000
1727575403.155,-58.594,-29.297,-41.992,-4.395,0.000
1727575403.159,-33.691,-32.227,-37.109,-14.160,0.000
1727575403.162,-3.906,-39.551,-40.039,-45.410,0.000
1727575403.166,-19.043,-48.828,-34.668,-58.105,0.000
1727575403.170,-72.266,-52.734,-30.762,-52.734,0.000
1727575403.174,0.000,-34.668,-27.344,2.441,0.000
1727575403.178,0.000,-36.621,-27.832,3.906,0.000
1727575403.182,0.000,-43.457,-31.738,-17.090,0.000
1727575403.186,0.000,-34.180,-31.250,-19.531,0.000
1727575403.190,0.000,-36.133,-36.133,-38.086,0.000
1727575403.194,0.000,-40.039,-31.250,4.395,0.000
1727575403.198,0.000,-36.621,-26.855,14.648,0.000
1727575403.202,0.000,-20.020,-24.414,-14.160,0.000
1727575403.205,0.000,-16.602,-23.438,-14.160,0.000
1727575403.209,0.000,-40.039,-29.297,-34.668,0.000
1727575403.213,0.000,-28.809,-22.949,-10.742,0.000
1727575403.217,0.000,-25.391,-18.066,10.742,0.000
1727575403.221,10.254,-35.645,-26.367,-1.465,0.000
1727575403.225,5.371,-29.785,-35.156,-10.742,0.000
1727575403.229,-44.434,-43.945,-37.598,-36.133,0.000
1727575403.233,-60.547,-36.133,-35.645,-19.531,0.000
1727575403.237,-36.133,-21.484,-31.738,11.719,0.000
1727575403.241,-15.625,-39.062,-35.156,-5.371,0.000
1727575403.245,-1.465,-48.340,-37.598,-28.320,0.000
1727575403.248,-45.898,-51.270,-40.039,-60.547,0.000
1727575403.252,-59.082,-56.641,-40.039,-33.203,0.000
1727575403.256,-36.133,-51.758,-34.180,7.812,0.000
1727575403.260,-22.949,-27.832,-27.344,-19.043,0.000
1727575403.264,7.812,-14.160,-29.785,-31.250,0.000
1727575403.268,-34.668,-36.133,-39.551,-51.270,0.000
1727575403.272,-59.082,-41.504,-38.086,-46.387,0.000
1727575403.276,-42.480,-28.320,-33.203,-16.113,0.000
1727575403.280,-38.574,-38.086,-38.574,-20.020,0.000
1727575403.284,-8.301,-48.828,-41.992,-36.621,0.000
1727575403.288,-27.344,-61.523,-43.945,-60.547,0.000
1727575403.291,-60.059,-43.945,-41.016,-41.016,0.000
1727575403.295,-27.344,-19.043,-41.016,-12.695,0.000
1727575403.299,-14.160,-43.457,-46.875,-21.484,0.000
1727575403.303,-9.277,-44.434,-38.574,-17.090,0.000
1727575403.307,-34.180,-37.598,-31.250,-46.387,0.000
1727575403.311,-73.730,-43.945,-33.691,-55.176,0.000
1727575403.315,-43.457,-26.367,-32.227,-10.742,0.000
1727575403.319,-25.391,-19.043,-32.227,-27.832,0.000
1727575403.323,-7.812,-22.949,-33.203,-49.316,0.000
1727575403.327,-21.973,-36.621,-35.645,-47.363,0.000
1727575403.331,-62.988,-41.016,-40.039,-41.016,0.000
1727575403.334,-31.738,-18.555,-35.156,-0.977,0.000
1727575403.338,-4.883,-10.254,-26.855,1.953,0.000
1727575403.342,19.043,-19.531,-32.227,-12.695,0.000
1727575403.346,0.000,-22.949,-40.527,-35.156,0.000
1727575403.350,-58.594,-24.414,-33.691,-44.922,0.000
1727575403.354,-29.785,-24.902,-21.484,0.000,0.000
1727575403.358,-8.301,-20.508,-24.414,3.418,0.000
1727575403.362,1.465,-25.879,-26.855,-8.301,0.000
1727575403.366,4.883,-20.996,-22.461,-17.090,0.000
1727575403.370,-52.246,-24.902,-30.762,-23.926,0.000
1727575403.374,-53.223,-22.949,-31.250,8.301,0.000
1727575403.377,-16.602,-10.742,-27.832,6.836,0.000
1727575403.381,3.906,-11.719,-31.250,-9.766,0.000
1727575403.385,6.348,-21.484,-30.273,-33.203,0.000
1727575403.389,-42.969,-49.316,-36.133,-54.688,0.000
1727575403.393,-50.293,-39.551,-35.645,-17.090,0.000
1727575403.397,-25.879,-20.996,-28.320,-7.812,0.000
1727575403.401,-11.230,-29.785,-27.344,-35.156,0.000
1727575403.405,-14.648,-25.391,-28.320,-42.969,0.000
1727575403.409,-62.012,-40.527,-37.598,-58.105,0.000
1727575403.413,-70.801,-35.645,-41.016,-48.828,0.000
1727575403.416,-43.945,-25.879,-35.645,-16.602,0.000
1727575403.420,-24.902,-27.344,-35.156,-20.508,0.000
1727575403.424,-11.230,-26.855,-44.434,-39.551,0.000
1727575403.428,-49.805,-45.898,-50.293,-52.734,0.000
1727575403.432,-48.828,-44.922,-44.922,-32.715,0.000
1727575403.436,-24.414,-35.645,-41.504,-14.160,0.000
1727575403.440,-28.809,-27.344,-44.922,-37.598,0.000
1727575403.444,0.977,-22.461,-44.922,-50.293,0.000
1727575403.448,-41.504,-45.898,-45.410,-65.430,0.000
1727575403.452,-79.102,-38.574,-47.852,-42.969,0.000
1727575403.456,-50.293,-25.391,-51.270,-6.348,0.000
1727575403.459,-32.227,-20.508,-46.387,-22.949,0.000
1727575403.463,-5.371,-10.742,-46.387,-26.855,0.000
1727575403.467,-28.809,-24.902,-56.641,-54.199,0.000
1727575403.471,-52.734,-21.973,-49.316,-49.316,0.000
1727575403.475,-41.016,-6.836,-34.180,0.000,0.000
1727575403.479,-15.137,-21.484,-39.062,-0.488,0.000
1727575403.483,16.602,-30.273,-50.293,-12.695,0.000
1727575403.487,-28.320,-23.926,-48.828,-41.016,0.000
1727575403.491,-52.734,-23.926,-40.527,-38.086,0.000
1727575403.495,-12.695,-16.113,-30.273,10.254,0.000
1727575403.498,-9.277,-16.113,-35.645,1.953,0.000
1727575403.502,9.766,-15.137,-43.945,-13.184,0.000
1727575403.506,-9.277,-27.344,-49.316,-29.297,0.000
1727575403.510,-55.176,-34.668,-41.992,-30.273,0.000
1727575403.514,-26.367,-12.695,-29.785,20.508,0.000
1727575403.518,-14.648,-7.324,-32.715,19.043,0.000
1727575403.522,14.160,-29.297,-41.016,-18.555,0.000
1727575403.526,12.695,-44.922,-45.410,-34.668,0.000
1727575403.530,-54.199,-37.109,-40.039,-42.480,0.000
1727575403.534,-48.828,-25.391,-33.203,-12.207,0.000
1727575403.537,-31.250,-28.809,-39.551,-4.883,0.000
1727575403.541,-13.184,-26.855,-40.527,-26.367,0.000
1727575403.545,-8.301,-27.344,-43.945,-48.340,0.000
1727575403.549,-61.035,-42.480,-51.270,-58.594,0.000
1727575403.553,-62.012,-40.039,-43.457,-21.973,0.000
1727575403.557,-39.062,-30.273,-42.969,-16.113,0.000
1727575403.561,-7.812,-26.855,-43.945,-26.855,0.000
1727575403.565,9.277,-31.738,-41.992,-40.039,0.000
1727575403.569,-54.688,-53.711,-52.734,-64.941,0.000
1727575403.573,-62.500,-32.715,-48.340,-31.738,0.000
1727575403.576,-39.062,-13.672,-40.039,-26.367,0.000
1727575403.580,-10.742,-29.785,-43.457,-42.480,0.000
1727575403.584,2.441,-35.645,-47.852,-44.434,0.000
1727575403.588,-48.828,-42.480,-48.828,-69.824,0.000
1727575403.592,-54.199,-36.133,-35.156,-34.668,0.000
1727575403.596,-26.855,-28.320,-27.832,3.906,0.000
1727575403.600,1.465,-22.461,-32.715,-11.719,0.000
1727575403.604,14.160,-20.508,-35.645,-18.555,0.000
1727575403.608,-33.691,-30.762,-35.645,-33.691,0.000
1727575403.612,-57.617,-22.949,-33.203,-18.555,0.000
1727575403.616,-20.996,-23.438,-27.832,5.859,0.000
1727575403.619,7.324,-20.020,-24.902,-16.602,0.000
1727575403.623,16.602,-13.672,-38.086,-26.855,0.000
1727575403.627,-20.508,-45.410,-48.340,-32.227,0.000
1727575403.631,-41.016,-53.223,-41.992,-22.949,0.000
1727575403.635,-24.414,-22.949,-30.273,4.395,0.000
1727575403.639,-16.113,-23.438,-31.250,-1.953,0.000
1727575403.643,14.160,-29.785,-36.621,-18.066,0.000
1727575403.647,-20.996,-27.832,-40.039,-50.293,0.000
1727575403.651,-54.199,-24.414,-36.621,-41.992,0.000
1727575403.655,-16.602,-10.254,-33.203,14.160,0.000
1727575403.659,-12.207,-20.020,-40.039,-4.395,0.000
1727575403.662,2.930,-43.457,-40.527,-21.484,0.000
1727575403.666,-31.738,-48.340,-39.551,-47.363,0.000
1727575403.670,-80.078,-33.691,-35.645,-56.641,0.000
1727575403.674,-35.156,-32.715,-36.133,-9.277,0.000
1727575403.678,-20.020,-27.832,-36.621,-23.926,0.000
1727575403.682,-4.395,-8.301,-31.738,-47.852,0.000
1727575403.686,-20.996,-33.203,-39.062,-60.547,0.000
1727575403.690,-74.707,-55.176,-42.480,-59.570,0.000
1727575403.694,-41.016,-28.809,-30.273,-5.859,0.000
1727575403.698,-20.020,-19.531,-28.320,-9.766,0.000
1727575403.702,0.000,-37.598,-33.691,-35.645,0.000
1727575403.705,-12.695,-45.898,-43.945,-42.480,0.000
1727575403.709,-58.594,-34.180,-48.340,-48.340,0.000
1727575403.713,-45.898,-23.438,-40.039,-10.254,0.000
1727575403.717,-26.855,-33.691,-44.922,-5.371,0.000
1727575403.721,-2.441,-33.203,-43.945,-25.391,0.000
1727575403.725,-17.578,-22.461,-36.621,-46.875,0.000
1727575403.729,-73.242,-32.715,-38.086,-61.523,0.000
1727575403.733,-55.176,-25.879,-27.832,-22.461,0.000
1727575403.737,-27.344,-29.785,-26.855,-8.301,0.000
1727575403.741,-0.488,-30.273,-29.785,-16.113,0.000
1727575403.745,5.859,-29.297,-30.762,-27.344,0.000
1727575403.748,-50.293,-43.457,-32.227,-52.734,0.000
1727575403.752,-45.898,-33.691,-25.879,-21.484,0.000
1727575403.756,-13.672,-39.062,-26.855,-7.812,0.000
1727575403.760,-0.488,-41.992,-32.715,-25.879,0.000
1727575403.764,9.766,-46.875,-38.086,-20.508,0.000
1727575403.768,-36.133,-43.945,-35.645,-44.922,0.000
1727575403.772,-46.387,-13.184,-25.391,-26.367,0.000
1727575403.776,-24.902,-7.812,-23.438,2.441,0.000
1727575403.780,-6.836,-18.555,-20.508,-5.371,0.000
1727575403.784,6.348,-34.180,-24.414,-16.602,0.000
1727575403.787,-47.852,-41.504,-27.832,-50.781,0.000
1727575403.791,-53.223,-26.855,-20.020,-32.227,0.000
1727575403.795,-23.438,-24.414,-26.367,-2.441,0.000
1727575403.799,-25.879,-19.531,-36.133,-27.832,0.000
1727575403.803,-4.395,-23.438,-40.527,-41.992,0.000
1727575403.807,-31.250,-54.688,-46.875,-49.316,0.000
1727575403.811,-58.594,-49.805,-41.992,-32.227,0.000
1727575403.815,-26.367,-23.438,-37.598,-9.766,0.000
1727575403.819,-8.789,-18.555,-41.992,-29.785,0.000
1727575403.823,-2.930,-26.367,-43.457,-38.086,0.000
1727575403.827,-47.852,-41.992,-51.270,-60.547,0.000
1727575403.830,-74.707,-40.527,-43.945,-51.758,0.000
1727575403.834,-47.852,-38.086,-33.203,-6.348,0.000
1727575403.838,-33.203,-40.039,-39.062,-19.043,0.000
1727575403.842,-7.812,-33.691,-36.621,-38.086,0.000
1727575403.846,-25.391,-33.203,-34.180,-59.570,0.000
1727575403.850,-65.918,-31.738,-40.039,-56.152,0.000
1727575403.854,-49.316,-37.109,-42.480,-2.930,0.000
1727575403.858,-30.762,-34.668,-42.480,-8.301,0.000
1727575403.862,-3.418,-20.996,-39.062,-28.320,0.000
1727575403.866,-8.789,-34.180,-36.133,-38.086,0.000
1727575403.869,-58.105,-47.363,-36.621,-45.898,0.000
1727575403.873,-47.852,-31.738,-29.785,-13.184,0.000
1727575403.877,0.000,-20.020,-31.250,-10.254,0.000
1727575403.881,0.000,-28.320,-38.574,-17.090,0.000
1727575403.885,0.000,-36.133,-40.039,-40.039,0.000
1727575403.889,0.000,-32.227,-40.039,-52.734,0.000
1727575403.893,0.000,-23.438,-37.598,-9.277,0.000
1727575403.897,0.000,-34.668,-35.156,-7.812,0.000
1727575403.901,0.000,-33.691,-30.273,-18.555,0.000
1727575403.905,0.000,-15.625,-32.227,-25.879,0.000
1727575403.908,0.000,-24.414,-36.133,-42.480,0.000
1727575403.912,0.000,-25.879,-29.785,6.348,0.000
1727575403.916,0.000,-13.672,-27.832,19.043,0.000
1727575403.920,0.000,-10.742,-30.762,-24.414,0.000
1727575403.924,3.906,-36.621,-43.457,-47.852,0.000
1727575403.928,-49.316,-55.176,-46.875,-59.082,0.000
1727575403.932,-59.570,-33.203,-25.391,-15.625,0.000
1727575403.936,-37.598,-21.973,-21.973,0.488,0.000
1727575403.940,-26.367,-35.645,-31.738,-31.738,0.000
1727575403.944,-10.254,-49.316,-38.574,-43.945,0.000
1727575403.947,-45.898,-58.105,-42.969,-51.270,0.000
1727575403.951,-52.734,-44.922,-27.344,-22.949,0.000
1727575403.955,-28.809,-28.809,-23.926,-0.977,0.000
1727575403.959,-2.441,-34.668,-38.086,-8.789,0.000
1727575403.963,6.836,-36.621,-42.480,-29.785,0.000
1727575403.967,-51.270,-43.457,-49.805,-73.242,0.000
1727575403.971,-58.105,-30.762,-47.363,-41.016,0.000
1727575403.975,-35.156,-17.090,-41.504,-6.348,0.000
1727575403.979,-31.250,-24.902,-41.504,-32.227,0.000
1727575403.983,-5.859,-27.344,-39.551,-39.062,0.000
1727575403.987,-33.691,-36.133,-42.480,-47.852,0.000
1727575403.990,-53.223,-46.387,-38.086,-25.879,0.000
1727575403.994,-33.203,-34.180,-35.156,0.000,0.000
1727575403.998,-24.414,-30.273,-36.621,-12.695,0.000
1727575404.002,-2.930,-48.828,-36.133,-17.578,0.000
1727575404.006,-32.227,-49.316,-33.691,-35.645,0.000
1727575404.010,-59.570,-22.949,-30.273,-33.203,0.000
1727575404.014,-35.645,-31.250,-29.785,1.953,0.000
1727575404.018,-26.367,-44.922,-38.574,-12.695,0.000
1727575404.022,-7.812,-34.180,-46.875,-36.133,0.000
1727575404.026,-35.645,-30.273,-43.457,-54.688,0.000
1727575404.030,-60.547,-24.414,-39.062,-42.480,0.000
1727575404.034,-26.367,-23.926,-37.109,1.465,0.000
1727575404.037,-10.742,-24.902,-38.574,-12.695,0.000
1727575404.041,9.277,-13.184,-36.621,-29.297,0.000
1727575404.045,-24.902,-30.762,-40.039,-41.504,0.000
1727575404.049,-53.711,-50.293,-41.992,-44.922,0.000
1727575404.053,-19.043,-24.902,-31.738,-16.602,0.000
1727575404.057,-19.531,-20.508,-24.414,-14.160,0.000
1727575404.061,-6.348,-41.504,-32.715,-28.809,0.000
1727575404.065,0.000,-39.062,-40.527,-54.688,0.000
1727575404.069,0.000,-39.062,-36.621,-60.059,0.000
1727575404.073,0.000,-33.203,-26.367,-20.020,0.000
1727575404.076,0.000,-29.297,-28.320,-21.973,0.000
1727575404.080,0.000,-30.762,-35.156,-39.062,0.000
1727575404.084,0.000,-41.016,-40.039,-58.594,0.000
1727575404.088,0.000,-48.828,-46.875,-76.172,0.000
1727575404.092,0.000,-50.293,-42.480,-33.203,0.000
1727575404.096,0.000,-61.035,-41.992,-11.719,0.000
1727575404.100,0.000,-44.434,-42.969,-35.645,0.000
1727575404.104,0.000,-42.969,-42.480,-55.176,0.000
1727575404.108,0.000,-59.082,-41.992,-71.777,0.000
1727575404.112,-53.223,-35.156,-29.785,-18.555,0.000
1727575404.116,-31.738,-17.090,-29.297,3.906,0.000
1727575404.119,-3.906,-24.414,-38.086,-29.785,0.000
1727575404.123,5.371,-18.066,-39.062,-36.133,0.000
1727575404.127,-59.570,-30.762,-44.434,-45.410,0.000
1727575404.131,-62.012,-42.969,-40.039,-22.461,0.000
1727575404.135,-32.227,-28.809,-32.715,-8.301,0.000
1727575404.139,-12.207,-27.832,-39.062,-17.578,0.000
1727575404.143,-2.930,-38.574,-47.363,-26.855,0.000
1727575404.147,-53.711,-35.156,-47.363,-59.082,0.000
1727575404.151,-53.711,-18.555,-41.016,-27.344,0.000
1727575404.155,-30.762,-12.695,-39.062,7.812,0.000
1727575404.158,-19.531,-20.020,-37.109,-13.672,0.000
1727575404.162,10.742,-29.785,-36.133,-36.133,0.000
1727575404.166,-34.180,-44.922,-37.598,-65.430,0.000
1727575404.170,-57.129,-41.016,-29.785,-31.250,0.000
1727575404.174,-21.484,-27.832,-30.273,13.672,0.000
1727575404.178,-18.555,-32.227,-37.598,-14.648,0.000
1727575404.182,-4.395,-40.039,-42.969,-28.809,0.000
1727575404.186,-41.016,-43.945,-50.293,-48.828,0.000
1727575404.190,-76.172,-23.926,-36.133,-35.645,0.000
1727575404.194,-41.504,-3.418,-24.902,8.301,0.000
1727575404.198,-11.230,-11.230,-32.227,-16.113,0.000
1727575404.201,10.742,-24.414,-31.738,-31.250,0.000
1727575404.205,-18.555,-37.109,-38.086,-44.434,0.000
1727575404.209,-53.711,-35.645,-42.969,-37.109,0.000
1727575404.213,-41.016,-26.855,-38.086,7.324,0.000
1727575404.217,-25.391,-25.879,-40.527,-14.160,0.000
1727575404.221,9.277,-25.879,-39.062,-36.133,0.000
1727575404.225,-23.438,-40.039,-42.969,-52.246,0.000
1727575404.229,-60.547,-45.898,-49.316,-45.410,0.000
1727575404.233,-41.504,-38.574,-37.598,1.953,0.000
1727575404.237,-34.180,-27.344,-35.156,-12.207,0.000
1727575404.240,6.836,-32.715,-40.039,-29.297,0.000
1727575404.244,-4.883,-36.621,-44.922,-45.898,0.000
1727575404.248,-67.871,-26.855,-42.969,-47.363,0.000
1727575404.252,-55.664,-13.184,-30.273,-2.441,0.000
1727575404.256,-33.691,-21.484,-31.738,-8.789,0.000
1727575404.260,-9.766,-34.180,-32.715,-21.484,0.000
1727575404.264,-2.930,-31.250,-33.203,-18.066,0.000
1727575404.268,-43.945,-37.598,-38.574,-38.574,0.000
1727575404.272,-31.738,-38.574,-33.691,-8.789,0.000
1727575404.276,-5.859,-33.691,-24.414,13.184,0.000
1727575404.279,8.301,-17.578,-22.949,-14.160,0.000
1727575404.283,2.930,-12.207,-32.227,-40.039,0.000
1727575404.287,-42.480,-20.508,-41.016,-57.129,0.000
1727575404.291,-34.180,-18.066,-33.691,-22.949,0.000
1727575404.295,-20.020,-17.090,-28.809,-3.418,0.000
1727575404.299,-8.301,-16.602,-32.227,-15.137,0.000
1727575404.303,2.441,-22.461,-37.598,-8.789,0.000
1727575404.307,-45.898,-21.484,-34.180,-25.879,0.000
1727575404.311,-51.758,2.930,-26.367,-19.043,0.000
1727575404.315,-24.902,-2.441,-27.832,-10.254,0.000
1727575404.318,1.465,-20.020,-34.668,-22.949,0.000
1727575404.322,12.207,-13.184,-40.039,-34.668,0.000
1727575404.326,-43.457,-20.508,-41.504,-60.547,0.000
1727575404.330,-58.594,-22.461,-35.645,-27.832,0.000
1727575404.334,-23.438,-15.137,-35.156,2.441,0.000
1727575404.338,-3.418,-17.090,-34.180,-17.578,0.000
1727575404.342,-3.906,-22.949,-32.715,-35.156,0.000
1727575404.346,0.000,-41.016,-39.062,-53.711,0.000
1727575404.350,0.000,-39.062,-41.992,-22.949,0.000
1727575404.354,0.000,-22.461,-41.992,2.441,0.000
1727575404.358,0.000,-13.672,-36.621,-11.230,0.000
1727575404.362,0.000,-15.137,-34.668,-13.672,0.000
1727575404.365,0.000,-43.457,-41.504,-44.434,0.000
1727575404.369,0.000,-39.062,-40.039,-41.992,0.000
1727575404.373,0.000,-21.484,-33.203,-10.742,0.000
1727575404.377,0.000,-44.922,-40.527,-15.625,0.000
1727575404.381,0.000,-59.082,-41.992,-22.949,0.000
1727575404.385,0.000,-42.969,-41.504,-55.664,0.000
1727575404.389,0.000,-33.203,-37.109,-44.434,0.000
1727575404.393,-43.945,-25.391,-27.344,6.348,0.000
1727575404.397,-25.391,-21.484,-29.785,-12.695,0.000
1727575404.401,-0.488,-25.391,-30.762,-29.785,0.000
1727575404.405,-25.391,-36.621,-39.551,-46.875,0.000
1727575404.408,-69.336,-38.086,-47.363,-45.898,0.000
1727575404.412,-37.109,-17.578,-35.156,2.441,0.000
1727575404.416,-16.602,-12.207,-26.855,-5.371,0.000
1727575404.420,-0.977,-22.949,-24.414,-22.461,0.000
1727575404.424,-15.625,-44.922,-30.273,-23.438,0.000
1727575404.428,-58.594,-34.668,-37.598,-28.809,0.000
1727575404.432,-37.109,-8.789,-26.367,6.348,0.000
1727575404.436,-24.902,-40.527,-27.344,12.207,0.000
1727575404.440,0.000,-43.945,-31.738,-17.578,0.000
1727575404.444,0.000,-29.297,-41.504,-41.016,0.000
1727575404.448,0.000,-38.086,-46.387,-54.199,0.000
1727575404.451,0.000,-22.461,-29.785,-3.906,0.000
1727575404.455,0.000,-9.766,-27.832,15.137,0.000
1727575404.459,0.000,-16.113,-32.715,-16.602,0.000
1727575404.463,0.000,-23.438,-28.320,-38.086,0.000
1727575404.467,0.000,-42.969,-35.645,-51.270,0.000
1727575404.471,0.000,-37.598,-34.180,-13.672,0.000
1727575404.475,0.000,-14.648,-25.879,-2.441,0.000
1727575404.479,0.000,-12.207,-28.320,-17.578,0.000
1727575404.483,0.000,-17.090,-33.691,-18.066,0.000
1727575404.487,-54.688,-22.461,-39.062,-37.109,0.000
1727575404.490,-57.129,-18.555,-37.109,-20.020,0.000
1727575404.494,-30.762,-23.926,-41.504,-1.953,0.000
1727575404.498,-5.371,-23.926,-41.016,-15.137,0.000
1727575404.502,8.301,-23.438,-35.156,-30.762,0.000
1727575404.506,-41.016,-28.320,-45.898,-58.594,0.000
1727575404.510,-42.969,-22.461,-41.504,-26.367,0.000
1727575404.514,-18.555,-34.180,-36.621,20.020,0.000
1727575404.518,-11.230,-19.531,-43.457,-6.836,0.000
1727575404.522,-3.906,6.348,-45.410,-42.480,0.000
1727575404.526,-46.875,-22.461,-48.340,-64.453,0.000
1727575404.530,-61.523,-25.879,-50.781,-41.016,0.000
