timestamps,TP9,AF7,AF8,TP10,Right AUX
1726815515.141,-19.043,-38.086,-48.828,-21.973,0.000
1726815515.145,-39.551,-41.016,-52.246,-42.480,0.000
1726815515.149,-37.598,-39.062,-57.129,-37.598,0.000
1726815515.153,-31.250,-40.039,-55.664,-32.227,0.000
1726815515.157,-28.809,-41.992,-51.270,-29.785,0.000
1726815515.161,-21.973,-41.016,-46.387,-25.879,0.000
1726815515.165,-31.250,-40.527,-39.062,-38.574,0.000
1726815515.169,-33.691,-43.457,-40.527,-31.738,0.000
1726815515.173,-30.762,-43.457,-44.434,-24.414,0.000
1726815515.176,-28.320,-42.480,-46.387,-33.203,0.000
1726815515.180,-24.902,-40.527,-46.387,-28.809,0.000
1726815515.184,-34.668,-38.086,-46.875,-34.180,0.000
1726815515.188,-38.574,-38.574,-41.504,-31.250,0.000
1726815515.192,-33.691,-38.086,-43.945,-21.973,0.000
1726815515.196,-27.832,-37.109,-45.898,-22.461,0.000
1726815515.200,-23.438,-37.109,-38.574,-17.578,0.000
1726815515.204,-33.691,-37.109,-45.410,-22.949,0.000
1726815515.208,-35.645,-38.086,-51.270,-29.785,0.000
1726815515.212,-21.484,-40.039,-39.062,-11.230,0.000
1726815515.216,-2.930,-41.504,-26.367,4.883,0.000
1726815515.219,12.207,-34.668,-31.738,12.207,0.000
1726815515.223,-24.902,-24.902,-43.945,-26.367,0.000
1726815515.227,-51.270,-26.855,-50.781,-54.199,0.000
1726815515.231,-33.203,-29.785,-51.758,-34.668,0.000
1726815515.235,-35.156,-32.227,-50.781,-38.574,0.000
1726815515.239,-38.574,-37.109,-42.969,-44.922,0.000
1726815515.243,-52.246,-35.645,-44.922,-63.477,0.000
1726815515.247,-62.988,-33.203,-48.828,-76.660,0.000
1726815515.251,-56.152,-38.574,-43.457,-52.734,0.000
1726815515.255,-50.781,-38.574,-44.922,-35.645,0.000
1726815515.258,-37.598,-32.227,-43.945,-33.203,0.000
1726815515.262,-44.434,-35.645,-46.875,-53.711,0.000
1726815515.266,-57.617,-42.480,-56.152,-64.941,0.000
1726815515.270,-43.945,-41.504,-47.852,-43.457,0.000
1726815515.274,-34.668,-37.598,-43.945,-33.203,0.000
1726815515.278,-28.809,-38.574,-45.898,-30.762,0.000
1726815515.282,-33.203,-39.551,-44.434,-38.086,0.000
1726815515.286,-48.340,-39.062,-45.410,-42.969,0.000
1726815515.290,-38.086,-33.691,-46.875,-38.086,0.000
1726815515.294,-28.809,-32.227,-44.922,-41.016,0.000
1726815515.298,-24.902,-36.133,-42.969,-30.762,0.000
1726815515.301,-25.391,-37.598,-42.480,-31.738,0.000
1726815515.305,-42.480,-35.645,-44.922,-44.434,0.000
1726815515.309,-41.016,-33.691,-47.852,-31.738,0.000
1726815515.313,-25.391,-31.738,-44.922,-18.066,0.000
1726815515.317,-14.648,-29.297,-42.480,-7.812,0.000
1726815515.321,-12.695,-26.855,-40.039,-17.090,0.000
1726815515.325,-20.996,-26.855,-41.992,-34.180,0.000
1726815515.329,-20.996,-30.273,-43.457,-23.926,0.000
1726815515.333,-18.555,-29.785,-40.527,-13.184,0.000
1726815515.337,-13.672,-32.227,-40.039,-4.395,0.000
1726815515.341,-12.207,-31.250,-42.969,-1.953,0.000
1726815515.344,-24.902,-28.809,-41.992,-15.625,0.000
1726815515.348,-27.344,-31.738,-40.527,-15.137,0.000
1726815515.352,-13.672,-28.809,-41.504,-9.277,0.000
1726815515.356,-6.348,-28.320,-41.016,-4.395,0.000
1726815515.360,-14.648,-32.715,-40.527,-6.348,0.000
1726815515.364,-32.715,-35.645,-48.828,-29.297,0.000
1726815515.368,-34.180,-33.691,-46.875,-32.715,0.000
1726815515.372,-22.949,-33.691,-41.992,-24.414,0.000
1726815515.376,-15.625,-36.133,-44.922,-17.090,0.000
1726815515.380,-7.812,-33.691,-44.434,-3.418,0.000
1726815515.384,-22.949,-30.273,-41.016,-14.160,0.000
1726815515.387,-29.297,-32.227,-40.527,-27.344,0.000
1726815515.391,-15.137,-35.156,-42.969,-15.625,0.000
1726815515.395,-13.184,-40.039,-41.504,-14.160,0.000
1726815515.399,-18.555,-42.480,-40.527,-14.648,0.000
1726815515.403,-27.832,-39.551,-43.457,-20.508,0.000
1726815515.407,-23.926,-42.480,-41.992,-12.695,0.000
1726815515.411,-25.391,-40.039,-44.922,-11.230,0.000
1726815515.415,-23.926,-38.086,-45.898,-12.207,0.000
1726815515.419,-10.254,-37.109,-41.016,-5.371,0.000
1726815515.423,-15.137,-37.109,-42.969,-19.531,0.000
1726815515.427,-26.367,-40.039,-42.969,-22.461,0.000
1726815515.430,-24.414,-42.480,-43.945,-15.137,0.000
1726815515.434,-17.578,-44.922,-46.387,-13.184,0.000
1726815515.438,-13.184,-45.410,-43.457,-7.324,0.000
1726815515.442,-21.973,-41.504,-41.504,-18.555,0.000
1726815515.446,-29.785,-38.086,-39.551,-31.738,0.000
1726815515.450,-23.438,-40.527,-36.133,-21.484,0.000
1726815515.454,-24.414,-37.109,-40.039,-10.742,0.000
1726815515.458,-20.020,-33.691,-43.457,-7.324,0.000
1726815515.462,-22.949,-37.598,-44.434,-20.020,0.000
1726815515.466,-32.227,-37.109,-44.922,-29.297,0.000
1726815515.470,-31.250,-40.039,-43.945,-23.438,0.000
1726815515.473,-27.344,-39.551,-44.922,-23.438,0.000
1726815515.477,-18.555,-40.527,-43.457,-24.902,0.000
1726815515.481,-17.578,-38.086,-38.086,-24.902,0.000
1726815515.485,-26.855,-37.598,-41.504,-33.203,0.000
1726815515.489,-25.879,-38.574,-42.480,-33.203,0.000
1726815515.493,-21.484,-35.156,-38.086,-27.344,0.000
1726815515.497,-17.090,-35.156,-39.062,-10.742,0.000
1726815515.501,-18.066,-33.203,-42.969,-17.090,0.000
1726815515.505,-23.438,-29.785,-46.387,-34.668,0.000
1726815515.509,-28.809,-36.621,-45.410,-33.691,0.000
1726815515.512,-31.250,-42.480,-44.922,-26.855,0.000
1726815515.516,-24.414,-44.434,-46.875,-23.438,0.000
1726815515.520,-20.996,-41.504,-47.363,-33.691,0.000
1726815515.524,-31.250,-40.527,-43.457,-38.086,0.000
1726815515.528,-28.320,-42.480,-39.062,-22.461,0.000
1726815515.532,-16.113,-37.598,-43.457,-11.230,0.000
1726815515.536,-13.184,-33.691,-48.340,-14.648,0.000
1726815515.540,-17.578,-36.621,-45.410,-17.578,0.000
1726815515.544,-25.879,-38.086,-45.410,-17.578,0.000
1726815515.548,-33.691,-31.250,-45.410,-19.531,0.000
1726815515.552,-25.391,-31.250,-37.109,-11.719,0.000
1726815515.555,-14.160,-38.574,-37.598,-7.812,0.000
1726815515.559,-6.348,-41.016,-39.551,-4.883,0.000
1726815515.563,7.812,-43.457,-32.227,8.301,0.000
1726815515.567,1.953,-34.668,-37.598,14.160,0.000
1726815515.571,-25.879,-25.391,-52.734,-14.160,0.000
1726815515.575,-20.508,-25.879,-48.340,-24.902,0.000
1726815515.579,5.859,-19.043,-38.574,-11.230,0.000
1726815515.583,7.812,-14.648,-41.016,-11.230,0.000
1726815515.587,6.348,-15.137,-53.711,-5.371,0.000
1726815515.591,12.695,-7.812,-62.012,0.488,0.000
1726815515.594,17.090,1.953,-62.500,-4.883,0.000
1726815515.598,32.715,9.277,-65.430,3.418,0.000
1726815515.602,33.203,13.184,-66.406,9.766,0.000
1726815515.606,20.020,15.137,-73.730,-0.488,0.000
1726815515.610,29.297,23.438,-79.590,3.418,0.000
1726815515.614,34.668,30.273,-83.008,-0.977,0.000
1726815515.618,39.551,31.250,-86.426,-4.883,0.000
1726815515.622,28.809,33.203,-89.355,-17.090,0.000
1726815515.626,33.203,34.180,-87.402,-1.953,0.000
1726815515.630,41.504,34.180,-85.938,16.602,0.000
1726815515.634,33.691,28.320,-85.938,6.348,0.000
1726815515.637,34.668,20.020,-79.102,2.441,0.000
1726815515.641,29.297,22.461,-66.895,-4.395,0.000
1726815515.645,20.996,25.879,-60.059,-7.812,0.000
1726815515.649,18.555,23.926,-62.012,-3.418,0.000
1726815515.653,15.137,16.602,-66.895,0.000,0.000
1726815515.657,25.391,9.277,-62.500,7.812,0.000
1726815515.661,12.695,9.277,-59.570,0.977,0.000
1726815515.665,-4.883,5.859,-60.547,-6.348,0.000
1726815515.669,5.371,0.000,-55.664,2.930,0.000
1726815515.673,14.648,-1.953,-55.176,15.137,0.000
1726815515.677,17.578,-0.977,-50.293,18.555,0.000
1726815515.680,2.930,-2.441,-47.363,1.465,0.000
1726815515.684,-6.348,-2.441,-47.852,-8.301,0.000
1726815515.688,10.742,0.488,-42.969,6.348,0.000
1726815515.692,11.230,-3.906,-39.062,16.113,0.000
1726815515.696,-0.488,-11.230,-37.598,4.395,0.000
1726815515.700,-15.137,-12.207,-41.016,-17.090,0.000
1726815515.704,-19.043,-10.254,-45.410,-15.625,0.000
1726815515.708,-14.160,-14.160,-42.969,-6.836,0.000
1726815515.712,-20.508,-18.066,-48.828,-6.836,0.000
1726815515.716,-11.719,-21.484,-46.387,-7.812,0.000
1726815515.720,-10.742,-19.531,-40.527,-13.184,0.000
1726815515.723,-22.461,-18.066,-42.480,-12.207,0.000
1726815515.727,-10.742,-23.438,-39.551,-9.277,0.000
1726815515.731,-8.789,-23.926,-39.551,-16.602,0.000
1726815515.735,0.000,-19.531,-32.715,-2.930,0.000
1726815515.739,3.418,-19.043,-32.227,3.418,0.000
1726815515.743,-20.996,-20.996,-41.992,-23.438,0.000
1726815515.747,-23.438,-23.438,-42.480,-24.414,0.000
1726815515.751,-20.020,-23.926,-42.480,-23.926,0.000
1726815515.755,-19.531,-25.879,-42.969,-21.484,0.000
1726815515.759,-13.184,-31.250,-41.992,-26.855,0.000
1726815515.763,-20.020,-29.785,-41.992,-35.156,0.000
1726815515.766,-28.320,-29.297,-41.992,-23.438,0.000
1726815515.770,-20.508,-26.367,-38.086,-24.902,0.000
1726815515.774,-5.371,-28.320,-35.156,-25.391,0.000
1726815515.778,-5.371,-30.273,-39.062,-20.020,0.000
1726815515.782,-16.113,-30.273,-37.598,-12.207,0.000
1726815515.786,-25.879,-27.344,-44.434,-17.090,0.000
1726815515.790,-23.438,-25.391,-50.293,-17.090,0.000
1726815515.794,-10.742,-32.715,-44.922,-7.324,0.000
1726815515.798,-12.207,-32.715,-47.363,-13.672,0.000
1726815515.802,-28.320,-29.785,-50.293,-30.762,0.000
1726815515.806,-33.691,-33.203,-47.363,-35.156,0.000
1726815515.809,-26.367,-37.109,-45.898,-20.020,0.000
1726815515.813,-7.324,-36.133,-44.922,-3.418,0.000
1726815515.817,5.859,-33.203,-41.016,4.395,0.000
1726815515.821,-16.113,-33.203,-48.828,-21.484,0.000
1726815515.825,-26.367,-29.785,-54.199,-23.926,0.000
1726815515.829,-29.785,-34.180,-51.758,-10.254,0.000
1726815515.833,-19.043,-32.227,-52.246,-12.207,0.000
1726815515.837,1.953,-21.484,-48.340,-5.371,0.000
1726815515.841,-7.812,-22.461,-47.852,-14.648,0.000
1726815515.845,-19.043,-23.926,-50.781,-20.020,0.000
1726815515.848,-23.438,-23.438,-49.805,-10.742,0.000
1726815515.852,-16.113,-24.902,-42.969,-1.953,0.000
1726815515.856,-2.441,-24.414,-36.133,2.441,0.000
1726815515.860,-15.137,-22.949,-40.039,-9.277,0.000
1726815515.864,-17.090,-21.973,-44.434,-10.254,0.000
1726815515.868,-13.672,-20.020,-42.969,1.953,0.000
1726815515.872,-10.254,-23.926,-45.898,14.160,0.000
1726815515.876,-10.254,-24.414,-49.805,4.883,0.000
1726815515.880,-20.508,-20.996,-49.805,-18.066,0.000
1726815515.884,-17.090,-21.973,-48.340,-22.461,0.000
1726815515.888,-6.836,-27.832,-47.852,-6.348,0.000
1726815515.891,-10.254,-27.344,-48.828,-3.418,0.000
1726815515.895,-3.418,-26.855,-46.875,4.883,0.000
1726815515.899,-14.160,-30.762,-42.969,-1.953,0.000
1726815515.903,-31.738,-31.738,-48.340,-20.020,0.000
1726815515.907,-16.602,-29.297,-48.828,-11.719,0.000
1726815515.911,-5.859,-25.391,-41.504,-6.836,0.000
1726815515.915,0.000,-23.438,-41.016,-0.977,0.000
1726815515.919,-7.324,-25.879,-42.480,-3.906,0.000
1726815515.923,-20.996,-24.902,-39.062,-13.184,0.000
1726815515.927,-10.742,-21.973,-38.086,-4.395,0.000
1726815515.931,-2.930,-26.855,-41.016,4.883,0.000
1726815515.934,-1.953,-33.203,-43.945,3.418,0.000
1726815515.938,-12.207,-33.691,-46.387,-19.043,0.000
1726815515.942,-22.461,-32.715,-41.504,-25.391,0.000
1726815515.946,-18.555,-39.551,-41.504,-19.531,0.000
1726815515.950,-18.066,-41.016,-40.527,-18.555,0.000
1726815515.954,-17.090,-33.691,-42.480,-18.555,0.000
1726815515.958,-20.996,-36.621,-44.434,-20.020,0.000
1726815515.962,-32.715,-37.109,-44.922,-21.973,0.000
1726815515.966,-35.156,-34.668,-46.387,-19.043,0.000
1726815515.970,-25.391,-31.738,-45.410,-10.742,0.000
1726815515.973,-15.137,-32.227,-42.969,-4.883,0.000
1726815515.977,-10.742,-34.668,-40.039,-10.742,0.000
1726815515.981,-26.855,-33.691,-50.293,-28.320,0.000
1726815515.985,-21.973,-35.156,-52.246,-26.367,0.000
1726815515.989,-14.160,-34.180,-47.363,-16.113,0.000
1726815515.993,-16.113,-31.738,-41.504,-10.742,0.000
1726815515.997,-17.090,-33.203,-41.992,-22.461,0.000
1726815516.001,-31.738,-32.715,-46.387,-36.621,0.000
1726815516.005,-21.973,-31.738,-40.527,-18.555,0.000
1726815516.009,-14.160,-33.203,-45.410,-2.441,0.000
1726815516.013,-12.695,-25.879,-52.246,-7.324,0.000
1726815516.016,-3.906,-22.461,-50.293,-13.672,0.000
1726815516.020,-16.602,-28.809,-47.363,-21.973,0.000
1726815516.024,-17.578,-25.391,-46.875,-12.207,0.000
1726815516.028,-8.789,-30.762,-46.875,-6.348,0.000
1726815516.032,-3.418,-37.109,-48.340,-10.254,0.000
1726815516.036,1.953,-29.785,-55.664,-7.324,0.000
1726815516.040,-23.438,-26.855,-55.176,-21.973,0.000
1726815516.044,-35.645,-24.414,-53.223,-41.016,0.000
1726815516.048,-19.043,-26.855,-55.176,-27.344,0.000
1726815516.052,-3.418,-27.832,-50.293,-12.207,0.000
1726815516.056,0.000,-26.367,-53.711,-13.184,0.000
1726815516.059,-18.066,-33.203,-58.594,-22.461,0.000
1726815516.063,-29.297,-36.133,-52.246,-24.902,0.000
1726815516.067,-17.090,-32.715,-47.363,0.488,0.000
1726815516.071,-12.695,-33.691,-47.363,2.930,0.000
1726815516.075,-3.906,-27.832,-43.457,-16.602,0.000
1726815516.079,-12.695,-24.414,-44.434,-32.715,0.000
1726815516.083,-25.879,-24.902,-48.340,-38.086,0.000
1726815516.087,-15.137,-25.391,-49.316,-25.879,0.000
1726815516.091,-10.742,-29.785,-45.410,-15.137,0.000
1726815516.095,0.488,-27.344,-43.945,-11.230,0.000
1726815516.099,-1.953,-26.855,-41.016,-13.672,0.000
1726815516.102,-14.648,-29.297,-35.156,-12.695,0.000
1726815516.106,-9.766,-25.391,-32.715,-9.766,0.000
1726815516.110,-4.395,-28.320,-33.203,-4.883,0.000
1726815516.114,-11.230,-35.156,-37.598,-7.812,0.000
1726815516.118,-24.414,-37.598,-38.574,-19.043,0.000
1726815516.122,-30.762,-36.133,-36.133,-25.879,0.000
1726815516.126,-29.297,-35.645,-37.109,-24.902,0.000
1726815516.130,-21.484,-33.691,-36.621,-12.207,0.000
1726815516.134,-5.859,-30.762,-34.180,1.465,0.000
1726815516.138,-11.719,-34.668,-38.574,-6.348,0.000
1726815516.142,-30.273,-41.016,-44.434,-18.555,0.000
1726815516.145,-32.227,-40.039,-44.434,-19.043,0.000
1726815516.149,-32.715,-33.691,-43.945,-20.508,0.000
1726815516.153,-19.043,-32.715,-38.574,-11.719,0.000
1726815516.157,-16.113,-41.016,-36.621,-12.207,0.000
1726815516.161,-39.062,-42.480,-43.457,-32.715,0.000
1726815516.165,-33.691,-36.133,-41.016,-27.832,0.000
1726815516.169,-21.484,-37.109,-39.551,-19.043,0.000
1726815516.173,-22.461,-35.645,-48.828,-26.367,0.000
1726815516.177,-17.090,-33.203,-51.758,-21.973,0.000
1726815516.181,-29.785,-34.668,-46.875,-22.949,0.000
1726815516.185,-31.738,-35.645,-48.828,-26.367,0.000
1726815516.188,-24.414,-38.086,-50.293,-20.508,0.000
1726815516.192,-16.602,-36.621,-42.969,-12.207,0.000
1726815516.196,-11.719,-34.180,-37.598,-4.883,0.000
1726815516.200,-25.391,-29.297,-40.527,-7.812,0.000
1726815516.204,-27.832,-29.785,-46.387,-8.301,0.000
1726815516.208,-23.438,-37.109,-44.922,-8.301,0.000
1726815516.212,-14.648,-38.574,-40.039,-8.789,0.000
1726815516.216,-6.836,-40.527,-38.086,-10.254,0.000
1726815516.220,0.000,-34.668,-38.086,-18.066,0.000
1726815516.224,0.000,-27.832,-41.504,-18.066,0.000
1726815516.228,0.000,-29.297,-41.504,-5.859,0.000
1726815516.231,0.000,-34.180,-38.574,-6.348,0.000
1726815516.235,0.000,-32.227,-42.969,-4.883,0.000
1726815516.239,0.000,-28.320,-48.340,-5.371,0.000
1726815516.243,0.000,-31.738,-51.270,11.719,0.000
1726815516.247,0.000,-39.062,-32.715,40.527,0.000
1726815516.251,0.000,-46.387,-17.578,24.902,0.000
1726815516.255,0.000,-47.363,-19.043,-0.488,0.000
1726815516.259,0.000,-50.293,-22.949,-23.926,0.000
1726815516.263,0.000,-61.523,-20.996,-40.527,0.000
1726815516.267,-61.523,-67.383,-17.090,-40.039,0.000
1726815516.270,-67.871,-75.195,-9.766,-44.434,0.000
1726815516.274,-73.242,-84.961,0.488,-45.410,0.000
1726815516.278,-97.656,-91.797,2.930,-58.594,0.000
1726815516.282,-111.328,-100.098,2.441,-68.848,0.000
1726815516.286,-97.656,-100.586,6.836,-56.152,0.000
1726815516.290,-96.680,-102.051,4.883,-57.129,0.000
1726815516.294,-95.703,-112.793,-7.324,-59.570,0.000
1726815516.298,-96.680,-105.957,-9.766,-62.500,0.000
1726815516.302,-114.258,-97.656,-15.625,-81.055,0.000
1726815516.306,-105.957,-98.145,-12.695,-74.219,0.000
1726815516.310,-81.543,-93.262,-6.348,-55.664,0.000
1726815516.313,-76.172,-92.773,-17.578,-51.758,0.000
1726815516.317,-82.520,-91.797,-19.531,-59.570,0.000
1726815516.321,-80.078,-83.984,-20.020,-55.664,0.000
1726815516.325,-73.242,-82.520,-20.020,-46.387,0.000
1726815516.329,-56.641,-75.684,-21.973,-38.574,0.000
1726815516.333,-37.109,-69.824,-28.809,-28.809,0.000
1726815516.337,-47.363,-76.172,-34.668,-30.273,0.000
1726815516.341,-54.688,-72.754,-31.738,-36.133,0.000
1726815516.345,-50.293,-67.871,-17.090,-39.062,0.000
1726815516.349,-46.875,-71.777,-7.812,-43.945,0.000
1726815516.353,-34.180,-66.895,-11.230,-33.691,0.000
1726815516.356,-41.016,-62.988,-9.766,-26.367,0.000
1726815516.360,-51.270,-65.430,-11.719,-27.832,0.000
1726815516.364,-46.387,-60.547,-20.020,-27.832,0.000
1726815516.368,-39.062,-60.547,-22.461,-21.484,0.000
1726815516.372,-27.832,-60.547,-28.809,-13.672,0.000
1726815516.376,-31.738,-57.129,-39.551,-15.137,0.000
1726815516.380,-46.875,-62.500,-36.621,-20.020,0.000
1726815516.384,-35.645,-62.012,-34.180,-10.742,0.000
1726815516.388,-21.973,-48.340,-48.828,1.465,0.000
1726815516.392,-20.020,-47.852,-52.734,-5.859,0.000
1726815516.395,-20.508,-52.734,-39.551,-13.184,0.000
1726815516.399,-38.574,-52.734,-26.855,-20.020,0.000
1726815516.403,-40.039,-51.270,-30.273,-21.484,0.000
1726815516.407,-27.832,-51.270,-28.320,-16.113,0.000
1726815516.411,-17.090,-49.316,-20.996,-12.207,0.000
1726815516.415,-19.531,-48.828,-24.414,-9.277,0.000
1726815516.419,-33.691,-52.246,-29.297,-18.066,0.000
1726815516.423,-26.855,-46.875,-37.109,-20.508,0.000
1726815516.427,-21.484,-45.410,-41.992,-8.789,0.000
1726815516.431,-20.996,-45.898,-33.691,-7.324,0.000
1726815516.435,-17.090,-42.969,-29.785,-13.672,0.000
1726815516.438,-35.156,-44.434,-33.203,-16.602,0.000
1726815516.442,-30.762,-43.945,-37.598,-7.324,0.000
1726815516.446,-24.902,-45.410,-50.293,-13.672,0.000
1726815516.450,-21.484,-42.480,-57.129,-20.020,0.000
1726815516.454,-12.695,-44.434,-59.082,-20.996,0.000
1726815516.458,-29.297,-51.270,-55.664,-27.344,0.000
1726815516.462,-31.250,-46.387,-46.875,-22.949,0.000
1726815516.466,-22.461,-44.434,-39.062,-17.578,0.000
1726815516.470,-16.602,-48.340,-44.434,-12.695,0.000
1726815516.474,-7.324,-45.898,-52.246,-6.348,0.000
1726815516.478,-19.043,-42.480,-51.758,-16.113,0.000
1726815516.481,-26.367,-40.039,-45.410,-20.020,0.000
1726815516.485,-21.484,-38.574,-52.734,-10.254,0.000
1726815516.489,-22.461,-38.574,-81.055,-12.207,0.000
1726815516.493,-18.555,-39.062,-74.707,-18.066,0.000
1726815516.497,-29.297,-40.039,-53.711,-19.531,0.000
1726815516.501,-37.598,-43.457,-57.617,-26.367,0.000
1726815516.505,-26.367,-47.363,-53.711,-29.785,0.000
1726815516.509,-24.414,-48.340,-48.828,-28.809,0.000
1726815516.513,-22.461,-48.340,-45.898,-23.438,0.000
1726815516.517,-34.180,-44.434,-40.527,-17.090,0.000
1726815516.521,-47.363,-42.480,-47.363,-20.508,0.000
1726815516.524,-35.645,-41.992,-47.363,-21.484,0.000
1726815516.528,-17.578,-37.109,-49.805,-15.137,0.000
1726815516.532,1.465,-43.457,-42.480,4.883,0.000
1726815516.536,-23.438,-51.270,-22.461,-9.277,0.000
1726815516.540,-60.059,-51.758,-20.508,-44.922,0.000
1726815516.544,-65.430,-55.176,-25.391,-49.805,0.000
1726815516.548,-51.758,-62.012,-27.344,-38.574,0.000
1726815516.552,-38.574,-65.430,-27.832,-33.203,0.000
1726815516.556,-50.293,-68.359,-30.273,-42.480,0.000
1726815516.560,-62.988,-74.219,-30.273,-44.434,0.000
1726815516.564,-58.105,-71.289,-33.691,-36.133,0.000
1726815516.567,-52.246,-65.918,-35.645,-32.227,0.000
1726815516.571,-41.992,-64.453,-39.062,-37.109,0.000
1726815516.575,-41.016,-62.012,-55.176,-40.527,0.000
1726815516.579,-51.758,-61.523,-65.918,-38.086,0.000
1726815516.583,-50.293,-61.523,-50.781,-32.715,0.000
1726815516.587,-41.992,-59.570,-31.250,-23.438,0.000
1726815516.591,-30.762,-59.082,-10.742,-16.113,0.000
1726815516.595,-31.738,-55.176,1.465,-20.508,0.000
1726815516.599,-41.992,-53.223,-2.930,-35.156,0.000
1726815516.603,-36.133,-53.711,-21.484,-26.855,0.000
1726815516.606,-27.832,-50.293,-44.922,-11.230,0.000
1726815516.610,-16.602,-48.828,-46.875,-8.789,0.000
1726815516.614,-12.695,-47.363,-29.785,-10.742,0.000
1726815516.618,-28.320,-54.199,-16.602,-17.578,0.000
1726815516.622,-22.461,-55.664,-20.020,-11.719,0.000
1726815516.626,-24.414,-52.246,-34.180,-12.207,0.000
1726815516.630,-15.625,-49.805,-40.039,-17.578,0.000
1726815516.634,-5.371,-50.293,-33.203,-15.137,0.000
1726815516.638,-28.809,-51.758,-32.715,-23.926,0.000
1726815516.642,-36.133,-50.293,-33.203,-28.809,0.000
1726815516.646,-25.879,-50.293,-25.879,-27.344,0.000
1726815516.649,-14.160,-47.363,-28.809,-19.043,0.000
1726815516.653,-15.137,-42.969,-30.762,-6.836,0.000
1726815516.657,-36.621,-47.363,-33.203,-25.879,0.000
1726815516.661,-36.133,-45.410,-41.504,-29.297,0.000
1726815516.665,-23.926,-41.504,-39.062,-14.160,0.000
1726815516.669,-24.902,-49.316,-41.992,-11.230,0.000
1726815516.673,-27.832,-47.852,-48.828,-15.625,0.000
1726815516.677,-31.250,-42.480,-45.410,-25.879,0.000
1726815516.681,-25.391,-41.016,-41.016,-21.973,0.000
1726815516.685,-21.973,-36.133,-39.551,-12.207,0.000
1726815516.689,-17.090,-33.691,-37.109,-1.953,0.000
1726815516.692,-10.742,-41.016,-32.715,-1.953,0.000
1726815516.696,-23.926,-44.922,-33.691,-17.578,0.000
1726815516.700,-29.785,-41.504,-39.551,-17.578,0.000
1726815516.704,-19.043,-39.062,-37.109,-5.371,0.000
1726815516.708,-14.648,-38.574,-37.598,-7.324,0.000
1726815516.712,-7.324,-42.480,-43.945,-9.766,0.000
1726815516.716,-16.113,-41.504,-41.992,-12.695,0.000
1726815516.720,-36.621,-42.969,-41.992,-28.320,0.000
1726815516.724,-34.668,-43.457,-45.898,-33.203,0.000
1726815516.728,-27.832,-41.992,-47.852,-20.996,0.000
1726815516.731,-16.602,-42.480,-50.293,-18.066,0.000
1726815516.735,-23.438,-42.480,-45.410,-37.598,0.000
1726815516.739,-34.180,-43.945,-32.227,-47.852,0.000
1726815516.743,-25.391,-42.969,-34.180,-30.273,0.000
1726815516.747,-20.996,-40.527,-44.922,-24.414,0.000
1726815516.751,-14.648,-41.992,-41.992,-29.785,0.000
1726815516.755,-16.113,-41.016,-36.621,-23.438,0.000
1726815516.759,-31.738,-44.434,-46.875,-20.508,0.000
1726815516.763,-31.738,-44.434,-52.734,-23.438,0.000
1726815516.767,-24.902,-41.504,-38.086,-20.020,0.000
1726815516.771,-12.695,-38.086,-32.715,-17.090,0.000
1726815516.774,-21.484,-39.551,-37.598,-25.391,0.000
1726815516.778,-35.156,-40.527,-38.086,-31.738,0.000
1726815516.782,-30.273,-35.645,-42.480,-21.484,0.000
1726815516.786,-31.738,-37.109,-44.922,-18.555,0.000
1726815516.790,-24.414,-40.527,-46.387,-22.461,0.000
1726815516.794,-29.297,-36.133,-50.781,-33.203,0.000
1726815516.798,-40.527,-38.086,-52.246,-44.922,0.000
1726815516.802,-34.180,-45.898,-44.434,-34.668,0.000
1726815516.806,-33.691,-43.457,-46.875,-33.691,0.000
1726815516.810,-24.414,-39.551,-48.340,-33.691,0.000
1726815516.814,-20.996,-41.016,-39.551,-25.879,0.000
1726815516.817,-35.156,-40.039,-41.992,-28.809,0.000
1726815516.821,-41.992,-34.180,-46.387,-39.062,0.000
1726815516.825,-32.715,-35.156,-41.992,-35.156,0.000
1726815516.829,-23.926,-32.715,-41.992,-25.879,0.000
1726815516.833,-21.973,-24.902,-34.668,-13.672,0.000
1726815516.837,-37.109,-26.367,-30.273,-17.578,0.000
1726815516.841,-39.062,-31.738,-34.668,-32.715,0.000
1726815516.845,-34.668,-27.832,-40.039,-39.062,0.000
1726815516.849,-42.480,-36.621,-47.852,-45.410,0.000
1726815516.853,-54.688,-51.270,-54.199,-56.641,0.000
1726815516.857,-78.613,-37.598,-55.176,-81.055,0.000
1726815516.860,-87.891,-32.227,-43.457,-86.426,0.000
1726815516.864,-91.309,-27.832,-36.621,-82.031,0.000
1726815516.868,-108.398,-36.133,-49.316,-109.863,0.000
1726815516.872,-108.887,-47.852,-34.668,-119.629,0.000
1726815516.876,-153.809,-40.527,-9.766,-151.367,0.000
1726815516.880,-199.707,-37.109,-8.789,-198.242,0.000
1726815516.884,-208.984,-38.086,-13.184,-213.379,0.000
1726815516.888,-213.379,-37.598,-11.719,-215.820,0.000
1726815516.892,-228.516,-33.691,9.277,-231.934,0.000
1726815516.896,-258.301,-34.668,22.461,-252.930,0.000
1726815516.900,-264.648,-22.949,14.648,-257.324,0.000
1726815516.903,-261.719,-25.879,20.020,-254.883,0.000
1726815516.907,-248.535,-22.949,19.531,-232.910,0.000
1726815516.911,-246.094,-32.715,9.766,-233.887,0.000
1726815516.915,-270.996,-35.645,14.160,-265.137,0.000
1726815516.919,-279.785,-18.066,16.602,-267.090,0.000
1726815516.923,-260.742,-27.344,16.602,-244.629,0.000
1726815516.927,-239.746,-37.598,19.043,-216.309,0.000
1726815516.931,-240.234,-38.574,12.695,-216.797,0.000
1726815516.935,-250.977,-35.156,9.766,-229.980,0.000
1726815516.939,-235.352,-38.086,17.090,-213.379,0.000
1726815516.942,-207.520,-39.062,9.277,-187.988,0.000
1726815516.946,-198.242,-34.668,5.859,-188.477,0.000
1726815516.950,-164.062,-29.785,10.742,-173.828,0.000
1726815516.954,-153.320,-37.598,-5.371,-158.691,0.000
1726815516.958,-166.016,-43.945,-12.695,-167.480,0.000
1726815516.962,-147.949,-42.969,0.000,-157.715,0.000
1726815516.966,-128.418,-45.898,1.465,-134.766,0.000
1726815516.970,-121.582,-41.016,-8.301,-124.023,0.000
1726815516.974,-119.141,-44.434,-3.418,-112.305,0.000
1726815516.978,-109.375,-47.852,-5.371,-92.285,0.000
1726815516.982,-106.934,-41.504,-48.828,-94.238,0.000
1726815516.985,-83.008,-38.574,-67.871,-83.008,0.000
1726815516.989,-41.504,-38.574,-36.133,-51.758,0.000
1726815516.993,-38.086,-38.086,-62.500,-40.527,0.000
1726815516.997,-24.902,-32.715,-108.398,-15.137,0.000
1726815517.001,5.859,-32.715,-67.871,6.836,0.000
1726815517.005,27.344,-33.203,-1.465,21.973,0.000
1726815517.009,59.570,-35.156,-26.367,49.316,0.000
1726815517.013,67.383,-38.086,-51.270,58.105,0.000
1726815517.017,58.105,-46.387,32.227,57.129,0.000
1726815517.021,76.660,-54.688,58.594,68.848,0.000
1726815517.025,96.680,-49.316,-7.812,81.055,0.000
1726815517.028,105.469,-45.410,-35.156,92.285,0.000
1726815517.032,120.605,-44.922,-52.734,114.746,0.000
1726815517.036,124.023,-38.086,-82.520,119.629,0.000
1726815517.040,117.188,-36.133,-72.754,115.234,0.000
1726815517.044,122.559,-39.551,-31.738,128.906,0.000
1726815517.048,128.418,-37.598,-4.883,128.418,0.000
1726815517.052,125.488,-34.668,-12.207,124.023,0.000
1726815517.056,123.535,-35.156,-43.457,135.254,0.000
1726815517.060,127.930,-33.691,-63.965,140.625,0.000
1726815517.064,128.906,-30.762,-61.523,134.277,0.000
1726815517.068,123.535,-36.621,-27.832,124.023,0.000
1726815517.071,113.281,-44.434,39.551,119.629,0.000
1726815517.075,99.609,-45.410,28.320,104.980,0.000
1726815517.079,97.656,-50.293,4.395,100.098,0.000
1726815517.083,100.586,-58.105,15.625,103.516,0.000
1726815517.087,93.262,-64.453,43.457,86.426,0.000
1726815517.091,86.914,-63.477,47.363,74.707,0.000
1726815517.095,75.684,-59.082,25.391,71.777,0.000
1726815517.099,73.242,-51.758,2.441,66.406,0.000
1726815517.103,83.496,-53.711,-22.949,77.637,0.000
1726815517.107,70.801,-60.547,-10.254,67.871,0.000
1726815517.110,63.965,-59.082,27.832,52.246,0.000
1726815517.114,59.570,-59.082,26.367,50.781,0.000
1726815517.118,51.758,-58.105,11.719,48.828,0.000
1726815517.122,53.223,-52.246,-2.930,54.688,0.000
1726815517.126,51.270,-49.316,-12.695,53.223,0.000
1726815517.130,54.199,-50.781,-20.508,50.781,0.000
1726815517.134,47.852,-48.340,-22.461,46.387,0.000
1726815517.138,29.785,-45.410,0.000,29.297,0.000
1726815517.142,28.320,-43.945,0.488,31.250,0.000
1726815517.146,36.621,-42.969,-14.160,36.621,0.000
1726815517.150,35.645,-43.457,-8.789,30.762,0.000
1726815517.153,24.902,-38.574,-27.344,31.250,0.000
1726815517.157,23.926,-32.227,-58.105,37.598,0.000
1726815517.161,31.738,-34.180,-35.156,35.645,0.000
1726815517.165,32.227,-35.156,-4.395,31.250,0.000
1726815517.169,34.180,-34.180,-2.930,27.344,0.000
1726815517.173,30.762,-39.551,-7.324,34.668,0.000
1726815517.177,25.391,-36.621,-36.621,44.434,0.000
1726815517.181,33.691,-28.809,-54.199,46.387,0.000
1726815517.185,33.203,-30.273,-32.227,37.109,0.000
1726815517.189,40.527,-32.227,-17.578,33.691,0.000
1726815517.193,33.691,-33.691,-22.461,35.156,0.000
1726815517.196,15.137,-33.691,-37.109,22.949,0.000
1726815517.200,14.648,-32.715,-32.227,27.344,0.000
1726815517.204,17.578,-33.203,-27.344,35.156,0.000
1726815517.208,25.879,-34.180,-28.809,35.156,0.000
1726815517.212,21.484,-31.738,-22.949,24.414,0.000
1726815517.216,8.301,-28.320,-23.926,9.277,0.000
1726815517.220,17.090,-31.738,-27.832,13.184,0.000
1726815517.224,25.391,-33.691,-37.598,21.973,0.000
1726815517.228,21.973,-34.180,-35.645,22.949,0.000
1726815517.232,16.113,-34.180,-41.504,10.254,0.000
1726815517.236,2.441,-37.598,-47.852,0.000,0.000
1726815517.239,-3.906,-44.922,-55.176,6.836,0.000
1726815517.243,3.418,-44.434,-58.594,13.184,0.000
1726815517.247,9.766,-41.504,-41.016,14.160,0.000
1726815517.251,6.836,-40.039,-38.086,8.789,0.000
1726815517.255,-7.324,-40.527,-63.477,-1.465,0.000
1726815517.259,-17.090,-40.039,-51.758,-7.812,0.000
1726815517.263,-11.230,-36.133,-26.367,-7.324,0.000
1726815517.267,-2.930,-33.203,-32.715,1.953,0.000
1726815517.271,-5.371,-30.762,-58.105,1.465,0.000
1726815517.275,-17.090,-31.738,-72.266,-13.672,0.000
1726815517.279,-14.160,-33.203,-52.734,-16.113,0.000
1726815517.282,-9.277,-32.227,-48.340,-3.418,0.000
1726815517.286,-11.719,-35.645,-47.363,-13.184,0.000
1726815517.290,-10.742,-35.645,-61.523,-9.766,0.000
1726815517.294,-28.320,-39.062,-70.312,-5.371,0.000
1726815517.298,-33.203,-44.434,-34.668,-13.672,0.000
1726815517.302,-21.484,-43.457,-35.156,-7.324,0.000
1726815517.306,-20.508,-41.992,-41.504,-9.277,0.000
1726815517.310,-19.043,-43.945,-26.367,-18.555,0.000
1726815517.314,-27.344,-50.781,-19.043,-22.461,0.000
1726815517.318,-32.227,-46.875,-25.879,-19.531,0.000
1726815517.322,-23.926,-41.992,-32.715,-12.695,0.000
1726815517.325,-13.184,-40.527,-35.645,-2.930,0.000
1726815517.329,-12.695,-42.969,-44.922,-4.395,0.000
1726815517.333,-26.855,-42.969,-44.922,-24.414,0.000
1726815517.337,-20.996,-38.086,-49.805,-20.020,0.000
1726815517.341,-18.066,-41.504,-62.500,-18.066,0.000
1726815517.345,-25.879,-47.363,-54.199,-20.020,0.000
1726815517.349,-16.113,-44.434,-42.969,-11.719,0.000
1726815517.353,-20.996,-43.457,-39.551,-16.113,0.000
1726815517.357,-26.367,-42.480,-49.805,-9.766,0.000
1726815517.361,-8.789,-38.086,-59.082,8.301,0.000
1726815517.364,11.230,-42.969,-55.664,22.949,0.000
1726815517.368,12.207,-45.410,-36.621,30.273,0.000
1726815517.372,-11.230,-40.527,-42.480,6.836,0.000
1726815517.376,-35.156,-41.504,-68.359,-24.414,0.000
1726815517.380,-20.508,-36.621,-68.359,-18.555,0.000
1726815517.384,-3.906,-35.156,-43.945,-2.441,0.000
1726815517.388,3.418,-37.109,-8.301,5.371,0.000
1726815517.392,-8.301,-38.086,-6.836,-8.301,0.000
1726815517.396,-24.414,-39.551,-22.949,-18.066,0.000
1726815517.400,-17.090,-37.109,-50.781,-11.230,0.000
1726815517.404,-12.207,-36.621,-60.547,-7.324,0.000
1726815517.407,-5.859,-39.551,-41.992,4.395,0.000
1726815517.411,-8.789,-42.480,-26.367,-3.906,0.000
1726815517.415,-23.438,-41.016,-25.391,-15.625,0.000
1726815517.419,-22.461,-42.969,-28.320,0.488,0.000
1726815517.423,-20.020,-41.992,-35.645,-11.719,0.000
1726815517.427,-7.812,-35.645,-43.945,-23.438,0.000
1726815517.431,-8.301,-33.203,-47.363,-18.066,0.000
1726815517.435,-21.484,-31.738,-46.875,-20.996,0.000
1726815517.439,-19.531,-31.250,-37.598,-19.043,0.000
1726815517.443,-7.324,-28.809,-32.227,-8.301,0.000
1726815517.447,6.348,-25.879,-36.621,-0.977,0.000
1726815517.450,6.348,-27.832,-39.551,-1.465,0.000
1726815517.454,-14.648,-28.320,-40.039,-9.766,0.000
1726815517.458,-6.348,-29.785,-40.039,7.812,0.000
1726815517.462,7.812,-32.715,-42.969,21.484,0.000
1726815517.466,3.418,-33.691,-56.641,5.371,0.000
1726815517.470,3.906,-32.227,-51.758,4.395,0.000
1726815517.474,-12.695,-37.109,-32.715,-5.859,0.000
1726815517.478,-24.902,-40.527,-34.180,-20.508,0.000
1726815517.482,-13.184,-32.227,-25.391,-11.230,0.000
1726815517.486,0.488,-26.367,-10.742,0.977,0.000
1726815517.489,-4.883,-27.344,-41.016,1.953,0.000
1726815517.493,-17.090,-32.227,-50.293,-10.254,0.000
1726815517.497,-12.207,-34.180,-30.762,-10.254,0.000
1726815517.501,-4.395,-29.785,-28.320,0.000,0.000
1726815517.505,-3.906,-31.738,-31.738,-1.465,0.000
1726815517.509,-2.930,-33.203,-35.645,-11.230,0.000
1726815517.513,-14.648,-31.738,-40.527,-22.949,0.000
1726815517.517,-25.879,-33.691,-49.316,-30.762,0.000
1726815517.521,-20.020,-37.598,-58.594,-32.715,0.000
1726815517.525,-6.836,-37.598,-49.316,-19.531,0.000
1726815517.529,-3.418,-36.133,-34.668,-14.160,0.000
1726815517.532,-15.625,-41.504,-50.293,-20.996,0.000
1726815517.536,-18.555,-41.992,-68.359,-24.414,0.000
1726815517.540,-15.625,-38.086,-51.270,-19.531,0.000
1726815517.544,-14.648,-44.922,-36.621,-16.602,0.000
1726815517.548,-15.137,-47.363,-39.551,-19.043,0.000
1726815517.552,-26.855,-48.828,-46.387,-17.090,0.000
1726815517.556,-33.203,-48.340,-45.898,-25.879,0.000
1726815517.560,-23.926,-46.875,-38.086,-27.344,0.000
1726815517.564,-8.789,-46.875,-72.754,-10.742,0.000
1726815517.568,-2.930,-44.922,-64.941,0.977,0.000
1726815517.572,-19.043,-41.016,-33.203,-6.348,0.000
1726815517.575,-33.203,-39.551,-42.480,-26.855,0.000
1726815517.579,-27.832,-43.945,-34.668,-28.320,0.000
1726815517.583,-13.184,-40.039,-26.855,-17.090,0.000
1726815517.587,-2.441,-32.715,-43.457,-16.602,0.000
1726815517.591,-23.926,-36.621,-39.062,-28.320,0.000
1726815517.595,-38.574,-46.875,-30.273,-41.504,0.000
1726815517.599,-29.785,-47.363,-29.785,-25.879,0.000
1726815517.603,-20.020,-35.645,-32.715,-8.301,0.000
1726815517.607,-9.766,-34.668,-36.133,-11.230,0.000
1726815517.611,-20.996,-45.410,-41.504,-12.695,0.000
1726815517.615,-37.598,-42.480,-52.246,-11.230,0.000
1726815517.618,-21.973,-36.133,-57.129,-11.719,0.000
1726815517.622,-12.207,-37.109,-46.875,-8.789,0.000
1726815517.626,-16.113,-40.527,-47.363,-15.137,0.000
1726815517.630,-27.832,-41.016,-62.500,-31.250,0.000
1726815517.634,-37.598,-38.086,-58.594,-29.785,0.000
1726815517.638,-37.598,-39.551,-46.875,-24.414,0.000
1726815517.642,-36.133,-43.457,-38.086,-22.461,0.000
1726815517.646,-21.484,-43.457,-36.133,-22.461,0.000
1726815517.650,-21.973,-42.480,-48.828,-35.645,0.000
1726815517.654,-34.180,-37.598,-51.270,-33.203,0.000
1726815517.658,-22.461,-39.062,-47.852,-7.324,0.000
1726815517.661,-21.973,-39.551,-76.172,-9.766,0.000
1726815517.665,-14.160,-33.691,-84.473,-17.578,0.000
1726815517.669,-11.230,-33.203,-60.059,-26.855,0.000
1726815517.673,-29.785,-38.574,-37.598,-40.527,0.000
1726815517.677,-35.156,-43.457,-16.602,-37.598,0.000
1726815517.681,-29.785,-41.992,-21.973,-28.320,0.000
1726815517.685,-17.578,-41.992,-33.203,-15.137,0.000
1726815517.689,-20.508,-45.410,-35.645,-18.555,0.000
1726815517.693,-31.738,-41.992,-47.363,-22.461,0.000
1726815517.697,-25.391,-39.551,-54.199,-9.277,0.000
1726815517.700,-0.977,-41.016,-57.617,12.207,0.000
1726815517.704,2.441,-38.086,-50.781,7.812,0.000
1726815517.708,-17.578,-31.250,-24.414,-22.949,0.000
1726815517.712,-41.504,-29.785,-17.578,-36.133,0.000
1726815517.716,-44.922,-36.133,-24.414,-31.738,0.000
1726815517.720,-41.016,-36.621,-31.250,-28.320,0.000
1726815517.724,-31.250,-33.203,-37.598,-24.902,0.000
1726815517.728,-21.484,-35.156,-34.668,-17.578,0.000
1726815517.732,-30.762,-38.086,-38.086,-18.555,0.000
1726815517.736,-27.832,-43.945,-46.387,-21.973,0.000
1726815517.740,-24.902,-42.969,-69.824,-20.020,0.000
1726815517.744,-15.137,-36.133,-90.820,-13.672,0.000
1726815517.747,-6.836,-36.133,-62.012,-13.672,0.000
1726815517.751,-33.691,-41.016,-31.738,-32.227,0.000
1726815517.755,-38.574,-37.598,-14.648,-32.227,0.000
1726815517.759,-24.414,-33.203,-15.137,-19.531,0.000
1726815517.763,-23.926,-33.203,-30.762,-21.484,0.000
1726815517.767,-16.113,-33.691,-30.762,-14.160,0.000
1726815517.771,-19.531,-31.738,-37.598,-10.254,0.000
1726815517.775,-25.879,-32.715,-38.086,-12.695,0.000
1726815517.779,-26.855,-33.691,-31.250,-11.230,0.000
1726815517.783,-20.508,-32.227,-32.227,-17.090,0.000
1726815517.786,-7.812,-35.156,-35.156,-26.367,0.000
1726815517.790,-18.066,-33.691,-33.691,-24.902,0.000
1726815517.794,-28.320,-32.715,-40.039,-29.297,0.000
1726815517.798,-18.066,-28.320,-38.574,-24.414,0.000
1726815517.802,-9.766,-27.344,-26.855,-13.184,0.000
1726815517.806,-8.301,-36.133,-18.066,-3.906,0.000
1726815517.810,-18.555,-34.668,-11.230,-8.301,0.000
1726815517.814,-33.691,-36.621,-22.461,-30.273,0.000
1726815517.818,-23.438,-41.016,-31.250,-18.066,0.000
1726815517.822,-14.648,-38.086,-37.598,-11.230,0.000
1726815517.826,-10.254,-34.180,-44.922,-17.090,0.000
1726815517.829,-14.648,-36.621,-42.480,-13.184,0.000
1726815517.833,-30.273,-40.527,-52.734,-16.113,0.000
1726815517.837,-21.484,-38.086,-56.641,-12.695,0.000
1726815517.841,-17.090,-32.715,-50.293,-13.672,0.000
1726815517.845,-11.719,-32.715,-49.316,-19.531,0.000
1726815517.849,-5.371,-33.691,-37.598,-20.996,0.000
1726815517.853,-21.973,-32.227,-30.273,-27.344,0.000
1726815517.857,-20.996,-33.203,-41.992,-25.879,0.000
1726815517.861,-8.301,-38.086,-40.527,-10.742,0.000
1726815517.865,-3.906,-40.527,-30.273,1.953,0.000
1726815517.868,-3.906,-35.645,-27.832,0.000,0.000
1726815517.872,-18.066,-26.855,-33.203,-6.836,0.000
1726815517.876,-17.578,-21.973,-49.316,-14.160,0.000
1726815517.880,-5.371,-26.855,-46.387,-10.742,0.000
1726815517.884,2.441,-26.367,-49.316,-3.906,0.000
1726815517.888,-7.324,-27.344,-54.688,-19.043,0.000
1726815517.892,-18.066,-34.668,-46.387,-26.855,0.000
1726815517.896,-14.160,-31.250,-53.711,-21.973,0.000
1726815517.900,-14.648,-30.762,-49.316,-20.020,0.000
1726815517.904,-15.137,-36.621,-30.762,-20.508,0.000
1726815517.908,-12.695,-36.133,-30.762,-22.949,0.000
1726815517.911,-23.926,-34.668,-39.551,-33.203,0.000
1726815517.915,-27.832,-34.180,-45.410,-41.016,0.000
1726815517.919,-20.996,-36.621,-45.898,-32.227,0.000
1726815517.923,-19.043,-40.039,-54.199,-28.320,0.000
1726815517.927,-16.113,-37.598,-55.176,-18.555,0.000
1726815517.931,-30.762,-35.645,-46.875,-26.367,0.000
1726815517.935,-36.133,-39.062,-42.969,-27.344,0.000
1726815517.939,-28.809,-42.480,-43.457,-20.996,0.000
1726815517.943,-24.902,-45.898,-41.016,-24.414,0.000
1726815517.947,-24.414,-48.340,-40.039,-21.484,0.000
1726815517.951,-34.668,-41.016,-44.922,-23.438,0.000
1726815517.955,-28.320,-35.156,-53.223,-22.949,0.000
1726815517.958,-18.066,-34.180,-56.641,-19.531,0.000
1726815517.962,-19.531,-36.621,-41.504,-21.973,0.000
1726815517.966,-18.066,-39.062,-27.344,-13.672,0.000
1726815517.970,-25.391,-42.969,-27.832,-15.625,0.000
1726815517.974,-33.203,-41.016,-40.039,-22.949,0.000
1726815517.978,-25.391,-32.227,-45.410,-12.207,0.000
1726815517.982,-15.137,-29.785,-43.945,-15.137,0.000
1726815517.986,-12.207,-35.156,-55.176,-11.719,0.000
1726815517.990,-18.066,-34.180,-71.777,-3.906,0.000
1726815517.994,-32.227,-36.133,-62.988,-18.555,0.000
1726815517.997,-25.391,-37.109,-40.039,-13.184,0.000
1726815518.001,-10.254,-34.668,-45.410,-7.324,0.000
1726815518.005,-13.672,-39.062,-37.109,-15.137,0.000
1726815518.009,-22.949,-32.715,-12.695,-16.602,0.000
1726815518.013,-31.250,-31.250,-7.324,-22.461,0.000
1726815518.017,-21.484,-33.691,-23.438,-20.508,0.000
1726815518.021,-13.184,-32.715,-39.551,-12.695,0.000
1726815518.025,-13.184,-34.668,-35.156,-14.648,0.000
1726815518.029,-21.973,-33.691,-27.832,-15.625,0.000
1726815518.033,-24.902,-31.738,-41.992,-18.555,0.000
1726815518.037,-20.020,-31.738,-64.453,-16.602,0.000
1726815518.040,-21.973,-31.738,-48.340,-12.695,0.000
1726815518.044,-11.719,-40.527,-28.320,-8.789,0.000
1726815518.048,-18.066,-43.457,-30.273,-4.395,0.000
1726815518.052,-29.785,-36.621,-25.879,-16.113,0.000
1726815518.056,-17.578,-30.762,-20.508,-7.812,0.000
1726815518.060,-14.648,-30.273,-30.273,-0.488,0.000
1726815518.064,-14.160,-37.598,-35.645,-5.859,0.000
1726815518.068,-14.160,-42.480,-34.668,-8.789,0.000
1726815518.072,-29.297,-39.062,-38.574,-19.043,0.000
1726815518.076,-28.809,-37.598,-41.504,-14.160,0.000
1726815518.080,-21.484,-39.551,-48.828,1.953,0.000
1726815518.083,-23.926,-37.109,-66.895,-3.906,0.000
1726815518.087,-19.043,-36.133,-57.129,-20.020,0.000
1726815518.091,-21.973,-37.598,-37.598,-30.762,0.000
1726815518.095,-32.227,-38.086,-39.551,-30.762,0.000
1726815518.099,-22.461,-34.180,-36.133,-18.555,0.000
1726815518.103,-12.207,-33.203,-28.320,-10.742,0.000
1726815518.107,-27.832,-40.527,-32.715,-19.531,0.000
1726815518.111,-40.039,-42.969,-41.016,-24.902,0.000
1726815518.115,-37.109,-42.480,-42.969,-25.391,0.000
1726815518.119,-29.785,-41.992,-47.363,-24.414,0.000
1726815518.123,-20.020,-39.062,-56.152,-14.160,0.000
1726815518.126,-18.066,-37.598,-62.500,-17.090,0.000
1726815518.130,-30.762,-38.086,-36.133,-33.691,0.000
1726815518.134,-33.691,-42.480,-42.480,-33.203,0.000
1726815518.138,-23.438,-39.551,-90.332,-22.461,0.000
1726815518.142,-20.996,-36.621,-60.547,-19.043,0.000
1726815518.146,-22.949,-38.086,-14.160,-23.438,0.000
1726815518.150,-29.297,-35.645,-14.160,-30.273,0.000
1726815518.154,-28.809,-35.645,-29.785,-27.344,0.000
1726815518.158,-22.461,-34.668,-41.992,-20.996,0.000
1726815518.162,-18.066,-31.738,-48.340,-22.461,0.000
1726815518.165,-8.789,-31.738,-61.035,-14.160,0.000
1726815518.169,-20.508,-33.691,-62.988,-17.578,0.000
1726815518.173,-32.227,-33.203,-61.035,-27.832,0.000
1726815518.177,-22.949,-31.738,-45.898,-22.949,0.000
1726815518.181,-20.020,-37.598,-43.457,-23.926,0.000
1726815518.185,-25.391,-40.039,-50.781,-24.414,0.000
1726815518.189,-38.086,-41.016,-48.340,-36.133,0.000
1726815518.193,-40.527,-41.016,-39.551,-31.738,0.000
1726815518.197,-30.762,-41.016,-39.551,-17.578,0.000
1726815518.201,-36.133,-41.504,-44.434,-28.320,0.000
1726815518.205,-31.738,-41.992,-43.945,-24.902,0.000
1726815518.208,-33.203,-41.504,-51.270,-23.926,0.000
1726815518.212,-37.598,-39.062,-67.383,-26.855,0.000
1726815518.216,-39.062,-41.992,-60.059,-28.320,0.000
1726815518.220,-35.156,-43.945,-50.781,-26.367,0.000
1726815518.224,-18.555,-35.156,-52.246,-12.695,0.000
1726815518.228,-23.438,-30.762,-43.945,-13.184,0.000
1726815518.232,-33.203,-35.156,-29.297,-18.555,0.000
1726815518.236,-32.227,-42.969,-29.785,-22.949,0.000
1726815518.240,-30.762,-46.387,-40.527,-20.996,0.000
1726815518.244,-16.602,-48.828,-37.598,-10.742,0.000
1726815518.248,-20.020,-47.363,-35.156,-14.160,0.000
1726815518.251,-35.156,-43.945,-37.598,-28.809,0.000
1726815518.255,-30.762,-45.898,-39.551,-28.320,0.000
1726815518.259,-25.879,-44.922,-41.992,-22.949,0.000
1726815518.263,-15.137,-40.527,-44.922,-21.973,0.000
1726815518.267,-15.625,-35.645,-52.246,-29.297,0.000
1726815518.271,-28.809,-34.180,-47.852,-26.855,0.000
1726815518.275,-26.367,-34.668,-46.875,-18.066,0.000
1726815518.279,-20.996,-30.273,-49.316,-14.648,0.000
1726815518.283,0.000,-28.809,-41.016,-7.812,0.000
1726815518.287,0.000,-34.180,-29.785,-9.277,0.000
1726815518.291,0.000,-36.133,-21.973,-20.020,0.000
1726815518.294,0.000,-38.574,-25.391,-13.184,0.000
1726815518.298,0.000,-41.992,-37.109,-13.672,0.000
1726815518.302,0.000,-42.969,-37.598,-17.578,0.000
1726815518.306,0.000,-39.551,-34.180,-15.137,0.000
1726815518.310,0.000,-35.645,-30.762,-36.621,0.000
1726815518.314,0.000,-34.668,-37.598,-31.738,0.000
1726815518.318,0.000,-30.762,-46.387,-14.648,0.000
1726815518.322,0.000,-29.785,-44.434,-27.344,0.000
1726815518.326,0.000,-33.691,-35.156,-35.645,0.000
1726815518.330,-34.180,-32.227,-28.320,-34.180,0.000
1726815518.333,-35.156,-28.320,-40.039,-23.926,0.000
1726815518.337,-31.250,-26.367,-41.016,-20.508,0.000
1726815518.341,-27.344,-29.785,-31.250,-29.785,0.000
1726815518.345,-22.949,-36.133,-27.832,-28.809,0.000
1726815518.349,-32.715,-37.598,-36.621,-34.668,0.000
1726815518.353,-29.297,-36.133,-44.922,-38.574,0.000
1726815518.357,-22.949,-32.715,-39.551,-34.668,0.000
1726815518.361,-26.855,-36.133,-38.086,-29.785,0.000
1726815518.365,-27.344,-40.039,-43.945,-18.066,0.000
1726815518.369,-30.273,-33.203,-62.988,-20.508,0.000
1726815518.373,-30.273,-24.902,-62.500,-26.855,0.000
1726815518.376,-18.066,-23.438,-48.828,-20.508,0.000
1726815518.380,-5.859,-24.414,-56.641,-10.254,0.000
1726815518.384,-8.301,-23.438,-49.805,-5.859,0.000
1726815518.388,-18.555,-25.879,-30.273,-15.137,0.000
1726815518.392,-19.531,-31.250,-30.762,-19.531,0.000
1726815518.396,-19.531,-37.598,-22.461,-14.648,0.000
1726815518.400,-25.391,-40.527,-17.578,-23.926,0.000
1726815518.404,-14.648,-39.062,-21.973,-22.949,0.000
1726815518.408,-20.020,-39.062,-21.973,-8.301,0.000
1726815518.412,-33.203,-37.109,-46.875,-16.602,0.000
1726815518.416,-25.391,-34.668,-67.383,-17.090,0.000
1726815518.419,-9.766,-33.203,-46.875,-8.789,0.000
1726815518.423,-12.207,-34.668,-30.273,-12.207,0.000
1726815518.427,-24.414,-36.621,-45.410,-23.438,0.000
1726815518.431,-27.344,-36.621,-29.785,-34.668,0.000
1726815518.435,-23.926,-33.691,-16.602,-29.785,0.000
1726815518.439,-11.719,-26.367,-37.109,-17.578,0.000
1726815518.443,1.953,-29.785,-42.969,-8.789,0.000
1726815518.447,-20.508,-35.156,-25.879,-16.113,0.000
1726815518.451,-41.992,-40.527,-21.973,-22.949,0.000
1726815518.455,-28.809,-44.434,-44.434,-17.578,0.000
1726815518.459,-21.484,-44.922,-47.852,-23.438,0.000
1726815518.462,-16.602,-43.457,-19.531,-26.855,0.000
1726815518.466,-23.926,-44.434,-16.602,-33.691,0.000
1726815518.470,-40.039,-45.898,-47.852,-32.715,0.000
1726815518.474,-40.039,-41.016,-51.270,-32.227,0.000
1726815518.478,-27.832,-32.227,-30.762,-32.227,0.000
1726815518.482,-10.742,-34.180,-31.738,-23.926,0.000
1726815518.486,-17.090,-38.086,-29.785,-21.973,0.000
1726815518.490,-30.762,-34.180,-35.645,-36.621,0.000
1726815518.494,-22.949,-38.086,-41.992,-28.320,0.000
1726815518.498,-19.043,-43.457,-22.949,-1.465,0.000
1726815518.501,-18.555,-41.016,-19.043,-8.301,0.000
1726815518.505,-11.719,-35.156,-40.527,-10.742,0.000
1726815518.509,-17.578,-32.227,-40.527,-9.277,0.000
1726815518.513,-21.973,-34.668,-31.738,-20.020,0.000
1726815518.517,-15.625,-37.109,-36.621,-18.066,0.000
1726815518.521,-1.465,-37.598,-39.062,-9.277,0.000
1726815518.525,-6.348,-37.598,-35.156,-11.230,0.000
1726815518.529,-22.949,-37.598,-41.504,-14.160,0.000
1726815518.533,-14.160,-34.668,-57.129,-14.648,0.000
1726815518.537,-9.277,-35.645,-44.922,-16.113,0.000
1726815518.541,-5.371,-42.480,-22.461,-10.254,0.000
1726815518.544,-7.812,-41.992,-37.109,-5.859,0.000
1726815518.548,-25.879,-37.598,-52.734,-21.484,0.000
1726815518.552,-22.461,-36.133,-40.527,-27.344,0.000
1726815518.556,-11.719,-37.598,-22.949,-7.324,0.000
1726815518.560,-1.465,-34.668,-31.250,2.441,0.000
1726815518.564,1.465,-28.320,-41.016,-3.906,0.000
1726815518.568,-14.648,-30.762,-25.879,-9.766,0.000
1726815518.572,-9.277,-31.738,-17.578,-8.789,0.000
1726815518.576,-5.371,-29.297,-20.020,-1.953,0.000
1726815518.580,-10.254,-32.227,-21.973,4.883,0.000
1726815518.584,-5.859,-33.203,-31.738,0.977,0.000
1726815518.587,-16.113,-31.250,-29.785,1.465,0.000
1726815518.591,-23.926,-28.809,-46.875,-3.906,0.000
1726815518.595,-16.602,-27.832,-54.199,-12.695,0.000
1726815518.599,-14.648,-36.133,-36.621,-6.836,0.000
1726815518.603,-9.277,-39.062,-54.688,-7.812,0.000
1726815518.607,-15.137,-37.109,-55.664,-19.531,0.000
1726815518.611,-23.926,-36.133,-33.691,-22.461,0.000
1726815518.615,-11.719,-38.086,-26.367,-9.766,0.000
1726815518.619,-11.230,-43.945,-26.367,-14.160,0.000
1726815518.623,-18.555,-42.969,-45.898,-24.414,0.000
1726815518.626,-21.973,-39.062,-61.523,-17.578,0.000
1726815518.630,-26.367,-37.109,-56.641,-21.973,0.000
1726815518.634,-23.438,-40.527,-40.527,-21.973,0.000
1726815518.638,-14.648,-40.039,-29.785,-18.555,0.000
1726815518.642,-10.254,-42.969,-29.297,-21.973,0.000
1726815518.646,-17.090,-44.922,-21.484,-20.020,0.000
1726815518.650,-29.785,-42.969,-24.414,-24.414,0.000
1726815518.654,-19.043,-45.410,-26.855,-9.277,0.000
1726815518.658,-10.742,-46.387,-28.809,-3.906,0.000
1726815518.662,-15.625,-45.898,-42.480,-14.160,0.000
1726815518.666,-18.555,-44.922,-47.363,-12.695,0.000
1726815518.669,-30.273,-44.434,-57.129,-20.508,0.000
1726815518.673,-28.809,-40.527,-93.750,-16.113,0.000
1726815518.677,-21.484,-40.527,-81.543,-10.254,0.000
1726815518.681,-19.531,-46.387,-20.996,-15.625,0.000
1726815518.685,-21.484,-41.504,0.488,-23.438,0.000
1726815518.689,-34.180,-40.039,-10.254,-23.438,0.000
1726815518.693,-35.156,-47.363,-15.625,-17.578,0.000
1726815518.697,-34.180,-46.387,-25.391,-27.832,0.000
1726815518.701,-23.438,-44.922,-38.574,-26.367,0.000
1726815518.705,-20.020,-45.410,-41.992,-28.809,0.000
1726815518.709,-34.668,-40.527,-44.434,-41.992,0.000
1726815518.712,-29.785,-35.645,-43.457,-33.203,0.000
1726815518.716,-17.578,-35.645,-43.945,-30.273,0.000
1726815518.720,-17.090,-39.062,-38.574,-30.273,0.000
1726815518.724,-16.113,-36.133,-30.273,-25.879,0.000
1726815518.728,-26.855,-35.645,-30.762,-29.297,0.000
1726815518.732,-24.414,-37.598,-32.227,-25.391,0.000
1726815518.736,-16.602,-39.551,-33.691,-23.926,0.000
1726815518.740,-18.555,-45.898,-44.434,-22.949,0.000
1726815518.744,-19.043,-41.016,-54.199,-19.043,0.000
1726815518.748,-23.926,-29.785,-44.434,-16.113,0.000
1726815518.752,-32.227,-34.180,-38.086,-15.137,0.000
1726815518.755,-27.344,-35.156,-59.082,-25.879,0.000
1726815518.759,-5.371,-30.762,-78.125,-23.926,0.000
1726815518.763,-4.883,-31.738,-62.988,-20.508,0.000
1726815518.767,-23.438,-41.016,-36.621,-29.297,0.000
1726815518.771,-24.902,-40.527,-18.555,-24.902,0.000
1726815518.775,-21.973,-40.039,-16.602,-12.207,0.000
1726815518.779,-17.090,-41.504,-26.367,-10.254,0.000
1726815518.783,-16.602,-44.434,-31.250,-12.207,0.000
1726815518.787,-48.828,-44.434,-39.062,-21.973,0.000
1726815518.791,-34.668,-38.574,-47.363,-25.879,0.000
1726815518.795,-16.602,-39.062,-47.852,-18.555,0.000
1726815518.798,-23.438,-40.039,-53.223,-17.578,0.000
1726815518.802,-20.508,-44.922,-52.734,-25.391,0.000
1726815518.806,-25.879,-42.480,-45.410,-26.855,0.000
1726815518.810,-31.738,-37.598,-42.480,-16.113,0.000
1726815518.814,-27.344,-37.109,-38.574,-12.695,0.000
1726815518.818,-24.902,-38.086,-46.387,-20.508,0.000
1726815518.822,-21.484,-41.992,-57.129,-21.484,0.000
1726815518.826,-24.414,-38.086,-45.410,-23.438,0.000
1726815518.830,-31.738,-35.156,-26.367,-25.391,0.000
1726815518.834,-32.715,-37.109,-27.832,-26.855,0.000
1726815518.837,-25.391,-40.527,-37.598,-28.809,0.000
1726815518.841,-16.113,-39.551,-45.410,-20.020,0.000
1726815518.845,-27.344,-35.156,-54.688,-20.996,0.000
1726815518.849,-39.062,-41.992,-49.805,-34.668,0.000
1726815518.853,-35.645,-44.922,-39.062,-26.855,0.000
1726815518.857,-31.250,-44.922,-39.062,-27.832,0.000
1726815518.861,-20.996,-43.457,-50.293,-29.785,0.000
1726815518.865,-25.391,-37.109,-47.363,-29.785,0.000
1726815518.869,-40.527,-38.086,-35.156,-35.645,0.000
1726815518.873,-35.156,-42.480,-36.133,-20.020,0.000
1726815518.877,-30.762,-37.598,-46.875,-17.090,0.000
1726815518.880,-28.809,-31.738,-52.734,-22.461,0.000
1726815518.884,-26.855,-33.203,-45.410,-25.879,0.000
1726815518.888,-27.832,-31.738,-47.852,-32.227,0.000
1726815518.892,-26.855,-32.715,-53.711,-30.273,0.000
1726815518.896,-23.438,-33.691,-43.945,-20.020,0.000
1726815518.900,-11.719,-34.668,-29.785,-11.719,0.000
1726815518.904,-17.578,-37.598,-23.438,-14.648,0.000
1726815518.908,-29.297,-39.551,-40.527,-19.531,0.000
1726815518.912,-20.508,-36.133,-70.312,-15.137,0.000
1726815518.916,-14.648,-39.062,-48.340,-8.789,0.000
1726815518.920,-17.578,-44.922,-22.949,-11.719,0.000
1726815518.923,-27.344,-45.410,-34.180,-21.484,0.000
1726815518.927,-36.621,-43.457,-37.109,-27.832,0.000
1726815518.931,-34.180,-42.969,-36.133,-32.227,0.000
1726815518.935,-25.391,-47.363,-41.016,-20.508,0.000
1726815518.939,-12.695,-43.457,-45.410,-17.090,0.000
1726815518.943,-13.672,-36.133,-61.035,-17.090,0.000
1726815518.947,-25.879,-37.598,-72.754,-11.230,0.000
1726815518.951,-20.020,-40.039,-65.918,-9.277,0.000
1726815518.955,-13.184,-39.551,-47.363,-7.324,0.000
1726815518.959,-8.789,-39.551,-27.344,-8.789,0.000
1726815518.962,-13.184,-36.133,-19.531,-2.441,0.000
1726815518.966,-37.109,-36.133,-25.879,-15.625,0.000
1726815518.970,-33.203,-37.109,-38.574,-24.414,0.000
1726815518.974,-20.508,-35.645,-43.945,-16.602,0.000
1726815518.978,-20.020,-32.227,-41.992,-18.555,0.000
1726815518.982,-19.043,-34.180,-32.227,-20.508,0.000
1726815518.986,-32.715,-38.574,-28.320,-26.367,0.000
1726815518.990,-34.180,-37.109,-31.250,-31.738,0.000
1726815518.994,-24.902,-32.227,-33.203,-22.949,0.000
1726815518.998,-27.344,-31.250,-31.250,-11.230,0.000
1726815519.002,-22.461,-28.320,-31.250,-11.230,0.000
1726815519.005,-23.926,-29.785,-41.992,-6.836,0.000
1726815519.009,-28.320,-34.668,-48.340,-7.812,0.000
1726815519.013,-28.320,-39.062,-44.434,-23.438,0.000
1726815519.017,-23.438,-39.551,-35.645,-19.043,0.000
1726815519.021,-21.973,-43.457,-33.691,-19.043,0.000
1726815519.025,-37.109,-41.504,-44.434,-30.762,0.000
1726815519.029,-34.668,-34.668,-52.734,-27.344,0.000
1726815519.033,-25.391,-41.016,-52.734,-21.973,0.000
1726815519.037,-21.973,-43.945,-41.992,-21.973,0.000
1726815519.041,-20.508,-41.992,-34.668,-27.344,0.000
1726815519.045,-38.086,-44.922,-42.480,-38.574,0.000
1726815519.048,-34.668,-37.109,-41.504,-29.785,0.000
1726815519.052,-15.137,-34.180,-34.668,-13.184,0.000
1726815519.056,-9.766,-38.574,-43.945,-10.254,0.000
1726815519.060,-6.348,-39.551,-54.199,-11.719,0.000
1726815519.064,-19.043,-41.992,-43.945,-20.020,0.000
1726815519.068,-20.508,-38.086,-38.574,-19.043,0.000
1726815519.072,-20.508,-39.062,-54.688,-20.996,0.000
1726815519.076,-21.973,-40.039,-53.223,-30.762,0.000
1726815519.080,-13.184,-37.598,-35.645,-30.273,0.000
1726815519.084,-21.484,-33.691,-36.621,-25.879,0.000
1726815519.088,-34.668,-32.715,-43.945,-33.203,0.000
1726815519.091,-33.203,-34.668,-42.480,-33.203,0.000
1726815519.095,-22.949,-35.156,-38.574,-20.020,0.000
1726815519.099,-16.602,-36.621,-40.527,-18.066,0.000
1726815519.103,-27.344,-35.156,-53.711,-26.367,0.000
1726815519.107,-38.574,-32.227,-66.895,-26.367,0.000
1726815519.111,-26.855,-37.109,-52.734,-13.672,0.000
1726815519.115,-26.367,-39.062,-28.809,-4.883,0.000
1726815519.119,-20.996,-36.621,-23.926,-11.719,0.000
1726815519.123,-21.973,-41.504,-25.391,-20.996,0.000
1726815519.127,-41.992,-42.480,-37.598,-26.855,0.000
1726815519.131,-34.668,-38.086,-46.875,-26.855,0.000
1726815519.134,-21.973,-38.086,-45.898,-15.137,0.000
1726815519.138,-13.184,-39.551,-43.945,-9.277,0.000
1726815519.142,-21.484,-42.969,-46.875,-21.973,0.000
1726815519.146,-29.785,-40.527,-49.805,-22.461,0.000
1726815519.150,-31.738,-39.551,-45.898,-17.090,0.000
1726815519.154,-27.832,-41.992,-39.551,-19.043,0.000
1726815519.158,-9.766,-39.062,-38.086,-7.812,0.000
1726815519.162,-18.555,-38.086,-46.387,-16.113,0.000
1726815519.166,-34.668,-39.062,-38.574,-18.555,0.000
1726815519.170,-30.273,-40.527,-24.414,-9.766,0.000
1726815519.173,-24.902,-40.527,-31.250,-13.184,0.000
1726815519.177,-18.066,-33.203,-41.992,-7.324,0.000
1726815519.181,-16.113,-33.203,-40.039,-7.812,0.000
1726815519.185,-28.809,-38.086,-34.180,-18.555,0.000
1726815519.189,-30.762,-41.504,-29.297,-19.043,0.000
1726815519.193,-23.926,-39.551,-29.785,-4.395,0.000
1726815519.197,-27.832,-38.574,-26.367,-6.348,0.000
1726815519.201,-25.879,-38.574,-27.344,-20.996,0.000
1726815519.205,-34.668,-40.527,-34.668,-23.438,0.000
1726815519.209,-41.992,-39.062,-34.668,-30.273,0.000
1726815519.213,-34.180,-35.645,-37.598,-20.996,0.000
1726815519.216,-25.391,-38.086,-58.105,-18.555,0.000
1726815519.220,-20.996,-38.086,-65.430,-16.602,0.000
1726815519.224,-33.691,-34.668,-44.922,-18.555,0.000
1726815519.228,-37.109,-30.273,-26.367,-26.855,0.000
1726815519.232,-22.949,-28.809,-21.484,-13.672,0.000
1726815519.236,-14.648,-32.227,-18.555,-3.418,0.000
1726815519.240,-16.113,-31.738,-19.043,-12.695,0.000
1726815519.244,-29.297,-29.297,-25.391,-25.879,0.000
1726815519.248,-27.832,-29.785,-28.809,-24.414,0.000
1726815519.252,-30.273,-33.691,-33.691,-29.297,0.000
1726815519.256,-27.344,-35.645,-47.363,-35.156,0.000
1726815519.259,-18.066,-39.062,-58.594,-27.832,0.000
1726815519.263,-40.039,-41.992,-47.363,-36.133,0.000
1726815519.267,-45.410,-35.645,-39.062,-45.898,0.000
1726815519.271,-34.180,-32.715,-37.598,-36.621,0.000
1726815519.275,-31.250,-34.180,-38.086,-31.250,0.000
1726815519.279,-29.785,-29.297,-45.410,-26.855,0.000
1726815519.283,-38.086,-24.414,-39.062,-24.902,0.000
1726815519.287,-41.016,-28.320,-42.969,-46.387,0.000
1726815519.291,-35.645,-29.785,-46.875,-51.758,0.000
1726815519.295,-37.109,-31.738,-40.039,-36.133,0.000
1726815519.298,-38.574,-34.180,-43.945,-35.645,0.000
1726815519.302,-42.969,-26.855,-33.691,-34.668,0.000
1726815519.306,-56.641,-23.926,-31.738,-40.039,0.000
1726815519.310,-65.430,-32.227,-38.574,-53.223,0.000
1726815519.314,-65.430,-41.504,-27.832,-57.129,0.000
1726815519.318,-47.852,-40.039,-26.855,-43.457,0.000
1726815519.322,-68.359,-35.156,-30.762,-59.570,0.000
1726815519.326,-99.121,-21.973,-24.414,-95.703,0.000
1726815519.330,-104.980,-10.254,-21.973,-104.492,0.000
1726815519.334,-122.070,-18.555,-16.113,-118.652,0.000
1726815519.338,-133.301,-22.461,-14.648,-135.742,0.000
1726815519.341,-156.738,-12.207,-16.602,-157.227,0.000
1726815519.345,-177.734,-12.695,-7.324,-171.875,0.000
1726815519.349,-193.359,-15.625,-0.977,-183.105,0.000
1726815519.353,-222.168,-18.066,-1.465,-205.078,0.000
1726815519.357,-216.797,-13.672,0.000,-214.355,0.000
1726815519.361,-224.121,-6.836,1.465,-216.797,0.000
1726815519.365,-247.559,-16.113,0.488,-235.352,0.000
1726815519.369,-242.676,-19.043,-1.465,-247.070,0.000
1726815519.373,-232.910,-11.719,-5.859,-243.164,0.000
1726815519.377,-230.957,-4.883,0.977,-248.047,0.000
1726815519.381,-223.633,-7.812,12.207,-235.840,0.000
1726815519.384,-226.562,-12.695,16.602,-219.727,0.000
1726815519.388,-226.562,-17.578,6.836,-220.215,0.000
1726815519.392,-206.543,-20.996,4.883,-211.914,0.000
1726815519.396,-197.754,-22.949,0.488,-207.031,0.000
1726815519.400,-192.383,-20.020,-7.812,-201.660,0.000
1726815519.404,-195.312,-16.602,-3.418,-197.754,0.000
1726815519.408,-199.707,-17.090,1.465,-200.195,0.000
1726815519.412,-184.082,-22.461,10.254,-182.129,0.000
1726815519.416,-157.227,-29.785,1.465,-153.320,0.000
1726815519.420,-154.297,-31.250,-2.441,-158.203,0.000
1726815519.424,-179.199,-28.809,-13.672,-186.035,0.000
1726815519.427,-164.551,-29.297,-20.020,-171.387,0.000
1726815519.431,-145.020,-29.785,-14.160,-143.555,0.000
1726815519.435,-136.719,-27.344,-20.020,-141.602,0.000
1726815519.439,-128.418,-21.973,-15.625,-137.695,0.000
1726815519.443,-121.582,-22.461,-9.277,-120.605,0.000
1726815519.447,-131.348,-24.902,-16.113,-125.488,0.000
1726815519.451,-140.137,-19.043,-26.855,-134.277,0.000
1726815519.455,-128.418,-24.902,-34.668,-131.348,0.000
1726815519.459,-113.281,-37.109,-31.738,-119.629,0.000
1726815519.463,-125.000,-38.574,-13.184,-121.094,0.000
1726815519.467,-131.348,-36.133,-11.719,-129.395,0.000
1726815519.470,-109.863,-21.484,-27.344,-121.582,0.000
1726815519.474,-105.469,-20.508,-33.203,-115.723,0.000
1726815519.478,-83.496,-18.555,-35.156,-97.656,0.000
1726815519.482,-98.145,-26.367,-38.574,-115.723,0.000
1726815519.486,-121.094,-35.645,-39.551,-133.301,0.000
1726815519.490,-98.633,-18.555,-38.086,-101.562,0.000
1726815519.494,-85.938,-13.184,-35.645,-93.750,0.000
1726815519.498,-76.660,-25.879,-30.762,-88.867,0.000
1726815519.502,-92.285,-29.785,-33.203,-79.102,0.000
1726815519.506,-111.816,-20.996,-33.203,-87.891,0.000
1726815519.510,-80.078,-16.113,-34.668,-80.566,0.000
1726815519.513,-60.547,-21.484,-44.922,-69.336,0.000
1726815519.517,-50.293,-27.832,-51.270,-64.453,0.000
1726815519.521,-67.871,-36.133,-47.852,-69.824,0.000
1726815519.525,-84.961,-26.855,-45.410,-76.660,0.000
1726815519.529,-62.012,-11.719,-50.781,-65.918,0.000
1726815519.533,-49.316,-19.531,-54.199,-46.387,0.000
1726815519.537,-45.410,-24.414,-46.387,-43.457,0.000
1726815519.541,-47.363,-24.414,-34.180,-48.828,0.000
1726815519.545,-57.617,-28.320,-39.551,-50.293,0.000
1726815519.549,-47.852,-28.320,-43.457,-42.969,0.000
1726815519.553,-25.879,-26.855,-62.500,-21.973,0.000
1726815519.556,-9.277,-21.973,-102.051,-10.742,0.000
1726815519.560,-13.672,-27.344,-76.660,-11.719,0.000
1726815519.564,-21.973,-31.738,-16.113,-9.766,0.000
1726815519.568,-0.488,-23.438,-5.371,8.789,0.000
1726815519.572,27.832,-17.578,-28.809,29.297,0.000
1726815519.576,59.570,-15.625,-63.477,63.477,0.000
1726815519.580,69.824,-17.090,-99.121,86.426,0.000
1726815519.584,65.918,-20.996,-74.219,73.242,0.000
1726815519.588,88.867,-26.855,-44.434,92.285,0.000
1726815519.592,116.211,-28.809,-59.570,120.605,0.000
1726815519.595,123.535,-40.039,-14.648,114.746,0.000
1726815519.599,111.816,-51.758,20.020,107.910,0.000
1726815519.603,110.352,-52.246,-13.672,125.000,0.000
1726815519.607,131.836,-53.711,-39.551,145.996,0.000
1726815519.611,148.926,-55.664,-62.500,164.062,0.000
1726815519.615,169.434,-51.758,-120.605,183.594,0.000
1726815519.619,180.176,-52.246,-107.910,181.641,0.000
1726815519.623,160.645,-64.941,13.672,166.016,0.000
1726815519.627,142.578,-72.266,52.734,156.738,0.000
1726815519.631,152.344,-70.312,24.414,164.551,0.000
1726815519.635,159.668,-65.918,-11.230,162.109,0.000
1726815519.638,160.156,-62.988,-41.992,163.086,0.000
1726815519.642,149.902,-62.988,-20.508,165.039,0.000
1726815519.646,142.090,-62.012,-2.441,154.785,0.000
1726815519.650,149.414,-61.523,-6.836,157.227,0.000
1726815519.654,147.949,-59.082,-16.113,159.180,0.000
1726815519.658,139.160,-62.012,-17.090,147.461,0.000
1726815519.662,121.582,-64.453,-9.277,131.348,0.000
1726815519.666,117.676,-66.406,4.395,123.535,0.000
1726815519.670,119.141,-68.848,-15.137,131.836,0.000
1726815519.674,104.492,-67.383,-40.039,122.070,0.000
1726815519.678,103.027,-63.965,-32.715,109.375,0.000
1726815519.681,84.961,-67.383,5.371,96.191,0.000
1726815519.685,66.895,-63.477,17.090,71.777,0.000
1726815519.689,77.148,-55.176,-1.953,83.008,0.000
1726815519.693,80.078,-56.152,-20.020,84.473,0.000
1726815519.697,79.590,-56.152,-33.203,78.125,0.000
1726815519.701,69.824,-50.781,-35.645,79.590,0.000
1726815519.705,56.641,-52.734,-43.945,66.406,0.000
1726815519.709,54.199,-55.176,-53.711,58.594,0.000
1726815519.713,58.594,-53.223,-78.125,72.266,0.000
1726815519.717,71.289,-49.805,-86.426,81.543,0.000
1726815519.720,53.711,-48.340,-35.156,62.012,0.000
1726815519.724,27.832,-52.734,-9.766,42.969,0.000
1726815519.728,34.180,-50.293,-32.227,43.457,0.000
1726815519.732,39.062,-44.434,-40.527,42.969,0.000
1726815519.736,43.457,-43.945,-37.109,45.410,0.000
1726815519.740,37.109,-41.016,-44.922,40.527,0.000
1726815519.744,28.320,-40.527,-54.688,28.320,0.000
1726815519.748,28.320,-41.504,-55.664,38.574,0.000
1726815519.752,27.832,-42.480,-48.828,40.527,0.000
1726815519.756,38.574,-43.945,-47.363,39.062,0.000
1726815519.760,42.480,-40.527,-64.453,43.945,0.000
1726815519.763,24.902,-38.086,-58.594,22.949,0.000
1726815519.767,19.043,-40.527,-52.734,16.602,0.000
1726815519.771,24.414,-41.504,-89.355,29.785,0.000
1726815519.775,25.879,-43.945,-75.684,28.320,0.000
1726815519.779,15.625,-43.945,-52.246,9.766,0.000
1726815519.783,2.930,-46.875,-42.480,0.977,0.000
1726815519.787,10.254,-47.852,-48.340,13.672,0.000
1726815519.791,15.625,-41.016,-54.199,20.020,0.000
1726815519.795,19.043,-39.062,-42.480,20.996,0.000
1726815519.799,19.531,-39.062,-39.551,17.578,0.000
1726815519.803,14.648,-41.992,-39.551,14.160,0.000
1726815519.806,16.113,-43.457,-58.105,20.508,0.000
1726815519.810,13.184,-40.039,-54.688,18.555,0.000
1726815519.814,9.766,-39.551,-37.598,9.766,0.000
1726815519.818,14.160,-39.062,-48.828,18.555,0.000
1726815519.822,11.230,-34.668,-73.730,17.090,0.000
1726815519.826,3.906,-31.250,-74.707,2.441,0.000
1726815519.830,10.254,-32.227,-78.613,6.836,0.000
1726815519.834,17.090,-33.691,-60.547,9.766,0.000
1726815519.838,10.254,-39.062,-18.555,5.371,0.000
1726815519.842,-6.348,-41.992,-13.184,0.488,0.000
1726815519.846,-11.230,-43.945,-27.832,-0.977,0.000
1726815519.849,-5.859,-42.969,-30.762,5.371,0.000
1726815519.853,2.930,-38.574,-40.039,6.836,0.000
1726815519.857,-4.395,-42.480,-53.711,0.977,0.000
1726815519.861,-18.066,-41.504,-54.688,-3.906,0.000
1726815519.865,-4.395,-38.086,-44.434,15.137,0.000
1726815519.869,5.371,-38.086,-40.039,20.508,0.000
1726815519.873,0.000,-39.551,-44.922,4.883,0.000
1726815519.877,-12.695,-46.387,-40.527,-7.812,0.000
1726815519.881,-22.949,-49.316,-56.152,-11.230,0.000
1726815519.885,-11.230,-38.574,-83.008,-0.977,0.000
1726815519.888,-7.812,-34.668,-64.941,0.977,0.000
1726815519.892,-6.836,-40.039,-55.176,-0.977,0.000
1726815519.896,-2.930,-43.457,-57.617,-6.348,0.000
1726815519.900,-23.438,-46.387,-35.156,-22.949,0.000
1726815519.904,-29.785,-48.828,-19.531,-24.902,0.000
1726815519.908,-12.207,-47.852,-20.020,-0.488,0.000
1726815519.912,-8.789,-49.805,-38.086,-7.324,0.000
1726815519.916,-8.301,-53.223,-41.504,-17.090,0.000
1726815519.920,-16.113,-52.246,-50.781,-10.254,0.000
1726815519.924,-21.484,-46.875,-77.148,-14.160,0.000
1726815519.928,-21.973,-47.852,-57.617,-18.555,0.000
1726815519.931,-14.648,-46.875,-46.875,-8.301,0.000
1726815519.935,1.465,-45.898,-84.961,-1.465,0.000
1726815519.939,-13.184,-46.875,-68.359,-17.578,0.000
1726815519.943,-22.461,-43.945,-26.367,-24.902,0.000
1726815519.947,-14.160,-41.016,-37.598,-18.066,0.000
1726815519.951,-1.465,-41.504,-66.895,-3.906,0.000
1726815519.955,3.906,-42.969,-53.223,2.441,0.000
1726815519.959,-15.137,-43.945,-25.391,-10.254,0.000
1726815519.963,-22.949,-43.457,-32.227,-12.207,0.000
1726815519.967,-14.648,-40.039,-34.180,-6.836,0.000
1726815519.971,-20.508,-42.969,-35.156,-13.672,0.000
1726815519.974,-16.113,-45.410,-46.387,-8.301,0.000
1726815519.978,-11.719,-41.504,-62.988,-5.859,0.000
1726815519.982,-31.738,-44.434,-74.707,-15.137,0.000
1726815519.986,-26.855,-48.340,-70.312,-14.160,0.000
1726815519.990,-11.719,-42.969,-54.199,-7.324,0.000
1726815519.994,-6.348,-41.992,-49.316,-4.395,0.000
1726815519.998,-13.184,-45.898,-38.574,-6.836,0.000
1726815520.002,-28.320,-41.504,-21.973,-18.066,0.000
1726815520.006,-31.250,-38.574,-28.809,-25.391,0.000
1726815520.010,-28.809,-41.016,-42.480,-11.719,0.000
1726815520.013,-10.742,-40.527,-65.918,-1.465,0.000
1726815520.017,-7.324,-41.504,-86.426,-5.859,0.000
1726815520.021,-21.973,-40.527,-75.684,-12.695,0.000
1726815520.025,-21.973,-42.969,-62.500,-22.461,0.000
1726815520.029,-16.113,-50.781,-31.738,-21.484,0.000
1726815520.033,-6.348,-45.410,-0.977,-10.254,0.000
1726815520.037,-9.766,-41.504,-14.160,-11.230,0.000
1726815520.041,-21.973,-46.875,-33.691,-19.531,0.000
1726815520.045,-12.695,-49.316,-36.621,-12.207,0.000
1726815520.049,-15.625,-43.945,-55.664,-11.230,0.000
1726815520.053,-17.090,-39.551,-68.359,-15.137,0.000
1726815520.057,-9.277,-41.992,-50.293,-5.859,0.000
1726815520.060,-17.090,-36.133,-48.340,-3.418,0.000
1726815520.064,-24.414,-35.645,-59.082,-11.230,0.000
1726815520.068,-18.555,-44.922,-45.410,-11.719,0.000
1726815520.072,-3.418,-46.875,-45.410,-9.277,0.000
1726815520.076,-5.859,-44.922,-58.105,-11.230,0.000
1726815520.080,-17.090,-41.504,-62.012,-10.742,0.000
1726815520.084,-20.020,-38.574,-58.594,-12.695,0.000
1726815520.088,-20.508,-42.969,-44.922,-15.137,0.000
1726815520.092,-16.602,-41.992,-31.738,-13.184,0.000
1726815520.096,-10.742,-36.621,-38.086,-13.184,0.000
1726815520.099,-24.414,-40.527,-42.969,-16.602,0.000
1726815520.103,-24.902,-39.062,-39.551,-9.277,0.000
1726815520.107,-17.090,-35.645,-43.457,-4.883,0.000
1726815520.111,-13.184,-42.480,-45.898,-2.930,0.000
1726815520.115,-9.766,-38.086,-79.590,0.000,0.000
1726815520.119,-28.809,-35.645,-106.934,-9.277,0.000
1726815520.123,-31.250,-39.551,-67.871,-12.695,0.000
1726815520.127,-29.785,-38.086,-13.184,-17.578,0.000
1726815520.131,-25.879,-37.109,-0.488,-23.926,0.000
1726815520.135,-8.789,-35.645,-15.137,-6.836,0.000
1726815520.139,0.000,-29.297,-32.715,5.371,0.000
1726815520.142,-6.348,-28.320,-38.574,-4.883,0.000
1726815520.146,-22.949,-39.551,-36.133,-14.648,0.000
1726815520.150,-20.508,-44.434,-33.203,-3.906,0.000
1726815520.154,-0.977,-43.457,-36.133,4.883,0.000
1726815520.158,-17.578,-42.969,-44.922,-13.184,0.000
1726815520.162,-34.180,-39.062,-48.340,-17.578,0.000
1726815520.166,-10.742,-33.203,-59.082,-11.230,0.000
1726815520.170,-1.465,-31.738,-63.965,-10.254,0.000
1726815520.174,-4.395,-33.203,-48.828,-3.906,0.000
1726815520.178,-8.789,-38.574,-33.691,-4.883,0.000
1726815520.182,-13.672,-41.016,-44.434,-11.230,0.000
1726815520.185,-6.836,-38.086,-57.617,-12.695,0.000
1726815520.189,-4.883,-41.016,-58.594,-7.812,0.000
1726815520.193,0.488,-43.457,-46.387,0.977,0.000
1726815520.197,-7.812,-38.086,-30.762,-9.766,0.000
1726815520.201,-21.484,-30.273,-34.668,-20.020,0.000
1726815520.205,-17.090,-27.344,-20.020,-8.789,0.000
1726815520.209,-10.742,-27.832,-6.836,-4.395,0.000
1726815520.213,-8.789,-30.762,-14.648,-10.742,0.000
1726815520.217,-6.836,-31.250,-24.414,-18.555,0.000
1726815520.221,-19.043,-34.180,-37.109,-21.973,0.000
1726815520.225,-15.137,-36.621,-36.621,-16.113,0.000
1726815520.228,-14.160,-37.109,-33.691,-7.812,0.000
1726815520.232,-12.207,-39.551,-42.480,-5.371,0.000
1726815520.236,-11.719,-42.969,-49.316,-10.254,0.000
1726815520.240,-30.762,-41.504,-50.293,-17.090,0.000
1726815520.244,-31.250,-34.668,-55.176,-22.949,0.000
1726815520.248,-20.508,-32.227,-68.359,-19.043,0.000
1726815520.252,-7.324,-26.367,-78.125,-5.371,0.000
1726815520.256,-11.719,-26.855,-57.129,-2.441,0.000
1726815520.260,-25.391,-32.715,-24.414,-16.602,0.000
1726815520.264,-20.020,-27.832,-12.695,-9.766,0.000
1726815520.267,-15.625,-26.855,-23.926,0.000,0.000
1726815520.271,-7.324,-34.668,-41.016,-1.465,0.000
1726815520.275,-6.836,-32.715,-31.738,0.000,0.000
1726815520.279,-24.414,-29.297,-20.020,-7.812,0.000
1726815520.283,-22.461,-28.320,-20.996,1.953,0.000
1726815520.287,-20.508,-24.414,-27.344,-3.418,0.000
1726815520.291,-18.555,-25.391,-41.016,-16.602,0.000
1726815520.295,-14.160,-30.762,-38.086,-8.301,0.000
1726815520.299,-13.184,-34.668,-30.762,-3.906,0.000
1726815520.303,-8.789,-40.527,-32.715,3.418,0.000
1726815520.307,-22.949,-43.457,-29.297,-15.625,0.000
1726815520.310,-29.785,-40.527,-36.621,-30.762,0.000
1726815520.314,-8.789,-38.086,-41.504,-16.113,0.000
1726815520.318,-14.648,-40.527,-26.367,-10.254,0.000
1726815520.322,-32.715,-41.992,-34.180,-14.160,0.000
1726815520.326,-9.766,-39.551,-38.574,7.324,0.000
1726815520.330,5.371,-34.668,-41.504,23.926,0.000
1726815520.334,-5.371,-37.109,-48.828,1.953,0.000
1726815520.338,-16.602,-40.527,-42.969,-9.277,0.000
1726815520.342,-20.020,-37.109,-52.246,-16.113,0.000
1726815520.346,-19.531,-35.156,-76.172,-11.719,0.000
1726815520.350,-16.602,-36.133,-61.035,-12.207,0.000
1726815520.353,-14.648,-36.133,-43.457,-15.625,0.000
1726815520.357,-26.855,-33.203,-39.062,-15.137,0.000
1726815520.361,-35.156,-31.250,-28.809,-20.020,0.000
1726815520.365,-31.250,-35.645,-32.715,-22.461,0.000
1726815520.369,-25.391,-41.992,-47.852,-24.902,0.000
1726815520.373,-7.324,-38.574,-62.012,-19.531,0.000
1726815520.377,-20.508,-40.039,-54.688,-26.367,0.000
1726815520.381,-41.992,-47.363,-34.180,-39.062,0.000
1726815520.385,-26.855,-40.039,-31.250,-33.691,0.000
1726815520.389,-12.207,-37.109,-44.922,-24.902,0.000
1726815520.393,-0.488,-38.086,-51.758,-12.207,0.000
1726815520.396,-6.836,-33.691,-51.758,-14.648,0.000
1726815520.400,-20.996,-34.668,-53.223,-20.508,0.000
1726815520.404,-16.602,-34.180,-45.898,-14.160,0.000
1726815520.408,-19.043,-33.203,-34.668,-8.301,0.000
1726815520.412,-13.672,-31.250,-23.438,-12.695,0.000
1726815520.416,-16.602,-34.180,-21.484,-24.414,0.000
1726815520.420,-26.367,-42.480,-41.992,-22.949,0.000
1726815520.424,-14.160,-36.621,-55.664,-8.789,0.000
1726815520.428,-11.719,-32.715,-59.570,-7.324,0.000
1726815520.432,-9.277,-37.109,-55.664,-13.184,0.000
1726815520.435,-12.207,-39.551,-42.480,-13.184,0.000
1726815520.439,-23.926,-39.551,-27.832,-20.508,0.000
1726815520.443,-18.555,-34.668,-7.812,-12.207,0.000
1726815520.447,-16.602,-34.180,-10.742,1.465,0.000
1726815520.451,-17.578,-34.180,-33.203,-11.230,0.000
1726815520.455,-20.020,-33.691,-44.434,-21.973,0.000
1726815520.459,-36.133,-37.109,-46.387,-30.273,0.000
1726815520.463,-25.879,-37.109,-44.922,-13.672,0.000
1726815520.467,-18.066,-33.203,-47.852,-5.371,0.000
1726815520.471,-14.648,-30.762,-34.668,-12.695,0.000
1726815520.475,-13.672,-31.738,-17.090,-13.184,0.000
1726815520.478,-20.508,-31.738,-34.180,-15.137,0.000
1726815520.482,-13.672,-34.180,-51.758,-4.395,0.000
1726815520.486,-4.395,-32.715,-69.824,-3.906,0.000
1726815520.490,0.000,-29.297,-62.012,-13.184,0.000
1726815520.494,-13.672,-34.180,-30.762,-18.066,0.000
1726815520.498,-41.016,-35.156,-20.996,-36.621,0.000
1726815520.502,-42.969,-34.180,-18.555,-38.086,0.000
1726815520.506,-25.879,-36.133,-38.086,-20.996,0.000
1726815520.510,-22.461,-42.969,-58.594,-20.020,0.000
1726815520.514,-17.090,-44.922,-66.406,-19.531,0.000
1726815520.517,-26.855,-47.852,-69.824,-20.020,0.000
1726815520.521,-27.344,-51.758,-44.434,-30.273,0.000
1726815520.525,-21.484,-47.363,-25.391,-29.785,0.000
1726815520.529,-24.414,-44.922,-23.438,-29.297,0.000
1726815520.533,-20.020,-45.410,-23.926,-26.367,0.000
1726815520.537,-34.668,-44.434,-37.598,-28.809,0.000
1726815520.541,-41.992,-43.945,-47.363,-34.668,0.000
1726815520.545,-26.367,-47.363,-38.574,-28.320,0.000
1726815520.549,-18.066,-48.828,-40.527,-24.414,0.000
1726815520.553,-19.531,-44.922,-44.434,-22.949,0.000
1726815520.557,-26.367,-43.945,-51.270,-32.227,0.000
1726815520.560,-26.367,-38.086,-75.195,-35.156,0.000
1726815520.564,-18.555,-34.668,-70.312,-19.043,0.000
1726815520.568,-17.090,-40.039,-38.574,-14.648,0.000
1726815520.572,-18.066,-38.574,-22.461,-25.879,0.000
1726815520.576,-28.320,-35.156,-27.832,-30.273,0.000
1726815520.580,0.000,-37.109,-37.598,-28.809,0.000
1726815520.584,0.000,-37.598,-38.086,-25.879,0.000
1726815520.588,0.000,-38.574,-45.898,-23.438,0.000
1726815520.592,0.000,-38.574,-62.988,2.930,0.000
1726815520.596,0.000,-37.598,-47.852,1.465,0.000
1726815520.600,0.000,-41.504,-29.785,-35.156,0.000
1726815520.603,0.000,-46.387,-26.367,-38.574,0.000
1726815520.607,0.000,-50.293,-33.203,-43.457,0.000
1726815520.611,0.000,-52.734,-56.152,-46.875,0.000
1726815520.615,0.000,-54.199,-61.035,-40.527,0.000
1726815520.619,0.000,-50.781,-53.223,-48.828,0.000
1726815520.623,0.000,-44.922,-54.688,-42.969,0.000
1726815520.627,-30.762,-41.992,-42.480,-21.484,0.000
1726815520.631,-17.578,-41.992,-34.180,-15.137,0.000
1726815520.635,-27.344,-44.434,-36.621,-24.414,0.000
1726815520.639,-44.434,-45.898,-31.738,-34.180,0.000
1726815520.643,-37.109,-45.898,-28.320,-30.273,0.000
1726815520.646,-25.879,-42.969,-42.480,-20.996,0.000
1726815520.650,-19.531,-40.039,-47.363,-32.227,0.000
1726815520.654,-17.578,-39.062,-40.039,-35.156,0.000
1726815520.658,-13.184,-34.180,-54.688,-19.043,0.000
1726815520.662,-14.648,-33.203,-61.523,-17.090,0.000
1726815520.666,-21.973,-41.992,-51.758,-19.531,0.000
1726815520.670,-19.531,-49.805,-34.668,-23.926,0.000
1726815520.674,-23.438,-44.922,-29.785,-28.809,0.000
1726815520.678,-41.016,-40.039,-55.176,-28.809,0.000
1726815520.682,-32.715,-39.062,-53.223,-27.344,0.000
1726815520.686,-22.949,-36.621,-20.508,-25.391,0.000
1726815520.689,-22.461,-38.086,-15.625,-21.973,0.000
1726815520.693,-24.414,-41.016,-36.133,-21.484,0.000
1726815520.697,-41.992,-42.480,-36.133,-35.645,0.000
1726815520.701,-32.227,-39.062,-26.855,-35.156,0.000
1726815520.705,-18.555,-35.156,-32.227,-19.043,0.000
1726815520.709,-20.996,-35.645,-45.410,-23.438,0.000
1726815520.713,-19.531,-31.250,-60.059,-19.531,0.000
1726815520.717,-21.484,-31.250,-41.992,-20.508,0.000
1726815520.721,-25.879,-33.691,-28.809,-27.832,0.000
1726815520.725,-24.902,-31.738,-29.297,-26.855,0.000
1726815520.728,-18.066,-32.227,-27.832,-21.484,0.000
1726815520.732,-15.137,-32.227,-38.086,-20.508,0.000
1726815520.736,-24.414,-23.926,-62.500,-19.043,0.000
1726815520.740,-28.809,-25.879,-67.871,-18.555,0.000
1726815520.744,-29.297,-32.715,-46.387,-14.648,0.000
1726815520.748,-23.926,-37.109,-28.320,-5.859,0.000
1726815520.752,-23.438,-37.109,-19.531,-7.324,0.000
1726815520.756,-28.809,-31.738,-22.949,-12.695,0.000
1726815520.760,-33.691,-32.227,-30.273,-20.020,0.000
1726815520.764,-29.297,-33.203,-30.273,-23.438,0.000
1726815520.768,-23.438,-29.785,-25.391,-21.973,0.000
1726815520.771,-20.020,-30.273,-35.156,-16.602,0.000
1726815520.775,-31.738,-31.738,-47.852,-20.508,0.000
1726815520.779,-40.527,-31.738,-41.992,-30.762,0.000
1726815520.783,-27.344,-31.250,-41.016,-18.555,0.000
1726815520.787,-21.973,-33.691,-37.109,-13.672,0.000
1726815520.791,-14.160,-37.598,-54.688,-17.090,0.000
1726815520.795,-22.949,-37.598,-75.195,-14.160,0.000
1726815520.799,-41.504,-40.039,-26.367,-32.715,0.000
1726815520.803,-31.738,-46.387,-1.953,-35.645,0.000
1726815520.807,-21.484,-47.852,-14.648,-20.996,0.000
1726815520.811,-11.230,-39.062,-27.832,-16.602,0.000
1726815520.814,-15.137,-36.621,-46.875,-18.066,0.000
1726815520.818,-31.250,-37.109,-50.781,-26.855,0.000
1726815520.822,-18.555,-30.273,-27.832,-15.625,0.000
1726815520.826,-15.625,-31.738,-20.508,-6.348,0.000
1726815520.830,-18.555,-38.574,-31.250,-9.766,0.000
1726815520.834,-17.578,-38.574,-35.645,-4.883,0.000
1726815520.838,-29.785,-31.738,-36.621,-8.301,0.000
1726815520.842,-25.391,-28.809,-36.621,-5.371,0.000
1726815520.846,-9.766,-20.996,-54.688,13.184,0.000
1726815520.850,-10.742,-22.949,-78.125,5.859,0.000
1726815520.853,-28.809,-39.062,-42.480,-14.648,0.000
1726815520.857,-35.645,-40.039,-9.766,-18.066,0.000
1726815520.861,-37.598,-36.133,-16.113,-34.180,0.000
1726815520.865,-30.273,-34.180,-28.320,-30.762,0.000
1726815520.869,-8.301,-36.133,-36.621,-12.207,0.000
1726815520.873,-5.859,-34.668,-58.594,-14.160,0.000
1726815520.877,-20.020,-33.691,-69.336,-19.531,0.000
1726815520.881,-24.902,-32.227,-39.062,-19.531,0.000
1726815520.885,-38.086,-30.273,-28.809,-33.691,0.000
1726815520.889,-25.879,-41.016,-47.852,-28.320,0.000
1726815520.893,-25.391,-41.016,-49.805,-36.621,0.000
1726815520.896,-50.293,-38.574,-39.551,-61.035,0.000
1726815520.900,-46.387,-35.645,-44.922,-52.246,0.000
1726815520.904,-43.945,-31.250,-39.062,-51.758,0.000
1726815520.908,-41.992,-30.273,-27.344,-53.711,0.000
1726815520.912,-42.969,-35.156,-36.621,-52.734,0.000
1726815520.916,-56.152,-34.180,-39.551,-58.105,0.000
1726815520.920,-56.641,-28.320,-49.316,-65.430,0.000
1726815520.924,-44.434,-23.926,-61.035,-48.828,0.000
1726815520.928,-39.062,-26.855,-62.012,-41.016,0.000
1726815520.932,-45.410,-29.785,-59.570,-52.246,0.000
1726815520.936,-53.711,-25.391,-64.453,-50.293,0.000
1726815520.939,-47.852,-26.367,-78.125,-45.898,0.000
1726815520.943,-41.992,-26.855,-77.637,-41.992,0.000
1726815520.947,-41.016,-27.832,-69.824,-41.504,0.000
1726815520.951,-36.621,-32.227,-49.805,-44.434,0.000
1726815520.955,-41.504,-37.109,-44.434,-44.922,0.000
1726815520.959,-38.086,-38.574,-54.199,-33.691,0.000
1726815520.963,-27.344,-34.180,-52.246,-22.461,0.000
1726815520.967,-24.414,-35.645,-50.781,-21.484,0.000
1726815520.971,-23.438,-43.945,-41.504,-26.855,0.000
1726815520.975,-36.621,-47.363,-38.086,-34.668,0.000
1726815520.979,-40.039,-40.039,-55.176,-34.668,0.000
1726815520.982,-30.762,-32.715,-52.246,-35.156,0.000
1726815520.986,-24.902,-30.762,-31.738,-24.902,0.000
1726815520.990,-17.090,-34.180,-40.039,-13.672,0.000
1726815520.994,-25.879,-31.738,-55.664,-20.996,0.000
1726815520.998,-33.691,-30.762,-39.062,-27.832,0.000
1726815521.002,-25.879,-33.691,-26.367,-16.602,0.000
1726815521.006,-21.484,-33.203,-43.945,-9.766,0.000
1726815521.010,-12.207,-33.203,-37.598,-16.602,0.000
1726815521.014,-17.090,-35.645,-27.344,-18.555,0.000
1726815521.018,-26.367,-35.156,-38.574,-25.391,0.000
1726815521.022,-31.738,-39.062,-37.598,-28.809,0.000
1726815521.025,-28.320,-42.480,-34.668,-22.949,0.000
1726815521.029,-16.113,-38.574,-32.715,-21.484,0.000
1726815521.033,-21.484,-34.180,-42.480,-18.555,0.000
1726815521.037,-37.598,-37.109,-59.570,-23.438,0.000
1726815521.041,-29.297,-35.156,-61.523,-20.996,0.000
1726815521.045,-20.508,-37.598,-56.152,-11.230,0.000
1726815521.049,-12.207,-36.133,-73.242,-15.137,0.000
1726815521.053,-20.996,-32.227,-61.035,-26.855,0.000
1726815521.057,-36.133,-30.762,-29.785,-25.879,0.000
1726815521.061,-29.785,-28.320,-34.668,-17.090,0.000
1726815521.064,-29.297,-30.273,-44.922,-16.602,0.000
1726815521.068,-18.066,-30.762,-35.156,-14.160,0.000
1726815521.072,-17.090,-23.926,-26.855,-23.438,0.000
1726815521.076,-27.344,-25.391,-44.922,-29.785,0.000
1726815521.080,-20.508,-29.785,-41.992,-12.695,0.000
1726815521.084,-19.531,-24.902,-25.879,-21.973,0.000
1726815521.088,-3.906,-23.438,-24.414,-23.438,0.000
1726815521.092,-4.883,-24.414,-27.832,-18.555,0.000
1726815521.096,-27.344,-23.438,-38.086,-27.832,0.000
1726815521.100,-27.832,-30.273,-40.039,-18.555,0.000
1726815521.104,-16.602,-30.762,-44.434,-6.348,0.000
1726815521.107,-12.207,-30.273,-44.434,-5.371,0.000
1726815521.111,-21.973,-37.598,-31.738,-14.160,0.000
1726815521.115,-29.297,-39.551,-31.250,-24.414,0.000
1726815521.119,-23.438,-38.574,-36.621,-22.461,0.000
1726815521.123,-15.137,-38.086,-43.945,-15.137,0.000
1726815521.127,-8.301,-33.691,-63.477,-9.277,0.000
1726815521.131,-8.301,-29.785,-79.102,-1.465,0.000
1726815521.135,-26.367,-33.203,-57.129,-19.531,0.000
1726815521.139,-34.668,-38.086,-34.180,-26.367,0.000
1726815521.143,-35.156,-40.527,-34.668,-24.902,0.000
1726815521.147,-27.344,-36.621,-37.598,-27.344,0.000
1726815521.150,-21.973,-37.109,-36.133,-17.090,0.000
1726815521.154,-33.203,-41.016,-41.992,-24.414,0.000
1726815521.158,-30.762,-40.527,-42.969,-25.391,0.000
1726815521.162,-23.926,-40.039,-42.480,-10.254,0.000
1726815521.166,-19.043,-41.504,-45.410,-11.230,0.000
1726815521.170,-15.137,-47.363,-49.316,-16.113,0.000
1726815521.174,-31.250,-48.340,-57.617,-30.762,0.000
1726815521.178,-38.574,-40.527,-55.664,-34.180,0.000
1726815521.182,-20.020,-40.039,-50.781,-11.719,0.000
1726815521.186,-4.883,-40.039,-42.480,-5.859,0.000
1726815521.189,-12.207,-40.039,-47.363,-12.695,0.000
1726815521.193,-28.320,-41.016,-46.875,-20.020,0.000
1726815521.197,-26.855,-37.598,-42.969,-28.320,0.000
1726815521.201,-16.602,-39.062,-35.645,-27.832,0.000
1726815521.205,-12.207,-42.480,-28.320,-17.578,0.000
1726815521.209,-6.348,-38.574,-34.668,-8.301,0.000
1726815521.213,-14.160,-37.598,-22.461,-11.719,0.000
1726815521.217,-27.344,-39.551,-22.949,-26.367,0.000
1726815521.221,-22.949,-31.738,-39.551,-26.855,0.000
1726815521.225,-14.648,-32.715,-51.758,-18.066,0.000
1726815521.229,-8.301,-31.250,-76.660,-16.602,0.000
1726815521.232,-10.254,-25.391,-51.270,-15.625,0.000
1726815521.236,-22.949,-35.645,-23.926,-22.949,0.000
1726815521.240,-22.949,-41.016,-29.785,-30.273,0.000
1726815521.244,-16.113,-36.621,-34.668,-22.949,0.000
1726815521.248,-16.113,-40.039,-43.457,-22.461,0.000
1726815521.252,-29.297,-44.434,-44.434,-31.250,0.000
1726815521.256,-29.785,-38.086,-31.250,-26.367,0.000
1726815521.260,-20.020,-34.668,-20.996,-14.648,0.000
1726815521.264,-22.461,-34.668,-26.855,-17.578,0.000
1726815521.268,-7.324,-33.691,-45.410,-13.184,0.000
1726815521.272,-11.719,-30.273,-69.824,-11.230,0.000
1726815521.275,-26.855,-37.598,-44.434,-20.996,0.000
1726815521.279,-22.461,-44.922,0.000,-29.297,0.000
1726815521.283,-17.578,-38.086,-9.277,-24.414,0.000
1726815521.287,-8.789,-36.621,-23.926,-12.207,0.000
1726815521.291,-4.883,-38.574,-17.578,-4.395,0.000
1726815521.295,-17.578,-41.016,-13.184,-12.207,0.000
1726815521.299,-30.273,-45.410,-22.949,-33.203,0.000
1726815521.303,-26.855,-42.480,-27.344,-25.879,0.000
1726815521.307,-26.855,-46.875,-22.949,-23.438,0.000
1726815521.311,-32.227,-55.176,-22.461,-33.691,0.000
1726815521.315,-40.039,-59.570,-31.738,-40.527,0.000
1726815521.318,-36.133,-62.500,-28.809,-26.367,0.000
1726815521.322,-32.227,-59.082,-17.578,-9.766,0.000
1726815521.326,-27.832,-52.246,-23.926,-9.766,0.000
1726815521.330,0.000,-48.828,-30.762,-10.254,0.000
1726815521.334,0.000,-52.246,-33.203,-22.949,0.000
1726815521.338,0.000,-52.246,-62.988,-26.367,0.000
1726815521.342,0.000,-47.852,-74.219,-20.508,0.000
1726815521.346,0.000,-48.340,-26.367,-20.996,0.000
1726815521.350,0.000,-46.875,-6.836,-22.949,0.000
1726815521.354,0.000,-47.363,-12.207,-30.762,0.000
1726815521.358,0.000,-49.805,2.441,-30.762,0.000
1726815521.361,0.000,-45.898,10.742,-14.160,0.000
1726815521.365,0.000,-50.781,0.977,-7.812,0.000
1726815521.369,0.000,-56.152,-14.648,-19.531,0.000
1726815521.373,0.000,-54.688,-18.555,-18.555,0.000
1726815521.377,-28.809,-53.223,-20.508,-11.230,0.000
1726815521.381,-27.344,-50.293,-41.504,-16.602,0.000
1726815521.385,-25.879,-53.711,-49.316,-15.625,0.000
1726815521.389,-14.648,-47.363,-28.809,-9.766,0.000
1726815521.393,-23.926,-42.969,-15.137,-18.555,0.000
1726815521.397,-34.180,-48.340,-26.367,-30.762,0.000
1726815521.401,-26.367,-46.387,-34.668,-19.531,0.000
1726815521.404,-27.344,-42.480,-32.715,-20.020,0.000
1726815521.408,-20.996,-44.434,-33.203,-30.273,0.000
1726815521.412,-34.668,-46.387,-39.062,-38.086,0.000
1726815521.416,-43.457,-42.480,-36.133,-41.016,0.000
1726815521.420,-34.180,-43.457,-32.715,-33.691,0.000
1726815521.424,-22.461,-48.340,-42.480,-20.996,0.000
1726815521.428,-18.555,-45.410,-53.711,-20.020,0.000
1726815521.432,-33.203,-43.457,-45.898,-31.738,0.000
1726815521.436,-37.109,-41.992,-35.645,-31.738,0.000
1726815521.440,-33.203,-41.992,-41.504,-23.438,0.000
1726815521.444,-27.832,-40.527,-40.527,-25.391,0.000
1726815521.447,-18.066,-41.992,-38.086,-31.738,0.000
1726815521.451,-23.926,-45.898,-42.969,-20.996,0.000
1726815521.455,-40.039,-45.410,-41.016,-13.672,0.000
1726815521.459,-38.086,-39.551,-39.551,-25.879,0.000
1726815521.463,-31.738,-39.062,-36.133,-33.203,0.000
1726815521.467,-18.555,-42.480,-32.227,-22.949,0.000
1726815521.471,-26.367,-39.551,-35.645,-26.855,0.000
1726815521.475,-41.992,-38.574,-37.109,-34.668,0.000
1726815521.479,-30.273,-36.621,-38.574,-20.508,0.000
1726815521.483,-20.508,-36.133,-41.504,-13.672,0.000
1726815521.486,-16.113,-38.574,-43.457,-18.555,0.000
1726815521.490,-26.855,-38.574,-41.016,-29.297,0.000
1726815521.494,-44.434,-35.156,-33.203,-34.668,0.000
1726815521.498,-36.133,-38.086,-24.414,-21.973,0.000
1726815521.502,-36.133,-41.992,-28.320,-25.391,0.000
1726815521.506,-31.250,-40.039,-28.320,-36.133,0.000
1726815521.510,-32.227,-40.039,-26.855,-34.180,0.000
1726815521.514,-48.340,-40.527,-33.203,-36.621,0.000
1726815521.518,-46.875,-38.574,-35.645,-34.180,0.000
1726815521.522,-46.875,-42.480,-36.621,-32.227,0.000
1726815521.526,-38.086,-44.434,-38.086,-30.762,0.000
1726815521.529,-33.691,-41.016,-45.410,-29.785,0.000
1726815521.533,-45.898,-36.621,-50.293,-40.039,0.000
1726815521.537,-43.457,-37.598,-48.340,-40.527,0.000
1726815521.541,-30.762,-34.668,-46.387,-28.320,0.000
1726815521.545,-24.414,-35.645,-46.875,-18.066,0.000
1726815521.549,-33.203,-37.109,-46.387,-27.832,0.000
1726815521.553,-38.086,-31.250,-41.504,-38.574,0.000
1726815521.557,-25.391,-31.738,-38.574,-37.598,0.000
1726815521.561,-28.809,-30.762,-30.762,-42.969,0.000
1726815521.565,-36.621,-25.879,-31.250,-48.828,0.000
1726815521.569,-30.762,-26.855,-30.762,-40.527,0.000
1726815521.572,-43.945,-28.809,-22.949,-45.410,0.000
1726815521.576,-48.828,-24.414,-27.344,-49.805,0.000
1726815521.580,-48.340,-31.738,-20.508,-51.270,0.000
1726815521.584,-56.641,-31.250,-21.484,-62.988,0.000
1726815521.588,-57.129,-34.668,-27.344,-64.941,0.000
1726815521.592,-81.543,-43.945,-21.484,-82.031,0.000
1726815521.596,-95.703,-46.387,-24.902,-99.121,0.000
1726815521.600,-97.656,-38.574,-20.020,-99.121,0.000
1726815521.604,-121.582,-29.785,-23.438,-127.930,0.000
1726815521.608,-135.742,-23.926,-19.531,-152.344,0.000
1726815521.611,-156.738,-8.789,-16.113,-165.039,0.000
1726815521.615,-194.336,-11.719,-15.625,-196.289,0.000
1726815521.619,-205.566,-11.719,1.953,-206.055,0.000
1726815521.623,-213.867,-0.977,10.742,-215.820,0.000
1726815521.627,-222.168,-1.953,7.812,-227.051,0.000
1726815521.631,-229.004,-3.906,3.418,-227.539,0.000
1726815521.635,-238.770,0.488,7.324,-228.516,0.000
1726815521.639,-248.535,-5.859,9.277,-236.328,0.000
1726815521.643,-236.816,-10.742,7.812,-233.398,0.000
1726815521.647,-213.867,-2.930,10.254,-225.586,0.000
1726815521.651,-227.539,-4.395,9.277,-236.328,0.000
1726815521.654,-228.027,7.324,6.836,-232.910,0.000
1726815521.658,0.000,1.465,9.766,-220.215,0.000
1726815521.662,0.000,-9.766,-0.977,-214.844,0.000
1726815521.666,0.000,-4.883,-13.184,-208.008,0.000
1726815521.670,0.000,-3.418,-15.137,-208.984,0.000
1726815521.674,0.000,-0.488,-10.254,-203.613,0.000
1726815521.678,0.000,-0.488,-14.160,-189.941,0.000
1726815521.682,0.000,-4.395,-16.602,-183.594,0.000
1726815521.686,0.000,-12.207,-20.020,-183.105,0.000
1726815521.690,0.000,-6.836,-23.438,-179.688,0.000
1726815521.694,0.000,-4.395,-24.414,-166.016,0.000
1726815521.697,0.000,-6.348,-35.156,-158.203,0.000
1726815521.701,0.000,4.395,-37.598,-143.555,0.000
1726815521.705,-114.746,1.953,-31.738,-129.883,0.000
1726815521.709,-116.699,-11.230,-32.227,-124.023,0.000
1726815521.713,-131.836,-16.113,-23.926,-118.164,0.000
1726815521.717,-121.582,-18.066,-24.902,-114.258,0.000
1726815521.721,-111.328,-8.301,-37.598,-124.023,0.000
1726815521.725,-103.516,-13.184,-33.691,-125.000,0.000
1726815521.729,-89.355,-15.625,-35.156,-110.840,0.000
1726815521.733,-102.051,-6.836,-35.156,-118.164,0.000
1726815521.737,-106.445,-11.230,-33.203,-113.281,0.000
1726815521.740,-90.332,-13.672,-38.086,-95.215,0.000
1726815521.744,-83.496,-14.160,-47.852,-101.562,0.000
1726815521.748,-91.797,-18.555,-58.105,-97.168,0.000
1726815521.752,-100.586,-15.137,-61.523,-100.098,0.000
1726815521.756,-88.867,-10.254,-71.289,-98.633,0.000
1726815521.760,-71.777,-15.137,-64.453,-75.684,0.000
1726815521.764,-65.430,-21.973,-51.270,-68.359,0.000
1726815521.768,-61.523,-19.531,-59.570,-62.012,0.000
1726815521.772,-67.383,-21.484,-73.242,-63.965,0.000
1726815521.776,-59.082,-28.320,-81.055,-58.594,0.000
1726815521.780,-38.574,-30.762,-88.379,-35.156,0.000
1726815521.783,-26.367,-32.227,-84.961,-18.066,0.000
1726815521.787,-18.066,-26.855,-51.270,-11.230,0.000
1726815521.791,-19.531,-25.879,-31.738,-11.230,0.000
1726815521.795,-7.812,-28.809,-32.715,7.324,0.000
1726815521.799,22.949,-27.832,-29.297,27.832,0.000
1726815521.803,42.480,-30.762,-50.781,41.992,0.000
1726815521.807,59.082,-30.273,-108.887,58.105,0.000
1726815521.811,68.359,-29.297,-115.234,65.918,0.000
1726815521.815,67.383,-41.504,-66.406,68.359,0.000
1726815521.819,68.359,-51.758,-22.949,68.848,0.000
1726815521.822,103.027,-44.922,-54.199,107.910,0.000
1726815521.826,127.930,-49.805,-114.746,131.836,0.000
1726815521.830,106.445,-74.219,-45.410,120.117,0.000
1726815521.834,99.121,-78.125,17.090,115.723,0.000
1726815521.838,116.699,-72.266,-26.367,128.418,0.000
1726815521.842,129.395,-71.289,-29.785,137.207,0.000
1726815521.846,143.555,-68.848,-9.277,147.461,0.000
1726815521.850,129.395,-74.219,-21.973,154.785,0.000
1726815521.854,125.000,-70.801,-74.219,159.668,0.000
1726815521.858,144.531,-71.289,-81.055,164.062,0.000
1726815521.862,136.719,-89.844,29.297,151.367,0.000
1726815521.865,127.441,-88.867,49.805,139.648,0.000
1726815521.869,123.535,-76.660,10.254,131.348,0.000
1726815521.873,123.047,-70.312,9.277,136.230,0.000
1726815521.877,124.023,-67.383,-16.113,148.926,0.000
1726815521.881,120.605,-65.918,-40.527,149.902,0.000
1726815521.885,131.348,-62.500,-28.809,136.719,0.000
1726815521.889,123.535,-65.918,-20.996,119.629,0.000
1726815521.893,99.121,-72.754,0.977,108.398,0.000
1726815521.897,98.633,-68.848,10.742,114.258,0.000
1726815521.901,106.445,-61.523,-8.789,117.676,0.000
1726815521.905,108.398,-70.801,-10.742,105.957,0.000
1726815521.908,90.332,-72.754,-2.441,98.145,0.000
1726815521.912,69.336,-65.918,-6.348,90.820,0.000
1726815521.916,77.148,-62.500,-20.996,86.426,0.000
1726815521.920,76.660,-64.453,-28.809,87.891,0.000
1726815521.924,65.918,-65.430,-21.484,84.961,0.000
1726815521.928,69.824,-58.594,-55.176,84.961,0.000
1726815521.932,63.477,-57.617,-67.871,63.965,0.000
1726815521.936,58.594,-63.477,-4.395,56.641,0.000
1726815521.940,72.266,-59.570,19.043,63.477,0.000
1726815521.944,80.078,-47.363,0.977,64.453,0.000
1726815521.947,68.359,-47.852,-13.184,71.289,0.000
1726815521.951,47.852,-53.711,-20.996,64.453,0.000
1726815521.955,42.480,-49.805,-34.668,61.035,0.000
1726815521.959,41.016,-47.852,-48.340,50.781,0.000
1726815521.963,49.316,-51.758,-52.246,52.246,0.000
1726815521.967,44.922,-50.293,-65.918,55.176,0.000
1726815521.971,19.531,-46.875,-53.711,25.879,0.000
1726815521.975,20.508,-48.340,-29.785,27.344,0.000
1726815521.979,32.227,-53.711,-26.367,31.250,0.000
1726815521.983,30.762,-55.176,-29.785,19.531,0.000
1726815521.987,35.645,-47.363,-54.688,33.203,0.000
1726815521.990,29.785,-41.992,-56.152,40.527,0.000
1726815521.994,27.344,-44.922,-32.227,35.645,0.000
1726815521.998,30.273,-47.363,-23.926,35.645,0.000
1726815522.002,34.180,-48.340,-30.273,30.273,0.000
1726815522.006,44.922,-47.363,-61.523,38.086,0.000
1726815522.010,30.273,-43.457,-90.332,33.691,0.000
1726815522.014,19.531,-43.945,-81.543,15.625,0.000
1726815522.018,20.996,-40.039,-56.641,16.602,0.000
1726815522.022,19.043,-35.156,-49.316,21.973,0.000
1726815522.026,13.672,-41.016,-41.504,17.578,0.000
1726815522.029,-3.906,-42.969,-21.973,1.465,0.000
1726815522.033,-4.395,-40.039,-20.996,-0.488,0.000
1726815522.037,11.719,-35.645,-28.809,14.648,0.000
1726815522.041,25.879,-34.180,-51.270,26.367,0.000
1726815522.045,31.738,-34.180,-100.098,28.320,0.000
1726815522.049,12.207,-33.691,-86.914,11.719,0.000
1726815522.053,-2.930,-41.992,-23.926,-1.465,0.000
1726815522.057,4.395,-40.527,-10.742,6.836,0.000
1726815522.061,15.625,-30.273,-22.461,6.348,0.000
1726815522.065,21.973,-28.320,-30.762,3.906,0.000
1726815522.069,11.230,-33.203,-35.645,8.789,0.000
1726815522.072,-5.371,-33.691,-58.594,-7.324,0.000
1726815522.076,-5.371,-33.691,-67.383,-18.066,0.000
1726815522.080,1.465,-34.668,-62.012,-12.695,0.000
1726815522.084,3.418,-35.156,-68.359,-8.301,0.000
1726815522.088,-13.184,-38.086,-62.500,-4.883,0.000
1726815522.092,-23.926,-36.133,-38.574,-18.555,0.000
1726815522.096,-18.066,-34.668,-26.367,-17.090,0.000
1726815522.100,-5.859,-36.133,-34.180,-1.465,0.000
1726815522.104,-0.488,-37.598,-45.898,-11.719,0.000
1726815522.108,-12.695,-38.086,-52.734,-20.996,0.000
1726815522.112,-21.973,-32.715,-53.711,-16.602,0.000
1726815522.115,-9.277,-32.715,-49.805,-2.441,0.000
1726815522.119,-7.812,-34.668,-44.922,-4.395,0.000
1726815522.123,-4.883,-36.621,-40.527,-10.254,0.000
1726815522.127,-5.371,-39.062,-44.922,4.395,0.000
1726815522.131,-21.484,-31.250,-37.598,-6.836,0.000
1726815522.135,-26.855,-34.180,-33.203,-23.438,0.000
1726815522.139,-20.508,-37.109,-38.086,-13.672,0.000
1726815522.143,-6.836,-32.715,-42.969,-3.906,0.000
1726815522.147,-14.160,-37.109,-54.199,-4.395,0.000
1726815522.151,-28.320,-40.039,-69.824,-20.020,0.000
1726815522.155,-13.184,-39.551,-86.914,-9.766,0.000
1726815522.158,0.977,-42.480,-74.219,16.602,0.000
1726815522.162,-7.324,-42.480,-33.691,2.930,0.000
1726815522.166,-11.719,-41.504,-18.066,-12.207,0.000
1726815522.170,-21.973,-39.062,-30.762,-13.672,0.000
1726815522.174,-22.949,-40.039,-28.809,-10.742,0.000
1726815522.178,-17.090,-39.551,-28.809,-6.348,0.000
1726815522.182,-13.184,-40.039,-38.086,-6.836,0.000
1726815522.186,-17.578,-48.828,-45.410,-16.602,0.000
1726815522.190,-23.438,-41.992,-59.570,-13.672,0.000
1726815522.194,-12.695,-37.109,-65.918,2.441,0.000
1726815522.198,-15.625,-36.621,-73.242,-7.812,0.000
1726815522.201,-16.113,-37.109,-65.918,-23.438,0.000
1726815522.205,-22.949,-47.363,-36.621,-22.461,0.000
1726815522.209,-45.898,-51.270,-19.043,-33.691,0.000
1726815522.213,-47.852,-45.410,-23.926,-36.133,0.000
1726815522.217,-41.016,-43.457,-34.668,-37.109,0.000
1726815522.221,-30.273,-44.434,-35.156,-33.203,0.000
1726815522.225,-27.832,-43.945,-37.598,-25.391,0.000
1726815522.229,-41.016,-40.527,-40.039,-40.527,0.000
1726815522.233,-30.762,-30.762,-56.641,-37.109,0.000
1726815522.237,-18.555,-26.855,-85.938,-18.066,0.000
1726815522.240,-16.602,-28.320,-71.777,-19.531,0.000
1726815522.244,-12.695,-27.344,-49.805,-23.926,0.000
1726815522.248,-18.066,-30.762,-41.016,-22.461,0.000
1726815522.252,-24.902,-37.109,-41.504,-26.367,0.000
1726815522.256,-19.043,-36.621,-37.598,-35.645,0.000
1726815522.260,-9.766,-37.109,-27.832,-20.996,0.000
1726815522.264,-7.324,-40.527,-40.039,-5.371,0.000
1726815522.268,-14.648,-36.621,-76.660,-6.836,0.000
1726815522.272,-12.695,-26.855,-107.422,-18.555,0.000
1726815522.276,-10.254,-25.391,-66.406,-22.949,0.000
1726815522.280,-18.066,-35.645,-3.906,-19.531,0.000
1726815522.283,-17.578,-39.551,12.695,-21.973,0.000
1726815522.287,-29.297,-44.434,6.348,-24.414,0.000
1726815522.291,-29.785,-46.875,-9.766,-20.508,0.000
1726815522.295,-20.996,-40.527,-29.297,-9.277,0.000
1726815522.299,-21.484,-39.551,-38.574,-14.160,0.000
1726815522.303,-10.742,-46.875,-42.480,-16.602,0.000
1726815522.307,-12.207,-49.805,-50.781,-20.508,0.000
1726815522.311,-27.344,-43.457,-60.059,-28.320,0.000
1726815522.315,-29.297,-45.898,-69.824,-19.531,0.000
1726815522.319,-16.113,-45.898,-69.824,-7.812,0.000
1726815522.323,-6.348,-40.527,-41.504,-8.789,0.000
1726815522.326,-20.508,-39.062,-23.438,-19.043,0.000
1726815522.330,-30.273,-38.574,-30.762,-18.555,0.000
1726815522.334,-20.508,-32.715,-44.922,-10.254,0.000
1726815522.338,-8.789,-35.156,-50.781,-4.883,0.000
1726815522.342,0.000,-37.109,-44.922,-6.348,0.000
1726815522.346,-5.371,-26.367,-47.363,-11.230,0.000
1726815522.350,-16.113,-28.320,-40.039,-17.090,0.000
1726815522.354,-12.695,-31.738,-28.809,-14.160,0.000
1726815522.358,-0.977,-32.227,-31.250,-13.672,0.000
1726815522.362,5.859,-33.691,-50.293,-18.555,0.000
1726815522.365,-10.254,-26.367,-68.848,-15.625,0.000
1726815522.369,-25.879,-25.391,-52.734,-18.066,0.000
1726815522.373,-28.809,-29.297,-33.691,-29.297,0.000
1726815522.377,-23.438,-30.762,-35.645,-24.414,0.000
1726815522.381,-5.371,-33.203,-42.969,-11.230,0.000
1726815522.385,-16.113,-38.086,-36.133,-14.648,0.000
1726815522.389,-36.133,-38.574,-33.691,-32.715,0.000
1726815522.393,-20.996,-33.203,-36.621,-23.438,0.000
1726815522.397,-16.602,-34.668,-53.711,-13.672,0.000
1726815522.401,-20.020,-37.598,-66.406,-20.020,0.000
1726815522.405,-24.902,-41.016,-54.199,-25.391,0.000
1726815522.408,-36.621,-42.969,-46.875,-31.250,0.000
1726815522.412,-30.273,-41.992,-49.805,-24.414,0.000
1726815522.416,-23.926,-43.457,-47.852,-17.090,0.000
1726815522.420,-20.508,-41.016,-39.062,-12.695,0.000
1726815522.424,-15.625,-35.156,-37.109,-9.766,0.000
1726815522.428,-18.555,-33.203,-44.434,-13.672,0.000
1726815522.432,-20.508,-31.738,-54.199,-9.766,0.000
1726815522.436,-17.578,-29.785,-48.828,-9.277,0.000
1726815522.440,-12.207,-28.809,-34.668,-12.695,0.000
1726815522.444,-6.836,-28.320,-32.715,-3.906,0.000
1726815522.448,-19.531,-28.809,-33.691,-7.324,0.000
1726815522.451,-22.461,-29.785,-43.457,-9.277,0.000
1726815522.455,-12.695,-30.762,-59.082,-10.254,0.000
1726815522.459,-9.766,-27.832,-64.941,-15.625,0.000
1726815522.463,-11.719,-25.879,-59.570,-17.578,0.000
1726815522.467,-27.832,-28.809,-47.852,-20.020,0.000
1726815522.471,-30.273,-33.691,-30.762,-14.160,0.000
1726815522.475,-26.367,-35.156,-34.668,-11.719,0.000
1726815522.479,-20.020,-28.320,-51.270,-11.719,0.000
1726815522.483,-18.066,-33.691,-35.645,-6.348,0.000
1726815522.487,-31.738,-41.992,-25.879,-17.578,0.000
1726815522.491,-30.762,-35.645,-30.762,-16.602,0.000
1726815522.494,-25.391,-32.227,-37.598,-11.230,0.000
1726815522.498,-26.367,-35.645,-42.969,-15.625,0.000
1726815522.502,-16.113,-34.180,-47.852,-20.508,0.000
1726815522.506,-23.438,-35.645,-51.270,-31.250,0.000
1726815522.510,-31.250,-39.062,-49.316,-33.691,0.000
1726815522.514,-23.926,-39.551,-49.805,-23.438,0.000
1726815522.518,-15.137,-35.645,-52.734,-16.602,0.000
1726815522.522,-14.160,-34.180,-53.711,-24.414,0.000
1726815522.526,-27.344,-41.016,-50.781,-34.180,0.000
1726815522.530,-32.227,-42.969,-55.664,-28.809,0.000
1726815522.534,-28.809,-42.480,-60.547,-13.184,0.000
1726815522.537,-21.973,-44.922,-48.828,-6.348,0.000
1726815522.541,-14.160,-39.551,-54.688,-10.742,0.000
1726815522.545,-27.344,-41.992,-57.617,-20.508,0.000
1726815522.549,-38.086,-42.480,-47.363,-28.809,0.000
1726815522.553,-27.344,-32.715,-40.039,-19.043,0.000
1726815522.557,-17.578,-31.250,-29.785,-17.578,0.000
1726815522.561,-7.812,-33.691,-29.785,-12.207,0.000
1726815522.565,-12.207,-35.645,-35.645,-12.207,0.000
1726815522.569,-29.297,-38.086,-35.645,-30.762,0.000
1726815522.573,-26.367,-39.062,-36.621,-20.996,0.000
1726815522.576,-11.719,-38.574,-35.156,-3.906,0.000
1726815522.580,9.766,-46.387,-36.621,7.812,0.000
1726815522.584,0.977,-48.340,-36.133,8.789,0.000
1726815522.588,-41.016,-38.086,-49.805,-23.926,0.000
1726815522.592,-44.434,-37.598,-54.688,-35.156,0.000
1726815522.596,-15.137,-41.504,-45.898,-10.254,0.000
1726815522.600,-8.789,-39.062,-48.828,-12.695,0.000
1726815522.604,-12.695,-38.086,-45.410,-10.254,0.000
1726815522.608,-10.254,-35.156,-47.363,-0.488,0.000
1726815522.612,0.000,-32.715,-47.852,6.348,0.000
1726815522.616,7.812,-32.227,-29.297,19.043,0.000
1726815522.619,11.230,-31.738,-20.020,15.137,0.000
1726815522.623,7.812,-31.738,-25.391,13.672,0.000
1726815522.627,-14.160,-31.738,-35.156,1.953,0.000
1726815522.631,-18.066,-29.785,-33.203,-8.789,0.000
1726815522.635,-11.719,-31.250,-28.809,-5.371,0.000
1726815522.639,-8.789,-36.621,-32.715,-10.742,0.000
1726815522.643,0.000,-37.109,-34.180,-12.207,0.000
1726815522.647,0.000,-42.480,-45.898,-20.508,0.000
1726815522.651,0.000,-46.387,-62.500,-18.555,0.000
1726815522.655,0.000,-42.480,-55.176,-9.766,0.000
1726815522.659,0.000,-32.715,-41.016,-1.465,0.000
1726815522.662,0.000,-31.250,-49.316,1.465,0.000
1726815522.666,0.000,-37.598,-54.199,-5.371,0.000
1726815522.670,0.000,-40.527,-45.898,-0.488,0.000
1726815522.674,0.000,-37.598,-42.480,-7.324,0.000
1726815522.678,0.000,-34.668,-29.785,-16.602,0.000
1726815522.682,0.000,-39.062,-26.855,-20.508,0.000
1726815522.686,0.000,-39.062,-37.109,-30.273,0.000
1726815522.690,-21.973,-32.715,-38.086,-23.438,0.000
1726815522.694,-8.789,-32.227,-45.410,-6.836,0.000
1726815522.698,-8.789,-41.016,-54.688,-5.371,0.000
1726815522.701,-10.742,-48.828,-54.688,-15.625,0.000
1726815522.705,-21.973,-47.363,-38.574,-21.973,0.000
1726815522.709,-23.926,-42.480,-36.621,-20.996,0.000
1726815522.713,-15.137,-40.039,-49.805,-4.883,0.000
1726815522.717,-20.020,-44.434,-48.340,-6.836,0.000
1726815522.721,-19.043,-43.945,-42.969,-16.113,0.000
1726815522.725,-23.438,-39.062,-39.062,-13.672,0.000
1726815522.729,-28.809,-36.621,-30.762,-17.090,0.000
1726815522.733,-19.531,-39.062,-20.508,-17.090,0.000
1726815522.737,-18.066,-39.062,-19.043,-18.066,0.000
1726815522.741,-14.160,-36.133,-31.738,-16.602,0.000
1726815522.744,-13.672,-35.645,-32.715,-13.184,0.000
1726815522.748,-27.344,-33.203,-28.320,-22.949,0.000
1726815522.752,-29.785,-30.273,-43.945,-23.926,0.000
1726815522.756,-15.625,-32.227,-44.922,-8.789,0.000
1726815522.760,-2.930,-37.598,-39.551,-6.836,0.000
1726815522.764,-15.625,-40.039,-47.852,-20.996,0.000
1726815522.768,-33.691,-37.598,-39.551,-37.109,0.000
1726815522.772,-29.297,-39.551,-20.020,-30.762,0.000
1726815522.776,-14.648,-35.645,-22.949,-14.648,0.000
1726815522.780,-7.324,-37.109,-39.551,-19.043,0.000
1726815522.784,-12.207,-39.551,-48.828,-17.090,0.000
1726815522.787,-18.555,-35.156,-63.477,-20.996,0.000
1726815522.791,-19.531,-34.180,-51.758,-20.508,0.000
1726815522.795,-17.578,-34.180,-50.293,-12.695,0.000
1726815522.799,-8.789,-33.203,-71.777,-10.254,0.000
1726815522.803,-11.230,-32.715,-60.547,-10.254,0.000
1726815522.807,-22.949,-39.062,-40.527,-18.555,0.000
1726815522.811,-27.832,-41.992,-19.043,-29.785,0.000
1726815522.815,-21.973,-33.691,-10.742,-30.762,0.000
1726815522.819,-9.766,-37.109,-14.648,-17.090,0.000
1726815522.823,-15.137,-40.039,-24.414,-29.297,0.000
1726815522.826,-20.996,-33.691,-32.715,-32.715,0.000
1726815522.830,-25.391,-36.133,-40.527,-31.738,0.000
1726815522.834,-32.715,-40.039,-50.293,-34.668,0.000
1726815522.838,-19.531,-36.621,-51.270,-24.414,0.000
1726815522.842,-20.020,-35.156,-51.758,-19.531,0.000
1726815522.846,-28.320,-32.227,-60.059,-19.531,0.000
1726815522.850,-28.320,-34.668,-61.035,-28.320,0.000
1726815522.854,-43.945,-37.598,-59.082,-38.086,0.000
1726815522.858,-42.480,-42.969,-62.500,-32.227,0.000
1726815522.862,-20.508,-43.457,-60.547,-16.113,0.000
1726815522.866,-23.926,-41.016,-45.898,-17.578,0.000
1726815522.869,-40.527,-42.480,-41.504,-33.691,0.000
1726815522.873,-35.156,-42.480,-44.434,-35.156,0.000
1726815522.877,-18.555,-46.387,-51.270,-34.668,0.000
1726815522.881,-17.578,-46.875,-73.242,-29.785,0.000
1726815522.885,-35.645,-41.504,-69.336,-28.809,0.000
1726815522.889,-36.133,-37.598,-49.805,-35.645,0.000
1726815522.893,-22.949,-40.039,-35.156,-28.320,0.000
1726815522.897,-16.602,-42.969,-32.227,-27.344,0.000
1726815522.901,-11.719,-38.574,-41.992,-30.762,0.000
1726815522.905,-20.996,-37.598,-39.062,-32.227,0.000
1726815522.909,-24.902,-38.574,-36.133,-23.438,0.000
1726815522.912,-20.996,-38.086,-45.898,-15.625,0.000
1726815522.916,-13.672,-33.203,-44.922,-21.484,0.000
1726815522.920,-8.789,-31.738,-42.480,-20.020,0.000
1726815522.924,-23.926,-38.574,-50.293,-19.043,0.000
1726815522.928,-29.297,-38.086,-40.527,-18.555,0.000
1726815522.932,-20.996,-38.086,-23.926,-18.555,0.000
1726815522.936,-17.578,-40.527,-27.344,-21.484,0.000
1726815522.940,-7.812,-38.086,-38.574,-12.695,0.000
1726815522.944,-19.043,-37.109,-46.875,-15.625,0.000
1726815522.948,-37.109,-38.086,-47.363,-23.926,0.000
1726815522.952,-29.785,-38.574,-42.969,-20.020,0.000
1726815522.955,-19.531,-40.039,-36.621,-9.277,0.000
1726815522.959,-15.137,-37.109,-67.383,-15.625,0.000
1726815522.963,-23.926,-37.598,-72.266,-23.926,0.000
1726815522.967,-32.715,-42.480,-26.367,-25.391,0.000
1726815522.971,-31.738,-39.062,-13.672,-29.297,0.000
1726815522.975,-30.273,-41.504,-22.461,-31.250,0.000
1726815522.979,-16.113,-43.945,-21.973,-24.902,0.000
1726815522.983,-21.484,-41.992,-28.320,-25.391,0.000
1726815522.987,-36.621,-40.527,-40.039,-34.668,0.000
1726815522.991,-28.809,-39.062,-48.828,-27.344,0.000
1726815522.994,-18.555,-36.133,-52.246,-21.973,0.000
1726815522.998,-8.301,-36.133,-50.293,-7.324,0.000
1726815523.002,-23.926,-42.969,-51.270,-17.578,0.000
1726815523.006,-34.668,-37.109,-49.805,-30.762,0.000
1726815523.010,-16.113,-30.762,-55.176,-14.648,0.000
1726815523.014,-10.254,-41.016,-55.664,-10.254,0.000
1726815523.018,-4.395,-45.410,-55.664,-16.602,0.000
1726815523.022,-13.184,-39.062,-72.754,-22.949,0.000
1726815523.026,-24.902,-35.645,-74.707,-27.344,0.000
1726815523.030,-19.531,-37.109,-59.082,-31.250,0.000
1726815523.034,-24.414,-39.551,-32.227,-34.180,0.000
1726815523.037,-19.531,-43.945,-17.090,-27.832,0.000
1726815523.041,-13.672,-41.016,-30.273,-23.926,0.000
1726815523.045,-20.996,-41.504,-40.527,-19.531,0.000
1726815523.049,-29.785,-45.898,-36.621,-21.484,0.000
1726815523.053,-20.996,-41.504,-33.691,-19.531,0.000
1726815523.057,0.488,-37.109,-41.504,-16.113,0.000
1726815523.061,-5.859,-36.133,-42.480,-21.484,0.000
1726815523.065,-30.762,-36.133,-47.852,-23.926,0.000
1726815523.069,-35.645,-36.133,-54.688,-28.320,0.000
1726815523.073,-23.438,-36.133,-56.641,-19.043,0.000
1726815523.077,-12.695,-34.668,-66.406,-12.207,0.000
1726815523.080,-14.648,-35.645,-69.336,-18.066,0.000
1726815523.084,-22.949,-38.086,-64.941,-18.555,0.000
1726815523.088,-22.949,-38.086,-61.523,-8.789,0.000
1726815523.092,-20.996,-34.668,-43.457,-19.043,0.000
1726815523.096,-9.766,-30.273,-28.320,-27.832,0.000
1726815523.100,0.488,-28.809,-34.180,-17.578,0.000
1726815523.104,-15.137,-36.133,-35.645,-27.832,0.000
1726815523.108,-8.789,-38.574,-30.273,-26.855,0.000
1726815523.112,12.207,-35.156,-30.273,0.977,0.000
1726815523.116,9.766,-34.668,-29.785,5.371,0.000
1726815523.119,-10.742,-37.598,-39.551,-17.090,0.000
1726815523.123,-26.855,-42.480,-44.922,-30.273,0.000
1726815523.127,-22.949,-43.457,-41.992,-26.855,0.000
1726815523.131,-24.414,-42.480,-45.410,-21.484,0.000
1726815523.135,-18.555,-43.945,-65.918,-9.766,0.000
1726815523.139,-23.438,-45.898,-84.473,-16.113,0.000
1726815523.143,-50.293,-44.434,-58.594,-34.180,0.000
1726815523.147,-58.105,-47.852,-18.066,-42.969,0.000
1726815523.151,-56.152,-48.340,-10.742,-44.434,0.000
1726815523.155,-54.688,-42.480,-23.438,-42.480,0.000
1726815523.159,-43.945,-40.527,-36.621,-32.715,0.000
1726815523.162,-41.504,-41.992,-51.270,-23.926,0.000
1726815523.166,-44.922,-35.156,-61.523,-37.598,0.000
1726815523.170,-44.922,-35.645,-47.363,-37.109,0.000
1726815523.174,-44.434,-40.527,-29.297,-27.832,0.000
1726815523.178,-26.855,-40.527,-33.691,-19.531,0.000
1726815523.182,-30.762,-41.504,-39.551,-22.949,0.000
1726815523.186,-38.574,-41.992,-36.621,-25.879,0.000
1726815523.190,-33.203,-41.016,-37.109,-20.508,0.000
1726815523.194,-25.879,-37.598,-41.992,-10.742,0.000
1726815523.198,-15.137,-32.715,-49.316,-6.348,0.000
1726815523.202,-23.926,-33.203,-56.641,-17.090,0.000
1726815523.205,-40.527,-35.156,-36.621,-31.250,0.000
1726815523.209,-34.180,-39.062,-40.527,-26.855,0.000
1726815523.213,-26.855,-38.574,-52.246,-28.809,0.000
1726815523.217,-26.367,-38.574,-28.809,-34.668,0.000
1726815523.221,-34.180,-44.434,-23.926,-30.762,0.000
1726815523.225,-37.598,-44.434,-34.180,-33.691,0.000
1726815523.229,-25.391,-40.527,-30.762,-24.902,0.000
1726815523.233,-15.625,-37.109,-31.738,-8.789,0.000
1726815523.237,-8.301,-37.598,-39.551,-1.953,0.000
1726815523.241,-11.719,-39.551,-46.387,3.906,0.000
1726815523.245,-34.180,-37.109,-52.734,-13.672,0.000
1726815523.248,-30.762,-36.621,-54.199,-14.648,0.000
1726815523.252,-20.508,-37.598,-47.852,-8.301,0.000
1726815523.256,-16.602,-33.203,-43.945,-12.695,0.000
1726815523.260,-17.578,-35.156,-44.922,-19.531,0.000
1726815523.264,-34.180,-37.598,-44.922,-27.832,0.000
1726815523.268,-29.785,-37.598,-39.062,-16.602,0.000
1726815523.272,-19.531,-41.992,-41.504,-1.465,0.000
1726815523.276,-17.578,-46.875,-41.992,1.953,0.000
1726815523.280,-19.043,-43.945,-43.457,-0.488,0.000
1726815523.284,-30.762,-42.969,-44.434,-14.648,0.000
1726815523.287,-34.668,-41.504,-32.227,-22.461,0.000
1726815523.291,-21.484,-35.156,-29.785,-11.719,0.000
1726815523.295,-14.160,-37.598,-41.016,-14.648,0.000
1726815523.299,-19.043,-38.086,-41.992,-20.508,0.000
1726815523.303,-25.391,-36.621,-41.016,-26.855,0.000
1726815523.307,-26.367,-38.086,-50.293,-20.020,0.000
1726815523.311,-20.020,-33.691,-54.199,-5.859,0.000
1726815523.315,-13.672,-38.086,-53.711,-9.277,0.000
1726815523.319,-22.461,-47.363,-41.504,-18.066,0.000
1726815523.323,-37.109,-41.016,-32.715,-32.227,0.000
1726815523.327,-37.598,-37.598,-39.062,-35.156,0.000
1726815523.330,-36.621,-37.598,-37.109,-17.090,0.000
1726815523.334,-34.180,-38.574,-36.133,-23.926,0.000
1726815523.338,-33.691,-44.922,-38.086,-36.621,0.000
1726815523.342,-44.434,-44.434,-35.156,-36.621,0.000
1726815523.346,-43.457,-40.527,-38.574,-31.250,0.000
1726815523.350,-39.062,-32.227,-47.363,-32.227,0.000
1726815523.354,-24.902,-31.250,-62.012,-24.414,0.000
1726815523.358,-15.625,-33.203,-60.059,-17.578,0.000
1726815523.362,-36.621,-34.668,-43.457,-26.855,0.000
1726815523.366,-44.434,-45.410,-41.504,-27.832,0.000
1726815523.370,-36.133,-47.852,-45.410,-25.879,0.000
1726815523.373,-19.043,-41.016,-53.223,-19.531,0.000
1726815523.377,-9.277,-40.527,-75.195,-11.719,0.000
1726815523.381,-30.273,-37.598,-64.453,-21.484,0.000
1726815523.385,-40.039,-37.109,-36.133,-25.391,0.000
1726815523.389,-37.109,-46.387,-21.973,-27.832,0.000
1726815523.393,-31.250,-47.852,-20.996,-36.621,0.000
1726815523.397,-18.555,-43.457,-22.949,-27.832,0.000
1726815523.401,-25.391,-44.922,-27.832,-27.344,0.000
1726815523.405,-29.297,-41.504,-33.203,-30.762,0.000
1726815523.409,-19.043,-36.621,-40.527,-25.391,0.000
1726815523.413,-16.602,-40.039,-53.223,-22.949,0.000
1726815523.416,-4.883,-39.062,-49.316,-18.066,0.000
1726815523.420,-4.883,-32.227,-39.062,-13.184,0.000
1726815523.424,-26.367,-32.715,-43.457,-16.602,0.000
1726815523.428,-33.203,-39.062,-39.062,-16.602,0.000
1726815523.432,-22.461,-38.574,-29.297,-10.742,0.000
1726815523.436,-10.742,-32.715,-27.344,-1.953,0.000
1726815523.440,-17.578,-36.133,-26.367,-13.184,0.000
1726815523.444,-28.809,-38.574,-33.691,-20.996,0.000
1726815523.448,-26.367,-36.621,-41.016,-15.137,0.000
1726815523.452,-25.879,-40.039,-36.621,-17.090,0.000
1726815523.455,-13.672,-41.016,-32.227,-20.996,0.000
1726815523.459,-18.066,-37.598,-36.133,-29.785,0.000
1726815523.463,-32.715,-41.504,-35.156,-23.926,0.000
1726815523.467,-24.902,-39.551,-35.156,-10.254,0.000
1726815523.471,-16.602,-31.738,-42.480,-17.090,0.000
1726815523.475,-7.812,-36.133,-51.270,-13.184,0.000
1726815523.479,-17.090,-40.527,-59.570,-16.602,0.000
1726815523.483,-36.133,-38.574,-45.410,-28.320,0.000
1726815523.487,-23.438,-43.457,-25.391,-26.367,0.000
1726815523.491,-12.207,-37.598,-33.203,-27.344,0.000
1726815523.495,-8.301,-34.180,-35.645,-21.973,0.000
1726815523.498,-16.113,-37.598,-27.832,-16.113,0.000
1726815523.502,-28.320,-34.668,-37.598,-23.438,0.000
1726815523.506,-18.555,-36.621,-41.992,-13.672,0.000
1726815523.510,-13.672,-40.527,-36.133,-8.789,0.000
1726815523.514,-14.648,-41.016,-35.645,-17.578,0.000
1726815523.518,-18.555,-43.457,-34.668,-22.461,0.000
1726815523.522,-33.203,-41.992,-33.691,-33.203,0.000
1726815523.526,-28.320,-41.992,-35.645,-31.250,0.000
1726815523.530,-21.973,-42.969,-45.898,-28.320,0.000
1726815523.534,-26.367,-39.062,-49.805,-29.785,0.000
1726815523.538,-28.320,-43.945,-43.945,-22.461,0.000
1726815523.541,-27.832,-41.504,-36.621,-26.367,0.000
1726815523.545,-25.879,-39.551,-37.109,-28.809,0.000
1726815523.549,-23.926,-40.527,-41.992,-10.742,0.000
1726815523.553,-11.719,-31.738,-44.922,1.953,0.000
1726815523.557,-9.277,-34.180,-45.410,-8.789,0.000
1726815523.561,-21.484,-34.668,-44.922,-22.461,0.000
1726815523.565,-20.996,-31.738,-48.340,-14.160,0.000
1726815523.569,-20.996,-35.156,-49.316,-9.766,0.000
1726815523.573,-16.602,-34.180,-47.363,-13.184,0.000
1726815523.577,-13.184,-30.762,-49.316,-14.160,0.000
1726815523.581,-26.855,-30.762,-51.270,-28.809,0.000
1726815523.584,-28.809,-34.180,-47.363,-25.879,0.000
1726815523.588,-22.461,-34.180,-50.781,-24.414,0.000
1726815523.592,-14.648,-36.621,-56.152,-17.090,0.000
1726815523.596,-9.766,-39.551,-57.617,-7.812,0.000
1726815523.600,-22.461,-33.691,-60.059,-11.719,0.000
1726815523.604,-24.902,-32.227,-54.199,-10.254,0.000
1726815523.608,-20.020,-31.738,-37.109,-11.719,0.000
1726815523.612,-24.902,-34.668,-17.090,-21.484,0.000
1726815523.616,-16.602,-37.598,-24.414,-17.090,0.000
1726815523.620,-22.461,-37.109,-28.809,-19.043,0.000
1726815523.623,-35.156,-36.133,-15.137,-25.391,0.000
1726815523.627,-33.203,-37.598,-24.902,-33.691,0.000
1726815523.631,-22.461,-34.668,-26.855,-26.367,0.000
1726815523.635,-13.184,-33.203,-29.297,-19.043,0.000
1726815523.639,-18.066,-36.621,-38.574,-24.414,0.000
1726815523.643,-25.391,-41.504,-35.645,-24.414,0.000
1726815523.647,-31.250,-40.527,-53.223,-21.973,0.000
1726815523.651,-23.438,-38.574,-50.293,-16.602,0.000
1726815523.655,-16.113,-36.133,-28.320,-20.996,0.000
1726815523.659,-24.902,-42.969,-27.832,-21.484,0.000
1726815523.663,-32.715,-41.016,-45.410,-20.020,0.000
1726815523.666,-33.203,-31.738,-48.340,-19.043,0.000
1726815523.670,-21.973,-34.180,-37.598,-7.812,0.000
1726815523.674,-13.672,-37.598,-41.016,-19.531,0.000
1726815523.678,-19.043,-35.156,-40.039,-30.273,0.000
1726815523.682,-33.691,-33.203,-29.785,-24.414,0.000
1726815523.686,-33.203,-31.738,-26.367,-27.344,0.000
1726815523.690,-29.785,-28.809,-25.879,-28.320,0.000
1726815523.694,-20.996,-30.762,-29.297,-22.461,0.000
1726815523.698,-20.508,-28.320,-37.598,-20.508,0.000
1726815523.702,-24.414,-25.391,-41.992,-10.254,0.000
1726815523.706,-6.348,-30.273,-39.551,-0.488,0.000
1726815523.709,-8.789,-30.273,-42.480,-20.996,0.000
1726815523.713,-13.184,-27.832,-51.270,-21.484,0.000
1726815523.717,-15.137,-36.621,-41.992,-20.508,0.000
1726815523.721,-30.273,-40.527,-30.273,-32.715,0.000
1726815523.725,-34.668,-34.668,-28.320,-38.574,0.000
1726815523.729,-29.785,-34.668,-25.391,-32.715,0.000
1726815523.733,-23.438,-39.062,-27.832,-25.879,0.000
1726815523.737,-24.902,-36.133,-37.598,-24.414,0.000
1726815523.741,-27.832,-32.227,-43.945,-22.949,0.000
1726815523.745,-24.902,-32.227,-39.062,-19.531,0.000
1726815523.748,-14.648,-28.320,-34.668,-7.812,0.000
1726815523.752,-8.301,-31.738,-29.297,-5.859,0.000
1726815523.756,-8.789,-32.715,-33.203,-12.695,0.000
1726815523.760,-20.996,-27.344,-44.922,-15.137,0.000
1726815523.764,-25.391,-33.203,-42.480,-23.926,0.000
1726815523.768,-13.184,-28.320,-24.414,-22.949,0.000
1726815523.772,-4.883,-22.949,-20.020,-14.648,0.000
1726815523.776,-7.812,-33.691,-36.621,-11.719,0.000
1726815523.780,-25.391,-33.691,-44.922,-22.949,0.000
1726815523.784,-34.668,-33.203,-30.762,-25.391,0.000
1726815523.788,-23.926,-36.621,-27.344,-18.066,0.000
1726815523.791,-13.672,-34.668,-37.598,-13.672,0.000
1726815523.795,-15.625,-36.133,-34.180,-13.184,0.000
1726815523.799,-38.086,-36.621,-27.832,-30.762,0.000
1726815523.803,-37.109,-37.598,-32.715,-27.344,0.000
1726815523.807,-23.438,-35.645,-37.598,-20.020,0.000
1726815523.811,-21.973,-35.645,-37.109,-16.113,0.000
1726815523.815,-20.020,-39.551,-38.086,-6.348,0.000
1726815523.819,-30.273,-37.109,-39.062,-4.883,0.000
1726815523.823,-35.645,-38.574,-36.621,-17.578,0.000
1726815523.827,-31.738,-45.410,-39.551,-23.926,0.000
1726815523.831,-24.902,-43.945,-49.805,-20.996,0.000
1726815523.834,-18.066,-40.039,-41.016,-28.809,0.000
1726815523.838,-29.785,-39.062,-38.574,-30.762,0.000
1726815523.842,-41.992,-41.504,-40.039,-32.227,0.000
1726815523.846,-31.250,-40.527,-27.832,-27.832,0.000
1726815523.850,-18.066,-35.156,-23.926,-17.090,0.000
1726815523.854,-11.230,-37.598,-30.273,-22.949,0.000
1726815523.858,-25.391,-40.039,-41.992,-31.738,0.000
1726815523.862,-41.016,-39.551,-38.086,-34.180,0.000
1726815523.866,-35.645,-42.969,-30.273,-32.715,0.000
1726815523.870,-28.809,-39.551,-30.762,-33.203,0.000
1726815523.873,-16.602,-30.762,-31.738,-24.902,0.000
1726815523.877,-27.832,-34.668,-36.621,-24.414,0.000
1726815523.881,-42.480,-41.016,-43.945,-26.855,0.000
1726815523.885,-36.133,-43.457,-43.457,-30.762,0.000
1726815523.889,-35.156,-40.527,-39.062,-33.203,0.000
1726815523.893,-23.438,-40.039,-39.062,-32.715,0.000
1726815523.897,-21.973,-45.410,-41.992,-27.344,0.000
1726815523.901,-37.109,-41.504,-41.016,-33.203,0.000
1726815523.905,-31.250,-38.574,-43.457,-41.504,0.000
1726815523.909,-22.949,-43.457,-44.434,-31.738,0.000
1726815523.913,-23.438,-43.457,-50.293,-28.320,0.000
1726815523.916,-28.320,-43.945,-54.199,-23.926,0.000
1726815523.920,-42.480,-43.457,-46.387,-31.250,0.000
1726815523.924,-37.598,-38.086,-40.527,-39.062,0.000
1726815523.928,-26.855,-39.062,-34.668,-25.391,0.000
1726815523.932,-24.902,-40.039,-36.133,-21.973,0.000
1726815523.936,-25.391,-37.598,-41.016,-26.855,0.000
1726815523.940,-39.551,-36.621,-37.598,-28.809,0.000
1726815523.944,-36.621,-34.668,-34.668,-30.273,0.000
1726815523.948,-30.762,-36.621,-39.551,-32.227,0.000
1726815523.952,-29.785,-36.133,-41.016,-34.180,0.000
1726815523.955,0.000,-41.016,-33.203,-31.738,0.000
1726815523.959,0.000,-45.898,-30.273,-37.109,0.000
1726815523.963,0.000,-43.945,-39.551,-55.664,0.000
1726815523.967,0.000,-39.551,-38.086,-50.293,0.000
1726815523.971,0.000,-37.598,-27.344,-30.273,0.000
1726815523.975,0.000,-36.133,-30.273,-28.809,0.000
1726815523.979,0.000,-38.574,-33.691,-43.945,0.000
1726815523.983,0.000,-36.621,-35.645,-46.875,0.000
1726815523.987,0.000,-34.668,-35.156,-41.992,0.000
1726815523.991,0.000,-38.086,-33.203,-37.598,0.000
1726815523.995,0.000,-32.227,-36.621,-45.410,0.000
1726815523.998,0.000,-30.762,-32.227,-60.547,0.000
1726815524.002,-57.129,-41.992,-26.855,-62.012,0.000
1726815524.006,-56.641,-38.086,-16.602,-60.059,0.000
1726815524.010,-61.523,-24.902,-20.020,-60.059,0.000
1726815524.014,-55.176,-33.203,-22.461,-57.129,0.000
1726815524.018,-76.172,-47.363,-20.996,-78.125,0.000
1726815524.022,-104.004,-48.340,-21.484,-101.562,0.000
1726815524.026,-104.004,-46.387,-7.812,-103.516,0.000
1726815524.030,-96.680,-47.852,-5.859,-93.262,0.000
1726815524.034,-98.145,-36.621,-11.719,-92.285,0.000
1726815524.038,-141.602,-28.320,-1.465,-136.230,0.000
1726815524.041,-184.570,-42.480,5.859,-189.941,0.000
1726815524.045,-190.918,-43.457,0.000,-192.871,0.000
1726815524.049,-203.125,-31.738,2.930,-201.172,0.000
1726815524.053,-204.590,-32.715,-3.906,-215.332,0.000
1726815524.057,-218.262,-33.691,-13.672,-223.633,0.000
1726815524.061,-235.352,-27.832,-8.789,-233.887,0.000
1726815524.065,-223.145,-16.602,-9.277,-223.145,0.000
1726815524.069,-216.797,-30.762,-11.230,-216.797,0.000
1726815524.073,-201.172,-38.574,-3.906,-207.520,0.000
1726815524.077,-189.453,-30.273,-13.184,-192.383,0.000
