timestamps,TP9,AF7,AF8,TP10,Right AUX
1727436932.568,-36.133,-30.273,-32.715,-20.020,0.000
1727436932.572,-63.965,-10.254,-26.855,-35.156,0.000
1727436932.576,-9.277,-7.324,-28.320,-8.789,0.000
1727436932.580,53.711,-20.020,-27.832,14.648,0.000
1727436932.584,46.387,-26.367,-23.438,5.859,0.000
1727436932.588,-33.203,-22.461,-18.066,-7.324,0.000
1727436932.592,-72.266,-22.461,-16.113,-20.020,0.000
1727436932.596,-15.625,-24.414,-16.113,-15.625,0.000
1727436932.600,54.199,-22.461,-19.043,15.137,0.000
1727436932.604,41.504,-30.762,-28.320,24.414,0.000
1727436932.607,-16.602,-38.086,-21.973,21.973,0.000
1727436932.611,-46.387,-34.180,-25.879,-4.395,0.000
1727436932.615,-17.090,-40.527,-38.086,-18.066,0.000
1727436932.619,30.273,-38.574,-41.992,-7.812,0.000
1727436932.623,28.809,-21.484,-46.875,-13.184,0.000
1727436932.627,-17.578,-27.832,-43.457,-22.461,0.000
1727436932.631,-67.383,-39.551,-45.898,-20.996,0.000
1727436932.635,-50.293,-32.227,-52.246,-12.695,0.000
1727436932.639,30.273,-22.461,-55.664,-14.648,0.000
1727436932.643,41.016,-25.391,-53.711,-15.625,0.000
1727436932.647,-23.926,-33.203,-46.387,-15.625,0.000
1727436932.650,-86.914,-31.738,-39.551,-42.969,0.000
1727436932.654,-58.594,-46.387,-38.574,-36.621,0.000
1727436932.658,51.758,-46.387,-36.133,-0.977,0.000
1727436932.662,80.566,-39.062,-36.621,5.859,0.000
1727436932.666,4.883,-24.414,-39.062,5.859,0.000
1727436932.670,-68.359,-0.488,-35.645,-13.672,0.000
1727436932.674,-45.410,0.977,-33.691,-20.996,0.000
1727436932.678,22.461,-12.207,-41.992,-11.230,0.000
1727436932.682,57.129,-21.973,-45.410,0.000,0.000
1727436932.686,34.180,-20.020,-39.062,10.254,0.000
1727436932.690,-41.992,-29.297,-34.668,-6.836,0.000
1727436932.693,-51.758,-42.480,-36.133,-20.020,0.000
1727436932.697,19.531,-32.227,-43.457,-18.555,0.000
1727436932.701,52.246,-15.137,-48.828,-15.137,0.000
1727436932.705,11.719,-15.137,-46.875,-12.695,0.000
1727436932.709,-62.500,-23.926,-42.480,-41.992,0.000
1727436932.713,-73.730,-10.254,-33.691,-61.523,0.000
1727436932.717,10.742,6.836,-27.344,-17.090,0.000
1727436932.721,66.895,-6.836,-29.785,15.137,0.000
1727436932.725,22.949,-24.414,-40.527,-10.742,0.000
1727436932.729,-45.898,-17.578,-42.480,-35.645,0.000
1727436932.732,-58.594,-30.273,-38.574,-38.086,0.000
1727436932.736,15.625,-41.504,-34.668,-15.137,0.000
1727436932.740,58.594,-23.438,-24.902,4.883,0.000
1727436932.744,27.344,-14.160,-17.090,12.207,0.000
1727436932.748,-26.855,-15.625,-21.973,-14.648,0.000
1727436932.752,-49.316,-17.090,-32.715,-51.758,0.000
1727436932.756,-5.859,-20.508,-37.109,-39.062,0.000
1727436932.760,57.129,-27.832,-28.320,-4.883,0.000
1727436932.764,59.570,-31.738,-19.531,13.184,0.000
1727436932.768,-11.719,-34.180,-15.137,5.371,0.000
1727436932.772,-60.059,-46.875,-16.113,-18.066,0.000
1727436932.775,-17.090,-41.016,-24.414,-18.066,0.000
1727436932.779,47.363,-37.598,-39.062,1.953,0.000
1727436932.783,37.598,-52.734,-47.363,-1.465,0.000
1727436932.787,-20.020,-45.410,-44.434,-31.738,0.000
1727436932.791,-70.312,-26.367,-42.969,-43.457,0.000
1727436932.795,-43.457,-17.090,-42.969,-17.578,0.000
1727436932.799,54.199,-16.602,-49.316,-6.348,0.000
1727436932.803,60.547,-25.391,-43.457,-15.625,0.000
1727436932.807,-32.715,-42.969,-30.762,-19.043,0.000
1727436932.811,-88.867,-47.363,-20.508,-28.809,0.000
1727436932.814,-60.059,-37.598,-15.137,-35.645,0.000
1727436932.818,15.137,-35.645,-14.160,-10.742,0.000
1727436932.822,37.598,-41.992,-11.230,5.371,0.000
1727436932.826,-17.578,-50.293,-11.719,-5.859,0.000
1727436932.830,-79.590,-58.594,-10.254,-33.691,0.000
1727436932.834,-69.824,-70.312,-9.277,-45.410,0.000
1727436932.838,3.418,-82.520,-13.672,-20.996,0.000
1727436932.842,48.340,-78.125,-14.648,-9.277,0.000
1727436932.846,19.531,-59.082,-18.555,-9.766,0.000
1727436932.850,-52.734,-51.270,-21.973,-26.855,0.000
1727436932.854,-52.246,-51.270,-18.066,-31.250,0.000
1727436932.857,44.434,-53.711,-9.277,-5.371,0.000
1727436932.861,97.656,-56.152,-6.348,8.301,0.000
1727436932.865,48.828,-57.129,-13.672,-2.441,0.000
1727436932.869,-28.320,-61.523,-20.996,-30.762,0.000
1727436932.873,-45.898,-56.641,-24.902,-42.480,0.000
1727436932.877,5.371,-46.875,-22.461,-14.648,0.000
1727436932.881,47.852,-54.688,-25.879,2.930,0.000
1727436932.885,18.066,-61.035,-29.297,0.488,0.000
1727436932.889,-50.781,-56.641,-27.344,-11.230,0.000
1727436932.893,-52.246,-45.410,-16.602,-11.719,0.000
1727436932.897,21.484,-46.387,-9.277,0.000,0.000
1727436932.900,53.223,-59.570,-18.066,0.488,0.000
1727436932.904,16.602,-60.059,-18.066,-6.836,0.000
1727436932.908,-34.180,-57.129,-7.324,-20.020,0.000
1727436932.912,-50.293,-61.523,2.930,-14.648,0.000
1727436932.916,-3.418,-67.871,1.953,6.836,0.000
1727436932.920,39.062,-68.848,-16.113,6.836,0.000
1727436932.924,19.043,-59.570,-21.484,-3.418,0.000
1727436932.928,-50.781,-61.035,-20.508,-13.672,0.000
1727436932.932,-93.750,-70.801,-22.949,-22.949,0.000
1727436932.936,-38.574,-63.477,-17.090,-23.438,0.000
1727436932.940,41.016,-55.176,-11.719,-7.324,0.000
1727436932.943,33.691,-60.547,-6.836,8.301,0.000
1727436932.947,-36.133,-67.871,-10.742,-13.184,0.000
1727436932.951,-84.473,-70.312,-23.438,-38.574,0.000
1727436932.955,-37.598,-63.477,-28.320,-41.016,0.000
1727436932.959,34.180,-52.246,-27.344,-28.320,0.000
1727436932.963,41.992,-30.273,-16.602,-7.812,0.000
1727436932.967,-14.160,-35.156,-33.203,-32.715,0.000
1727436932.971,-76.660,-57.617,-55.176,-68.359,0.000
1727436932.975,-53.223,-58.594,-50.781,-50.293,0.000
1727436932.979,7.812,-59.082,-41.992,-20.020,0.000
1727436932.982,24.902,-61.523,-33.203,-1.465,0.000
1727436932.986,-11.230,-46.387,-32.715,-21.973,0.000
1727436932.990,-73.730,-37.598,-41.504,-62.012,0.000
1727436932.994,-66.406,-41.504,-40.527,-58.594,0.000
1727436932.998,15.625,-48.340,-37.598,-31.250,0.000
1727436933.002,41.504,-47.852,-46.387,-20.020,0.000
1727436933.006,-11.719,-39.062,-47.852,-16.602,0.000
1727436933.010,-68.848,-20.508,-32.715,-20.996,0.000
1727436933.014,-42.480,-18.066,-30.762,-20.508,0.000
1727436933.018,54.199,-30.273,-37.598,-10.742,0.000
1727436933.022,73.242,-35.645,-32.227,2.441,0.000
1727436933.025,-3.418,-44.922,-31.738,-8.789,0.000
1727436933.029,-74.707,-46.875,-31.738,-37.598,0.000
1727436933.033,-69.336,-46.875,-22.949,-49.316,0.000
1727436933.037,3.418,-42.480,-20.996,-28.809,0.000
1727436933.041,48.340,-48.828,-24.902,-17.090,0.000
1727436933.045,15.625,-74.219,-26.367,-18.555,0.000
1727436933.049,-49.316,-58.594,-20.508,-33.691,0.000
1727436933.053,-71.289,-27.832,-14.648,-62.988,0.000
1727436933.057,-12.207,-26.855,-7.812,-45.410,0.000
1727436933.061,31.738,-47.852,-18.066,-39.062,0.000
1727436933.065,-0.488,-56.641,-34.180,-50.781,0.000
1727436933.068,-79.590,-51.758,-33.691,-56.152,0.000
1727436933.072,-111.816,-62.500,-36.133,-68.359,0.000
1727436933.076,-30.273,-61.523,-36.133,-48.828,0.000
1727436933.080,41.504,-60.547,-23.926,-20.020,0.000
1727436933.084,8.789,-72.266,-29.785,-13.672,0.000
1727436933.088,-82.031,-77.148,-38.086,-30.762,0.000
1727436933.092,-95.215,-57.617,-25.391,-37.598,0.000
1727436933.096,-23.926,-42.969,-21.973,-7.324,0.000
1727436933.100,25.879,-50.293,-23.926,-5.859,0.000
1727436933.104,-0.488,-50.293,-30.273,-34.180,0.000
1727436933.108,-78.613,-53.711,-41.016,-49.316,0.000
1727436933.111,-123.047,-54.688,-42.480,-68.359,0.000
1727436933.115,-77.148,-49.316,-42.969,-62.012,0.000
1727436933.119,5.859,-50.781,-47.852,-41.992,0.000
1727436933.123,16.602,-51.270,-47.852,-32.715,0.000
1727436933.127,-40.527,-35.645,-35.156,-27.832,0.000
1727436933.131,-87.891,-24.902,-33.203,-39.062,0.000
1727436933.135,-43.945,-28.320,-39.062,-32.715,0.000
1727436933.139,53.223,-37.598,-37.109,-2.930,0.000
1727436933.143,65.430,-46.875,-40.527,9.766,0.000
1727436933.147,-7.324,-41.016,-34.668,-19.043,0.000
1727436933.150,-71.289,-23.926,-21.484,-47.363,0.000
1727436933.154,-42.480,-13.184,-20.508,-34.180,0.000
1727436933.158,28.320,-16.113,-23.926,-15.625,0.000
1727436933.162,33.203,-23.926,-24.902,-21.973,0.000
1727436933.166,-8.789,-14.648,-19.043,-21.973,0.000
1727436933.170,-79.102,-11.719,-20.020,-42.969,0.000
1727436933.174,-78.125,-23.926,-28.320,-53.711,0.000
1727436933.178,2.441,-30.273,-27.344,-22.461,0.000
1727436933.182,32.227,-24.902,-23.438,-9.277,0.000
1727436933.186,-14.160,-31.738,-24.902,-18.066,0.000
1727436933.190,-83.496,-44.922,-26.367,-38.574,0.000
1727436933.193,-83.984,-44.434,-26.367,-42.969,0.000
1727436933.197,-0.977,-39.551,-21.484,-18.555,0.000
1727436933.201,49.316,-37.598,-25.879,-17.090,0.000
1727436933.205,4.883,-38.086,-29.297,-21.973,0.000
1727436933.209,-67.871,-31.250,-25.391,-40.527,0.000
1727436933.213,-80.078,-34.180,-32.227,-55.176,0.000
1727436933.217,-14.160,-35.156,-36.621,-26.855,0.000
1727436933.221,43.945,-33.203,-29.297,-3.418,0.000
1727436933.225,16.113,-43.945,-29.785,-7.812,0.000
1727436933.229,-51.270,-40.527,-29.297,-32.227,0.000
1727436933.232,-77.637,-41.992,-30.762,-45.898,0.000
1727436933.236,-20.508,-48.340,-28.809,-24.902,0.000
1727436933.240,49.316,-38.086,-23.926,-7.812,0.000
1727436933.244,27.832,-33.691,-30.273,-10.742,0.000
1727436933.248,-53.223,-28.809,-30.762,-38.086,0.000
1727436933.252,-91.309,-19.043,-26.855,-53.711,0.000
1727436933.256,-48.828,-23.926,-35.645,-45.898,0.000
1727436933.260,18.066,-36.133,-43.945,-28.320,0.000
1727436933.264,3.906,-44.434,-46.387,-16.113,0.000
1727436933.268,-62.500,-41.992,-34.180,-24.414,0.000
1727436933.272,-91.797,-36.621,-20.508,-43.457,0.000
1727436933.275,-41.504,-59.082,-22.461,-27.344,0.000
1727436933.279,22.949,-68.359,-25.391,-13.184,0.000
1727436933.283,15.625,-40.527,-28.809,-20.996,0.000
1727436933.287,-60.059,-17.578,-31.250,-24.902,0.000
1727436933.291,-104.492,-11.230,-27.832,-40.527,0.000
1727436933.295,-61.523,-14.160,-24.902,-43.457,0.000
1727436933.299,10.742,-25.391,-31.738,-32.715,0.000
1727436933.303,34.668,-24.414,-32.227,-22.949,0.000
1727436933.307,-20.508,-23.926,-34.180,-27.832,0.000
1727436933.311,-74.707,-28.320,-27.344,-52.734,0.000
1727436933.314,-47.363,-25.391,-13.184,-42.969,0.000
1727436933.318,20.020,-35.645,-16.113,-21.484,0.000
1727436933.322,40.039,-51.758,-22.461,-26.367,0.000
1727436933.326,-15.137,-51.758,-20.508,-28.809,0.000
1727436933.330,-83.008,-36.621,-17.090,-36.133,0.000
1727436933.334,-66.406,-26.855,-24.902,-44.434,0.000
1727436933.338,9.766,-31.738,-22.949,-32.715,0.000
1727436933.342,33.203,-37.109,-23.926,-33.203,0.000
1727436933.346,-24.902,-45.410,-30.273,-37.109,0.000
1727436933.350,-92.285,-59.082,-27.832,-53.711,0.000
1727436933.354,-86.426,-58.594,-29.785,-66.895,0.000
1727436933.357,-14.160,-51.758,-29.785,-44.434,0.000
1727436933.361,20.020,-63.965,-28.320,-36.133,0.000
1727436933.365,-29.785,-70.801,-23.926,-43.945,0.000
1727436933.369,-95.215,-57.129,-20.020,-57.617,0.000
1727436933.373,-89.844,-47.363,-21.484,-53.223,0.000
1727436933.377,-24.414,-47.852,-24.902,-24.902,0.000
1727436933.381,28.809,-42.480,-24.902,-8.789,0.000
1727436933.385,0.000,-33.203,-26.855,-27.832,0.000
1727436933.389,-91.797,-35.156,-37.598,-61.523,0.000
1727436933.393,-99.609,-35.156,-40.527,-70.312,0.000
1727436933.397,-24.902,-39.551,-42.480,-53.223,0.000
1727436933.400,20.996,-44.922,-43.945,-41.016,0.000
1727436933.404,-8.789,-55.664,-46.875,-45.898,0.000
1727436933.408,-79.102,-71.289,-47.363,-69.336,0.000
1727436933.412,-101.074,-68.848,-34.668,-76.172,0.000
1727436933.416,-47.363,-56.641,-28.809,-52.246,0.000
1727436933.420,20.996,-44.922,-28.320,-30.273,0.000
1727436933.424,6.836,-39.551,-25.879,-27.832,0.000
1727436933.428,-74.707,-28.320,-30.762,-49.316,0.000
1727436933.432,-110.840,-27.832,-33.203,-63.477,0.000
1727436933.436,-58.105,-41.016,-39.062,-47.852,0.000
1727436933.439,21.973,-36.621,-32.227,-18.066,0.000
1727436933.443,21.973,-28.809,-19.531,-20.996,0.000
1727436933.447,-52.246,-41.992,-28.809,-59.570,0.000
1727436933.451,-85.449,-48.340,-36.621,-78.125,0.000
1727436933.455,-49.805,-45.410,-33.691,-55.664,0.000
1727436933.459,0.000,-42.480,-43.945,-38.574,0.000
1727436933.463,0.000,-45.898,-42.969,-30.273,0.000
1727436933.467,0.000,-45.898,-23.438,-34.180,0.000
1727436933.471,0.000,-45.898,-29.785,-70.312,0.000
1727436933.475,0.000,-41.504,-46.387,-76.660,0.000
1727436933.479,0.000,-35.156,-52.734,-46.387,0.000
1727436933.482,0.000,-33.691,-49.805,-39.551,0.000
1727436933.486,0.000,-42.480,-37.109,-52.734,0.000
1727436933.490,0.000,-43.945,-20.996,-64.453,0.000
1727436933.494,0.000,-30.762,-20.020,-50.781,0.000
1727436933.498,0.000,-41.016,-29.785,-31.738,0.000
1727436933.502,0.000,-46.875,-29.297,-39.551,0.000
1727436933.506,-47.852,-55.176,-29.785,-53.223,0.000
1727436933.510,-105.957,-68.848,-29.785,-72.754,0.000
1727436933.514,-83.496,-49.805,-19.531,-58.594,0.000
1727436933.518,-1.953,-41.016,-23.438,-35.645,0.000
1727436933.522,27.832,-55.664,-34.180,-45.898,0.000
1727436933.525,-26.855,-52.246,-37.109,-50.293,0.000
1727436933.529,-79.590,-35.645,-33.203,-61.035,0.000
1727436933.533,-79.102,-33.203,-35.645,-73.242,0.000
1727436933.537,-32.227,-36.621,-36.621,-47.363,0.000
1727436933.541,17.578,-30.273,-25.391,-13.184,0.000
1727436933.545,-12.695,-24.414,-21.484,-29.785,0.000
1727436933.549,-83.496,-25.879,-27.344,-64.941,0.000
1727436933.553,-71.777,-32.227,-25.879,-68.848,0.000
1727436933.557,-9.277,-36.133,-26.367,-43.945,0.000
1727436933.561,20.508,-29.297,-32.715,-24.414,0.000
1727436933.565,-7.812,-20.996,-36.621,-38.086,0.000
1727436933.568,-75.195,-19.531,-32.715,-63.477,0.000
1727436933.572,-88.379,-20.996,-24.902,-66.895,0.000
1727436933.576,-27.832,-23.438,-27.344,-48.340,0.000
1727436933.580,24.902,-23.926,-36.133,-30.762,0.000
1727436933.584,14.160,-32.227,-27.832,-17.090,0.000
1727436933.588,-61.035,-32.227,-20.508,-32.715,0.000
1727436933.592,-106.934,-14.648,-33.203,-60.547,0.000
1727436933.596,-51.270,-11.230,-32.715,-48.340,0.000
1727436933.600,23.438,-16.602,-27.832,-30.762,0.000
1727436933.604,13.672,-34.668,-33.203,-23.926,0.000
1727436933.607,-62.012,-53.711,-30.273,-36.621,0.000
1727436933.611,-95.703,-68.848,-25.879,-65.918,0.000
1727436933.615,-50.293,-35.156,-22.461,-54.199,0.000
1727436933.619,11.230,45.410,-23.926,-21.484,0.000
1727436933.623,14.160,76.172,-26.367,-10.742,0.000
1727436933.627,-51.758,65.918,-24.414,-39.062,0.000
1727436933.631,-99.121,57.617,-27.344,-76.172,0.000
1727436933.635,-59.082,58.105,-26.855,-54.199,0.000
1727436933.639,-1.465,47.363,-33.203,-32.715,0.000
1727436933.643,-1.953,36.621,-38.086,-51.270,0.000
1727436933.647,-51.758,36.621,-28.320,-41.504,0.000
1727436933.650,-110.840,26.855,-24.414,-58.105,0.000
1727436933.654,-81.543,22.461,-23.438,-71.289,0.000
1727436933.658,-4.395,23.438,-26.855,-58.105,0.000
1727436933.662,-3.418,14.648,-24.414,-49.805,0.000
1727436933.666,-59.570,7.812,-15.137,-40.039,0.000
1727436933.670,-120.117,23.926,-17.090,-72.754,0.000
1727436933.674,-126.953,37.109,-18.555,-111.816,0.000
1727436933.678,-62.500,27.832,-16.602,-100.098,0.000
1727436933.682,-32.715,26.855,-25.391,-89.844,0.000
1727436933.686,-95.215,17.090,-38.086,-117.188,0.000
1727436933.689,-164.062,20.996,-21.484,-151.367,0.000
1727436933.693,-163.574,39.062,-17.578,-181.641,0.000
1727436933.697,-119.629,21.973,-36.621,-185.547,0.000
1727436933.701,-99.121,5.859,-54.199,-179.199,0.000
1727436933.705,-130.371,14.160,-45.410,-182.129,0.000
1727436933.709,-203.125,14.648,-34.180,-194.824,0.000
1727436933.713,-225.586,13.184,-59.082,-206.055,0.000
1727436933.717,-166.992,7.324,-81.543,-213.379,0.000
1727436933.721,-118.164,5.371,-76.172,-220.215,0.000
1727436933.725,-157.227,8.301,-73.730,-219.238,0.000
1727436933.729,-236.328,-14.160,-112.793,-246.094,0.000
1727436933.732,-244.141,-21.484,-119.629,-268.066,0.000
1727436933.736,-200.195,-8.789,-101.074,-246.582,0.000
1727436933.740,-163.574,-19.531,-117.676,-239.258,0.000
1727436933.744,-172.852,-21.973,-128.418,-237.793,0.000
1727436933.748,-226.562,-12.207,-115.234,-225.098,0.000
1727436933.752,-248.047,-11.719,-121.094,-235.840,0.000
1727436933.756,-192.383,-22.949,-139.160,-231.445,0.000
1727436933.760,-130.371,-36.133,-145.996,-200.195,0.000
1727436933.764,-129.883,-30.762,-142.090,-195.801,0.000
1727436933.768,-200.684,-37.109,-144.531,-203.613,0.000
1727436933.772,-232.910,-57.129,-150.391,-188.965,0.000
1727436933.775,-170.898,-50.781,-136.230,-181.641,0.000
1727436933.779,-109.375,-60.059,-124.023,-181.152,0.000
1727436933.783,-103.516,-52.246,-126.953,-178.223,0.000
1727436933.787,-169.922,-17.090,-126.465,-167.969,0.000
1727436933.791,-220.215,-20.020,-125.000,-179.199,0.000
1727436933.795,-156.738,-27.832,-123.047,-166.992,0.000
1727436933.799,-62.988,-22.461,-126.953,-131.348,0.000
1727436933.803,-56.641,-35.645,-132.324,-125.488,0.000
1727436933.807,-106.445,-59.570,-134.766,-124.512,0.000
1727436933.811,-135.254,-41.504,-134.766,-127.441,0.000
1727436933.815,-113.770,-22.461,-126.953,-120.605,0.000
1727436933.818,-40.527,-33.203,-126.953,-96.680,0.000
1727436933.822,-0.977,-36.621,-125.000,-85.938,0.000
1727436933.826,-53.711,-40.527,-118.652,-88.867,0.000
1727436933.830,-93.750,-23.926,-108.398,-90.332,0.000
1727436933.834,-41.504,-14.648,-94.727,-68.848,0.000
1727436933.838,40.039,-4.883,-90.820,-26.367,0.000
1727436933.842,87.402,5.859,-81.055,-0.488,0.000
1727436933.846,45.898,-7.324,-64.453,9.277,0.000
1727436933.850,-31.250,-19.043,-58.594,13.184,0.000
1727436933.854,-14.648,-10.742,-66.895,5.371,0.000
1727436933.857,66.895,-18.066,-52.246,20.996,0.000
1727436933.861,106.934,-38.086,-12.695,60.059,0.000
1727436933.865,69.824,-36.621,0.977,53.223,0.000
1727436933.869,3.906,-33.691,-5.371,16.113,0.000
1727436933.873,11.719,-37.598,-9.766,16.113,0.000
1727436933.877,96.191,-42.480,0.977,55.176,0.000
1727436933.881,146.973,-49.805,11.719,78.125,0.000
1727436933.885,119.629,-50.781,16.602,83.984,0.000
1727436933.889,55.176,-48.340,15.137,71.289,0.000
1727436933.893,43.945,-54.199,10.742,53.223,0.000
1727436933.897,114.746,-52.734,19.531,72.754,0.000
1727436933.900,147.949,-58.594,13.672,79.102,0.000
1727436933.904,107.910,-62.988,5.371,66.895,0.000
1727436933.908,33.203,-55.664,9.277,56.641,0.000
1727436933.912,-3.418,-67.383,11.719,44.434,0.000
1727436933.916,58.594,-80.566,16.113,45.898,0.000
1727436933.920,119.629,-80.566,19.531,49.316,0.000
1727436933.924,83.496,-76.660,20.508,45.898,0.000
1727436933.928,18.066,-69.824,20.508,39.551,0.000
1727436933.932,-12.207,-66.895,23.438,34.180,0.000
1727436933.936,28.809,-61.523,21.484,49.316,0.000
1727436933.939,105.469,-58.105,13.672,69.336,0.000
1727436933.943,96.191,-62.012,10.254,62.988,0.000
1727436933.947,19.043,-47.852,20.020,42.480,0.000
1727436933.951,-27.832,-40.039,24.414,28.809,0.000
1727436933.955,8.301,-61.035,1.953,26.367,0.000
1727436933.959,67.871,-79.590,-16.113,41.016,0.000
1727436933.963,73.730,-81.055,-9.766,47.852,0.000
1727436933.967,19.043,-68.848,0.977,17.578,0.000
1727436933.971,-30.762,-59.082,5.371,-7.324,0.000
1727436933.975,0.488,-58.105,6.348,10.742,0.000
1727436933.979,66.406,-61.523,7.324,29.785,0.000
1727436933.982,73.242,-67.383,3.418,23.438,0.000
1727436933.986,8.789,-63.965,-0.488,17.090,0.000
1727436933.990,-43.457,-58.594,5.371,1.465,0.000
1727436933.994,-12.695,-56.641,12.207,-2.930,0.000
1727436933.998,54.199,-46.387,20.996,20.508,0.000
1727436934.002,85.938,-32.227,23.926,39.551,0.000
1727436934.006,25.879,-36.621,18.066,38.086,0.000
1727436934.010,-55.176,-43.457,13.672,20.020,0.000
1727436934.014,-32.227,-53.223,6.348,8.789,0.000
1727436934.018,37.598,-63.477,2.441,23.926,0.000
1727436934.022,51.758,-61.035,0.488,27.832,0.000
1727436934.025,25.879,-40.527,5.371,15.137,0.000
1727436934.029,-35.156,-44.922,-3.418,-4.883,0.000
1727436934.033,-53.223,-80.566,-20.020,-27.344,0.000
1727436934.037,7.812,-82.520,-21.484,-28.809,0.000
1727436934.041,42.969,-61.035,-14.160,-15.625,0.000
1727436934.045,15.137,-41.504,-9.277,-4.395,0.000
1727436934.049,-55.664,-39.551,-6.348,-21.973,0.000
1727436934.053,-75.195,-44.922,0.000,-40.039,0.000
1727436934.057,-17.578,-56.641,-3.418,-29.785,0.000
1727436934.061,24.902,-71.289,-10.742,-15.137,0.000
1727436934.065,2.930,-66.406,-17.090,-20.020,0.000
1727436934.068,-86.914,-60.059,-21.484,-40.527,0.000
1727436934.072,-111.328,-50.781,-18.555,-48.340,0.000
1727436934.076,-34.668,-47.363,-19.043,-27.832,0.000
1727436934.080,7.812,-72.754,-26.855,-22.949,0.000
1727436934.084,-25.391,-87.402,-33.691,-37.109,0.000
1727436934.088,-83.008,-73.730,-28.809,-53.223,0.000
1727436934.092,-106.934,-60.059,-28.320,-76.660,0.000
1727436934.096,-57.129,-45.410,-28.320,-65.430,0.000
1727436934.100,2.930,-38.574,-32.227,-48.340,0.000
1727436934.104,-17.090,-47.363,-37.598,-49.805,0.000
1727436934.108,-79.102,-43.457,-29.297,-62.500,0.000
1727436934.111,-101.074,-33.203,-21.484,-68.359,0.000
1727436934.115,-56.641,-35.645,-25.879,-56.152,0.000
1727436934.119,7.324,-29.785,-27.832,-37.598,0.000
1727436934.123,7.324,-31.250,-34.668,-36.133,0.000
1727436934.127,-47.852,-36.133,-34.180,-43.945,0.000
1727436934.131,-89.355,-39.551,-23.926,-52.246,0.000
1727436934.135,-37.598,-45.898,-30.762,-45.410,0.000
1727436934.139,48.828,-39.062,-41.016,-20.508,0.000
1727436934.143,42.969,-41.992,-40.527,-15.625,0.000
1727436934.147,-20.020,-40.039,-24.414,-13.184,0.000
1727436934.150,-58.105,-24.902,-19.043,-28.320,0.000
1727436934.154,-24.414,-21.973,-17.578,-31.250,0.000
1727436934.158,31.738,-23.926,-5.371,-5.859,0.000
1727436934.162,38.086,-19.531,-3.906,-2.930,0.000
1727436934.166,-18.555,-26.855,-12.695,-20.996,0.000
1727436934.170,-91.309,-43.945,-15.625,-39.551,0.000
1727436934.174,-80.566,-48.828,-14.160,-36.621,0.000
1727436934.178,2.441,-52.246,-18.555,-32.715,0.000
1727436934.182,31.250,-55.176,-18.555,-6.348,0.000
1727436934.186,-38.086,-60.059,-25.391,-12.207,0.000
1727436934.190,-112.793,-55.176,-34.668,-58.594,0.000
1727436934.193,-92.773,-26.367,-27.344,-62.500,0.000
1727436934.197,-4.395,-22.461,-29.785,-55.664,0.000
1727436934.201,35.645,-43.945,-35.156,-44.434,0.000
1727436934.205,-21.973,-48.828,-21.973,-36.133,0.000
1727436934.209,-103.027,-45.410,-21.973,-40.039,0.000
1727436934.213,-105.469,-44.922,-27.832,-51.758,0.000
1727436934.217,-35.645,-47.363,-28.320,-52.246,0.000
1727436934.221,11.719,-45.898,-22.461,-41.016,0.000
1727436934.225,-22.461,-50.293,-22.949,-40.527,0.000
1727436934.229,-92.285,-50.781,-34.180,-62.500,0.000
1727436934.233,-109.863,-46.875,-44.434,-81.543,0.000
1727436934.236,-36.133,-55.176,-38.086,-59.570,0.000
1727436934.240,19.043,-69.824,-32.227,-37.598,0.000
1727436934.244,-20.996,-85.449,-47.363,-50.781,0.000
1727436934.248,-92.773,-63.965,-42.480,-66.406,0.000
1727436934.252,-120.117,-42.969,-28.320,-71.777,0.000
1727436934.256,-62.500,-48.340,-26.367,-59.570,0.000
1727436934.260,-0.488,-42.969,-21.973,-36.133,0.000
1727436934.264,-10.254,-47.852,-28.320,-38.574,0.000
1727436934.268,-70.801,-58.105,-35.645,-65.430,0.000
1727436934.272,-120.605,-54.199,-31.738,-78.125,0.000
1727436934.275,-75.195,-49.805,-20.508,-55.664,0.000
1727436934.279,-3.906,-58.594,-20.020,-27.344,0.000
1727436934.283,-5.859,-56.641,-22.461,-33.691,0.000
1727436934.287,-73.730,-54.688,-19.043,-64.453,0.000
1727436934.291,-122.559,-61.035,-12.207,-68.359,0.000
1727436934.295,-67.383,-50.781,-12.207,-49.316,0.000
1727436934.299,0.977,-37.598,-9.766,-32.715,0.000
1727436934.303,2.930,-36.621,5.859,-24.414,0.000
1727436934.307,-45.410,-40.039,16.113,-34.180,0.000
1727436934.311,-93.262,-33.203,22.949,-50.781,0.000
1727436934.315,-74.707,-27.344,25.391,-54.199,0.000
1727436934.318,-0.977,-37.109,20.020,-27.344,0.000
1727436934.322,24.414,-42.969,14.648,-15.137,0.000
1727436934.326,-40.039,-36.133,10.254,-36.621,0.000
1727436934.330,-121.582,-34.668,0.000,-74.707,0.000
1727436934.334,-94.238,-28.809,0.488,-72.754,0.000
1727436934.338,-5.859,-36.133,2.930,-40.527,0.000
1727436934.342,17.578,-46.387,-4.883,-32.227,0.000
1727436934.346,-40.039,-36.133,-4.395,-66.406,0.000
1727436934.350,-109.863,-48.340,-6.348,-99.609,0.000
1727436934.354,-93.262,-69.336,-12.207,-78.613,0.000
1727436934.358,-1.953,-57.129,-12.695,-49.316,0.000
1727436934.361,32.227,-34.668,-6.836,-28.320,0.000
1727436934.365,-37.598,-37.598,-13.184,-30.762,0.000
1727436934.369,-106.445,-43.945,-16.602,-60.059,0.000
1727436934.373,-86.426,-35.645,-7.812,-68.359,0.000
1727436934.377,-28.320,-34.180,-17.090,-55.664,0.000
1727436934.381,-7.324,-41.504,-31.250,-51.758,0.000
1727436934.385,-46.387,-44.434,-37.109,-55.664,0.000
1727436934.389,-119.141,-48.340,-37.598,-79.102,0.000
1727436934.393,-119.141,-43.457,-30.273,-79.590,0.000
1727436934.397,-38.086,-32.715,-25.391,-44.922,0.000
1727436934.401,14.648,-54.199,-27.344,-32.227,0.000
1727436934.404,-20.020,-76.172,-31.738,-57.129,0.000
1727436934.408,-91.797,-57.129,-28.320,-70.312,0.000
1727436934.412,-105.469,-31.250,-24.414,-62.988,0.000
1727436934.416,-39.551,-24.414,-20.996,-54.199,0.000
1727436934.420,23.438,-26.367,-14.160,-45.410,0.000
1727436934.424,-2.930,-31.250,-16.602,-52.734,0.000
1727436934.428,-62.500,-36.133,-16.602,-62.500,0.000
1727436934.432,-79.102,-29.785,-11.719,-65.430,0.000
1727436934.436,-43.457,-32.227,-24.414,-49.805,0.000
1727436934.440,14.648,-41.016,-28.320,-36.133,0.000
1727436934.443,2.930,-32.227,-20.508,-45.410,0.000
1727436934.447,-69.336,-20.996,-16.113,-57.617,0.000
1727436934.451,-109.863,-29.785,-15.137,-62.988,0.000
1727436934.455,-57.617,-52.246,-19.043,-46.387,0.000
1727436934.459,18.555,-43.457,-16.113,-15.137,0.000
1727436934.463,21.973,-24.414,-13.672,-8.301,0.000
1727436934.467,-31.738,-34.180,-18.555,-40.039,0.000
1727436934.471,-85.938,-47.363,-14.648,-65.430,0.000
1727436934.475,-61.523,-31.250,-12.207,-50.293,0.000
1727436934.479,3.418,-33.203,-18.555,-35.156,0.000
1727436934.483,2.930,-43.457,-19.043,-36.621,0.000
1727436934.486,-57.129,-31.250,-18.066,-57.129,0.000
1727436934.490,-100.098,-31.738,-13.184,-83.496,0.000
1727436934.494,-68.848,-37.598,-8.301,-62.988,0.000
1727436934.498,-18.066,-43.945,-14.648,-49.316,0.000
1727436934.502,4.395,-49.316,-18.066,-53.223,0.000
1727436934.506,-37.109,-50.781,-12.695,-50.293,0.000
1727436934.510,-118.652,-49.805,-21.484,-85.938,0.000
1727436934.514,-108.398,-46.387,-27.344,-85.938,0.000
1727436934.518,-33.691,-50.781,-36.133,-50.293,0.000
1727436934.522,-10.254,-52.734,-48.340,-51.758,0.000
1727436934.526,-61.035,-51.270,-47.852,-63.965,0.000
1727436934.529,-129.395,-56.641,-43.945,-76.660,0.000
1727436934.533,-108.887,-48.340,-37.598,-74.219,0.000
1727436934.537,-21.973,-35.645,-33.203,-41.016,0.000
1727436934.541,3.418,-48.340,-39.062,-32.715,0.000
1727436934.545,-26.855,-49.805,-34.180,-40.039,0.000
1727436934.549,-78.613,-38.574,-30.762,-56.641,0.000
1727436934.553,-97.168,-57.129,-36.133,-75.684,0.000
1727436934.557,-27.344,-62.988,-31.250,-57.129,0.000
1727436934.561,29.785,-52.734,-30.762,-32.227,0.000
1727436934.565,-5.371,-40.527,-32.227,-23.438,0.000
1727436934.568,-81.543,-37.109,-37.109,-52.734,0.000
1727436934.572,-96.191,-33.691,-29.785,-69.336,0.000
1727436934.576,-21.484,-29.297,-26.367,-42.969,0.000
1727436934.580,27.832,-32.227,-36.621,-32.227,0.000
1727436934.584,0.000,-29.297,-31.738,-34.180,0.000
1727436934.588,0.000,-33.203,-28.809,-50.781,0.000
1727436934.592,0.000,-37.109,-28.320,-62.500,0.000
1727436934.596,0.000,-34.668,-23.926,-41.992,0.000
1727436934.600,0.000,-27.344,-18.555,-17.578,0.000
1727436934.604,0.000,-35.156,-20.508,-18.555,0.000
1727436934.608,0.000,-41.504,-24.902,-41.504,0.000
1727436934.611,0.000,-32.715,-28.809,-56.641,0.000
1727436934.615,0.000,-32.715,-39.551,-43.457,0.000
1727436934.619,0.000,-33.203,-38.574,-40.527,0.000
1727436934.623,0.000,-26.367,-25.879,-48.828,0.000
1727436934.627,0.000,-33.203,-34.668,-61.523,0.000
1727436934.631,-91.797,-35.645,-42.969,-76.660,0.000
1727436934.635,-39.062,-24.414,-39.551,-52.734,0.000
1727436934.639,22.949,-35.156,-40.527,-31.250,0.000
1727436934.643,26.367,-40.527,-41.504,-36.621,0.000
1727436934.647,-27.344,-41.504,-37.598,-44.434,0.000
1727436934.650,-91.309,-45.410,-22.949,-55.664,0.000
1727436934.654,-64.453,-50.781,-24.902,-48.828,0.000
1727436934.658,-10.742,-65.430,-36.621,-32.715,0.000
1727436934.662,-10.742,-55.176,-42.480,-48.828,0.000
1727436934.666,-59.570,-46.875,-46.387,-80.566,0.000
1727436934.670,-122.070,-64.941,-50.293,-97.656,0.000
1727436934.674,-109.863,-67.871,-52.246,-86.914,0.000
1727436934.678,-26.855,-49.805,-48.828,-60.547,0.000
1727436934.682,-6.836,-50.781,-54.688,-54.688,0.000
1727436934.686,-77.148,-67.383,-62.012,-70.801,0.000
1727436934.690,-127.930,-64.453,-58.105,-90.820,0.000
1727436934.693,-99.121,-63.477,-48.828,-84.473,0.000
1727436934.697,-17.578,-65.430,-41.504,-45.898,0.000
1727436934.701,20.508,-52.734,-39.551,-25.391,0.000
1727436934.705,-23.438,-63.477,-46.875,-43.457,0.000
1727436934.709,-98.633,-71.289,-53.711,-81.543,0.000
1727436934.713,-111.328,-61.035,-57.617,-97.656,0.000
1727436934.717,-39.551,-53.223,-61.523,-72.266,0.000
1727436934.721,11.230,-51.270,-59.570,-52.734,0.000
1727436934.725,0.000,-57.129,-54.199,-52.246,0.000
1727436934.729,0.000,-56.152,-41.504,-58.105,0.000
1727436934.732,0.000,-48.828,-36.621,-57.129,0.000
1727436934.736,0.000,-49.805,-41.016,-39.062,0.000
1727436934.740,0.000,-44.434,-41.504,-23.438,0.000
1727436934.744,0.000,-34.668,-46.875,-23.438,0.000
1727436934.748,0.000,-41.016,-43.945,-41.992,0.000
1727436934.752,0.000,-41.992,-39.062,-41.504,0.000
1727436934.756,0.000,-32.227,-36.621,-18.555,0.000
1727436934.760,0.000,-27.832,-40.527,-25.391,0.000
1727436934.764,0.000,-25.391,-41.016,-34.668,0.000
1727436934.768,0.000,-31.738,-42.480,-50.293,0.000
1727436934.772,-101.074,-29.785,-41.504,-54.688,0.000
1727436934.775,-46.875,-34.668,-41.016,-40.039,0.000
1727436934.779,13.672,-39.551,-42.969,-36.133,0.000
1727436934.783,11.230,-23.438,-35.645,-30.762,0.000
1727436934.787,-42.969,-21.484,-36.621,-47.363,0.000
1727436934.791,-84.961,-42.969,-43.457,-72.754,0.000
1727436934.795,-49.316,-47.852,-46.875,-54.688,0.000
1727436934.799,19.043,-43.457,-49.805,-15.625,0.000
1727436934.803,19.043,-41.992,-46.387,-17.090,0.000
1727436934.807,-44.434,-39.062,-41.504,-39.551,0.000
1727436934.811,-89.844,-33.203,-35.645,-54.199,0.000
1727436934.815,-51.270,-30.273,-38.086,-45.898,0.000
1727436934.818,36.133,-40.039,-42.480,-21.973,0.000
1727436934.822,36.621,-58.105,-50.293,-22.949,0.000
1727436934.826,-52.246,-68.848,-54.688,-34.180,0.000
1727436934.830,-109.375,-63.477,-54.688,-56.152,0.000
1727436934.834,-68.359,-49.805,-49.316,-44.922,0.000
1727436934.838,15.625,-49.316,-42.969,-5.371,0.000
1727436934.842,35.156,-55.176,-53.223,-27.832,0.000
1727436934.846,-6.348,-45.410,-48.828,-50.293,0.000
1727436934.850,-65.918,-31.738,-39.062,-43.457,0.000
1727436934.854,-55.664,-34.668,-47.852,-52.246,0.000
1727436934.857,16.113,-49.316,-54.199,-52.246,0.000
1727436934.861,28.809,-53.711,-52.246,-44.922,0.000
1727436934.865,0.000,-41.992,-57.617,-60.059,0.000
1727436934.869,0.000,-31.250,-65.430,-77.637,0.000
1727436934.873,0.000,-21.973,-61.523,-68.359,0.000
1727436934.877,0.000,-19.043,-63.965,-36.133,0.000
1727436934.881,0.000,-26.855,-61.523,-9.277,0.000
1727436934.885,0.000,-27.832,-53.711,-23.438,0.000
1727436934.889,0.000,-30.273,-53.223,-58.105,0.000
1727436934.893,0.000,-36.133,-57.129,-63.477,0.000
1727436934.897,0.000,-31.738,-49.316,-24.414,0.000
1727436934.900,0.000,-22.949,-36.621,-9.766,0.000
1727436934.904,0.000,-29.297,-44.434,-15.137,0.000
1727436934.908,0.000,-38.086,-45.410,-22.949,0.000
1727436934.912,-94.238,-40.527,-39.062,-41.504,0.000
1727436934.916,-27.344,-48.828,-44.434,-35.156,0.000
1727436934.920,21.484,-45.898,-45.410,-22.949,0.000
1727436934.924,5.859,-35.645,-38.086,-18.555,0.000
1727436934.928,-61.035,-39.551,-42.969,-38.574,0.000
1727436934.932,-96.191,-31.738,-42.969,-72.754,0.000
1727436934.936,-27.832,-24.902,-40.527,-61.035,0.000
1727436934.940,46.875,-33.691,-55.176,-31.250,0.000
1727436934.943,11.230,-36.621,-55.176,-21.973,0.000
1727436934.947,-67.871,-41.992,-44.434,-37.109,0.000
1727436934.951,-98.145,-52.246,-46.875,-65.918,0.000
1727436934.955,-54.199,-53.711,-51.758,-57.617,0.000
1727436934.959,5.371,-60.059,-51.270,-36.133,0.000
1727436934.963,3.906,-69.824,-53.711,-35.156,0.000
1727436934.967,-65.430,-68.359,-55.176,-48.828,0.000
1727436934.971,-110.840,-57.617,-60.547,-61.035,0.000
1727436934.975,-74.707,-49.316,-62.012,-63.965,0.000
1727436934.979,0.977,-51.270,-52.734,-53.711,0.000
1727436934.982,14.160,-59.570,-59.570,-44.922,0.000
1727436934.986,-69.824,-66.895,-71.777,-41.016,0.000
1727436934.990,-125.977,-52.246,-67.383,-48.340,0.000
1727436934.994,-77.148,-44.434,-56.152,-51.758,0.000
1727436934.998,11.719,-40.527,-45.898,-23.926,0.000
1727436935.002,27.832,-32.227,-44.434,-16.602,0.000
1727436935.006,-20.020,-39.062,-50.781,-24.414,0.000
1727436935.010,-69.824,-47.852,-51.270,-41.016,0.000
1727436935.014,-52.246,-50.293,-50.293,-43.457,0.000
1727436935.018,23.438,-50.293,-44.922,-11.230,0.000
1727436935.022,56.641,-41.504,-33.203,5.859,0.000
1727436935.025,6.348,-24.902,-33.203,-4.883,0.000
1727436935.029,-58.105,-28.320,-43.457,-32.227,0.000
1727436935.033,-55.664,-34.668,-44.922,-22.461,0.000
1727436935.037,1.465,-29.297,-42.480,0.977,0.000
1727436935.041,35.645,-29.297,-41.016,-10.742,0.000
1727436935.045,-3.906,-36.621,-39.062,-12.695,0.000
1727436935.049,-61.523,-37.109,-36.133,-21.973,0.000
1727436935.053,-55.664,-38.086,-40.039,-25.879,0.000
1727436935.057,10.742,-40.527,-51.758,-2.441,0.000
1727436935.061,50.293,-36.621,-49.805,15.625,0.000
1727436935.064,24.902,-23.438,-41.992,11.230,0.000
1727436935.068,-52.246,-19.531,-45.410,-12.695,0.000
1727436935.072,-67.871,-29.785,-47.852,-21.973,0.000
1727436935.076,12.207,-44.434,-48.340,-1.953,0.000
1727436935.080,54.199,-47.363,-52.734,9.277,0.000
1727436935.084,30.273,-36.133,-50.293,0.977,0.000
1727436935.088,-42.969,-28.809,-48.828,-26.855,0.000
1727436935.092,-75.684,-34.668,-53.711,-30.762,0.000
1727436935.096,-16.602,-38.574,-57.617,-22.461,0.000
1727436935.100,0.000,-33.203,-56.641,-8.789,0.000
1727436935.104,0.000,-31.738,-53.711,16.113,0.000
1727436935.107,0.000,-32.227,-62.988,-29.297,0.000
1727436935.111,0.000,-32.227,-66.406,-59.570,0.000
1727436935.115,0.000,-34.668,-61.035,-22.949,0.000
1727436935.119,0.000,-37.109,-62.500,-7.324,0.000
1727436935.123,0.000,-42.480,-63.965,-15.137,0.000
1727436935.127,0.000,-48.340,-66.406,-28.320,0.000
1727436935.131,0.000,-40.527,-60.547,-32.227,0.000
1727436935.135,0.000,-40.039,-52.734,-6.348,0.000
1727436935.139,0.000,-33.203,-51.270,20.996,0.000
1727436935.143,0.000,-17.578,-41.016,22.949,0.000
1727436935.146,47.852,-18.555,-29.785,17.578,0.000
1727436935.150,32.715,-26.855,-29.785,16.113,0.000
1727436935.154,-46.387,-18.555,-31.250,11.230,0.000
1727436935.158,-82.520,-8.301,-31.250,15.625,0.000
1727436935.162,-33.691,-1.465,-41.992,20.508,0.000
1727436935.166,33.203,4.395,-38.574,20.020,0.000
1727436935.170,28.320,-11.719,-33.203,4.395,0.000
1727436935.174,-41.504,-29.785,-36.133,8.789,0.000
1727436935.178,-77.148,-21.973,-36.133,30.762,0.000
1727436935.181,-16.113,-18.066,-37.598,26.855,0.000
1727436935.185,57.129,-19.531,-31.738,29.785,0.000
1727436935.189,54.688,0.000,-20.996,24.902,0.000
1727436935.193,-7.324,12.207,-18.066,10.742,0.000
1727436935.197,67.871,14.160,-20.508,22.461,0.000
1727436935.201,96.191,17.578,-25.391,16.602,0.000
1727436935.205,42.969,7.812,-41.016,0.977,0.000
1727436935.209,-16.602,4.395,-47.363,-19.043,0.000
1727436935.213,-8.789,-0.488,-41.016,-16.113,0.000
1727436935.217,56.641,-6.836,-35.156,12.207,0.000
1727436935.221,85.449,-7.812,-35.156,29.297,0.000
1727436935.224,41.016,-4.395,-33.203,31.250,0.000
1727436935.228,-26.855,-6.836,-33.691,15.137,0.000
1727436935.232,-38.086,-16.602,-33.203,9.766,0.000
1727436935.236,32.715,-23.438,-27.344,20.020,0.000
1727436935.240,76.660,-27.344,-34.180,30.762,0.000
1727436935.244,48.340,-24.902,-38.574,20.508,0.000
1727436935.248,-19.531,-23.438,-35.645,-1.953,0.000
1727436935.252,-43.945,-31.738,-39.062,-8.789,0.000
1727436935.256,20.996,-43.457,-43.945,9.766,0.000
1727436935.260,89.355,-31.738,-40.527,35.645,0.000
1727436935.264,66.895,-21.484,-53.223,18.066,0.000
1727436935.267,-19.043,-20.020,-50.781,6.836,0.000
1727436935.271,-45.898,-20.996,-39.062,17.090,0.000
1727436935.275,30.762,-18.066,-45.410,25.879,0.000
1727436935.279,105.957,-24.902,-38.574,49.316,0.000
1727436935.283,95.215,-44.922,-29.297,59.082,0.000
1727436935.287,22.949,-28.320,-27.344,43.457,0.000
1727436935.291,-24.902,-6.348,-39.062,17.090,0.000
1727436935.295,34.180,0.488,-38.086,32.227,0.000
1727436935.299,108.398,15.137,-31.738,59.082,0.000
1727436935.303,101.562,20.020,-31.738,64.941,0.000
1727436935.307,50.781,12.207,-24.902,48.828,0.000
1727436935.310,6.836,15.625,-20.508,34.180,0.000
1727436935.314,33.691,18.555,-16.602,61.035,0.000
1727436935.318,99.609,8.789,-17.090,76.660,0.000
1727436935.322,114.258,1.465,-24.902,74.219,0.000
1727436935.326,67.871,4.883,-29.297,71.289,0.000
1727436935.330,5.371,10.254,-22.949,58.105,0.000
1727436935.334,24.414,20.996,-20.020,72.266,0.000
1727436935.338,96.680,29.785,-27.832,84.961,0.000
1727436935.342,119.141,29.297,-24.414,81.055,0.000
1727436935.346,68.848,26.855,-13.672,71.289,0.000
1727436935.349,2.441,11.719,-18.066,37.598,0.000
1727436935.353,24.414,6.836,-26.855,34.180,0.000
1727436935.357,86.426,4.395,-31.250,62.500,0.000
1727436935.361,116.211,1.953,-29.297,74.219,0.000
1727436935.365,70.801,0.488,-30.273,66.895,0.000
1727436935.369,-10.254,8.301,-30.762,48.340,0.000
1727436935.373,-7.324,15.625,-33.691,37.598,0.000
1727436935.377,66.406,15.625,-35.645,41.016,0.000
1727436935.381,106.934,18.066,-40.039,54.199,0.000
1727436935.385,62.988,15.625,-41.992,44.922,0.000
1727436935.389,-5.859,6.348,-41.504,6.348,0.000
1727436935.392,-16.113,0.488,-41.992,-2.930,0.000
1727436935.396,54.199,3.418,-38.086,25.391,0.000
1727436935.400,100.586,-9.277,-39.062,51.758,0.000
1727436935.404,65.430,-20.996,-44.434,39.551,0.000
1727436935.408,-0.488,-19.531,-45.410,3.418,0.000
1727436935.412,-29.297,-23.926,-48.340,-8.301,0.000
1727436935.416,35.645,-20.508,-45.898,13.672,0.000
1727436935.420,86.914,-12.207,-41.016,27.832,0.000
1727436935.424,62.988,-10.742,-37.109,38.574,0.000
1727436935.428,2.441,-5.371,-34.668,37.109,0.000
1727436935.431,-17.578,-8.789,-30.762,16.113,0.000
1727436935.435,50.293,-3.418,-21.973,24.414,0.000
1727436935.439,111.816,11.719,-15.137,55.664,0.000
1727436935.443,96.680,8.301,-21.484,64.941,0.000
1727436935.447,36.133,10.254,-22.461,34.180,0.000
1727436935.451,0.977,17.090,-13.184,12.207,0.000
1727436935.455,48.828,10.742,-16.602,34.180,0.000
1727436935.459,126.953,8.789,-21.973,61.523,0.000
1727436935.463,123.047,14.648,-8.301,82.520,0.000
1727436935.467,41.992,12.207,-6.348,66.406,0.000
1727436935.471,-6.836,16.602,-11.719,32.715,0.000
1727436935.474,41.992,19.531,-17.578,50.293,0.000
1727436935.478,115.234,20.508,-14.648,72.754,0.000
1727436935.482,120.605,34.180,-2.930,79.590,0.000
1727436935.486,63.965,44.922,-6.348,74.707,0.000
1727436935.490,4.395,41.016,-3.906,51.758,0.000
1727436935.494,22.949,25.879,-4.395,50.781,0.000
1727436935.498,93.262,20.508,-16.602,56.641,0.000
1727436935.502,111.816,28.320,-11.719,58.105,0.000
1727436935.506,53.711,25.879,-6.836,57.129,0.000
1727436935.510,-8.301,4.883,-18.555,36.133,0.000
1727436935.513,7.324,3.906,-26.367,46.387,0.000
1727436935.517,77.148,20.996,-30.273,56.641,0.000
1727436935.521,0.000,34.668,-26.367,50.293,0.000
1727436935.525,0.000,34.668,-24.414,36.621,0.000
1727436935.529,0.000,23.926,-21.973,14.160,0.000
1727436935.533,0.000,24.414,-19.531,27.832,0.000
1727436935.537,0.000,24.902,-20.020,51.758,0.000
1727436935.541,0.000,20.996,-21.973,48.340,0.000
1727436935.545,0.000,14.160,-26.367,28.809,0.000
1727436935.549,0.000,7.812,-34.668,12.207,0.000
1727436935.553,0.000,6.348,-32.227,18.066,0.000
1727436935.556,0.000,0.977,-26.367,33.203,0.000
1727436935.560,0.000,5.371,-52.734,30.762,0.000
1727436935.564,0.000,5.371,-73.730,18.555,0.000
1727436935.568,-16.602,-9.766,-65.430,-3.906,0.000
1727436935.572,-37.109,-6.836,-58.594,0.488,0.000
1727436935.576,19.043,-2.441,-62.500,18.066,0.000
1727436935.580,77.637,-9.766,-63.965,21.973,0.000
1727436935.584,50.781,-8.789,-62.988,20.996,0.000
1727436935.588,-32.715,-17.578,-57.617,3.418,0.000
1727436935.592,-53.711,-28.320,-45.410,0.977,0.000
1727436935.596,18.555,-19.043,-38.574,28.320,0.000
1727436935.599,93.262,-9.766,-29.785,67.383,0.000
1727436935.603,82.031,-18.066,-25.391,64.941,0.000
1727436935.607,6.348,-20.996,-29.785,20.508,0.000
1727436935.611,-17.578,-0.488,-29.297,20.996,0.000
1727436935.615,49.805,17.090,-21.973,52.246,0.000
1727436935.619,113.770,15.625,-19.043,66.895,0.000
1727436935.623,95.703,6.348,-22.949,62.012,0.000
1727436935.627,19.043,5.371,-19.531,43.945,0.000
1727436935.631,-10.742,1.465,-22.949,13.184,0.000
1727436935.635,31.738,-5.371,-24.414,27.832,0.000
1727436935.639,79.590,-4.883,-22.461,56.152,0.000
1727436935.642,75.684,5.371,-25.879,41.992,0.000
1727436935.646,9.277,9.766,-31.250,25.879,0.000
1727436935.650,-30.762,6.348,-27.832,4.883,0.000
1727436935.654,21.484,13.184,-25.879,9.766,0.000
1727436935.658,79.102,8.789,-28.809,34.180,0.000
1727436935.662,78.613,-1.953,-26.367,40.039,0.000
1727436935.666,18.555,-0.488,-16.602,34.180,0.000
1727436935.670,-36.621,1.465,-13.672,9.766,0.000
1727436935.674,-0.488,4.883,-10.742,4.395,0.000
1727436935.678,80.566,3.906,-6.836,34.668,0.000
1727436935.681,91.797,6.836,-10.742,39.062,0.000
1727436935.685,22.461,16.113,-19.043,12.207,0.000
1727436935.689,-41.992,17.578,-35.156,-7.324,0.000
1727436935.693,-18.555,15.137,-39.551,-5.859,0.000
1727436935.697,46.875,4.395,-44.434,-3.418,0.000
1727436935.701,58.105,-1.953,-43.945,8.301,0.000
1727436935.705,12.695,6.348,-28.809,13.672,0.000
1727436935.709,-53.223,5.859,-23.926,-21.484,0.000
1727436935.713,-42.480,-2.441,-27.344,-26.855,0.000
1727436935.717,40.527,1.465,-27.344,2.441,0.000
1727436935.721,68.359,-1.953,-30.273,6.348,0.000
1727436935.724,18.555,-19.043,-35.156,0.977,0.000
1727436935.728,-53.711,-30.273,-34.668,-6.836,0.000
1727436935.732,-50.781,-15.137,-23.926,-17.090,0.000
1727436935.736,38.086,5.371,-19.531,4.395,0.000
1727436935.740,79.102,5.371,-28.320,21.484,0.000
1727436935.744,46.875,8.301,-28.320,19.531,0.000
1727436935.748,-8.301,2.930,-18.555,10.254,0.000
1727436935.752,-16.602,-1.953,-7.324,7.812,0.000
1727436935.756,66.895,-3.418,0.977,24.414,0.000
1727436935.760,109.375,-15.137,0.977,34.668,0.000
1727436935.764,59.570,-2.930,-0.977,50.781,0.000
1727436935.767,-15.137,6.348,-4.883,27.832,0.000
1727436935.771,-31.250,4.395,-7.812,7.324,0.000
1727436935.775,33.203,0.977,-13.672,20.508,0.000
1727436935.779,84.473,-9.766,-21.484,19.043,0.000
1727436935.783,67.383,-1.953,-11.230,16.602,0.000
1727436935.787,4.883,7.324,-1.953,1.465,0.000
1727436935.791,-18.555,9.766,-5.371,-5.859,0.000
1727436935.795,46.875,22.949,-2.930,16.113,0.000
1727436935.799,95.215,25.879,-7.324,34.668,0.000
1727436935.803,70.801,19.043,-6.836,36.621,0.000
1727436935.806,2.441,14.160,-5.859,22.461,0.000
1727436935.810,-48.828,12.695,-19.531,-0.488,0.000
1727436935.814,-3.418,7.324,-20.508,4.883,0.000
1727436935.818,55.176,-11.719,-22.461,15.625,0.000
1727436935.822,64.453,-21.973,-22.949,13.184,0.000
1727436935.826,11.719,-11.719,-21.973,2.930,0.000
1727436935.830,-64.941,-3.906,-28.809,-27.832,0.000
1727436935.834,-44.922,-2.441,-33.691,-36.621,0.000
1727436935.838,41.992,-6.348,-36.621,-21.973,0.000
1727436935.842,51.758,0.000,-34.668,-3.906,0.000
1727436935.845,-19.043,7.324,-33.203,-10.254,0.000
1727436935.849,0.000,-15.137,-39.062,-48.828,0.000
1727436935.853,0.000,-20.996,-38.086,-43.457,0.000
1727436935.857,0.000,-10.254,-28.320,-6.836,0.000
1727436935.861,0.000,-16.602,-31.250,-0.488,0.000
1727436935.865,0.000,-23.926,-35.156,4.395,0.000
1727436935.869,0.000,-36.133,-32.715,-14.648,0.000
1727436935.873,0.000,-33.691,-34.668,-36.133,0.000
1727436935.877,0.000,-13.672,-24.414,-10.742,0.000
1727436935.881,0.000,-15.137,-13.184,10.742,0.000
1727436935.885,0.000,-20.020,-25.391,7.812,0.000
1727436935.888,0.000,-13.184,-32.227,-21.484,0.000
1727436935.892,0.000,-13.672,-24.414,-20.020,0.000
1727436935.896,12.695,-14.648,-15.625,13.672,0.000
1727436935.900,62.988,-6.348,-16.113,19.531,0.000
1727436935.904,40.527,-8.301,-14.160,14.160,0.000
1727436935.908,-35.156,-17.090,-14.648,5.371,0.000
1727436935.912,-51.270,-21.484,-21.484,-4.883,0.000
1727436935.916,21.973,-18.555,-17.578,2.930,0.000
1727436935.920,73.242,0.000,-10.254,21.973,0.000
1727436935.924,49.316,8.789,-14.160,13.184,0.000
1727436935.928,-8.789,-3.906,-18.066,-7.324,0.000
1727436935.931,-42.969,-1.953,-11.719,0.000,0.000
1727436935.935,9.766,0.488,-12.207,4.883,0.000
1727436935.939,67.383,-6.348,-19.531,6.348,0.000
1727436935.943,36.133,-3.906,-21.973,11.230,0.000
1727436935.947,-44.434,-7.812,-26.367,-16.602,0.000
1727436935.951,-70.801,-20.508,-31.738,-53.711,0.000
1727436935.955,-11.719,-24.414,-38.574,-41.504,0.000
1727436935.959,46.875,-20.020,-37.109,-12.207,0.000
1727436935.963,37.109,-15.625,-35.645,-14.648,0.000
1727436935.967,-38.574,-12.207,-35.156,-41.504,0.000
1727436935.971,-90.332,-17.578,-42.480,-57.617,0.000
1727436935.974,-30.273,-17.578,-52.246,-28.809,0.000
1727436935.978,40.527,-17.578,-49.805,-7.324,0.000
1727436935.982,24.902,-15.137,-42.969,-15.137,0.000
1727436935.986,-44.434,-11.719,-41.992,-29.297,0.000
1727436935.990,-104.004,-26.367,-61.523,-50.293,0.000
1727436935.994,-68.848,-39.062,-63.965,-55.664,0.000
1727436935.998,22.461,-34.180,-52.246,-45.898,0.000
1727436936.002,31.738,-44.922,-52.734,-44.434,0.000
1727436936.006,-36.133,-57.129,-61.523,-61.523,0.000
1727436936.010,-97.168,-45.410,-56.641,-80.078,0.000
1727436936.013,-82.031,-39.062,-45.898,-70.312,0.000
1727436936.017,-0.977,-33.691,-49.805,-44.434,0.000
1727436936.021,32.715,-30.762,-47.363,-23.438,0.000
1727436936.025,-16.113,-29.297,-38.574,-26.855,0.000
1727436936.029,-76.660,-22.949,-32.715,-34.668,0.000
1727436936.033,-58.105,-24.902,-32.715,-34.180,0.000
1727436936.037,3.418,-32.227,-39.062,-33.203,0.000
1727436936.041,22.461,-32.227,-34.180,-34.668,0.000
1727436936.045,-19.043,-24.414,-25.879,-34.180,0.000
1727436936.049,-79.102,-24.414,-18.555,-43.457,0.000
1727436936.053,-61.523,-26.367,-15.137,-33.691,0.000
1727436936.056,19.531,-21.973,-18.066,-1.953,0.000
1727436936.060,45.410,-22.461,-16.113,1.465,0.000
1727436936.064,1.953,-23.926,-13.672,-6.836,0.000
1727436936.068,-58.594,-21.973,-14.160,-29.785,0.000
1727436936.072,-62.500,-30.273,-15.137,-40.527,0.000
1727436936.076,-0.488,-36.133,-25.879,-15.137,0.000
1727436936.080,37.598,-33.203,-33.691,-1.953,0.000
1727436936.084,20.508,-24.902,-28.809,-10.742,0.000
1727436936.088,-48.828,-14.648,-22.461,-31.738,0.000
1727436936.092,-64.453,-15.137,-15.625,-22.461,0.000
1727436936.096,4.395,-32.715,-19.531,2.930,0.000
1727436936.099,39.551,-34.668,-34.180,-14.648,0.000
1727436936.103,18.555,-26.855,-36.621,-20.996,0.000
1727436936.107,-48.828,-29.297,-41.992,-20.996,0.000
1727436936.111,-84.473,-32.227,-48.828,-38.574,0.000
1727436936.115,-24.414,-34.668,-44.922,-30.762,0.000
1727436936.119,29.297,-35.156,-47.363,-27.344,0.000
1727436936.123,5.371,-33.203,-52.246,-44.922,0.000
1727436936.127,-66.895,-25.879,-52.734,-62.988,0.000
1727436936.131,-99.121,-13.184,-48.340,-78.613,0.000
1727436936.135,-30.762,-11.230,-44.434,-62.012,0.000
1727436936.138,30.762,-13.672,-44.922,-29.785,0.000
1727436936.142,8.789,-21.484,-41.016,-30.273,0.000
1727436936.146,-69.824,-45.898,-42.480,-52.246,0.000
1727436936.150,-125.488,-49.805,-52.246,-71.289,0.000
1727436936.154,-73.730,-36.133,-53.223,-61.035,0.000
1727436936.158,4.395,-31.738,-56.641,-43.945,0.000
1727436936.162,11.230,-26.367,-51.758,-49.316,0.000
1727436936.166,-56.152,-28.809,-46.875,-68.848,0.000
1727436936.170,-112.793,-23.926,-44.922,-82.520,0.000
1727436936.174,-81.055,-17.578,-42.480,-61.523,0.000
1727436936.178,-3.906,-22.949,-46.875,-39.062,0.000
1727436936.181,9.277,-23.438,-43.945,-31.738,0.000
1727436936.185,-53.711,-29.785,-40.039,-35.156,0.000
1727436936.189,-106.445,-43.457,-39.062,-60.547,0.000
1727436936.193,-88.867,-44.434,-39.551,-58.105,0.000
1727436936.197,-17.578,-39.551,-48.828,-29.297,0.000
1727436936.201,12.207,-37.109,-52.734,-20.020,0.000
1727436936.205,-41.016,-40.527,-42.969,-45.898,0.000
1727436936.209,-105.469,-48.828,-42.969,-74.219,0.000
1727436936.213,-88.867,-50.293,-41.016,-65.918,0.000
1727436936.217,-25.879,-51.758,-40.039,-54.688,0.000
1727436936.220,-4.395,-52.246,-43.457,-55.176,0.000
1727436936.224,-46.387,-46.387,-43.457,-59.082,0.000
1727436936.228,-114.746,-43.945,-40.039,-82.520,0.000
1727436936.232,-110.840,-42.480,-39.062,-83.496,0.000
1727436936.236,-40.527,-50.293,-46.387,-56.152,0.000
1727436936.240,-7.812,-56.152,-45.898,-50.781,0.000
1727436936.244,-39.551,-43.457,-38.574,-46.875,0.000
1727436936.248,-104.004,-38.574,-41.992,-67.383,0.000
1727436936.252,-117.188,-54.688,-49.316,-92.285,0.000
1727436936.256,-40.039,-64.453,-42.969,-59.570,0.000
1727436936.260,14.648,-49.805,-33.691,-25.879,0.000
1727436936.263,-15.137,-48.340,-35.645,-32.227,0.000
1727436936.267,-90.332,-58.105,-46.387,-69.336,0.000
1727436936.271,-112.305,-60.547,-48.340,-87.402,0.000
1727436936.275,-46.875,-70.312,-46.387,-71.289,0.000
1727436936.279,-3.418,-66.406,-46.875,-56.641,0.000
1727436936.283,-28.809,-64.453,-48.828,-52.734,0.000
1727436936.287,-98.633,-68.848,-52.246,-63.477,0.000
1727436936.291,-129.883,-59.570,-56.152,-78.125,0.000
1727436936.295,-83.496,-66.895,-62.988,-76.172,0.000
1727436936.299,-18.066,-75.684,-68.359,-76.660,0.000
1727436936.303,-28.320,-62.988,-69.336,-72.266,0.000
1727436936.306,-112.793,-54.199,-69.824,-80.078,0.000
1727436936.310,-145.508,-57.129,-69.824,-96.680,0.000
1727436936.314,-97.656,-62.988,-68.848,-82.520,0.000
1727436936.318,-21.973,-60.547,-62.012,-74.219,0.000
1727436936.322,-18.555,-58.105,-58.105,-84.473,0.000
1727436936.326,-94.727,-62.500,-59.082,-96.680,0.000
1727436936.330,-143.555,-63.965,-55.664,-108.398,0.000
1727436936.334,-113.770,-82.520,-52.734,-80.078,0.000
1727436936.338,-40.527,-82.520,-48.828,-51.758,0.000
1727436936.342,-20.508,-57.617,-44.434,-54.688,0.000
1727436936.345,-69.824,-58.105,-45.898,-56.641,0.000
1727436936.349,-114.258,-53.711,-37.598,-56.641,0.000
1727436936.353,-86.914,-49.316,-32.715,-60.059,0.000
1727436936.357,-16.113,-46.387,-28.809,-48.828,0.000
1727436936.361,8.301,-30.762,-25.391,-31.738,0.000
1727436936.365,-44.922,-36.133,-32.227,-51.270,0.000
1727436936.369,-111.328,-61.035,-36.621,-90.332,0.000
1727436936.373,-90.332,-58.594,-30.273,-78.613,0.000
1727436936.377,-10.742,-42.480,-28.809,-48.828,0.000
1727436936.381,24.414,-37.598,-35.645,-41.992,0.000
1727436936.385,-36.133,-32.227,-35.645,-54.688,0.000
1727436936.388,-122.070,-28.809,-37.109,-89.844,0.000
1727436936.392,-109.863,-22.949,-34.668,-83.496,0.000
1727436936.396,-30.762,-25.879,-34.180,-47.363,0.000
1727436936.400,-3.906,-39.062,-36.621,-49.316,0.000
1727436936.404,-45.410,-48.828,-40.527,-63.477,0.000
1727436936.408,-114.746,-47.363,-44.434,-89.844,0.000
1727436936.412,-123.047,-49.316,0.000,-92.285,0.000
1727436936.416,-41.016,-63.965,0.000,-61.035,0.000
1727436936.420,8.789,-64.453,0.000,-44.434,0.000
1727436936.424,-36.621,-47.363,0.000,-49.805,0.000
1727436936.428,-105.957,-31.250,0.000,-64.453,0.000
1727436936.431,-114.746,-31.738,0.000,-68.848,0.000
1727436936.435,-53.711,-47.363,0.000,-60.059,0.000
1727436936.439,-4.883,-55.664,0.000,-49.316,0.000
1727436936.443,-35.156,-51.270,0.000,-50.781,0.000
1727436936.447,-111.816,-62.500,0.000,-88.867,0.000
1727436936.451,-122.070,-65.918,0.000,-107.422,0.000
1727436936.455,-56.152,-45.898,0.000,-68.848,0.000
1727436936.459,-12.695,-51.758,-33.203,-54.199,0.000
1727436936.463,-26.855,-55.664,-31.738,-64.941,0.000
1727436936.467,-91.309,-53.223,-30.273,-83.984,0.000
1727436936.471,-135.254,-60.059,-37.109,-103.027,0.000
1727436936.474,-70.312,-43.457,-25.879,-77.637,0.000
1727436936.478,0.488,-43.945,-22.461,-55.664,0.000
1727436936.482,-11.230,-60.547,-27.832,-55.176,0.000
1727436936.486,-78.125,-58.105,-20.996,-59.082,0.000
1727436936.490,-132.812,-52.246,-29.785,-76.172,0.000
1727436936.494,-72.266,-50.781,-40.527,-66.406,0.000
1727436936.498,2.930,-50.293,-41.992,-40.039,0.000
1727436936.502,-14.160,-53.711,-37.598,-28.320,0.000
1727436936.506,-80.566,-50.293,-30.273,-54.199,0.000
1727436936.510,-124.023,-46.875,-30.273,-79.590,0.000
1727436936.513,-83.008,-43.945,-32.227,-59.082,0.000
1727436936.517,-10.742,-53.223,-38.086,-54.688,0.000
1727436936.521,-4.883,-63.965,-39.551,-59.570,0.000
1727436936.525,-43.457,-42.969,-29.297,-57.617,0.000
1727436936.529,-89.844,-25.391,-26.855,-70.312,0.000
1727436936.533,-98.633,-32.227,-32.227,-75.195,0.000
1727436936.537,-41.504,-52.734,-41.504,-67.383,0.000
1727436936.541,-9.766,-62.988,-43.457,-69.824,0.000
1727436936.545,-52.734,-49.805,-37.109,-73.242,0.000
1727436936.549,-108.887,-33.691,-26.855,-79.590,0.000
1727436936.553,-109.863,-38.086,-28.320,-83.008,0.000
1727436936.556,-44.434,-46.387,-27.832,-65.430,0.000
1727436936.560,-2.441,-44.434,-22.461,-53.223,0.000
1727436936.564,-54.199,-43.945,-27.344,-72.266,0.000
1727436936.568,-127.930,-44.434,-31.250,-106.445,0.000
1727436936.572,-120.605,-37.109,-27.832,-99.121,0.000
1727436936.576,-36.621,-39.062,-23.926,-69.336,0.000
1727436936.580,2.930,-54.199,-33.203,-55.664,0.000
1727436936.584,-41.992,-58.594,-32.227,-60.059,0.000
1727436936.588,-114.258,-54.199,-26.367,-76.172,0.000
1727436936.592,-126.953,-47.363,-31.250,-84.473,0.000
1727436936.595,-50.293,-56.641,-38.086,-79.102,0.000
1727436936.599,-7.324,-71.289,-40.039,-69.336,0.000
1727436936.603,-35.645,-56.152,-27.832,-64.941,0.000
1727436936.607,-105.469,-43.945,-25.879,-95.215,0.000
1727436936.611,-132.324,-46.875,-41.504,-121.582,0.000
1727436936.615,-71.777,-48.340,-44.434,-104.004,0.000
1727436936.619,-14.648,-46.387,-46.387,-84.961,0.000
1727436936.623,-35.156,-55.176,-47.852,-83.008,0.000
1727436936.627,-111.816,-68.359,-40.527,-100.586,0.000
1727436936.631,-134.766,-68.359,-32.715,-101.562,0.000
1727436936.634,-71.289,-60.059,-32.715,-68.848,0.000
1727436936.638,-12.695,-48.340,-42.480,-58.594,0.000
1727436936.642,-12.695,-46.875,-43.945,-71.777,0.000
1727436936.646,-73.242,-40.039,-40.527,-88.379,0.000
1727436936.650,-126.465,-40.039,-39.062,-102.539,0.000
1727436936.654,-80.078,-56.152,-35.156,-76.660,0.000
1727436936.658,-15.137,-65.430,-31.738,-42.969,0.000
1727436936.662,-5.371,-69.824,-32.715,-39.062,0.000
1727436936.666,-52.734,-55.664,-31.250,-64.941,0.000
1727436936.670,-115.234,-44.922,-25.391,-91.797,0.000
1727436936.674,-100.098,-44.922,-32.715,-90.332,0.000
1727436936.677,-29.785,-57.129,-44.922,-80.078,0.000
1727436936.681,-14.648,-66.406,-42.480,-73.730,0.000
1727436936.685,-73.242,-58.105,-38.574,-88.867,0.000
1727436936.689,-135.742,-47.852,-37.598,-112.793,0.000
1727436936.693,-105.957,-45.410,-40.527,-99.609,0.000
1727436936.697,-32.715,-58.594,-42.480,-67.871,0.000
1727436936.701,-22.949,-62.500,-43.457,-69.824,0.000
1727436936.705,-63.965,-61.523,-33.203,-77.637,0.000
1727436936.709,-115.234,-66.406,-30.273,-87.891,0.000
1727436936.713,-107.910,-65.918,-40.527,-89.355,0.000
1727436936.717,-42.480,-61.035,-38.574,-76.172,0.000
1727436936.720,-20.508,-58.594,-40.527,-71.777,0.000
1727436936.724,-73.730,-62.500,-37.598,-67.871,0.000
1727436936.728,-131.348,-64.941,-34.668,-92.285,0.000
1727436936.732,-121.582,-59.570,-35.156,-101.074,0.000
1727436936.736,-55.664,-62.012,-34.668,-81.055,0.000
1727436936.740,-22.949,-69.824,-43.457,-81.055,0.000
1727436936.744,-78.125,-68.359,-44.434,-91.797,0.000
1727436936.748,-144.531,-66.406,-35.156,-108.887,0.000
1727436936.752,-133.301,-66.406,-34.180,-104.980,0.000
1727436936.756,-75.195,-80.566,-45.898,-83.008,0.000
1727436936.760,-37.598,-94.238,-52.246,-72.754,0.000
1727436936.763,-65.430,-108.398,-52.734,-89.844,0.000
1727436936.767,-138.184,-102.539,-47.363,-107.910,0.000
1727436936.771,-154.297,-77.148,-40.039,-99.121,0.000
1727436936.775,-89.844,-65.918,-49.316,-82.031,0.000
1727436936.779,-24.902,-64.941,-48.828,-72.266,0.000
1727436936.783,-45.410,-67.871,-42.969,-76.172,0.000
1727436936.787,0.000,-69.336,-42.480,-95.703,0.000
1727436936.791,0.000,-65.918,-32.227,-104.980,0.000
1727436936.795,0.000,-66.895,-33.691,-83.008,0.000
1727436936.799,0.000,-67.383,-39.551,-48.828,0.000
1727436936.803,0.000,-61.523,-40.527,-49.805,0.000
1727436936.806,0.000,-72.754,-47.363,-88.379,0.000
1727436936.810,0.000,-67.871,-37.598,-100.098,0.000
1727436936.814,0.000,-44.922,-27.344,-87.891,0.000
1727436936.818,0.000,-53.711,-38.086,-71.289,0.000
1727436936.822,0.000,-62.988,-44.434,-59.082,0.000
1727436936.826,0.000,-58.594,-37.598,-79.102,0.000
1727436936.830,0.000,-68.848,-33.691,-93.262,0.000
1727436936.834,-87.402,-70.312,-35.156,-84.961,0.000
1727436936.838,-19.043,-69.824,-48.340,-92.773,0.000
1727436936.842,-25.391,-68.359,-52.246,-87.402,0.000
1727436936.845,-76.172,-63.965,-44.922,-83.496,0.000
1727436936.849,-128.906,-71.777,-41.016,-98.145,0.000
1727436936.853,-108.887,-75.195,-43.945,-85.938,0.000
1727436936.857,-33.203,-70.801,-48.828,-61.035,0.000
1727436936.861,-6.836,-55.664,-37.598,-48.828,0.000
1727436936.865,-67.383,-44.922,-33.203,-62.500,0.000
1727436936.869,-137.695,-61.523,-40.039,-96.191,0.000
1727436936.873,-104.492,-66.406,-46.387,-88.379,0.000
1727436936.877,-34.180,-58.594,-54.199,-62.500,0.000
1727436936.881,-17.578,-54.688,-52.246,-73.242,0.000
1727436936.885,-51.270,-55.664,-50.293,-86.426,0.000
1727436936.888,-121.582,-59.082,-45.898,-95.703,0.000
1727436936.892,-122.559,-58.105,-42.969,-90.332,0.000
1727436936.896,-50.293,-62.988,-49.316,-66.895,0.000
1727436936.900,-20.996,-57.129,-50.781,-63.965,0.000
1727436936.904,-59.082,-41.992,-45.898,-71.289,0.000
1727436936.908,-130.859,-38.086,-54.199,-97.656,0.000
1727436936.912,-127.930,-48.340,-63.477,-110.352,0.000
1727436936.916,-46.387,-53.223,-47.852,-68.359,0.000
1727436936.920,-3.906,-48.340,-43.945,-51.270,0.000
1727436936.924,-36.133,-52.246,-49.316,-80.078,0.000
1727436936.927,-99.121,-61.035,-42.480,-98.145,0.000
1727436936.931,-109.863,-45.898,-37.109,-95.703,0.000
1727436936.935,-50.293,-39.551,-33.691,-66.406,0.000
1727436936.939,-15.137,-54.688,-34.180,-48.340,0.000
1727436936.943,-37.109,-56.641,-38.574,-57.129,0.000
1727436936.947,-95.215,-55.664,-40.527,-77.637,0.000
1727436936.951,-122.559,-62.988,-41.504,-76.172,0.000
1727436936.955,-56.152,-49.805,-44.922,-53.711,0.000
1727436936.959,2.441,-44.434,-43.457,-52.734,0.000
1727436936.963,-3.418,-40.527,-42.969,-53.223,0.000
1727436936.967,-62.500,-27.344,-42.969,-61.035,0.000
1727436936.970,-119.629,-33.691,-32.715,-73.242,0.000
1727436936.974,0.000,-40.527,-27.344,-59.570,0.000
1727436936.978,0.000,-33.203,-17.090,-47.852,0.000
1727436936.982,0.000,-40.527,-17.578,-56.641,0.000
1727436936.986,0.000,-64.941,-32.227,-83.984,0.000
1727436936.990,0.000,-73.242,-28.809,-100.586,0.000
1727436936.994,0.000,-76.660,-30.273,-93.750,0.000
1727436936.998,0.000,-65.430,-35.156,-68.359,0.000
1727436937.002,0.000,-53.223,-36.621,-54.688,0.000
1727436937.006,0.000,-53.223,-36.133,-64.941,0.000
1727436937.009,0.000,-47.363,-36.133,-82.031,0.000
1727436937.013,0.000,-46.387,-40.527,-75.684,0.000
1727436937.017,0.000,-58.594,-45.410,-65.918,0.000
1727436937.021,-24.414,-68.848,-44.434,-67.871,0.000
1727436937.025,-89.844,-68.359,-46.875,-78.613,0.000
1727436937.029,-144.043,-65.430,-44.434,-89.844,0.000
1727436937.033,-120.117,-52.734,-44.922,-85.449,0.000
1727436937.037,-46.875,-36.621,-45.898,-79.102,0.000
1727436937.041,-20.996,-26.367,-44.434,-74.219,0.000
1727436937.045,-86.426,-28.320,-54.688,-95.215,0.000
1727436937.049,-167.480,-34.180,-57.617,-116.699,0.000
1727436937.052,-141.113,-36.133,-56.152,-97.656,0.000
1727436937.056,-42.480,-36.621,-59.570,-83.008,0.000
1727436937.060,-18.066,-39.551,-55.176,-83.984,0.000
1727436937.064,-78.125,-36.133,-48.340,-80.566,0.000
1727436937.068,-139.160,-31.738,-47.363,-105.957,0.000
1727436937.072,-128.906,-40.039,-49.805,-105.469,0.000
1727436937.076,-48.828,-32.227,-48.828,-62.500,0.000
1727436937.080,-20.020,-26.855,-43.945,-51.270,0.000
1727436937.084,-62.500,-30.273,-46.875,-64.453,0.000
1727436937.088,-119.141,-27.344,-47.852,-87.891,0.000
1727436937.092,-119.141,-29.297,-41.992,-100.098,0.000
1727436937.095,-40.527,-24.414,-28.809,-66.895,0.000
1727436937.099,13.672,-30.762,-26.367,-42.480,0.000
1727436937.103,-29.297,-39.062,-38.574,-50.293,0.000
1727436937.107,-106.445,-34.668,-39.062,-80.078,0.000
1727436937.111,-116.211,-30.273,-39.551,-89.844,0.000
1727436937.115,-43.945,-25.391,-43.457,-59.570,0.000
1727436937.119,4.395,-33.691,-38.574,-46.875,0.000
1727436937.123,-32.715,-40.039,-38.574,-53.223,0.000
1727436937.127,-106.445,-29.785,-33.691,-63.965,0.000
1727436937.131,-136.719,-30.762,-34.180,-85.938,0.000
1727436937.135,-75.195,-33.203,-40.527,-80.078,0.000
1727436937.138,-20.020,-37.109,-43.457,-66.895,0.000
1727436937.142,-46.387,-50.293,-49.805,-70.312,0.000
1727436937.146,-112.305,-60.547,-46.875,-83.984,0.000
1727436937.150,-143.555,-42.969,-43.457,-104.004,0.000
1727436937.154,-86.426,-37.109,-52.734,-93.750,0.000
1727436937.158,-19.043,-47.852,-63.965,-80.078,0.000
1727436937.162,-31.738,-47.363,-64.941,-76.172,0.000
1727436937.166,-101.074,-46.387,-56.152,-72.266,0.000
1727436937.170,-153.809,-62.012,-53.711,-102.539,0.000
1727436937.174,-117.676,-78.125,-56.641,-118.652,0.000
1727436937.177,-45.410,-75.195,-54.688,-94.727,0.000
1727436937.181,-46.875,-67.871,-52.734,-79.590,0.000
1727436937.185,-108.398,-60.547,-53.223,-96.680,0.000
1727436937.189,-157.715,-56.641,-54.199,-122.559,0.000
1727436937.193,-124.512,-55.176,-49.805,-111.328,0.000
1727436937.197,-48.340,-54.199,-46.875,-88.379,0.000
1727436937.201,-50.781,-69.336,-46.387,-78.613,0.000
1727436937.205,-108.887,-69.336,-47.852,-81.055,0.000
1727436937.209,-149.902,-51.758,-47.363,-94.238,0.000
1727436937.213,-125.977,-55.176,-43.945,-101.562,0.000
1727436937.217,-51.758,-65.430,-48.828,-87.891,0.000
1727436937.220,-6.348,-51.758,-43.457,-66.406,0.000
1727436937.224,-45.898,-47.852,-37.598,-56.641,0.000
1727436937.228,-110.840,-51.270,-41.992,-77.148,0.000
1727436937.232,-103.027,-43.457,-49.805,-76.660,0.000
1727436937.236,-37.109,-37.109,-50.293,-49.316,0.000
1727436937.240,-5.371,-43.457,-49.316,-50.781,0.000
1727436937.244,-41.504,-54.688,-44.434,-59.570,0.000
1727436937.248,-81.055,-45.410,-37.598,-69.336,0.000
1727436937.252,-62.500,-35.645,-28.809,-63.965,0.000
1727436937.256,-0.977,-30.762,-18.066,-26.367,0.000
1727436937.260,30.762,-33.203,-20.996,-5.859,0.000
1727436937.263,-15.625,-35.156,-27.344,-19.531,0.000
1727436937.267,-82.520,-49.316,-30.762,-55.664,0.000
1727436937.271,-90.332,-57.617,-37.598,-64.453,0.000
1727436937.275,-25.879,-27.832,-32.715,-35.156,0.000
1727436937.279,26.855,-13.672,-25.879,-29.297,0.000
1727436937.283,-9.766,-23.926,-30.762,-40.039,0.000
1727436937.287,-101.562,-39.062,-33.203,-68.359,0.000
1727436937.291,-118.652,-58.594,-32.227,-87.891,0.000
1727436937.295,-55.664,-70.312,-31.738,-81.055,0.000
1727436937.299,-7.812,-62.012,-36.133,-63.477,0.000
1727436937.302,0.000,-56.152,-41.504,-54.688,0.000
1727436937.306,0.000,-66.406,-36.133,-68.848,0.000
1727436937.310,0.000,-70.801,-33.691,-80.078,0.000
1727436937.314,0.000,-71.289,-39.551,-79.590,0.000
1727436937.318,0.000,-81.055,-49.805,-72.754,0.000
1727436937.322,0.000,-87.891,-55.176,-83.496,0.000
1727436937.326,0.000,-94.238,-56.641,-105.957,0.000
1727436937.330,0.000,-106.934,-64.941,-134.766,0.000
1727436937.334,0.000,-113.281,-61.035,-124.023,0.000
1727436937.338,0.000,-115.723,-56.152,-89.844,0.000
1727436937.341,0.000,-121.582,-60.059,-87.891,0.000
1727436937.345,0.000,-119.141,-59.570,-102.539,0.000
1727436937.349,-148.438,-119.141,-60.547,-119.629,0.000
1727436937.353,-117.188,-114.258,-61.523,-103.516,0.000
1727436937.357,-35.156,-112.793,-52.246,-75.684,0.000
1727436937.361,-20.996,-116.211,-49.316,-59.082,0.000
1727436937.365,-83.496,-109.375,-55.664,-76.172,0.000
1727436937.369,-137.695,-97.656,-48.828,-98.633,0.000
1727436937.373,-109.375,-83.984,-43.457,-88.867,0.000
1727436937.377,-31.738,-77.637,-55.176,-85.449,0.000
1727436937.381,-9.766,-82.031,-60.059,-68.848,0.000
1727436937.384,-55.664,-73.730,-55.176,-69.336,0.000
1727436937.388,-97.656,-61.523,-44.434,-93.750,0.000
1727436937.392,-93.750,-83.008,-50.781,-84.473,0.000
1727436937.396,-30.273,-90.332,-59.570,-56.152,0.000
1727436937.400,17.578,-64.453,-51.758,-46.875,0.000
1727436937.404,-26.367,-52.734,-41.992,-49.805,0.000
1727436937.408,-103.027,-58.105,-46.387,-76.172,0.000
1727436937.412,-87.891,-55.176,-52.734,-65.918,0.000
1727436937.416,-7.324,-53.223,-48.828,-40.039,0.000
1727436937.420,7.324,-66.406,-47.852,-45.410,0.000
1727436937.424,-38.574,-74.219,-41.992,-36.621,0.000
1727436937.427,-97.656,-69.824,-39.062,-49.316,0.000
1727436937.431,-108.887,-57.129,-38.574,-67.383,0.000
1727436937.435,-52.246,-59.570,-41.992,-58.594,0.000
1727436937.439,-18.066,-76.172,-42.480,-55.176,0.000
1727436937.443,-48.828,-86.426,-42.969,-65.430,0.000
1727436937.447,-124.512,-93.262,-52.246,-100.098,0.000
1727436937.451,-152.344,-81.543,-57.129,-115.723,0.000
1727436937.455,-71.777,-60.059,-51.270,-85.449,0.000
1727436937.459,-16.602,-58.594,-50.293,-61.523,0.000
1727436937.463,-58.594,-62.988,-60.059,-61.035,0.000
1727436937.467,-132.324,-68.359,-59.082,-89.844,0.000
1727436937.470,-152.832,-62.012,-54.688,-109.375,0.000
1727436937.474,-84.961,-60.059,-52.246,-84.473,0.000
1727436937.478,-23.438,-77.148,-54.199,-77.148,0.000
1727436937.482,-45.410,-88.379,-57.617,-90.332,0.000
1727436937.486,-106.934,-82.031,-59.082,-98.633,0.000
1727436937.490,-135.742,-75.684,-60.059,-111.816,0.000
1727436937.494,-96.680,-72.754,-58.105,-98.145,0.000
1727436937.498,-34.668,-77.148,-57.129,-72.754,0.000
1727436937.502,-30.762,-97.168,-57.617,-78.125,0.000
1727436937.506,-87.402,-86.914,-56.641,-95.215,0.000
1727436937.510,-132.324,-60.547,-51.758,-87.402,0.000
1727436937.513,-91.309,-61.035,-46.387,-70.801,0.000
1727436937.517,-17.090,-73.730,-54.199,-69.824,0.000
1727436937.521,-13.672,-74.219,-55.176,-69.824,0.000
1727436937.525,-86.426,-74.219,-48.828,-75.684,0.000
1727436937.529,-139.648,-80.078,-43.457,-78.125,0.000
1727436937.533,-100.586,-72.266,-38.574,-56.641,0.000
1727436937.537,-23.438,-62.988,-35.645,-42.480,0.000
1727436937.541,2.930,-60.059,-26.855,-43.945,0.000
1727436937.545,-47.363,-52.246,-29.297,-54.688,0.000
1727436937.549,-112.305,-57.617,-31.738,-80.078,0.000
1727436937.552,-77.637,-59.570,-28.320,-52.734,0.000
1727436937.556,1.465,-41.016,-24.414,-5.371,0.000
1727436937.560,22.949,-30.762,-30.273,-20.508,0.000
1727436937.564,-24.902,-35.156,-38.086,-36.621,0.000
1727436937.568,-94.238,-48.828,-32.715,-47.363,0.000
1727436937.572,-78.613,-53.223,-27.832,-55.664,0.000
1727436937.576,7.812,-36.621,-22.949,-39.551,0.000
1727436937.580,35.156,-27.832,-26.855,-38.574,0.000
1727436937.584,0.000,-41.504,-31.738,-46.875,0.000
1727436937.588,0.000,-46.387,-26.855,-54.199,0.000
1727436937.592,0.000,-45.410,-27.344,-53.223,0.000
1727436937.595,0.000,-54.688,-29.297,-50.781,0.000
1727436937.599,0.000,-64.941,-26.855,-47.852,0.000
1727436937.603,0.000,-56.152,-30.273,-44.922,0.000
1727436937.607,0.000,-37.109,-29.785,-71.289,0.000
1727436937.611,0.000,-26.855,-23.926,-83.008,0.000
1727436937.615,0.000,-30.273,-31.250,-66.895,0.000
1727436937.619,0.000,-27.832,-24.902,-53.223,0.000
1727436937.623,0.000,-41.504,-25.879,-54.688,0.000
1727436937.627,0.000,-67.383,-38.086,-75.195,0.000
1727436937.631,-125.977,-67.871,-38.086,-89.355,0.000
1727436937.634,-76.660,-79.102,-42.969,-73.242,0.000
1727436937.638,-27.832,-85.449,-52.734,-65.918,0.000
1727436937.642,-42.480,-71.777,-47.363,-60.547,0.000
1727436937.646,-97.168,-74.219,-48.340,-63.965,0.000
1727436937.650,-125.000,-84.473,-59.082,-94.238,0.000
1727436937.654,-72.754,-76.660,-53.711,-80.078,0.000
1727436937.658,-0.977,-54.688,-47.363,-58.105,0.000
1727436937.662,-12.695,-50.293,-49.805,-59.570,0.000
1727436937.666,-94.238,-55.176,-56.152,-62.500,0.000
1727436937.670,-128.906,-59.570,-53.711,-74.219,0.000
1727436937.674,-79.590,-64.941,-54.199,-66.895,0.000
1727436937.677,-4.395,-63.965,-49.316,-42.480,0.000
1727436937.681,0.000,-62.500,-46.387,-40.527,0.000
1727436937.685,-75.195,-57.129,-41.992,-56.641,0.000
1727436937.689,-124.023,-51.270,-32.715,-71.289,0.000
1727436937.693,-92.773,-46.387,-38.086,-64.453,0.000
1727436937.697,-20.020,-44.434,-44.434,-40.527,0.000
1727436937.701,-5.371,-50.293,-46.875,-38.574,0.000
1727436937.705,-58.105,-54.688,-39.062,-45.898,0.000
1727436937.709,-116.699,-52.246,-40.039,-60.059,0.000
1727436937.713,-98.633,-45.898,-46.875,-64.941,0.000
1727436937.716,-20.508,-41.992,-46.875,-48.828,0.000
1727436937.720,-8.301,-41.504,-53.223,-51.270,0.000
1727436937.724,-67.871,-45.898,-56.641,-82.031,0.000
1727436937.728,-129.395,-51.270,-54.199,-104.004,0.000
1727436937.732,-111.328,-51.758,-49.316,-93.262,0.000
1727436937.736,-29.785,-51.270,-45.410,-56.641,0.000
1727436937.740,4.883,-51.270,-47.852,-50.781,0.000
1727436937.744,-31.738,-49.316,-49.316,-63.477,0.000
1727436937.748,-93.750,-44.434,-42.969,-70.801,0.000
1727436937.752,-93.750,-41.504,-39.551,-81.055,0.000
1727436937.756,-20.996,-30.762,-42.969,-51.758,0.000
1727436937.759,19.531,-36.621,-44.922,-27.344,0.000
1727436937.763,-26.855,-60.547,-45.898,-50.781,0.000
1727436937.767,-91.797,-50.781,-45.898,-81.543,0.000
1727436937.771,-103.027,-28.320,-44.922,-82.520,0.000
1727436937.775,-47.363,-36.621,-43.945,-69.824,0.000
1727436937.779,7.324,-28.809,-32.227,-59.570,0.000
1727436937.783,-30.273,-21.973,-31.250,-52.734,0.000
1727436937.787,-105.469,-39.551,-41.992,-75.684,0.000
1727436937.791,-125.488,-45.898,-53.223,-103.516,0.000
1727436937.795,-74.219,-57.129,-62.012,-91.797,0.000
1727436937.799,-26.855,-56.641,-57.617,-76.172,0.000
1727436937.802,-42.969,-60.059,-52.246,-69.824,0.000
1727436937.806,-110.840,-60.547,-54.688,-91.309,0.000
1727436937.810,-147.461,-51.270,-55.664,-129.883,0.000
1727436937.814,-84.473,-56.641,-57.617,-99.609,0.000
1727436937.818,-2.930,-52.734,-64.941,-73.730,0.000
1727436937.822,-15.137,-61.035,-73.730,-93.262,0.000
1727436937.826,-83.008,-63.965,-69.336,-100.098,0.000
1727436937.830,-126.465,-46.387,-60.547,-104.980,0.000
1727436937.834,-89.355,-41.016,-56.641,-84.473,0.000
1727436937.838,-10.742,-35.645,-52.734,-57.129,0.000
1727436937.842,1.953,-23.438,-45.898,-46.387,0.000
1727436937.845,-50.781,-19.043,-43.457,-65.430,0.000
1727436937.849,-90.820,-25.879,-43.457,-84.473,0.000
1727436937.853,-58.105,-31.250,-45.410,-53.223,0.000
1727436937.857,7.812,-16.602,-44.922,-36.133,0.000
1727436937.861,25.391,2.441,-30.273,-34.668,0.000
1727436937.865,0.000,-9.766,-30.273,-46.875,0.000
1727436937.869,0.000,-28.320,-38.574,-73.730,0.000
1727436937.873,0.000,-35.156,-40.039,-71.289,0.000
1727436937.877,0.000,-35.156,-38.574,-50.781,0.000
1727436937.881,0.000,-29.785,-27.344,-41.016,0.000
1727436937.884,0.000,-20.508,-28.320,-58.594,0.000
1727436937.888,0.000,-23.438,-31.250,-109.863,0.000
1727436937.892,0.000,-31.250,-23.438,-111.816,0.000
1727436937.896,0.000,-32.227,-22.949,-83.008,0.000
1727436937.900,0.000,-30.762,-31.250,-111.328,0.000
1727436937.904,0.000,-29.297,-28.809,-148.438,0.000
1727436937.908,0.000,-31.738,-27.832,-187.500,0.000
1727436937.912,-214.844,-33.691,-47.363,-210.449,0.000
1727436937.916,-134.766,-33.691,-51.758,-179.688,0.000
1727436937.920,-134.277,-36.133,-46.875,-181.641,0.000
1727436937.924,-214.844,-43.457,-56.641,-231.445,0.000
1727436937.927,-276.367,-44.922,-62.012,-259.766,0.000
1727436937.931,-263.184,-42.969,-59.082,-263.672,0.000
1727436937.935,-198.730,-43.457,-50.781,-236.328,0.000
1727436937.939,-173.828,-46.387,-49.316,-211.426,0.000
1727436937.943,-210.938,-70.801,-63.477,-222.168,0.000
1727436937.947,-267.578,-83.008,-73.730,-252.930,0.000
1727436937.951,-280.762,-61.035,-72.754,-257.812,0.000
1727436937.955,-204.590,-38.574,-73.730,-232.422,0.000
1727436937.959,-144.531,-33.691,-66.895,-206.543,0.000
1727436937.963,-162.598,-31.250,-62.988,-199.707,0.000
1727436937.967,-220.215,-34.180,-68.359,-217.773,0.000
1727436937.970,-238.281,-56.641,-72.266,-225.586,0.000
1727436937.974,-165.039,-63.477,-78.613,-208.496,0.000
1727436937.978,-103.516,-47.852,-67.383,-175.781,0.000
1727436937.982,-124.023,-41.504,-55.176,-153.809,0.000
1727436937.986,-176.758,-34.668,-46.387,-154.297,0.000
1727436937.990,-183.594,-30.273,-49.805,-159.668,0.000
1727436937.994,-114.746,-27.832,-53.711,-129.883,0.000
1727436937.998,-31.250,-31.738,-48.340,-89.844,0.000
1727436938.002,-28.809,-52.246,-53.223,-75.195,0.000
1727436938.006,-102.051,-57.129,-52.246,-72.266,0.000
1727436938.009,-132.324,-49.805,-46.387,-66.406,0.000
1727436938.013,-89.844,-53.223,-52.734,-44.922,0.000
1727436938.017,-10.254,-62.012,-57.617,-28.320,0.000
1727436938.021,14.160,-58.105,-48.828,-16.113,0.000
1727436938.025,-44.922,-72.754,-45.410,-25.391,0.000
1727436938.029,-70.312,-89.355,-44.922,-42.969,0.000
1727436938.033,-25.879,-75.684,-38.086,-16.602,0.000
1727436938.037,47.363,-52.734,-32.227,19.043,0.000
1727436938.041,59.570,-58.105,-36.133,19.531,0.000
1727436938.045,1.953,-73.242,-42.969,4.883,0.000
1727436938.049,-37.598,-65.918,-45.410,-13.672,0.000
1727436938.052,-13.184,-63.965,-43.457,3.418,0.000
1727436938.056,59.082,-70.801,-41.016,22.461,0.000
1727436938.060,89.355,-81.055,-41.992,31.250,0.000
1727436938.064,38.574,-83.984,-36.621,46.875,0.000
1727436938.068,-28.320,-80.566,-30.762,23.926,0.000
1727436938.072,-24.902,-89.355,-33.203,24.902,0.000
1727436938.076,51.758,-93.750,-38.574,53.711,0.000
1727436938.080,90.820,-91.797,-47.363,42.480,0.000
1727436938.084,58.594,-97.168,-44.922,28.809,0.000
1727436938.088,-10.742,-101.562,-32.715,21.484,0.000
1727436938.091,-20.020,-83.496,-28.809,27.344,0.000
1727436938.095,45.410,-63.477,-27.832,46.387,0.000
1727436938.099,0.000,-57.129,-22.461,58.105,0.000
1727436938.103,0.000,-56.152,-18.555,56.152,0.000
1727436938.107,0.000,-60.547,-34.668,20.996,0.000
1727436938.111,0.000,-54.688,-36.621,16.113,0.000
1727436938.115,0.000,-52.246,-29.297,45.898,0.000
1727436938.119,0.000,-61.035,-32.227,62.988,0.000
1727436938.123,0.000,-71.289,-29.785,61.035,0.000
1727436938.127,0.000,-75.684,-26.367,29.785,0.000
1727436938.130,0.000,-66.406,-33.691,13.184,0.000
1727436938.134,0.000,-63.477,-37.598,24.414,0.000
1727436938.138,0.000,-59.082,-35.156,37.109,0.000
1727436938.142,0.000,-59.570,-34.180,38.086,0.000
1727436938.146,-6.836,-62.988,-24.414,38.086,0.000
1727436938.150,-29.785,-56.641,-22.949,18.066,0.000
1727436938.154,24.902,-54.199,-16.113,14.648,0.000
1727436938.158,70.312,-50.781,-6.348,34.180,0.000
1727436938.162,44.434,-55.664,-14.648,22.949,0.000
1727436938.166,-12.207,-59.570,-13.184,3.418,0.000
1727436938.170,-41.504,-46.875,-11.719,-5.371,0.000
1727436938.173,3.418,-24.902,-17.090,4.395,0.000
1727436938.177,78.613,-10.254,-12.695,16.113,0.000
1727436938.181,67.383,-19.531,-13.184,24.902,0.000
1727436938.185,-17.090,-40.527,-21.973,20.996,0.000
1727436938.189,-59.082,-46.387,-19.531,-9.277,0.000
1727436938.193,-14.648,-46.875,-15.137,-18.555,0.000
1727436938.197,49.316,-41.016,-20.508,-14.160,0.000
1727436938.201,51.270,-42.480,-29.785,-8.789,0.000
1727436938.205,-15.137,-50.293,-26.367,-14.648,0.000
1727436938.209,-74.219,-47.852,-29.297,-50.293,0.000
1727436938.213,-65.918,-53.223,-39.062,-55.176,0.000
1727436938.216,-0.977,-68.848,-40.527,-38.086,0.000
1727436938.220,18.066,-66.406,-43.457,-32.715,0.000
1727436938.224,-45.898,-55.664,-36.621,-26.367,0.000
1727436938.228,-110.840,-55.664,-31.738,-41.016,0.000
1727436938.232,-87.891,-56.641,-30.273,-45.898,0.000
1727436938.236,-4.883,-60.547,-25.391,-16.602,0.000
1727436938.240,25.391,-77.148,-39.062,-20.996,0.000
1727436938.244,-34.668,-77.637,-47.852,-41.504,0.000
1727436938.248,-115.234,-66.406,-45.410,-48.828,0.000
1727436938.252,-103.027,-60.059,-48.340,-49.805,0.000
1727436938.256,-24.902,-66.406,-47.363,-41.504,0.000
1727436938.259,17.578,-66.895,-42.969,-29.785,0.000
1727436938.263,-29.297,-52.734,-51.758,-34.180,0.000
1727436938.267,-107.422,-50.781,-61.035,-63.477,0.000
1727436938.271,-104.004,-46.387,-52.734,-73.242,0.000
1727436938.275,-26.855,-36.621,-53.711,-42.480,0.000
1727436938.279,14.160,-32.715,-62.012,-22.949,0.000
1727436938.283,-21.973,-42.969,-55.664,-44.922,0.000
1727436938.287,-76.660,-50.781,-38.574,-57.129,0.000
1727436938.291,-85.449,-32.227,-24.414,-46.387,0.000
1727436938.295,-26.367,-20.996,-26.367,-40.527,0.000
1727436938.299,23.926,-25.879,-38.086,-21.484,0.000
1727436938.302,-12.207,-32.715,-42.969,-24.414,0.000
1727436938.306,-90.332,-41.992,-42.480,-61.035,0.000
1727436938.310,-111.328,-47.363,-50.293,-79.102,0.000
1727436938.314,-36.621,-50.293,-49.805,-60.059,0.000
1727436938.318,22.461,-39.551,-41.992,-34.668,0.000
1727436938.322,-1.953,-40.039,-36.133,-26.367,0.000
1727436938.326,-77.148,-52.734,-28.809,-41.992,0.000
1727436938.330,-104.980,-55.176,-34.668,-63.477,0.000
1727436938.334,-52.734,-53.711,-41.016,-62.012,0.000
1727436938.338,3.418,-51.758,-42.480,-43.457,0.000
1727436938.341,0.000,-61.523,-44.434,-36.133,0.000
1727436938.345,-69.336,-77.637,-40.527,-58.594,0.000
1727436938.349,-123.535,-85.449,-39.551,-79.102,0.000
1727436938.353,-81.055,-74.707,-37.598,-66.406,0.000
1727436938.357,-10.254,-65.430,-40.527,-46.875,0.000
1727436938.361,-2.930,-62.988,-44.434,-41.016,0.000
1727436938.365,-69.824,-55.176,-41.992,-46.875,0.000
1727436938.369,-124.023,-62.988,-42.480,-78.125,0.000
1727436938.373,-75.684,-59.570,-32.227,-82.031,0.000
1727436938.377,-6.836,-45.898,-31.738,-65.430,0.000
1727436938.381,-7.812,-60.059,-47.852,-63.477,0.000
1727436938.384,-66.895,-62.012,-49.316,-74.219,0.000
1727436938.388,-115.234,-48.828,-42.480,-91.797,0.000
1727436938.392,-89.355,-40.527,-40.039,-73.730,0.000
1727436938.396,7.812,-40.527,-39.551,-37.109,0.000
1727436938.400,20.996,-47.363,-46.387,-32.715,0.000
1727436938.404,-54.688,-47.363,-42.480,-54.199,0.000
1727436938.408,-111.328,-51.758,-36.621,-87.402,0.000
1727436938.412,-106.445,-50.781,-43.457,-93.750,0.000
1727436938.416,-25.391,-35.645,-39.551,-66.895,0.000
1727436938.420,13.672,-29.297,-39.551,-56.152,0.000
1727436938.423,-38.574,-41.992,-49.805,-66.406,0.000
1727436938.427,-104.980,-51.270,-44.922,-82.520,0.000
1727436938.431,-88.379,-45.410,-37.598,-75.684,0.000
1727436938.435,-14.648,-43.457,-41.504,-41.504,0.000
1727436938.439,3.906,-56.641,-55.176,-37.598,0.000
1727436938.443,-40.039,-55.664,-61.523,-58.594,0.000
1727436938.447,-106.934,-51.270,-58.594,-80.566,0.000
1727436938.451,-110.840,-59.570,-60.059,-85.938,0.000
1727436938.455,-39.062,-52.734,-54.688,-64.453,0.000
1727436938.459,15.625,-37.598,-45.898,-37.109,0.000
1727436938.463,-2.441,-38.574,-41.504,-38.574,0.000
1727436938.466,-84.961,-46.387,-39.551,-69.336,0.000
1727436938.470,-105.957,-42.480,-32.227,-79.102,0.000
1727436938.474,0.000,-28.320,-22.461,-52.246,0.000
1727436938.478,0.000,-21.484,-29.297,-25.391,0.000
1727436938.482,0.000,-20.020,-32.715,-30.273,0.000
1727436938.486,0.000,-26.367,-34.180,-61.035,0.000
1727436938.490,0.000,-44.922,-41.016,-87.402,0.000
1727436938.494,0.000,-58.105,-37.109,-46.387,0.000
1727436938.498,0.000,-56.641,-38.574,-14.160,0.000
1727436938.502,0.000,-53.711,-47.363,-45.898,0.000
1727436938.506,0.000,-59.570,-47.852,-66.895,0.000
1727436938.509,0.000,-55.176,-40.527,-81.543,0.000
1727436938.513,0.000,-59.570,-41.504,-75.195,0.000
1727436938.517,0.000,-60.547,-40.527,-52.246,0.000
1727436938.521,6.348,-52.734,-43.457,-52.734,0.000
1727436938.525,-64.941,-59.570,-48.828,-73.242,0.000
1727436938.529,-113.281,-60.547,-41.504,-87.891,0.000
1727436938.533,-72.754,-57.129,-44.434,-76.660,0.000
1727436938.537,3.906,-52.246,-41.016,-52.246,0.000
1727436938.541,3.906,-42.480,-30.273,-36.621,0.000
1727436938.545,-64.453,-50.781,-34.180,-52.246,0.000
1727436938.549,-115.723,-48.828,-40.527,-74.219,0.000
1727436938.552,-78.613,-36.621,-49.316,-60.059,0.000
1727436938.556,0.977,-48.828,-56.152,-47.363,0.000
1727436938.560,13.672,-52.246,-49.805,-41.504,0.000
1727436938.564,-42.969,-51.758,-53.223,-49.316,0.000
1727436938.568,-95.703,-42.969,-55.176,-75.195,0.000
1727436938.572,-63.965,-34.668,-45.410,-63.477,0.000
1727436938.576,-5.859,-43.945,-48.340,-40.039,0.000
1727436938.580,6.836,-44.434,-42.480,-34.180,0.000
1727436938.584,-29.297,-40.039,-32.715,-43.945,0.000
1727436938.588,-90.820,-27.832,-35.156,-46.387,0.000
1727436938.592,-78.613,-23.438,-33.691,-39.551,0.000
1727436938.595,-2.930,-34.668,-34.180,-32.227,0.000
1727436938.599,36.621,-39.551,-35.156,-17.090,0.000
1727436938.603,-3.418,-28.809,-32.715,-20.508,0.000
1727436938.607,-79.590,-27.832,-35.645,-53.711,0.000
1727436938.611,-74.219,-36.133,-40.039,-64.453,0.000
1727436938.615,-8.789,-39.062,-41.992,-37.109,0.000
1727436938.619,23.438,-40.039,-37.598,-14.648,0.000
1727436938.623,-6.348,-33.203,-31.738,-19.531,0.000
1727436938.627,-83.496,-40.039,-33.691,-46.875,0.000
1727436938.631,-108.887,-52.246,-36.133,-65.918,0.000
1727436938.635,-41.016,-43.945,-36.133,-60.059,0.000
1727436938.638,13.184,-45.410,-45.898,-42.969,0.000
1727436938.642,-20.020,-58.105,-53.711,-47.852,0.000
1727436938.646,-95.215,-54.688,-46.387,-67.383,0.000
1727436938.650,-115.234,-43.457,-38.574,-79.590,0.000
1727436938.654,-52.246,-35.156,-35.156,-63.965,0.000
1727436938.658,0.977,-39.062,-37.109,-41.016,0.000
1727436938.662,-11.719,-58.594,-40.527,-48.340,0.000
1727436938.666,-66.895,-62.500,-35.645,-56.152,0.000
1727436938.670,-114.258,-57.617,-34.668,-59.082,0.000
1727436938.674,-56.641,-49.805,-26.855,-50.781,0.000
1727436938.677,15.625,-45.898,-25.391,-44.434,0.000
1727436938.681,-8.301,-50.781,-42.969,-47.363,0.000
1727436938.685,-71.289,-49.805,-50.781,-53.711,0.000
1727436938.689,-107.422,-56.152,-50.293,-73.242,0.000
1727436938.693,-48.340,-62.988,-48.828,-63.965,0.000
1727436938.697,27.344,-53.223,-49.805,-35.645,0.000
1727436938.701,8.301,-42.969,-53.223,-29.785,0.000
1727436938.705,-56.152,-37.109,-45.410,-45.898,0.000
1727436938.709,-104.980,-48.340,-42.480,-56.641,0.000
1727436938.713,-71.289,-52.734,-43.457,-50.293,0.000
1727436938.717,9.277,-39.062,-46.387,-49.805,0.000
1727436938.720,28.809,-35.645,-44.434,-41.504,0.000
1727436938.724,-30.273,-43.945,-36.133,-40.039,0.000
1727436938.728,-86.914,-43.457,-37.109,-62.012,0.000
1727436938.732,-72.266,-30.762,-47.852,-49.316,0.000
1727436938.736,1.953,-23.438,-51.758,-28.320,0.000
1727436938.740,35.156,-9.277,-48.340,-27.832,0.000
1727436938.744,-30.273,-15.137,-42.480,-39.062,0.000
1727436938.748,-83.008,-21.484,-33.691,-54.688,0.000
1727436938.752,-59.082,-30.762,-37.109,-56.641,0.000
1727436938.756,-0.488,-45.898,-45.410,-36.621,0.000
1727436938.759,33.691,-42.480,-38.574,-21.484,0.000
1727436938.763,-19.043,-40.527,-36.621,-40.039,0.000
1727436938.767,-96.680,-56.641,-38.086,-57.129,0.000
1727436938.771,-79.590,-60.059,-40.039,-43.457,0.000
1727436938.775,-6.348,-42.969,-41.016,-29.297,0.000
1727436938.779,33.203,-38.574,-23.926,-19.043,0.000
1727436938.783,-5.371,-43.457,-20.508,-28.320,0.000
1727436938.787,-92.773,-58.594,-31.250,-57.129,0.000
1727436938.791,-89.355,-62.012,-25.391,-60.547,0.000
1727436938.795,-20.508,-52.734,-29.297,-43.945,0.000
1727436938.799,15.137,-53.711,-34.180,-36.621,0.000
1727436938.802,-20.020,-60.059,-34.180,-51.270,0.000
1727436938.806,-95.703,-55.664,-38.574,-64.941,0.000
1727436938.810,-113.770,-44.922,-41.504,-74.707,0.000
1727436938.814,-52.734,-41.992,-48.340,-62.500,0.000
1727436938.818,1.465,-46.387,-48.828,-32.715,0.000
1727436938.822,-3.906,-52.246,-43.457,-38.086,0.000
1727436938.826,-71.777,-45.410,-37.598,-58.594,0.000
1727436938.830,-121.094,-35.645,-40.527,-67.871,0.000
1727436938.834,-63.965,-46.387,-50.781,-55.176,0.000
1727436938.838,14.648,-47.852,-51.758,-43.945,0.000
1727436938.841,20.508,-26.367,-44.434,-44.434,0.000
1727436938.845,-50.293,-16.113,-43.457,-54.199,0.000
1727436938.849,-104.492,-29.297,-51.270,-69.824,0.000
1727436938.853,-48.828,-39.551,-45.410,-47.852,0.000
1727436938.857,34.180,-33.203,-38.574,-17.578,0.000
1727436938.861,35.156,-33.691,-47.852,-24.902,0.000
1727436938.865,-44.922,-28.809,-45.410,-46.875,0.000
1727436938.869,-94.727,-18.555,-38.086,-56.641,0.000
1727436938.873,-48.340,-28.320,-39.062,-44.922,0.000
1727436938.877,16.113,-38.574,-41.992,-30.273,0.000
1727436938.881,13.184,-30.273,-41.016,-21.484,0.000
1727436938.884,-49.805,-24.414,-41.504,-40.039,0.000
1727436938.888,-103.516,-25.391,-41.016,-73.730,0.000
1727436938.892,-66.895,-23.926,-29.297,-60.547,0.000
1727436938.896,0.000,-17.090,-31.250,-40.527,0.000
1727436938.900,0.000,-24.414,-37.109,-27.344,0.000
1727436938.904,0.000,-29.297,-27.832,-32.227,0.000
1727436938.908,0.000,-29.785,-31.250,-64.453,0.000
1727436938.912,0.000,-41.504,-34.668,-53.711,0.000
1727436938.916,0.000,-41.992,-26.367,-26.855,0.000
1727436938.920,0.000,-27.832,-22.461,-34.668,0.000
1727436938.924,0.000,-35.645,-21.973,-35.156,0.000
1727436938.927,0.000,-51.758,-33.203,-45.410,0.000
1727436938.931,0.000,-52.734,-43.945,-62.500,0.000
1727436938.935,0.000,-52.246,-41.992,-54.688,0.000
1727436938.939,0.000,-54.199,-39.062,-51.270,0.000
1727436938.943,-46.387,-57.129,-41.016,-55.176,0.000
1727436938.947,-101.074,-48.340,-45.898,-56.152,0.000
1727436938.951,-91.309,-44.922,-43.945,-42.480,0.000
1727436938.955,-16.113,-58.105,-43.945,-35.156,0.000
1727436938.959,17.578,-55.176,-47.363,-32.715,0.000
1727436938.963,-37.109,-56.152,-47.852,-28.320,0.000
1727436938.966,-111.328,-51.758,-44.922,-60.547,0.000
1727436938.970,-117.188,-30.762,-44.922,-76.660,0.000
1727436938.974,-43.945,-29.785,-44.922,-46.387,0.000
1727436938.978,10.742,-38.086,-49.805,-35.645,0.000
1727436938.982,-16.113,-33.203,-53.223,-58.105,0.000
1727436938.986,-95.215,-38.574,-51.270,-72.754,0.000
1727436938.990,-105.469,-47.363,-47.852,-69.824,0.000
1727436938.994,-35.645,-40.527,-50.781,-57.617,0.000
1727436938.998,0.488,-35.645,-54.199,-41.504,0.000
1727436939.002,-14.160,-37.598,-44.922,-30.762,0.000
1727436939.006,-73.730,-32.227,-42.480,-54.199,0.000
1727436939.009,-98.633,-30.762,-42.969,-61.523,0.000
1727436939.013,-31.738,-41.016,-37.109,-37.109,0.000
1727436939.017,27.832,-36.133,-41.504,-37.598,0.000
1727436939.021,9.277,-20.508,-38.086,-38.086,0.000
1727436939.025,-47.363,-18.555,-26.855,-41.992,0.000
1727436939.029,-77.148,-19.531,-27.344,-54.199,0.000
1727436939.033,-35.645,-11.230,-32.227,-36.621,0.000
1727436939.037,0.000,-4.883,-31.738,-16.602,0.000
1727436939.041,0.000,1.465,-28.320,-5.859,0.000
1727436939.045,0.000,-9.277,-30.273,-20.996,0.000
1727436939.049,0.000,-30.273,-33.203,-61.035,0.000
1727436939.052,0.000,-37.109,-39.062,-52.246,0.000
1727436939.056,0.000,-28.320,-45.410,-22.949,0.000
1727436939.060,0.000,-32.227,-33.691,-15.137,0.000
1727436939.064,0.000,-44.434,-22.949,-30.273,0.000
1727436939.068,0.000,-38.574,-16.602,-60.059,0.000
1727436939.072,0.000,-42.969,-11.719,-55.664,0.000
1727436939.076,0.000,-45.410,-12.207,-37.598,0.000
1727436939.080,0.000,-33.203,-13.672,-33.203,0.000
1727436939.084,-44.434,-29.785,-17.578,-41.992,0.000
1727436939.088,-104.004,-30.273,-23.438,-53.223,0.000
1727436939.092,-107.910,-30.762,-30.273,-61.523,0.000
1727436939.095,-37.109,-43.945,-32.227,-58.594,0.000
1727436939.099,-0.977,-55.176,-30.762,-51.758,0.000
1727436939.103,-54.199,-62.500,-36.621,-66.895,0.000
1727436939.107,-124.512,-68.848,-41.016,-84.961,0.000
1727436939.111,-115.234,-72.754,-40.527,-59.082,0.000
1727436939.115,-29.297,-65.430,-35.156,-32.715,0.000
1727436939.119,20.508,-59.570,-29.297,-30.762,0.000
1727436939.123,-28.809,-69.336,-41.504,-49.805,0.000
1727436939.127,-98.145,-59.082,-49.805,-73.242,0.000
1727436939.131,-109.863,-50.781,-52.734,-75.195,0.000
1727436939.134,-52.246,-50.781,-54.688,-60.547,0.000
1727436939.138,-2.441,-49.805,-47.852,-43.945,0.000
1727436939.142,-29.785,-59.082,-48.340,-49.805,0.000
1727436939.146,-84.961,-64.453,-46.875,-66.895,0.000
1727436939.150,-98.145,-51.270,-39.551,-67.383,0.000
1727436939.154,-45.410,-42.969,-38.574,-36.133,0.000
1727436939.158,8.301,-38.574,-41.504,-34.180,0.000
1727436939.162,-14.648,-32.715,-45.898,-59.570,0.000
1727436939.166,-75.195,-29.785,-44.434,-71.777,0.000
1727436939.170,-89.844,-21.484,-37.109,-79.102,0.000
1727436939.174,-28.320,-31.250,-38.086,-54.688,0.000
1727436939.177,21.973,-51.270,-37.598,-44.922,0.000
1727436939.181,0.000,-38.086,-33.691,-46.875,0.000
1727436939.185,-55.176,-15.137,-34.180,-52.246,0.000
1727436939.189,-96.680,-25.879,-39.062,-67.383,0.000
1727436939.193,-52.246,-46.387,-41.504,-52.246,0.000
1727436939.197,15.137,-50.293,-41.016,-44.434,0.000
1727436939.201,20.020,-45.898,-41.504,-45.410,0.000
1727436939.205,-51.270,-45.898,-41.016,-62.988,0.000
1727436939.209,-121.094,-53.223,-45.410,-96.191,0.000
1727436939.213,-77.637,-53.711,-46.875,-79.590,0.000
1727436939.216,-9.766,-54.199,-45.410,-59.082,0.000
1727436939.220,-7.324,-56.152,-43.945,-60.059,0.000
1727436939.224,-59.570,-60.059,-37.598,-65.430,0.000
1727436939.228,-124.023,-72.754,-35.645,-68.359,0.000
1727436939.232,-94.238,-78.125,-33.691,-48.340,0.000
1727436939.236,-8.301,-68.848,-40.039,-50.781,0.000
1727436939.240,20.996,-65.918,-34.668,-45.898,0.000
1727436939.244,-49.316,-64.941,-24.414,-45.898,0.000
1727436939.248,-123.047,-60.059,-36.133,-69.336,0.000
1727436939.252,-89.844,-51.758,-46.875,-73.242,0.000
1727436939.255,-17.090,-42.969,-43.457,-47.363,0.000
1727436939.259,-0.488,-43.457,-35.645,-22.461,0.000
1727436939.263,-61.523,-50.293,-36.621,-46.387,0.000
1727436939.267,-118.164,-53.711,-40.039,-70.801,0.000
1727436939.271,-96.191,-47.363,-37.598,-51.270,0.000
1727436939.275,-14.648,-49.316,-48.340,-43.945,0.000
1727436939.279,29.785,-41.016,-50.293,-41.016,0.000
1727436939.283,-6.348,-28.320,-35.156,-27.832,0.000
1727436939.287,-84.473,-35.156,-33.691,-46.875,0.000
1727436939.291,-82.031,-37.109,-34.180,-60.547,0.000
1727436939.295,-8.301,-32.227,-35.156,-45.410,0.000
1727436939.298,20.020,-34.668,-41.504,-29.785,0.000
1727436939.302,2.441,-29.785,-40.527,-23.438,0.000
1727436939.306,-66.406,-21.973,-40.039,-38.086,0.000
1727436939.310,-95.215,-27.344,-47.363,-47.852,0.000
1727436939.314,-10.254,-24.414,-41.992,-24.902,0.000
1727436939.318,46.387,-8.789,-27.832,-9.277,0.000
1727436939.322,11.230,-7.812,-20.508,-13.184,0.000
1727436939.326,-51.270,-13.184,-25.879,-30.273,0.000
1727436939.330,-64.941,-4.883,-27.832,-36.133,0.000
1727436939.334,-17.090,-6.348,-26.367,-28.809,0.000
1727436939.338,35.156,-12.207,-27.832,-24.414,0.000
1727436939.341,18.555,-15.137,-26.855,-25.879,0.000
1727436939.345,-39.551,-17.090,-25.391,-46.875,0.000
1727436939.349,-71.289,-15.137,-18.066,-57.617,0.000
1727436939.353,-39.551,-30.762,-26.855,-44.922,0.000
1727436939.357,15.625,-46.387,-40.039,-46.387,0.000
1727436939.361,9.277,-49.805,-44.922,-47.852,0.000
1727436939.365,-59.082,-39.551,-36.133,-57.129,0.000
1727436939.369,-100.098,-19.531,-23.438,-69.336,0.000
1727436939.373,-52.246,-22.461,-20.996,-48.828,0.000
1727436939.377,17.578,-26.367,-25.879,-38.574,0.000
1727436939.381,1.953,-25.391,-38.574,-53.711,0.000
1727436939.384,-79.590,-30.273,-40.527,-58.105,0.000
1727436939.388,-119.629,-32.715,-38.574,-59.082,0.000
1727436939.392,-86.914,-44.434,-46.387,-61.035,0.000
1727436939.396,-20.996,-44.922,-48.828,-50.781,0.000
1727436939.400,-9.766,-38.574,-51.758,-47.363,0.000
1727436939.404,-69.824,-34.180,-46.875,-45.898,0.000
1727436939.408,-120.605,-37.109,-39.062,-65.430,0.000
1727436939.412,-83.984,-43.945,-39.062,-76.172,0.000
1727436939.416,-8.789,-52.734,-41.016,-41.016,0.000
1727436939.420,23.926,-59.082,-42.480,-34.180,0.000
1727436939.424,-31.738,-48.340,-36.133,-52.734,0.000
1727436939.427,-93.750,-39.062,-32.227,-60.059,0.000
1727436939.431,-64.941,-43.457,-38.086,-42.969,0.000
1727436939.435,2.930,-40.039,-38.086,-22.949,0.000
1727436939.439,48.828,-31.738,-32.227,-10.254,0.000
1727436939.443,9.277,-36.621,-31.738,-5.371,0.000
1727436939.447,-77.637,-43.945,-31.738,-39.551,0.000
1727436939.451,-66.406,-46.875,-29.785,-38.086,0.000
1727436939.455,16.602,-41.504,-27.832,-2.930,0.000
1727436939.459,41.992,-40.039,-32.227,-3.418,0.000
1727436939.463,-3.906,-43.457,-35.645,-13.672,0.000
1727436939.466,-69.336,-35.156,-31.250,-38.086,0.000
1727436939.470,-74.707,-35.156,-30.762,-37.109,0.000
1727436939.474,-15.137,-37.109,-27.832,-3.906,0.000
1727436939.478,17.578,-42.480,-27.832,-9.277,0.000
1727436939.482,-10.742,-46.875,-30.762,-27.344,0.000
1727436939.486,-80.566,-29.785,-22.461,-40.039,0.000
1727436939.490,-100.098,-26.367,-21.973,-48.828,0.000
1727436939.494,-22.461,-32.715,-29.297,-33.691,0.000
1727436939.498,20.996,-47.363,-40.527,-32.715,0.000
1727436939.502,-14.160,-52.246,-46.387,-42.969,0.000
1727436939.506,-78.613,-38.086,-42.480,-49.316,0.000
1727436939.509,-121.582,-42.969,-42.969,-67.871,0.000
1727436939.513,-62.988,-44.434,-34.180,-47.852,0.000
1727436939.517,1.953,-45.410,-30.762,-19.043,0.000
1727436939.521,-9.277,-55.176,-37.109,-23.926,0.000
1727436939.525,-78.125,-55.664,-43.457,-58.594,0.000
1727436939.529,-118.652,-47.852,-37.109,-69.336,0.000
1727436939.533,-65.430,-53.223,-36.133,-45.410,0.000
1727436939.537,3.418,-64.453,-41.504,-29.785,0.000
1727436939.541,2.441,-56.641,-36.621,-26.855,0.000
1727436939.545,-76.172,-51.758,-41.016,-37.109,0.000
1727436939.548,-119.141,-46.875,-44.922,-54.688,0.000
1727436939.552,-77.148,-45.410,-44.922,-53.223,0.000
1727436939.556,-17.090,-58.594,-48.828,-48.340,0.000
1727436939.560,-6.348,-54.199,-44.922,-37.109,0.000
1727436939.564,-63.965,-41.016,-42.480,-33.203,0.000
1727436939.568,-109.863,-42.969,-43.457,-63.477,0.000
1727436939.572,-53.223,-44.434,-38.574,-66.406,0.000
1727436939.576,23.438,-52.734,-38.086,-45.410,0.000
1727436939.580,22.949,-53.223,-32.227,-40.527,0.000
1727436939.584,-39.551,-41.504,-32.227,-46.387,0.000
1727436939.588,-100.098,-35.156,-40.527,-57.129,0.000
1727436939.591,-68.359,-31.738,-34.180,-57.129,0.000
1727436939.595,0.000,-29.297,-30.762,-48.828,0.000
1727436939.599,0.000,-30.273,-36.621,-33.691,0.000
1727436939.603,0.000,-37.598,-35.645,-24.414,0.000
1727436939.607,0.000,-44.922,-33.203,-58.594,0.000
1727436939.611,0.000,-49.805,-37.109,-74.707,0.000
1727436939.615,0.000,-46.875,-34.180,-42.969,0.000
1727436939.619,0.000,-36.133,-27.832,-33.203,0.000
1727436939.623,0.000,-30.273,-21.973,-45.410,0.000
1727436939.627,0.000,-32.715,-26.855,-67.383,0.000
1727436939.630,0.000,-38.574,-38.086,-74.219,0.000
1727436939.634,0.000,-50.293,-44.922,-54.199,0.000
1727436939.638,0.000,-55.176,-43.945,-27.344,0.000
1727436939.642,0.000,-49.316,-35.156,-32.715,0.000
1727436939.646,-92.285,-51.270,-40.527,-63.477,0.000
1727436939.650,-102.051,-55.664,-43.457,-81.055,0.000
1727436939.654,-36.133,-55.664,-34.668,-66.406,0.000
1727436939.658,7.812,-66.895,-37.598,-58.594,0.000
1727436939.662,-15.625,-72.266,-44.434,-64.941,0.000
1727436939.666,-88.867,-48.828,-38.086,-66.406,0.000
1727436939.670,-107.422,-37.109,-33.203,-73.242,0.000
1727436939.673,-37.598,-45.410,-38.086,-59.570,0.000
1727436939.677,12.695,-53.223,-46.875,-46.387,0.000
1727436939.681,-8.789,-60.547,-49.316,-39.551,0.000
1727436939.685,-79.102,-60.547,-47.363,-59.570,0.000
1727436939.689,-115.723,-47.363,-41.992,-71.777,0.000
1727436939.693,-57.617,-42.480,-43.945,-53.711,0.000
1727436939.697,9.766,-46.387,-40.527,-49.316,0.000
1727436939.701,4.883,-48.828,-38.574,-48.340,0.000
1727436939.705,-53.223,-61.035,-46.875,-48.340,0.000
1727436939.709,-106.445,-65.430,-46.875,-68.848,0.000
1727436939.713,-60.059,-53.711,-37.109,-49.316,0.000
1727436939.716,18.066,-44.434,-28.809,-26.855,0.000
1727436939.720,30.762,-38.086,-24.414,-17.090,0.000
1727436939.724,-22.461,-39.062,-21.484,-22.461,0.000
1727436939.728,-70.801,-35.156,-21.484,-47.852,0.000
1727436939.732,-29.785,-31.738,-26.367,-58.594,0.000
1727436939.736,39.551,-36.133,-34.180,-52.246,0.000
1727436939.740,42.969,-41.016,-38.574,-45.898,0.000
1727436939.744,-33.203,-43.945,-41.016,-56.152,0.000
1727436939.748,-95.215,-35.156,-35.156,-55.664,0.000
1727436939.752,-59.082,-25.391,-27.344,-42.480,0.000
1727436939.756,7.812,-35.156,-28.809,-33.691,0.000
1727436939.759,18.066,-53.223,-39.062,-30.273,0.000
1727436939.763,-37.598,-48.828,-39.062,-36.621,0.000
1727436939.767,-97.656,-41.992,-31.738,-54.199,0.000
1727436939.771,-89.355,-48.340,-37.598,-55.664,0.000
1727436939.775,-20.996,-52.734,-40.039,-49.805,0.000
1727436939.779,15.137,-59.082,-36.621,-43.945,0.000
1727436939.783,-24.902,-61.523,-36.621,-39.062,0.000
1727436939.787,0.000,-58.105,-37.109,-62.500,0.000
1727436939.791,0.000,-48.828,-29.785,-66.406,0.000
1727436939.795,0.000,-46.387,-31.250,-49.805,0.000
1727436939.799,0.000,-50.293,-38.086,-51.270,0.000
1727436939.802,0.000,-47.852,-39.062,-58.105,0.000
1727436939.806,0.000,-49.805,-39.551,-67.871,0.000
1727436939.810,0.000,-50.293,-53.711,-81.055,0.000
1727436939.814,0.000,-55.176,-62.500,-61.035,0.000
1727436939.818,0.000,-61.523,-60.059,-49.805,0.000
1727436939.822,0.000,-50.293,-53.223,-58.594,0.000
1727436939.826,0.000,-46.387,-45.898,-69.336,0.000
1727436939.830,0.000,-49.316,-51.758,-92.285,0.000
1727436939.834,-42.480,-40.039,-49.316,-79.102,0.000
1727436939.838,11.719,-32.227,-41.992,-52.734,0.000
1727436939.841,1.465,-28.809,-43.945,-42.969,0.000
1727436939.845,-68.359,-37.109,-46.875,-62.500,0.000
1727436939.849,-96.191,-40.039,-44.922,-76.660,0.000
1727436939.853,-31.250,-26.367,-42.969,-53.711,0.000
1727436939.857,28.809,-16.602,-43.945,-25.391,0.000
1727436939.861,28.809,-15.137,-42.480,-18.066,0.000
1727436939.865,-40.039,-19.043,-44.434,-41.992,0.000
1727436939.869,-97.656,-35.156,-50.293,-70.312,0.000
1727436939.873,-43.945,-41.992,-54.199,-53.223,0.000
1727436939.877,38.086,-27.832,-52.734,-37.598,0.000
1727436939.881,28.320,-19.531,-46.875,-43.945,0.000
1727436939.884,-48.828,-21.484,-43.945,-57.617,0.000
1727436939.888,-98.145,-21.973,-41.992,-72.754,0.000
1727436939.892,-52.734,-17.090,-36.621,-54.688,0.000
1727436939.896,26.367,-12.207,-34.668,-26.855,0.000
1727436939.900,41.504,-13.672,-37.598,-34.668,0.000
1727436939.904,-21.484,-20.996,-38.086,-45.410,0.000
1727436939.908,-88.867,-34.180,-36.621,-50.293,0.000
1727436939.912,-64.453,-41.504,-32.715,-56.152,0.000
1727436939.916,5.371,-46.875,-33.203,-42.969,0.000
1727436939.920,16.602,-41.016,-40.527,-33.691,0.000
1727436939.923,-37.109,-34.668,-43.457,-36.621,0.000
1727436939.927,-102.051,-38.086,-37.598,-56.152,0.000
1727436939.931,-90.332,-37.109,-39.551,-70.312,0.000
1727436939.935,-21.484,-40.527,-49.316,-55.176,0.000
1727436939.939,10.254,-44.922,-50.781,-46.875,0.000
1727436939.943,-35.645,-44.922,-57.129,-56.641,0.000
1727436939.947,-95.703,-47.363,-58.594,-68.359,0.000
1727436939.951,-82.031,-50.293,-45.410,-51.758,0.000
1727436939.955,-16.113,-55.664,-52.246,-33.691,0.000
1727436939.959,27.344,-58.594,-57.617,-34.668,0.000
1727436939.963,-14.160,-51.270,-50.781,-39.551,0.000
1727436939.966,-106.934,-51.758,-58.594,-68.359,0.000
1727436939.970,-109.863,-51.758,-54.199,-80.566,0.000
1727436939.974,0.000,-42.969,-44.922,-53.711,0.000
1727436939.978,0.000,-40.527,-47.852,-41.504,0.000
1727436939.982,0.000,-42.480,-49.316,-42.480,0.000
1727436939.986,0.000,-43.457,-41.504,-40.039,0.000
1727436939.990,0.000,-38.086,-41.016,-47.852,0.000
1727436939.994,0.000,-32.227,-44.922,-29.297,0.000
1727436939.998,0.000,-32.715,-35.645,0.977,0.000
1727436940.002,0.000,-39.062,-31.738,-5.859,0.000
1727436940.005,0.000,-31.250,-25.879,-22.461,0.000
1727436940.009,0.000,-25.879,-15.137,-24.414,0.000
1727436940.013,0.000,-26.855,-17.578,-9.277,0.000
1727436940.017,0.000,-32.227,-22.949,-1.465,0.000
1727436940.021,29.785,-42.480,-27.832,-7.812,0.000
1727436940.025,-23.926,-29.785,-26.367,-29.785,0.000
1727436940.029,-53.223,-14.160,-23.438,-51.758,0.000
1727436940.033,-3.418,-1.953,-22.949,-25.391,0.000
1727436940.037,66.895,-10.742,-23.438,-0.977,0.000
1727436940.041,43.945,-28.320,-27.832,-20.508,0.000
1727436940.045,-32.715,-25.879,-28.320,-30.762,0.000
1727436940.048,-66.406,-28.320,-30.273,-51.270,0.000
1727436940.052,-35.645,-42.480,-27.832,-41.016,0.000
1727436940.056,31.738,-39.551,-22.949,-16.113,0.000
1727436940.060,37.598,-25.391,-24.414,-16.602,0.000
1727436940.064,-33.203,-20.508,-26.367,-31.738,0.000
1727436940.068,-72.754,-18.555,-26.367,-52.734,0.000
1727436940.072,-34.180,-23.926,-28.809,-44.434,0.000
1727436940.076,26.367,-34.668,-33.203,-23.438,0.000
1727436940.080,37.598,-40.039,-41.504,-8.789,0.000
1727436940.084,-16.602,-40.527,-45.898,-24.414,0.000
1727436940.088,-74.219,-48.340,-43.945,-54.199,0.000
1727436940.091,-42.969,-47.363,-45.410,-53.223,0.000
1727436940.095,18.066,-48.828,-49.805,-41.504,0.000
1727436940.099,20.996,-62.012,-54.199,-31.738,0.000
1727436940.103,-27.344,-61.035,-56.641,-30.273,0.000
1727436940.107,-90.332,-55.664,-54.199,-48.340,0.000
1727436940.111,-86.914,-54.688,-49.805,-60.059,0.000
1727436940.115,-11.230,-55.176,-45.410,-35.645,0.000
1727436940.119,22.461,-55.176,-47.363,-21.973,0.000
1727436940.123,-18.066,-50.293,-44.434,-31.250,0.000
1727436940.127,-74.707,-45.410,-39.062,-49.805,0.000
1727436940.131,-54.688,-46.875,-38.574,-49.316,0.000
1727436940.134,10.742,-55.664,-45.410,-30.273,0.000
1727436940.138,32.227,-53.711,-52.246,-21.973,0.000
1727436940.142,5.859,-48.340,-48.828,-2.441,0.000
1727436940.146,-54.199,-56.152,-49.805,-16.602,0.000
1727436940.150,-65.918,-61.523,-45.898,-35.156,0.000
1727436940.154,17.578,-56.641,-35.156,8.789,0.000
1727436940.158,83.008,-52.246,-33.691,34.668,0.000
1727436940.162,50.781,-41.504,-37.109,8.789,0.000
1727436940.166,-27.344,-39.062,-37.109,-18.066,0.000
1727436940.170,-45.410,-48.340,-33.203,-23.438,0.000
1727436940.173,25.879,-44.922,-31.738,-5.371,0.000
1727436940.177,75.195,-42.480,-33.691,0.000,0.000
1727436940.181,41.504,-52.246,-36.621,-8.301,0.000
1727436940.185,-15.137,-46.387,-35.156,-24.902,0.000
1727436940.189,-44.434,-49.805,-32.227,-41.992,0.000
1727436940.193,-14.648,-55.664,-43.945,-24.902,0.000
1727436940.197,50.293,-55.664,-44.922,9.766,0.000
1727436940.201,49.805,-61.523,-41.992,2.930,0.000
1727436940.205,-15.625,-55.176,-48.340,-21.484,0.000
1727436940.209,-60.547,-54.688,-45.410,-37.109,0.000
1727436940.213,-18.066,-48.828,-41.992,-38.574,0.000
1727436940.216,54.688,-38.086,-37.598,-9.277,0.000
1727436940.220,62.988,-39.551,-36.621,-1.953,0.000
1727436940.224,5.371,-37.598,-38.086,-20.020,0.000
1727436940.228,-54.199,-43.457,-35.156,-33.203,0.000
1727436940.232,-28.320,-55.176,-38.574,-24.902,0.000
1727436940.236,41.504,-52.734,-42.480,-6.348,0.000
1727436940.240,43.945,-46.387,-45.410,0.977,0.000
1727436940.244,-27.344,-41.504,-46.875,-15.137,0.000
1727436940.248,-68.848,-32.715,-44.434,-43.945,0.000
1727436940.252,-17.090,-31.738,-41.992,-39.551,0.000
1727436940.255,55.176,-36.621,-41.016,-6.348,0.000
1727436940.259,65.430,-38.574,-42.969,8.789,0.000
1727436940.263,10.254,-40.527,-45.898,-9.277,0.000
1727436940.267,-53.223,-38.574,-46.387,-32.227,0.000
1727436940.271,-32.715,-33.203,-46.875,-23.438,0.000
1727436940.275,48.828,-35.156,-50.293,-3.418,0.000
1727436940.279,76.660,-35.645,-55.664,-5.859,0.000
1727436940.283,17.090,-29.297,-52.246,-14.160,0.000
1727436940.287,-48.340,-26.855,-48.828,-14.160,0.000
1727436940.291,-24.414,-19.531,-42.480,-20.508,0.000
1727436940.295,49.805,-23.926,-37.109,-15.625,0.000
1727436940.298,79.102,-30.273,-40.039,-2.930,0.000
1727436940.302,43.457,-28.320,-39.551,0.977,0.000
1727436940.306,-15.137,-38.086,-44.434,-6.836,0.000
1727436940.310,-24.902,-38.574,-36.133,2.441,0.000
1727436940.314,44.922,-21.484,-25.391,37.598,0.000
1727436940.318,94.727,-8.301,-25.879,51.758,0.000
1727436940.322,69.824,3.906,-20.508,48.340,0.000
1727436940.326,9.277,10.742,-12.207,38.574,0.000
1727436940.330,-2.441,5.371,-15.625,22.461,0.000
1727436940.334,72.266,-7.324,-20.508,35.645,0.000
1727436940.337,136.230,-9.766,-13.184,60.547,0.000
1727436940.341,116.699,-1.465,-6.836,58.594,0.000
1727436940.345,37.109,2.930,-10.254,33.691,0.000
1727436940.349,3.906,2.441,-11.719,23.926,0.000
1727436940.353,81.055,2.441,-9.277,43.945,0.000
1727436940.357,138.672,-0.488,-6.348,59.570,0.000
1727436940.361,113.281,-12.207,-8.789,63.965,0.000
1727436940.365,49.316,-25.879,-18.555,48.828,0.000
1727436940.369,5.859,-19.531,-24.414,48.828,0.000
1727436940.373,44.434,-9.277,-20.508,60.059,0.000
1727436940.377,95.703,-14.648,-20.020,50.781,0.000
1727436940.380,85.938,-6.348,-26.855,42.480,0.000
1727436940.384,23.926,4.395,-31.738,28.809,0.000
1727436940.388,-23.926,5.859,-31.738,15.137,0.000
1727436940.392,11.719,-12.695,-30.762,24.902,0.000
1727436940.396,0.000,-24.902,-25.879,39.062,0.000
1727436940.400,0.000,-9.766,-24.902,41.992,0.000
1727436940.404,0.000,-10.254,-31.250,10.742,0.000
1727436940.408,0.000,-16.602,-36.133,-30.273,0.000
1727436940.412,0.000,-7.324,-38.574,-29.297,0.000
1727436940.416,0.000,0.977,-34.668,-4.883,0.000
1727436940.420,0.000,-6.348,-29.785,13.672,0.000
1727436940.423,0.000,-8.301,-22.949,11.230,0.000
1727436940.427,0.000,-11.719,-30.273,-7.812,0.000
1727436940.431,0.000,-14.160,-37.109,-2.441,0.000
1727436940.435,0.000,-9.766,-35.645,19.531,0.000
1727436940.439,0.000,-6.836,-39.551,19.531,0.000
1727436940.443,35.645,-8.789,-36.621,11.719,0.000
1727436940.447,-14.160,-6.348,-17.090,20.020,0.000
1727436940.451,1.953,-12.207,-14.648,25.879,0.000
1727436940.455,73.242,-13.184,-15.625,33.203,0.000
1727436940.459,108.398,5.859,-14.160,41.016,0.000
1727436940.463,62.988,3.418,-29.785,27.344,0.000
1727436940.466,11.230,-3.906,-27.832,21.484,0.000
1727436940.470,20.508,-17.578,-23.926,40.527,0.000
1727436940.474,94.238,-8.789,-17.578,79.590,0.000
1727436940.478,127.441,15.625,-13.672,81.055,0.000
1727436940.482,82.031,17.578,-21.973,59.082,0.000
1727436940.486,29.297,23.438,-21.484,43.945,0.000
1727436940.490,26.367,28.809,-20.020,31.250,0.000
1727436940.494,95.215,24.902,-17.578,46.875,0.000
1727436940.498,147.461,23.926,-14.648,69.336,0.000
1727436940.502,109.863,24.902,-18.555,53.223,0.000
1727436940.505,36.621,22.461,-16.602,15.137,0.000
1727436940.509,30.273,26.367,-12.695,17.578,0.000
1727436940.513,83.496,20.996,-19.043,44.434,0.000
1727436940.517,123.535,11.230,-23.926,54.688,0.000
1727436940.521,112.793,7.324,-24.902,56.152,0.000
1727436940.525,31.250,-5.371,-24.902,43.457,0.000
1727436940.529,0.977,-5.371,-22.949,29.785,0.000
1727436940.533,58.105,7.812,-25.391,31.738,0.000
1727436940.537,111.816,13.184,-19.043,49.805,0.000
1727436940.541,89.844,9.766,-21.484,48.828,0.000
1727436940.545,7.324,11.230,-36.133,22.461,0.000
1727436940.548,-36.133,10.742,-36.621,-6.348,0.000
1727436940.552,9.766,10.254,-26.367,7.812,0.000
1727436940.556,82.520,0.488,-23.926,44.434,0.000
1727436940.560,85.938,-10.254,-25.391,54.688,0.000
1727436940.564,34.180,-13.184,-31.250,39.551,0.000
1727436940.568,-7.324,-25.391,-32.715,20.508,0.000
1727436940.572,27.344,-19.043,-15.137,35.645,0.000
1727436940.576,111.816,-4.395,-4.395,83.984,0.000
1727436940.580,119.141,3.418,-12.207,88.379,0.000
1727436940.584,55.176,-1.953,-16.602,46.387,0.000
1727436940.588,6.348,-6.836,-16.113,21.484,0.000
1727436940.591,36.621,-2.441,-14.160,32.715,0.000
1727436940.595,109.375,-5.371,-8.789,70.312,0.000
1727436940.599,138.184,1.953,6.348,96.191,0.000
1727436940.603,95.215,18.066,10.742,73.730,0.000
1727436940.607,33.203,5.371,2.441,41.504,0.000
1727436940.611,45.410,4.883,4.395,54.688,0.000
1727436940.615,106.934,26.855,-5.371,77.637,0.000
1727436940.619,130.859,30.762,-14.648,66.406,0.000
1727436940.623,84.473,21.484,-13.184,41.992,0.000
1727436940.627,7.324,21.973,-10.254,27.344,0.000
1727436940.630,13.184,34.180,-2.441,38.574,0.000
1727436940.634,81.543,36.621,-5.371,46.875,0.000
1727436940.638,106.445,26.367,-19.531,44.434,0.000
1727436940.642,66.406,20.508,-23.926,46.875,0.000
1727436940.646,5.371,22.461,-19.043,38.574,0.000
1727436940.650,15.137,8.301,-20.996,26.367,0.000
1727436940.654,98.145,-0.977,-15.625,51.270,0.000
1727436940.658,129.883,8.301,-8.301,71.289,0.000
1727436940.662,71.777,0.000,-24.414,56.641,0.000
1727436940.666,7.812,-4.395,-35.645,30.762,0.000
1727436940.670,0.000,15.137,-28.320,17.090,0.000
1727436940.673,62.012,18.066,-25.391,40.527,0.000
1727436940.677,103.027,23.926,-30.273,58.594,0.000
1727436940.681,69.336,57.129,-25.879,56.641,0.000
1727436940.685,15.625,68.359,-9.766,34.180,0.000
1727436940.689,-13.184,57.129,-4.395,6.836,0.000
1727436940.693,31.738,40.039,-18.555,14.648,0.000
1727436940.697,103.027,41.504,-19.531,32.715,0.000
1727436940.701,64.453,33.691,-21.484,29.785,0.000
1727436940.705,-24.902,15.137,-31.738,8.789,0.000
1727436940.709,-54.688,5.371,-37.598,-16.602,0.000
1727436940.712,11.230,13.184,-36.621,-7.324,0.000
1727436940.716,94.238,21.484,-25.879,21.484,0.000
1727436940.720,69.824,-1.465,-27.344,18.066,0.000
1727436940.724,-10.254,3.906,-38.086,-0.977,0.000
1727436940.728,-44.922,36.133,-37.598,-15.625,0.000
1727436940.732,5.371,43.457,-36.133,-4.395,0.000
1727436940.736,77.148,26.367,-38.574,20.020,0.000
1727436940.740,77.637,15.137,-31.738,27.832,0.000
1727436940.744,4.883,18.555,-22.461,20.020,0.000
1727436940.748,-37.109,26.855,-18.555,0.977,0.000
1727436940.752,18.066,22.949,-16.113,23.438,0.000
1727436940.755,80.078,11.719,-21.484,39.551,0.000
1727436940.759,90.332,20.508,-29.297,25.879,0.000
1727436940.763,30.273,26.367,-31.250,10.254,0.000
1727436940.767,-32.715,16.602,-38.574,-20.508,0.000
1727436940.771,1.465,6.836,-42.969,-11.719,0.000
1727436940.775,93.262,13.184,-37.598,12.695,0.000
1727436940.779,125.977,28.320,-30.762,24.414,0.000
1727436940.783,64.941,29.297,-29.297,25.391,0.000
1727436940.787,-14.160,18.555,-33.203,-1.465,0.000
1727436940.791,-2.441,11.230,-32.715,6.348,0.000
1727436940.795,84.961,9.277,-25.879,30.762,0.000
1727436940.798,111.816,1.953,-21.484,44.922,0.000
1727436940.802,54.199,-2.930,-20.996,49.316,0.000
1727436940.806,-0.488,6.348,-15.625,28.320,0.000
1727436940.810,17.090,0.000,-10.254,27.832,0.000
1727436940.814,85.938,-8.301,-10.254,60.547,0.000
1727436940.818,115.723,5.371,-8.789,61.523,0.000
1727436940.822,73.242,15.625,-6.348,49.805,0.000
1727436940.826,8.789,18.066,-10.254,21.973,0.000
1727436940.830,1.953,16.602,-9.766,7.324,0.000
1727436940.834,61.523,11.719,-10.254,31.738,0.000
1727436940.837,83.496,-12.695,-28.320,16.113,0.000
1727436940.841,42.480,-25.391,-43.457,-4.883,0.000
1727436940.845,-24.902,-12.207,-42.480,-13.184,0.000
1727436940.849,-62.012,-15.625,-36.621,-14.160,0.000
1727436940.853,0.000,-13.184,-30.273,3.906,0.000
1727436940.857,68.848,0.000,-31.738,14.160,0.000
1727436940.861,34.180,0.000,-39.062,4.395,0.000
1727436940.865,-41.016,-14.648,-31.738,-16.113,0.000
1727436940.869,-65.430,-18.555,-31.250,-33.691,0.000
1727436940.873,-14.160,-12.695,-44.922,-27.832,0.000
1727436940.877,62.500,3.418,-41.992,0.488,0.000
1727436940.880,66.895,8.301,-36.621,5.859,0.000
1727436940.884,3.906,1.953,-38.086,-12.695,0.000
1727436940.888,-15.137,21.973,-30.273,-4.395,0.000
1727436940.892,30.762,29.297,-29.785,14.648,0.000
1727436940.896,90.332,19.531,-28.809,26.367,0.000
1727436940.900,98.633,21.973,-22.461,37.598,0.000
1727436940.904,32.227,29.785,-25.879,18.066,0.000
1727436940.908,-34.180,40.527,-26.367,-10.254,0.000
1727436940.912,4.395,50.293,-21.484,-0.488,0.000
1727436940.916,87.402,45.898,-20.996,19.531,0.000
1727436940.920,89.355,43.457,-22.949,25.391,0.000
1727436940.923,26.855,51.758,-17.090,22.461,0.000
1727436940.927,-28.809,38.086,-13.184,3.418,0.000
1727436940.931,-0.977,27.832,-19.531,5.371,0.000
1727436940.935,66.406,39.551,-17.578,29.297,0.000
1727436940.939,90.820,31.738,-15.137,45.898,0.000
1727436940.943,41.016,20.020,-13.672,52.246,0.000
1727436940.947,-21.484,20.508,-17.090,14.648,0.000
1727436940.951,-1.953,17.090,-17.090,-0.488,0.000
1727436940.955,57.617,5.859,-21.973,23.438,0.000
1727436940.959,72.754,-8.301,-29.785,28.809,0.000
1727436940.963,20.020,-2.930,-30.273,24.902,0.000
1727436940.966,-44.922,10.254,-33.691,0.000,0.000
1727436940.970,-27.832,19.043,-33.203,-6.836,0.000
1727436940.974,48.828,26.367,-29.297,6.348,0.000
1727436940.978,87.402,22.461,-26.367,15.625,0.000
1727436940.982,49.316,7.324,-23.926,7.812,0.000
1727436940.986,-22.461,1.465,-23.926,-14.648,0.000
1727436940.990,-34.180,6.348,-29.785,-20.508,0.000
1727436940.994,18.555,-5.859,-43.457,-16.113,0.000
1727436940.998,52.734,-18.555,-45.898,-16.602,0.000
1727436941.002,17.090,-26.855,-41.016,-23.926,0.000
1727436941.005,-65.430,-29.785,-47.852,-31.738,0.000
1727436941.009,-94.238,-21.484,-44.922,-38.086,0.000
1727436941.013,-16.602,-11.719,-37.109,-23.438,0.000
1727436941.017,41.504,-9.766,-39.062,-9.766,0.000
1727436941.021,16.602,-12.695,-40.039,-21.484,0.000
1727436941.025,-51.758,-19.043,-40.527,-40.527,0.000
1727436941.029,-70.312,-14.160,-35.645,-45.410,0.000
1727436941.033,-17.090,-9.277,-35.645,-20.996,0.000
1727436941.037,33.691,-14.648,-35.645,-2.930,0.000
1727436941.041,32.227,3.418,-35.645,-10.254,0.000
1727436941.045,-27.832,48.340,-34.180,-33.203,0.000
1727436941.048,-70.312,74.219,-34.180,-49.316,0.000
1727436941.052,-13.672,72.754,-39.062,-13.184,0.000
1727436941.056,66.406,79.102,-29.297,21.484,0.000
1727436941.060,60.059,104.492,-22.949,7.812,0.000
1727436941.064,-11.230,149.414,-23.926,-13.184,0.000
1727436941.068,-56.152,82.031,-29.297,-19.043,0.000
1727436941.072,-6.836,276.855,-33.203,-8.789,0.000
1727436941.076,58.105,842.285,-31.738,7.324,0.000
1727436941.080,57.129,988.281,-28.320,16.113,0.000
1727436941.084,13.184,947.266,-17.090,-1.953,0.000
1727436941.087,-29.785,969.238,-17.578,-31.738,0.000
1727436941.091,-7.324,965.332,-28.320,-26.855,0.000
1727436941.095,48.828,967.285,-33.691,-6.348,0.000
1727436941.099,58.105,960.449,-34.668,-3.906,0.000
1727436941.103,5.371,895.996,-31.250,-12.207,0.000
1727436941.107,-57.129,825.195,-30.762,-27.344,0.000
1727436941.111,-46.387,779.297,-43.945,-24.414,0.000
1727436941.115,29.297,734.375,-45.410,-14.160,0.000
1727436941.119,50.293,675.293,-49.805,-27.344,0.000
1727436941.123,-27.832,622.070,-66.895,-48.340,0.000
1727436941.126,-103.027,595.215,-56.641,-69.824,0.000
1727436941.130,-92.285,557.617,-51.758,-65.918,0.000
1727436941.134,-11.230,515.625,-61.523,-34.668,0.000
1727436941.138,29.297,473.145,-63.965,-33.691,0.000
1727436941.142,-22.461,439.941,-58.105,-47.852,0.000
1727436941.146,-91.797,420.410,-51.758,-53.711,0.000
1727436941.150,-94.238,395.508,-56.152,-59.082,0.000
1727436941.154,-13.184,360.352,-57.129,-43.457,0.000
1727436941.158,35.156,334.473,-53.223,-20.996,0.000
1727436941.162,-26.855,311.523,-56.152,-34.668,0.000
1727436941.166,-101.562,282.227,-51.758,-70.801,0.000
1727436941.169,-109.863,258.789,-49.316,-58.594,0.000
1727436941.173,-42.480,235.352,-51.270,-33.691,0.000
1727436941.177,14.648,224.609,-44.434,-35.645,0.000
1727436941.181,2.441,222.168,-41.992,-37.109,0.000
1727436941.185,-69.824,206.055,-44.922,-61.035,0.000
1727436941.189,-111.816,177.246,-43.945,-74.707,0.000
1727436941.193,-46.387,166.504,-44.922,-50.293,0.000
1727436941.197,20.020,157.227,-50.781,-34.668,0.000
1727436941.201,0.000,141.113,-45.410,-34.668,0.000
1727436941.205,-70.801,134.766,-41.504,-44.434,0.000
1727436941.209,-94.727,129.395,-53.711,-56.641,0.000
1727436941.212,-30.762,125.977,-55.664,-43.457,0.000
1727436941.216,25.391,120.605,-53.223,-34.668,0.000
1727436941.220,10.742,108.887,-52.246,-36.621,0.000
1727436941.224,-51.758,99.121,-52.246,-40.039,0.000
1727436941.228,-93.750,84.961,-47.363,-63.965,0.000
1727436941.232,-46.387,65.918,-43.457,-59.082,0.000
1727436941.236,19.531,64.453,-42.969,-34.668,0.000
1727436941.240,6.348,57.617,-50.293,-39.062,0.000
1727436941.244,-72.754,36.133,-58.105,-55.664,0.000
1727436941.248,-118.164,35.645,-48.828,-68.848,0.000
1727436941.252,-80.566,40.527,-50.293,-65.430,0.000
1727436941.255,-11.719,35.156,-46.387,-35.645,0.000
1727436941.259,9.766,31.738,-36.621,-21.484,0.000
1727436941.263,-41.992,32.715,-43.945,-52.734,0.000
1727436941.267,-107.910,25.879,-51.758,-80.078,0.000
1727436941.271,-90.332,13.672,-46.387,-58.105,0.000
1727436941.275,-13.672,6.836,-48.828,-47.363,0.000
1727436941.279,13.184,8.301,-50.781,-49.316,0.000
1727436941.283,-41.016,5.859,-51.270,-51.270,0.000
1727436941.287,-106.445,-0.977,-62.988,-83.496,0.000
1727436941.291,-89.844,-17.578,-66.406,-87.891,0.000
1727436941.295,-21.973,-21.484,-56.641,-60.059,0.000
1727436941.298,2.930,-7.812,-54.688,-47.852,0.000
1727436941.302,-35.156,-11.719,-64.941,-55.664,0.000
1727436941.306,-104.004,-19.531,-65.430,-81.543,0.000
1727436941.310,-102.051,-16.113,-59.570,-92.285,0.000
1727436941.314,-24.902,-16.602,-61.035,-69.824,0.000
1727436941.318,5.371,-13.184,-57.129,-42.480,0.000
1727436941.322,-37.598,-14.160,-53.711,-44.922,0.000
1727436941.326,-101.074,-24.902,-55.664,-82.031,0.000
1727436941.330,-96.191,-34.668,-43.945,-90.332,0.000
1727436941.334,-39.062,-54.199,-43.457,-65.918,0.000
1727436941.337,-1.465,-60.547,-47.852,-53.711,0.000
1727436941.341,-16.113,-38.086,-39.062,-39.551,0.000
1727436941.345,-75.195,-19.531,-33.203,-42.480,0.000
1727436941.349,-97.656,-12.207,-30.273,-62.012,0.000
1727436941.353,-25.391,-15.137,-33.203,-53.711,0.000
1727436941.357,27.832,-26.855,-38.086,-36.133,0.000
1727436941.361,-4.395,-36.621,-35.156,-27.832,0.000
1727436941.365,-70.312,-34.180,-29.297,-50.293,0.000
1727436941.369,-89.844,-27.832,-29.785,-70.312,0.000
1727436941.373,-28.809,-29.297,-33.691,-51.270,0.000
1727436941.377,23.926,-28.809,-39.551,-30.762,0.000
1727436941.380,15.137,-31.738,-37.598,-24.414,0.000
1727436941.384,-58.105,-39.062,-31.250,-44.434,0.000
1727436941.388,-92.285,-36.621,-31.250,-70.801,0.000
1727436941.392,-22.949,-26.367,-32.715,-59.570,0.000
1727436941.396,12.207,-29.297,-22.949,-49.805,0.000
1727436941.400,-16.113,-32.715,-15.625,-40.039,0.000
1727436941.404,-79.590,-36.621,-25.879,-55.664,0.000
1727436941.408,-129.883,-42.480,-35.645,-92.285,0.000
1727436941.412,-89.844,-50.781,-39.062,-80.078,0.000
1727436941.416,-19.531,-60.059,-52.734,-68.359,0.000
1727436941.419,-9.277,-58.105,-52.734,-57.129,0.000
1727436941.423,-62.500,-48.340,-36.133,-62.988,0.000
1727436941.427,-110.840,-50.293,-35.156,-91.309,0.000
1727436941.431,-93.262,-72.266,-42.480,-85.449,0.000
1727436941.435,-38.574,-78.125,-48.828,-67.383,0.000
1727436941.439,-16.602,-57.129,-44.922,-62.012,0.000
1727436941.443,-70.312,-49.316,-43.457,-71.289,0.000
1727436941.447,-132.324,-48.828,-45.898,-98.145,0.000
1727436941.451,-95.215,-46.875,-41.992,-101.074,0.000
1727436941.455,-22.461,-55.664,-39.551,-72.266,0.000
1727436941.459,-9.277,-65.430,-41.992,-70.801,0.000
1727436941.462,-53.223,-64.941,-38.086,-90.820,0.000
1727436941.466,-114.746,-62.988,-35.645,-105.469,0.000
1727436941.470,-104.004,-62.012,-34.668,-89.355,0.000
1727436941.474,-28.809,-63.965,-32.715,-64.941,0.000
1727436941.478,2.930,-70.801,-38.574,-62.012,0.000
1727436941.482,-39.062,-60.547,-41.504,-66.895,0.000
1727436941.486,-106.934,-38.086,-41.992,-86.426,0.000
1727436941.490,-108.887,-29.785,-40.527,-81.055,0.000
1727436941.494,-33.691,-46.387,-36.621,-58.105,0.000
1727436941.498,14.160,-58.105,-32.227,-50.293,0.000
1727436941.501,-26.855,-61.523,-27.344,-52.246,0.000
1727436941.505,-96.191,-54.688,-25.879,-64.941,0.000
1727436941.509,-100.098,-37.598,-23.438,-62.988,0.000
1727436941.513,-44.922,-34.180,-23.926,-58.594,0.000
1727436941.517,-5.371,-41.992,-30.273,-52.734,0.000
1727436941.521,-37.109,-49.316,-42.480,-48.828,0.000
1727436941.525,-98.633,-47.852,-47.852,-83.984,0.000
1727436941.529,-115.234,-41.016,-39.062,-91.797,0.000
1727436941.533,-44.922,-44.434,-38.086,-62.012,0.000
1727436941.537,27.832,-52.246,-41.016,-42.480,0.000
1727436941.541,-7.812,-64.453,-39.551,-47.852,0.000
1727436941.544,-98.145,-60.547,-35.156,-72.266,0.000
1727436941.548,-125.000,-44.922,-38.574,-83.008,0.000
1727436941.552,-71.289,-33.691,-43.457,-66.406,0.000
1727436941.556,-10.254,-38.086,-42.969,-56.152,0.000
1727436941.560,-19.043,-57.129,-45.410,-66.895,0.000
1727436941.564,-87.891,-53.711,-41.992,-78.613,0.000
1727436941.568,-119.629,-56.152,-39.062,-103.027,0.000
1727436941.572,-62.988,-68.848,-45.898,-96.191,0.000
