timestamps,TP9,AF7,AF8,TP10,Right AUX
1727361615.556,-100.586,-40.527,-35.156,-34.180,0.000
1727361615.560,-1.465,-28.809,-34.668,14.648,0.000
1727361615.564,55.664,-32.715,-32.227,24.414,0.000
1727361615.568,9.766,-34.668,-38.574,-5.859,0.000
1727361615.572,-65.918,-26.367,-33.203,-33.691,0.000
1727361615.576,-94.727,-24.414,-42.480,-47.363,0.000
1727361615.580,-8.789,-28.809,-49.805,-11.719,0.000
1727361615.584,63.965,-39.062,-41.504,13.184,0.000
1727361615.587,14.648,-35.645,-32.715,0.977,0.000
1727361615.591,-63.965,-23.926,-29.297,-23.438,0.000
1727361615.595,-98.145,-30.762,-39.551,-55.176,0.000
1727361615.599,-36.621,-42.480,-43.945,-36.621,0.000
1727361615.603,55.664,-39.062,-46.875,4.395,0.000
1727361615.607,39.551,-31.738,-44.922,0.000,0.000
1727361615.611,-60.059,-38.086,-41.016,-43.457,0.000
1727361615.615,-105.957,-39.062,-37.598,-55.176,0.000
1727361615.619,-36.133,-30.273,-31.250,-18.555,0.000
1727361615.623,49.316,-20.996,-36.621,-5.371,0.000
1727361615.627,25.391,-27.832,-40.527,-17.578,0.000
1727361615.630,-63.965,-29.297,-35.156,-31.250,0.000
1727361615.634,-109.375,-21.484,-39.551,-46.875,0.000
1727361615.638,-64.453,-28.320,-42.969,-31.250,0.000
1727361615.642,20.020,-32.715,-35.156,-5.371,0.000
1727361615.646,27.832,-27.832,-27.344,-3.906,0.000
1727361615.650,-44.922,-20.996,-24.902,-27.832,0.000
1727361615.654,-100.098,-25.879,-32.715,-62.012,0.000
1727361615.658,-55.664,-43.457,-37.598,-32.227,0.000
1727361615.662,29.297,-58.105,-47.852,2.441,0.000
1727361615.666,35.645,-46.387,-50.781,-0.977,0.000
1727361615.669,-28.320,-24.414,-33.691,-20.996,0.000
1727361615.673,-81.055,-22.461,-21.973,-54.688,0.000
1727361615.677,-70.801,-20.508,-20.508,-44.434,0.000
1727361615.681,2.441,-22.949,-26.367,-15.137,0.000
1727361615.685,23.926,-26.855,-31.250,-6.348,0.000
1727361615.689,-39.551,-28.809,-31.738,-12.207,0.000
1727361615.693,-86.426,-26.855,-30.762,-30.762,0.000
1727361615.697,-61.035,-31.738,-28.809,-27.344,0.000
1727361615.701,16.602,-40.527,-35.156,-0.977,0.000
1727361615.705,57.129,-38.086,-39.551,7.812,0.000
1727361615.709,-6.836,-41.992,-42.969,-16.113,0.000
1727361615.712,-94.238,-38.574,-38.574,-48.340,0.000
1727361615.716,-83.008,-24.902,-26.855,-26.855,0.000
1727361615.720,-3.906,-30.762,-33.203,3.906,0.000
1727361615.724,37.109,-45.898,-37.109,0.000,0.000
1727361615.728,-10.742,-43.945,-29.785,-10.742,0.000
1727361615.732,-87.402,-33.691,-25.879,-38.574,0.000
1727361615.736,-84.961,-42.480,-29.785,-55.176,0.000
1727361615.740,-16.113,-43.457,-36.133,-34.668,0.000
1727361615.744,32.227,-28.809,-33.691,-5.371,0.000
1727361615.748,-2.930,-24.902,-36.621,2.441,0.000
1727361615.752,-89.844,-32.227,-48.828,-44.434,0.000
1727361615.755,-111.328,-39.551,-50.293,-68.848,0.000
1727361615.759,-40.527,-42.480,-51.758,-32.715,0.000
1727361615.763,29.297,-34.668,-58.105,-20.020,0.000
1727361615.767,-5.859,-38.086,-57.129,-26.855,0.000
1727361615.771,-88.379,-53.223,-51.758,-55.664,0.000
1727361615.775,-113.281,-53.711,-41.504,-72.266,0.000
1727361615.779,-42.480,-50.293,-41.992,-37.109,0.000
1727361615.783,31.250,-29.297,-45.898,-8.301,0.000
1727361615.787,16.113,-13.184,-45.410,-8.789,0.000
1727361615.791,-61.035,-25.391,-46.387,-39.551,0.000
1727361615.795,-101.074,-34.668,-42.969,-64.941,0.000
1727361615.798,-34.180,-32.227,-36.621,-43.945,0.000
1727361615.802,45.410,-33.691,-29.297,-7.324,0.000
1727361615.806,35.156,-32.227,-22.949,10.254,0.000
1727361615.810,-42.480,-26.367,-25.879,-10.742,0.000
1727361615.814,-78.125,-23.926,-26.367,-46.875,0.000
1727361615.818,-26.855,-29.785,-13.184,-27.832,0.000
1727361615.822,67.871,-32.715,-8.301,17.090,0.000
1727361615.826,46.875,-42.969,-26.855,5.371,0.000
1727361615.830,-59.570,-54.688,-42.969,-40.039,0.000
1727361615.833,-101.562,-30.762,-32.715,-50.781,0.000
1727361615.838,-63.965,-21.484,-23.438,-32.227,0.000
1727361615.841,4.883,-47.852,-26.855,-9.766,0.000
1727361615.845,15.137,-53.711,-23.438,9.766,0.000
1727361615.849,-35.156,-28.320,-12.207,-15.137,0.000
1727361615.853,-114.258,-6.836,-8.301,-65.918,0.000
1727361615.857,-101.074,-7.324,-11.719,-55.176,0.000
1727361615.861,-2.441,-17.090,-22.949,-28.809,0.000
1727361615.865,11.719,-36.133,-43.457,-37.109,0.000
1727361615.869,-69.336,-27.832,-44.922,-49.316,0.000
1727361615.873,-145.508,-22.949,-48.828,-90.332,0.000
1727361615.876,-133.301,-23.438,-57.129,-108.887,0.000
1727361615.880,-38.086,-3.418,-55.176,-62.988,0.000
1727361615.884,13.184,-0.488,-57.129,-55.664,0.000
1727361615.888,-40.039,-8.301,-61.523,-92.285,0.000
1727361615.892,-125.977,8.789,-70.312,-133.789,0.000
1727361615.896,-128.906,20.020,-72.266,-134.277,0.000
1727361615.900,-43.457,13.672,-66.406,-82.031,0.000
1727361615.904,-0.977,17.578,-58.594,-50.781,0.000
1727361615.908,-43.457,21.973,-56.641,-57.129,0.000
1727361615.912,-106.934,15.625,-67.383,-82.031,0.000
1727361615.916,-112.793,11.230,-75.195,-94.727,0.000
1727361615.919,-22.949,15.625,-68.848,-60.059,0.000
1727361615.923,44.434,13.184,-62.988,-23.438,0.000
1727361615.927,-2.930,0.000,-53.223,-22.461,0.000
1727361615.931,-99.609,-5.371,-52.246,-66.406,0.000
1727361615.935,-119.141,0.977,-57.129,-90.820,0.000
1727361615.939,-50.293,0.977,-60.059,-57.617,0.000
1727361615.943,26.367,1.953,-58.105,-25.391,0.000
1727361615.947,15.137,-3.418,-54.688,-25.391,0.000
1727361615.951,-63.477,-4.395,-51.270,-39.062,0.000
1727361615.955,-90.332,2.930,-36.621,-45.410,0.000
1727361615.959,-15.625,8.301,-33.203,-32.227,0.000
1727361615.962,72.754,8.301,-39.551,-14.160,0.000
1727361615.966,55.176,11.230,-32.715,-18.066,0.000
1727361615.970,-28.809,15.137,-21.973,-41.016,0.000
1727361615.974,-69.824,6.836,-24.902,-55.176,0.000
1727361615.978,-9.277,2.930,-34.668,-15.137,0.000
1727361615.982,71.289,1.953,-34.180,18.066,0.000
1727361615.986,57.129,-15.137,-38.574,-11.719,0.000
1727361615.990,-39.062,-31.250,-49.805,-60.547,0.000
1727361615.994,-85.938,-19.531,-36.621,-78.125,0.000
1727361615.998,-32.715,-10.742,-20.020,-48.828,0.000
1727361616.002,39.062,-27.344,-27.344,-25.879,0.000
1727361616.005,38.086,-42.969,-32.715,-21.973,0.000
1727361616.009,-37.109,-27.344,-26.367,-35.156,0.000
1727361616.013,-96.191,-9.766,-27.344,-53.711,0.000
1727361616.017,-63.965,-22.949,-42.969,-35.156,0.000
1727361616.021,25.879,-33.691,-49.316,-0.488,0.000
1727361616.025,49.805,-20.996,-35.645,10.742,0.000
1727361616.029,-23.926,-18.066,-22.949,-17.090,0.000
1727361616.033,-90.332,-12.207,-8.789,-66.895,0.000
1727361616.037,-58.105,-20.020,-19.043,-70.312,0.000
1727361616.041,20.020,-35.645,-36.133,-31.738,0.000
1727361616.044,37.109,-28.320,-41.016,-20.996,0.000
1727361616.048,-24.414,-25.391,-41.504,-20.508,0.000
1727361616.052,-86.426,-18.066,-39.062,-34.180,0.000
1727361616.056,-79.102,-33.691,-36.133,-42.969,0.000
1727361616.060,5.859,-41.504,-26.855,-19.531,0.000
1727361616.064,41.016,-31.250,-27.832,-15.137,0.000
1727361616.068,-23.926,-31.738,-33.691,-22.461,0.000
1727361616.072,-78.613,-27.832,-33.691,-25.391,0.000
1727361616.076,-64.453,-26.855,-26.367,-25.879,0.000
1727361616.080,6.348,-25.879,-12.695,0.000,0.000
1727361616.084,41.504,-28.320,-11.719,14.648,0.000
1727361616.087,-6.348,-41.504,-15.137,8.789,0.000
1727361616.091,-70.801,-38.574,-10.742,-11.230,0.000
1727361616.095,-87.402,-29.785,-10.742,-35.156,0.000
1727361616.099,-16.113,-35.156,-23.438,-26.367,0.000
1727361616.103,45.410,-41.992,-31.738,-17.578,0.000
1727361616.107,14.160,-32.227,-24.414,-28.320,0.000
1727361616.111,-51.758,-14.648,-23.926,-48.828,0.000
1727361616.115,-79.590,-23.438,-27.832,-58.105,0.000
1727361616.119,0.000,-33.203,-43.945,-31.738,0.000
1727361616.123,0.000,-36.133,-49.316,-11.230,0.000
1727361616.127,0.000,-35.645,-27.832,-8.301,0.000
1727361616.130,0.000,-24.902,-17.090,-34.668,0.000
1727361616.134,0.000,-24.902,-21.484,-68.359,0.000
1727361616.138,0.000,-38.574,-29.297,-50.781,0.000
1727361616.142,0.000,-44.922,-33.203,-17.578,0.000
1727361616.146,0.000,-61.035,-35.645,-10.254,0.000
1727361616.150,0.000,-65.918,-37.598,-35.645,0.000
1727361616.154,0.000,-50.781,-42.969,-47.852,0.000
1727361616.158,0.000,-38.086,-43.945,-21.484,0.000
1727361616.162,0.000,-32.715,-32.715,-6.836,0.000
1727361616.166,34.180,-35.156,-25.391,-8.301,0.000
1727361616.170,-47.363,-32.715,-28.320,-36.621,0.000
1727361616.173,-106.934,-30.273,-41.992,-75.195,0.000
1727361616.177,-72.266,-33.691,-46.875,-55.664,0.000
1727361616.181,28.320,-39.062,-32.715,-18.066,0.000
1727361616.185,44.434,-50.781,-27.832,-15.137,0.000
1727361616.189,-38.086,-49.316,-33.691,-29.297,0.000
1727361616.193,-102.051,-38.574,-25.391,-44.922,0.000
1727361616.197,-65.430,-36.621,-16.602,-24.414,0.000
1727361616.201,32.715,-28.809,-15.625,0.488,0.000
1727361616.205,54.688,-23.926,-23.926,-6.348,0.000
1727361616.208,-2.441,-18.066,-21.973,-15.137,0.000
1727361616.213,-55.664,-15.137,-19.531,-37.598,0.000
1727361616.216,-33.203,-22.949,-23.438,-23.926,0.000
1727361616.220,41.016,-26.855,-17.090,17.090,0.000
1727361616.224,55.664,-32.715,-13.672,9.277,0.000
1727361616.228,-9.277,-36.133,-13.184,-12.695,0.000
1727361616.232,-79.590,-29.297,-9.766,-28.809,0.000
1727361616.236,-77.148,-28.320,-11.230,-25.391,0.000
1727361616.240,3.906,-42.969,-19.043,2.441,0.000
1727361616.244,43.457,-46.387,-22.461,18.066,0.000
1727361616.248,-5.859,-50.293,-19.043,8.301,0.000
1727361616.251,-82.520,-69.824,-22.949,-25.391,0.000
1727361616.255,-96.680,-49.805,-29.785,-38.086,0.000
1727361616.259,-17.578,-16.602,-30.273,-19.531,0.000
1727361616.263,34.668,-22.461,-35.156,-6.348,0.000
1727361616.267,-3.418,-38.086,-43.457,-13.184,0.000
1727361616.271,-68.359,-19.531,-35.645,-33.691,0.000
1727361616.275,-85.449,-28.320,-36.621,-50.781,0.000
1727361616.279,-21.484,-63.965,-54.199,-30.762,0.000
1727361616.283,42.480,-53.223,-52.734,-12.695,0.000
1727361616.287,8.301,-41.992,-41.504,-27.832,0.000
1727361616.291,-71.289,-45.898,-39.551,-55.664,0.000
1727361616.294,-104.980,-52.246,-42.969,-76.172,0.000
1727361616.298,-28.320,-45.410,-46.387,-42.969,0.000
1727361616.302,61.035,-28.320,-38.086,-6.348,0.000
1727361616.306,35.156,-40.527,-37.598,-7.812,0.000
1727361616.310,-51.758,-41.016,-43.457,-28.320,0.000
1727361616.314,-92.773,-41.016,-40.039,-39.062,0.000
1727361616.318,-48.340,-57.617,-41.992,-20.508,0.000
1727361616.322,21.484,-47.852,-51.270,-7.324,0.000
1727361616.326,10.254,-49.805,-56.152,-17.578,0.000
1727361616.330,-61.523,-44.922,-54.199,-37.598,0.000
1727361616.334,-100.586,-25.879,-44.922,-38.574,0.000
1727361616.337,-48.340,-25.879,-45.410,-10.742,0.000
1727361616.341,43.457,-41.504,-60.059,12.695,0.000
1727361616.345,44.434,-54.688,-57.617,20.020,0.000
1727361616.349,-31.738,-52.246,-43.457,1.465,0.000
1727361616.353,-82.520,-35.156,-35.645,-41.992,0.000
1727361616.357,-52.246,-25.879,-34.180,-38.574,0.000
1727361616.361,31.738,-29.785,-36.133,0.977,0.000
1727361616.365,63.477,-33.203,-42.969,14.648,0.000
1727361616.369,-24.414,-35.645,-52.246,-14.160,0.000
1727361616.373,-109.375,-37.598,-50.293,-33.691,0.000
1727361616.377,-83.008,-41.016,-40.527,-21.484,0.000
1727361616.380,3.906,-46.387,-47.363,-12.207,0.000
1727361616.384,46.387,-50.293,-49.316,5.859,0.000
1727361616.388,-7.324,-30.762,-38.086,1.953,0.000
1727361616.392,-74.707,-8.301,-25.879,-25.391,0.000
1727361616.396,-63.477,-2.441,-24.902,-21.484,0.000
1727361616.400,26.855,-7.324,-44.434,8.301,0.000
1727361616.404,65.918,-34.180,-58.105,7.324,0.000
1727361616.408,5.371,-55.664,-58.105,-6.348,0.000
1727361616.412,-60.547,-42.969,-49.805,-20.996,0.000
1727361616.416,-68.848,-29.297,-51.758,-38.086,0.000
1727361616.419,-5.859,-32.715,-72.266,-22.949,0.000
1727361616.423,45.898,-30.273,-74.707,6.836,0.000
1727361616.427,8.301,-18.066,-65.430,13.184,0.000
1727361616.431,-65.918,-18.066,-53.223,-13.184,0.000
1727361616.435,-82.520,-38.086,-51.758,-45.410,0.000
1727361616.439,-15.625,-53.711,-61.523,-29.785,0.000
1727361616.443,41.992,-52.734,-63.965,-7.324,0.000
1727361616.447,15.137,-55.176,-64.941,-13.672,0.000
1727361616.451,-74.707,-48.340,-70.801,-31.738,0.000
1727361616.455,-119.141,-35.156,-72.754,-51.270,0.000
1727361616.459,-37.598,-35.156,-71.777,-33.203,0.000
1727361616.462,32.227,-34.180,-66.895,1.953,0.000
1727361616.466,-11.230,-40.527,-64.941,0.000,0.000
1727361616.470,-77.637,-45.898,-68.848,-31.250,0.000
1727361616.474,-103.027,-45.898,-64.453,-47.363,0.000
1727361616.478,-42.969,-48.340,-65.918,-9.766,0.000
1727361616.482,34.668,-54.688,-71.289,7.812,0.000
1727361616.486,24.902,-54.199,-66.406,-5.371,0.000
1727361616.490,-42.969,-51.758,-69.824,-26.367,0.000
1727361616.494,-86.426,-52.246,-82.031,-56.641,0.000
1727361616.498,-30.273,-39.551,-77.637,-32.715,0.000
1727361616.501,39.551,-49.805,-72.754,-11.719,0.000
1727361616.505,12.207,-82.031,-88.867,-15.137,0.000
1727361616.509,-66.895,-62.012,-88.379,-24.414,0.000
1727361616.513,-103.027,-33.691,-70.312,-61.035,0.000
1727361616.517,-61.523,-53.223,-64.453,-53.711,0.000
1727361616.521,17.578,-61.035,-66.406,-18.555,0.000
1727361616.525,31.738,-49.316,-62.012,-2.930,0.000
1727361616.529,-40.039,-35.645,-64.941,-15.137,0.000
1727361616.533,-106.934,-31.738,-72.266,-39.062,0.000
1727361616.537,-78.613,-38.086,-73.730,-32.715,0.000
1727361616.541,20.996,-42.969,-75.684,1.465,0.000
1727361616.544,58.105,-38.086,-74.707,20.508,0.000
1727361616.548,-18.066,-43.457,-77.637,-0.977,0.000
1727361616.552,-98.633,-62.988,-77.637,-32.227,0.000
1727361616.556,-74.707,-69.336,-73.242,-33.203,0.000
1727361616.560,29.785,-54.688,-77.637,-15.625,0.000
1727361616.564,59.570,-41.016,-84.961,-6.348,0.000
1727361616.568,-25.879,-33.691,-83.008,-22.461,0.000
1727361616.572,-97.656,-41.992,-85.449,-53.711,0.000
1727361616.576,-65.918,-45.898,-86.426,-36.133,0.000
1727361616.580,15.137,-45.410,-72.266,-1.465,0.000
1727361616.583,34.180,-54.688,-70.312,-11.230,0.000
1727361616.587,-19.531,-53.711,-80.566,-28.320,0.000
1727361616.591,-94.727,-48.340,-81.543,-49.316,0.000
1727361616.595,-97.168,-43.945,-82.031,-51.758,0.000
1727361616.599,0.977,-41.504,-88.867,-18.555,0.000
1727361616.603,58.105,-47.363,-90.332,4.395,0.000
1727361616.607,2.930,-53.223,-88.379,-17.090,0.000
1727361616.611,-79.590,-57.129,-86.426,-54.199,0.000
1727361616.615,-100.586,-61.035,-84.473,-62.500,0.000
1727361616.619,-6.348,-56.641,-82.520,-24.414,0.000
1727361616.623,62.988,-52.246,-72.754,-5.371,0.000
1727361616.626,3.418,-58.105,-66.895,-16.113,0.000
1727361616.630,-85.449,-62.500,-65.918,-43.457,0.000
1727361616.634,-105.469,-57.617,-70.801,-52.734,0.000
1727361616.638,-42.969,-53.711,-70.312,-26.367,0.000
1727361616.642,25.879,-57.129,-73.730,-13.672,0.000
1727361616.646,-0.977,-50.781,-84.473,-10.254,0.000
1727361616.650,-62.500,-44.922,-68.359,-27.344,0.000
1727361616.654,-85.449,-62.500,-66.895,-50.781,0.000
1727361616.658,-37.109,-63.477,-70.801,-32.715,0.000
1727361616.662,31.250,-61.523,-70.312,-13.184,0.000
1727361616.666,0.977,-63.965,-72.754,-16.113,0.000
1727361616.669,-79.590,-63.477,-69.824,-34.180,0.000
1727361616.673,-111.816,-51.758,-66.406,-56.641,0.000
1727361616.677,-50.781,-50.293,-59.570,-20.020,0.000
1727361616.681,39.551,-67.871,-60.547,12.207,0.000
1727361616.685,33.691,-50.293,-61.035,0.000,0.000
1727361616.689,-50.293,-41.504,-58.105,-20.996,0.000
1727361616.693,-99.121,-62.500,-60.059,-41.016,0.000
1727361616.697,-67.871,-62.500,-62.988,-35.156,0.000
1727361616.701,7.324,-58.594,-67.871,-22.461,0.000
1727361616.705,25.879,-62.500,-74.219,-17.578,0.000
1727361616.708,-32.715,-62.500,-67.871,-30.762,0.000
1727361616.712,-90.332,-65.430,-56.641,-50.293,0.000
1727361616.716,-61.523,-65.918,-64.453,-53.711,0.000
1727361616.720,20.996,-49.316,-60.547,-30.273,0.000
1727361616.724,44.922,-48.828,-46.387,1.465,0.000
1727361616.728,-19.043,-63.965,-58.105,-1.953,0.000
1727361616.732,-104.492,-56.641,-25.879,-33.203,0.000
1727361616.736,-98.633,-53.223,26.367,-39.551,0.000
1727361616.740,-2.441,-53.223,17.578,-20.508,0.000
1727361616.744,39.062,-49.805,14.160,-0.488,0.000
1727361616.748,-20.508,-61.523,23.438,-13.672,0.000
1727361616.751,-84.473,-66.406,13.672,-53.711,0.000
1727361616.755,-80.566,-62.988,7.812,-37.109,0.000
1727361616.759,-16.113,-75.684,12.695,-1.465,0.000
1727361616.763,36.133,-71.289,6.836,1.465,0.000
1727361616.767,9.766,-56.152,-0.488,-11.230,0.000
1727361616.771,-65.430,-57.617,-1.465,-39.551,0.000
1727361616.775,-96.191,-55.176,-6.348,-40.039,0.000
1727361616.779,-1.953,-46.875,-11.719,-2.930,0.000
1727361616.783,85.938,-47.363,-22.461,13.672,0.000
1727361616.787,34.668,-44.922,-28.320,0.977,0.000
1727361616.791,-65.918,-37.109,-13.672,-26.855,0.000
1727361616.794,-101.074,-33.691,-0.977,-27.832,0.000
1727361616.798,-23.926,-34.180,0.488,9.766,0.000
1727361616.802,46.875,-45.898,-12.695,3.906,0.000
1727361616.806,5.371,-43.945,-24.902,-16.602,0.000
1727361616.810,-72.754,-32.715,-20.996,-36.133,0.000
1727361616.814,-86.914,-27.344,-25.879,-45.898,0.000
1727361616.818,-16.602,-31.250,-33.691,-10.742,0.000
1727361616.822,55.664,-37.109,-32.227,3.906,0.000
1727361616.826,30.762,-33.203,-30.273,-0.977,0.000
1727361616.830,-60.059,-37.109,-33.691,-25.391,0.000
1727361616.833,-110.352,-49.805,-32.715,-52.734,0.000
1727361616.837,-58.594,-45.898,-33.691,-40.039,0.000
1727361616.841,42.969,-45.410,-40.039,-20.020,0.000
1727361616.845,43.457,-54.199,-36.621,-6.836,0.000
1727361616.849,-49.316,-44.434,-34.180,-20.020,0.000
1727361616.853,-113.281,-26.367,-33.691,-50.293,0.000
1727361616.857,-59.570,-29.785,-39.062,-37.598,0.000
1727361616.861,58.594,-36.621,-50.781,-4.883,0.000
1727361616.865,57.617,-33.691,-52.734,-6.348,0.000
1727361616.869,-47.363,-40.527,-34.180,-40.527,0.000
1727361616.872,-113.281,-54.199,-24.414,-65.430,0.000
1727361616.876,-68.359,-53.223,-34.180,-48.340,0.000
1727361616.880,33.203,-45.410,-38.086,-3.418,0.000
1727361616.884,49.805,-55.176,-38.574,15.137,0.000
1727361616.888,-13.672,-50.781,-43.457,-16.602,0.000
1727361616.892,-80.566,-35.645,-57.129,-58.105,0.000
1727361616.896,-70.801,-31.738,-48.340,-51.270,0.000
1727361616.900,28.320,-33.691,-29.297,-0.488,0.000
1727361616.904,58.594,-37.109,-27.832,22.949,0.000
1727361616.908,-8.301,-33.691,-23.438,12.695,0.000
1727361616.911,-73.730,-46.387,-24.414,-25.391,0.000
1727361616.915,-67.871,-62.988,-29.297,-35.645,0.000
1727361616.919,28.809,-34.668,-27.832,2.441,0.000
1727361616.923,68.359,-18.066,-22.461,31.250,0.000
1727361616.927,7.812,-22.461,-21.973,26.367,0.000
1727361616.931,-67.383,-12.695,-25.391,-5.859,0.000
1727361616.935,-72.266,-9.766,-20.996,-28.809,0.000
1727361616.939,13.672,-20.020,-22.949,-11.230,0.000
1727361616.943,56.641,-38.086,-23.926,8.789,0.000
1727361616.947,-0.977,-41.992,-23.438,-2.930,0.000
1727361616.951,-67.871,-33.203,-26.367,-32.227,0.000
1727361616.954,-69.336,-26.855,-18.555,-39.551,0.000
1727361616.958,2.441,-33.691,-15.625,-11.719,0.000
1727361616.962,64.941,-34.180,-20.508,2.441,0.000
1727361616.966,33.203,-37.109,-30.762,3.906,0.000
1727361616.970,-46.875,-43.457,-33.203,-12.695,0.000
1727361616.974,-78.613,-27.832,-20.996,-27.832,0.000
1727361616.978,-18.555,-27.344,-36.133,-3.418,0.000
1727361616.982,45.898,-33.203,-52.246,0.488,0.000
1727361616.986,26.855,-30.762,-52.246,-18.555,0.000
1727361616.990,-52.246,-36.621,-52.246,-42.969,0.000
1727361616.994,-101.562,-44.922,-51.270,-58.105,0.000
1727361616.997,-51.758,-44.922,-51.758,-30.762,0.000
1727361617.001,19.531,-49.805,-47.852,-17.090,0.000
1727361617.005,5.859,-55.176,-52.734,-12.207,0.000
1727361617.009,-68.359,-46.875,-52.246,-21.973,0.000
1727361617.013,-103.516,-53.711,-39.062,-47.852,0.000
1727361617.017,-49.316,-73.730,-51.270,-36.133,0.000
1727361617.021,47.363,-46.875,-52.246,-3.418,0.000
1727361617.025,29.297,-16.113,-40.527,-6.836,0.000
1727361617.029,-59.082,-34.180,-44.434,-40.039,0.000
1727361617.033,-109.375,-43.457,-44.922,-71.777,0.000
1727361617.037,-73.730,-45.898,-48.828,-54.688,0.000
1727361617.040,28.809,-49.316,-55.176,-15.137,0.000
1727361617.044,35.645,-44.434,-49.316,-13.672,0.000
1727361617.048,-31.738,-41.504,-46.875,-19.043,0.000
1727361617.052,-86.914,-50.293,-58.105,-47.363,0.000
1727361617.056,-60.059,-41.016,-56.152,-46.387,0.000
1727361617.060,36.621,-20.996,-46.387,-10.742,0.000
1727361617.064,58.105,-21.973,-39.551,-0.488,0.000
1727361617.068,-20.996,-27.344,-40.039,-14.648,0.000
1727361617.072,-102.539,-28.320,-46.875,-45.410,0.000
1727361617.076,-80.566,-38.086,-47.363,-38.574,0.000
1727361617.080,27.832,-42.480,-41.016,-9.277,0.000
1727361617.083,60.059,-32.227,-36.621,-2.441,0.000
1727361617.087,-1.953,-16.113,-35.156,-14.160,0.000
1727361617.091,-73.730,-20.996,-37.109,-49.805,0.000
1727361617.095,-59.082,-36.133,-34.180,-37.598,0.000
1727361617.099,27.832,-25.879,-36.133,-3.906,0.000
1727361617.103,51.758,-12.207,-42.480,-8.789,0.000
1727361617.107,12.695,-17.578,-46.387,-9.277,0.000
1727361617.111,-52.734,-19.531,-44.434,-25.879,0.000
1727361617.115,-69.824,-25.391,-41.992,-37.109,0.000
1727361617.119,-7.324,-38.086,-43.457,-13.184,0.000
1727361617.122,43.457,-32.227,-27.832,8.301,0.000
1727361617.126,13.672,-24.414,-11.230,6.836,0.000
1727361617.130,-64.941,-22.461,-20.020,-26.855,0.000
1727361617.134,-94.238,-26.855,-33.203,-54.688,0.000
1727361617.138,-28.320,-31.250,-31.738,-22.461,0.000
1727361617.142,26.855,-28.320,-33.203,15.137,0.000
1727361617.146,-12.695,-31.250,-40.039,-3.906,0.000
1727361617.150,-83.984,-39.062,-40.527,-41.016,0.000
1727361617.154,-99.121,-41.016,-39.062,-56.152,0.000
1727361617.158,-21.973,-33.203,-34.180,-34.180,0.000
1727361617.162,46.875,-32.715,-37.109,-9.766,0.000
1727361617.165,14.648,-40.527,-41.504,-6.836,0.000
1727361617.169,-72.266,-36.621,-33.203,-27.344,0.000
1727361617.173,-100.098,-26.367,-25.391,-46.387,0.000
1727361617.177,-39.551,-42.969,-23.438,-20.508,0.000
1727361617.181,51.758,-33.691,-21.484,12.695,0.000
1727361617.185,43.945,-7.812,-36.621,17.090,0.000
1727361617.189,-39.551,-14.160,-61.523,-13.184,0.000
1727361617.193,-85.449,-20.508,-61.035,-50.293,0.000
1727361617.197,-42.480,-33.691,-41.504,-37.109,0.000
1727361617.201,46.875,-37.598,-35.645,-9.277,0.000
1727361617.204,46.875,-25.391,-33.691,0.488,0.000
1727361617.208,-21.973,-25.879,-27.344,-21.484,0.000
1727361617.212,-77.148,-35.645,-30.273,-49.316,0.000
1727361617.216,-41.992,-31.738,-31.250,-30.273,0.000
1727361617.220,49.316,-11.230,-29.297,0.488,0.000
1727361617.224,50.293,-11.230,-32.715,6.348,0.000
1727361617.228,-25.879,-15.137,-29.785,-16.602,0.000
1727361617.232,-78.125,-22.461,-24.902,-27.344,0.000
1727361617.236,-59.570,-53.711,-32.715,-8.301,0.000
1727361617.240,10.742,-70.312,-39.062,1.465,0.000
1727361617.244,37.598,-60.059,-29.785,0.977,0.000
1727361617.247,-20.996,-34.668,-28.320,-11.230,0.000
1727361617.251,-106.934,-20.508,-39.062,-57.617,0.000
1727361617.255,-107.422,-30.762,-43.457,-67.871,0.000
1727361617.259,-14.160,-45.898,-32.715,-24.414,0.000
1727361617.263,34.180,-52.734,-17.090,-12.207,0.000
1727361617.267,-25.391,-47.363,-21.484,-25.391,0.000
1727361617.271,-90.332,-43.457,-23.926,-49.316,0.000
1727361617.275,-84.473,-62.500,-32.227,-58.105,0.000
1727361617.279,-5.859,-71.289,-38.574,-13.184,0.000
1727361617.283,38.086,-53.711,-27.832,3.906,0.000
1727361617.286,-13.672,-31.738,-27.832,-21.973,0.000
1727361617.290,-95.703,-31.738,-47.363,-57.617,0.000
1727361617.294,-104.492,-41.504,-52.734,-49.316,0.000
1727361617.298,-26.855,-41.504,-46.875,-19.043,0.000
1727361617.302,30.762,-37.109,-44.922,-18.066,0.000
1727361617.306,1.953,-33.691,-35.645,-14.648,0.000
1727361617.310,-61.523,-32.227,-25.879,-23.926,0.000
1727361617.314,-75.684,-47.852,-32.715,-42.969,0.000
1727361617.318,-21.973,-66.406,-39.062,-34.668,0.000
1727361617.322,34.668,-49.805,-34.668,-11.719,0.000
1727361617.326,8.789,-20.020,-32.715,-4.883,0.000
1727361617.329,-70.312,-17.090,-31.250,-26.367,0.000
1727361617.333,-97.168,-22.949,-25.879,-41.992,0.000
1727361617.337,-22.461,-20.996,-33.691,-4.883,0.000
1727361617.341,50.293,-23.438,-39.551,24.902,0.000
1727361617.345,26.855,-24.902,-40.039,6.348,0.000
1727361617.349,-29.785,-27.344,-39.062,-20.508,0.000
1727361617.353,-76.172,-24.902,-30.273,-45.410,0.000
1727361617.357,-42.969,-18.555,-27.832,-23.438,0.000
1727361617.361,39.062,-25.879,-27.832,6.348,0.000
1727361617.365,27.344,-34.668,-28.320,9.766,0.000
1727361617.369,-41.016,-30.273,-31.738,-8.789,0.000
1727361617.372,-84.961,-27.832,-26.367,-45.898,0.000
1727361617.376,-25.391,-31.738,-14.648,-25.391,0.000
1727361617.380,51.270,-26.367,-20.508,6.836,0.000
1727361617.384,30.762,-29.297,-29.297,-4.395,0.000
1727361617.388,-50.781,-21.973,-27.344,-26.367,0.000
1727361617.392,-108.398,-14.160,-25.879,-45.898,0.000
1727361617.396,-69.336,-16.602,-25.391,-26.855,0.000
1727361617.400,17.090,-13.672,-30.762,1.465,0.000
1727361617.404,30.762,-21.484,-28.320,3.906,0.000
1727361617.408,-30.762,-32.227,-16.602,-12.695,0.000
1727361617.412,-97.168,-45.898,-10.742,-39.551,0.000
1727361617.415,-94.238,-55.664,-15.137,-34.668,0.000
1727361617.419,-3.906,-43.457,-22.461,-20.020,0.000
1727361617.423,27.344,-36.621,-29.785,-16.602,0.000
1727361617.427,-39.062,-37.598,-30.273,-26.367,0.000
1727361617.431,-101.562,-24.414,-23.438,-59.570,0.000
1727361617.435,-82.031,-31.738,-20.020,-60.547,0.000
1727361617.439,7.812,-61.035,-26.855,-21.973,0.000
1727361617.443,45.410,-51.270,-20.020,2.930,0.000
1727361617.447,-16.113,-35.156,-14.160,-3.418,0.000
1727361617.451,-94.238,-39.551,-20.020,-38.086,0.000
1727361617.455,-93.750,-36.133,-19.531,-28.809,0.000
1727361617.458,-0.977,-40.527,-25.879,14.648,0.000
1727361617.462,52.734,-43.945,-19.531,8.301,0.000
1727361617.466,-11.230,-33.203,-25.391,-20.020,0.000
1727361617.470,-91.797,-22.461,16.602,-47.363,0.000
1727361617.474,-91.797,-23.438,204.102,-54.199,0.000
1727361617.478,-8.789,-31.738,324.707,-20.508,0.000
1727361617.482,60.059,-35.156,325.684,-3.906,0.000
1727361617.486,27.344,-31.738,315.918,-7.324,0.000
1727361617.490,-42.480,-18.066,302.246,-1.953,0.000
1727361617.494,-79.590,-11.230,282.227,-16.602,0.000
1727361617.497,-17.090,-12.695,269.043,-7.324,0.000
1727361617.501,57.129,-15.625,243.164,2.930,0.000
1727361617.505,17.090,-18.066,219.727,-5.371,0.000
1727361617.509,-72.754,-20.996,205.566,-23.926,0.000
1727361617.513,-112.305,-23.926,196.289,-61.035,0.000
1727361617.517,-53.223,-28.809,177.734,-46.387,0.000
1727361617.521,26.855,-28.320,145.508,-19.531,0.000
1727361617.525,-16.602,-16.602,133.789,-41.504,0.000
1727361617.529,-123.047,-4.883,127.441,-80.566,0.000
1727361617.533,-165.039,-2.930,120.117,-97.168,0.000
1727361617.537,-113.770,-14.160,112.793,-71.777,0.000
1727361617.540,-43.945,-15.625,114.258,-69.336,0.000
1727361617.544,-52.734,-8.301,114.258,-91.309,0.000
1727361617.548,-125.488,-5.859,104.492,-115.723,0.000
1727361617.552,-204.590,-6.836,91.797,-153.809,0.000
1727361617.556,-186.035,-12.695,72.266,-159.180,0.000
1727361617.560,-96.191,-24.414,62.500,-141.602,0.000
1727361617.564,-83.008,-19.531,58.594,-144.531,0.000
1727361617.568,-149.902,-3.906,54.199,-159.180,0.000
1727361617.572,-184.082,9.277,56.152,-174.805,0.000
1727361617.576,-143.555,-1.953,56.152,-163.086,0.000
1727361617.580,-83.984,-31.738,55.664,-127.930,0.000
1727361617.583,-70.312,-33.691,57.617,-108.398,0.000
1727361617.587,-120.605,-11.719,59.082,-114.746,0.000
1727361617.591,-193.848,0.000,64.453,-130.371,0.000
1727361617.595,-193.848,4.883,73.242,-127.930,0.000
1727361617.599,-81.055,4.395,59.570,-108.887,0.000
1727361617.603,0.000,0.488,51.270,-79.590,0.000
1727361617.607,-53.711,-9.277,63.965,-59.082,0.000
1727361617.611,-149.414,-3.418,65.918,-76.172,0.000
1727361617.615,-143.555,-6.836,72.754,-74.707,0.000
1727361617.619,-31.250,-31.738,73.242,-36.621,0.000
1727361617.622,24.414,-32.715,60.547,-16.113,0.000
1727361617.626,-13.672,-12.207,50.293,-21.484,0.000
1727361617.630,-82.031,-8.789,31.250,-48.340,0.000
1727361617.634,-83.496,-17.578,8.789,-51.270,0.000
1727361617.638,-7.324,-15.137,11.230,-17.578,0.000
1727361617.642,59.570,-7.812,29.297,10.254,0.000
1727361617.646,54.688,-24.414,29.297,17.578,0.000
1727361617.650,-34.180,-41.504,17.578,-5.371,0.000
1727361617.654,-46.387,-30.762,23.926,-9.766,0.000
1727361617.658,60.059,-39.551,21.484,29.297,0.000
1727361617.661,110.352,-42.480,6.836,39.062,0.000
1727361617.665,48.340,-28.809,-1.953,20.996,0.000
1727361617.669,-33.203,-18.555,-7.812,5.859,0.000
1727361617.673,-51.270,-25.879,-5.859,2.441,0.000
1727361617.677,13.672,-33.691,4.395,37.109,0.000
1727361617.681,87.402,-38.086,4.395,72.266,0.000
1727361617.685,87.891,-35.645,1.465,61.523,0.000
1727361617.689,17.090,-32.715,6.348,20.996,0.000
1727361617.693,-26.855,-38.086,7.324,3.906,0.000
1727361617.697,30.762,-36.621,1.465,35.156,0.000
1727361617.701,91.309,-29.785,-3.418,51.758,0.000
1727361617.704,76.660,-19.043,7.324,45.410,0.000
1727361617.708,15.137,-22.949,19.043,36.133,0.000
1727361617.712,-32.715,-42.480,9.766,12.695,0.000
1727361617.716,14.648,-48.340,-1.465,27.832,0.000
1727361617.720,91.309,-44.922,3.418,58.105,0.000
1727361617.724,104.004,-32.715,11.230,67.871,0.000
1727361617.728,44.922,-24.902,13.184,40.527,0.000
1727361617.732,-12.207,-35.645,17.090,9.277,0.000
1727361617.736,27.832,-48.828,15.137,25.879,0.000
1727361617.740,120.605,-41.016,8.301,50.293,0.000
1727361617.744,107.910,-33.203,0.000,52.246,0.000
1727361617.747,24.902,-27.344,3.906,45.898,0.000
1727361617.751,-32.227,-29.785,15.137,13.672,0.000
1727361617.755,-2.930,-33.203,12.695,20.996,0.000
1727361617.759,80.566,-27.344,6.348,51.270,0.000
1727361617.763,100.098,-23.926,12.207,54.688,0.000
1727361617.767,49.805,-16.602,17.090,49.316,0.000
1727361617.771,-20.996,-23.438,8.301,26.855,0.000
1727361617.775,-33.203,-38.574,3.906,19.531,0.000
1727361617.779,58.105,-35.156,18.066,42.480,0.000
1727361617.783,99.609,-28.320,17.090,44.922,0.000
1727361617.787,26.367,-26.855,3.418,20.996,0.000
1727361617.790,-52.246,-29.297,2.930,-5.371,0.000
1727361617.794,-49.316,-30.273,1.953,-9.766,0.000
1727361617.798,36.621,-38.086,5.371,18.066,0.000
1727361617.802,85.449,-50.293,5.371,36.621,0.000
1727361617.806,37.109,-33.691,3.906,32.227,0.000
1727361617.810,-50.293,-40.527,12.207,-0.488,0.000
1727361617.814,-58.105,-61.523,-4.883,-27.344,0.000
1727361617.818,26.855,-35.645,-17.090,1.953,0.000
1727361617.822,80.078,-22.461,1.465,33.691,0.000
1727361617.826,44.922,-32.227,5.371,13.672,0.000
1727361617.829,-45.410,-32.715,8.301,-19.531,0.000
1727361617.833,-86.426,-29.297,7.812,-16.602,0.000
1727361617.837,-14.648,-22.461,3.906,18.066,0.000
1727361617.841,62.988,-15.137,1.953,35.645,0.000
1727361617.845,26.367,-20.996,-0.977,29.297,0.000
1727361617.849,-41.992,-27.344,-5.371,-0.488,0.000
1727361617.853,-49.805,-20.508,0.000,-12.695,0.000
1727361617.857,2.930,-18.555,-1.953,14.160,0.000
1727361617.861,73.242,-22.461,-17.090,25.391,0.000
1727361617.865,49.805,-36.133,-12.695,30.273,0.000
1727361617.869,-33.691,-32.227,0.977,11.719,0.000
1727361617.872,-86.914,-20.508,-1.953,-23.926,0.000
1727361617.876,-45.898,-27.344,-9.766,-12.207,0.000
1727361617.880,49.316,-16.113,-6.348,17.578,0.000
1727361617.884,50.781,-5.371,-1.465,22.949,0.000
1727361617.888,-26.367,-14.160,1.953,-1.465,0.000
1727361617.892,-78.125,-14.648,8.789,-29.297,0.000
1727361617.896,-35.645,-8.301,3.418,-16.602,0.000
1727361617.900,49.805,-16.602,-4.395,-1.953,0.000
1727361617.904,43.945,-27.832,-3.906,1.465,0.000
1727361617.908,-30.762,-20.508,-9.277,-3.906,0.000
1727361617.912,-99.609,-16.602,-6.348,-40.527,0.000
1727361617.915,-81.543,-18.555,3.418,-40.039,0.000
1727361617.919,9.766,-24.414,2.441,-17.090,0.000
1727361617.923,54.199,-25.391,2.930,4.395,0.000
1727361617.927,-10.742,-11.230,-3.906,-10.742,0.000
1727361617.931,-95.215,-8.789,-9.766,-62.988,0.000
1727361617.935,-76.660,-21.973,0.977,-42.969,0.000
1727361617.939,15.625,-28.320,3.906,0.977,0.000
1727361617.943,41.504,-24.902,-3.906,-1.953,0.000
1727361617.947,-24.414,-27.344,-8.789,-23.926,0.000
1727361617.951,-77.637,-43.945,-12.695,-51.758,0.000
1727361617.954,-85.938,-57.129,-12.695,-49.805,0.000
1727361617.958,-20.508,-37.109,-3.906,-8.789,0.000
1727361617.962,39.062,-31.250,-7.812,-2.441,0.000
1727361617.966,-12.207,-28.809,-14.648,-22.461,0.000
1727361617.970,-92.773,-14.160,-5.859,-41.016,0.000
1727361617.974,-93.750,-29.297,-6.348,-60.059,0.000
1727361617.978,-10.742,-40.527,-7.812,-36.621,0.000
1727361617.982,38.574,-40.527,-0.488,-10.742,0.000
1727361617.986,-6.348,-34.668,-10.254,-23.926,0.000
1727361617.990,-69.824,-20.508,-5.859,-44.922,0.000
1727361617.994,-83.008,-27.832,11.719,-38.086,0.000
1727361617.997,-12.695,-29.297,6.836,-16.113,0.000
1727361618.001,55.664,-22.461,2.441,-11.719,0.000
1727361618.005,16.113,-24.902,2.930,-16.113,0.000
1727361618.009,-64.941,-17.090,6.836,-29.785,0.000
1727361618.013,-75.195,-22.949,2.930,-33.691,0.000
1727361618.017,-16.113,-36.133,-11.230,-1.465,0.000
1727361618.021,27.832,-30.762,-13.672,13.672,0.000
1727361618.025,13.184,-31.738,-3.906,3.418,0.000
1727361618.029,-43.457,-23.926,4.395,-14.648,0.000
1727361618.032,-93.750,-19.531,4.883,-40.527,0.000
1727361618.036,-37.598,-21.484,8.301,-20.020,0.000
1727361618.040,60.059,-12.695,20.020,16.113,0.000
1727361618.044,41.504,-16.113,17.578,6.348,0.000
1727361618.048,-54.199,-20.508,0.977,-39.551,0.000
1727361618.052,-91.309,-12.695,0.000,-57.617,0.000
1727361618.056,-33.691,-21.973,6.348,-28.320,0.000
1727361618.060,42.480,-24.902,3.418,5.859,0.000
1727361618.064,33.691,-11.230,-8.789,22.461,0.000
1727361618.068,-46.875,-18.066,0.000,-0.488,0.000
1727361618.072,-105.957,-20.996,17.578,-31.738,0.000
1727361618.075,-69.336,-15.137,12.207,-27.344,0.000
1727361618.079,19.043,-33.203,2.930,-23.926,0.000
1727361618.083,27.832,-42.969,4.883,-16.113,0.000
1727361618.087,-42.969,-32.715,3.418,-25.391,0.000
1727361618.091,-95.215,-27.832,5.859,-58.105,0.000
1727361618.095,-71.289,-34.180,9.766,-38.574,0.000
1727361618.099,24.414,-46.875,4.395,-9.277,0.000
1727361618.103,33.691,-42.969,2.441,-0.488,0.000
1727361618.107,-54.199,-20.020,3.418,8.301,0.000
1727361618.111,-103.516,-10.254,12.695,-20.508,0.000
1727361618.115,-85.449,-25.879,10.254,-63.965,0.000
1727361618.118,13.672,-29.297,2.441,-41.016,0.000
1727361618.122,52.246,-20.508,1.953,-12.695,0.000
1727361618.126,-11.230,-24.902,-1.953,-23.926,0.000
1727361618.130,-81.055,-20.020,-8.301,-44.434,0.000
1727361618.134,-74.219,-11.719,-9.766,-48.828,0.000
1727361618.138,13.672,-9.766,-2.441,-17.578,0.000
1727361618.142,61.523,-17.578,3.418,9.277,0.000
1727361618.146,14.160,-19.043,14.160,10.254,0.000
1727361618.150,-81.543,-14.648,13.184,-14.648,0.000
1727361618.154,-96.191,-15.137,10.254,-26.367,0.000
1727361618.158,-2.930,-22.949,11.719,-7.324,0.000
1727361618.161,58.594,-26.855,5.859,3.418,0.000
1727361618.165,19.531,-21.484,11.719,4.883,0.000
1727361618.169,-43.945,-21.484,23.438,-11.230,0.000
1727361618.173,-60.547,-31.250,23.926,-27.832,0.000
1727361618.177,-6.348,-46.875,4.395,-15.137,0.000
1727361618.181,49.805,-47.363,-14.160,1.465,0.000
1727361618.185,8.301,-18.066,-4.395,22.949,0.000
1727361618.189,-67.871,-2.441,-1.953,2.930,0.000
1727361618.193,-98.145,-13.672,-8.301,-42.480,0.000
1727361618.197,-32.715,-14.648,-4.395,-29.785,0.000
1727361618.201,51.758,-7.324,0.488,-3.906,0.000
1727361618.204,31.738,-7.324,0.977,-4.883,0.000
1727361618.208,-59.570,-7.324,-4.395,-27.832,0.000
1727361618.212,-104.004,-10.742,-10.254,-60.059,0.000
1727361618.216,-45.898,-25.391,-6.836,-41.504,0.000
1727361618.220,39.062,-33.691,-5.859,-5.859,0.000
1727361618.224,36.621,-19.043,-9.277,2.930,0.000
1727361618.228,-42.969,-8.789,-8.301,-21.973,0.000
1727361618.232,-107.422,-20.996,-16.113,-67.871,0.000
1727361618.236,-66.406,-30.762,-13.672,-40.039,0.000
1727361618.240,17.578,-29.785,-10.254,-7.324,0.000
1727361618.244,21.973,-24.414,-10.742,-10.742,0.000
1727361618.247,-42.969,-23.926,-10.254,-35.156,0.000
1727361618.251,-97.656,-9.766,-6.836,-57.129,0.000
1727361618.255,-76.660,-6.348,-11.230,-32.227,0.000
1727361618.259,15.137,-18.555,-15.625,-2.441,0.000
1727361618.263,40.039,-16.602,-12.207,1.953,0.000
1727361618.267,-31.250,-12.695,-12.207,-15.137,0.000
1727361618.271,-85.938,-10.742,-0.977,-33.203,0.000
1727361618.275,-68.359,-16.602,6.348,-26.855,0.000
1727361618.279,22.461,-23.926,11.230,-1.953,0.000
1727361618.283,59.570,-15.625,20.996,2.441,0.000
1727361618.286,-11.719,0.977,16.602,-13.672,0.000
1727361618.290,-75.195,13.184,0.977,-33.691,0.000
1727361618.294,-48.340,14.160,8.301,-21.973,0.000
1727361618.298,44.434,6.836,15.137,5.859,0.000
1727361618.302,69.824,-6.836,12.695,7.324,0.000
1727361618.306,-15.625,-10.742,15.625,10.742,0.000
1727361618.310,-92.285,-16.113,12.207,-13.184,0.000
1727361618.314,-83.496,-21.973,7.812,-39.551,0.000
1727361618.318,-2.441,-11.719,3.418,-21.484,0.000
1727361618.322,40.039,-11.230,-5.371,-10.254,0.000
1727361618.326,-0.488,-20.996,-7.324,-12.695,0.000
1727361618.329,-63.965,-20.996,-3.906,-43.945,0.000
1727361618.333,-80.078,-19.043,-1.465,-55.176,0.000
1727361618.337,-5.371,-19.043,1.953,-13.672,0.000
1727361618.341,58.105,-21.484,9.277,3.418,0.000
1727361618.345,10.742,-34.668,-0.977,-2.441,0.000
1727361618.349,-72.754,-31.738,-10.742,-34.668,0.000
1727361618.353,-98.633,-15.625,-4.395,-61.035,0.000
1727361618.357,-31.738,-15.137,-2.441,-26.367,0.000
1727361618.361,40.039,-16.602,-6.836,-7.812,0.000
1727361618.364,7.324,-17.090,-7.812,-18.555,0.000
1727361618.368,-74.219,-28.809,3.418,-35.156,0.000
1727361618.372,-103.027,-28.809,14.648,-44.922,0.000
1727361618.376,-41.016,-20.508,15.625,-27.344,0.000
1727361618.380,35.645,-18.555,8.301,-16.113,0.000
1727361618.384,12.207,-28.809,-0.488,-20.020,0.000
1727361618.388,-70.801,-39.062,-14.648,-42.480,0.000
1727361618.392,-107.910,-33.691,-13.184,-54.688,0.000
1727361618.396,-49.805,-24.902,-7.812,-12.695,0.000
1727361618.400,31.250,-16.113,-19.531,14.648,0.000
1727361618.404,25.391,-13.672,-19.531,-4.395,0.000
1727361618.407,-37.109,-15.625,-10.742,-29.785,0.000
1727361618.411,-81.543,-15.625,-5.859,-54.199,0.000
1727361618.415,-43.945,-10.742,-3.906,-40.527,0.000
1727361618.419,54.688,-4.883,-0.488,0.000,0.000
1727361618.423,59.082,-23.438,-13.184,8.301,0.000
1727361618.427,-30.273,-24.902,-23.926,-12.695,0.000
1727361618.431,-93.262,-13.184,-25.879,-38.086,0.000
1727361618.435,-56.152,-20.508,-26.367,-22.949,0.000
1727361618.439,30.273,-20.508,-22.949,6.348,0.000
1727361618.443,45.898,-13.672,-16.602,5.859,0.000
1727361618.447,-18.555,-17.090,-23.438,-16.113,0.000
1727361618.450,-83.984,-27.344,-27.344,-44.434,0.000
1727361618.454,-65.430,-21.484,-21.973,-41.504,0.000
1727361618.458,21.973,-20.508,-15.137,-22.461,0.000
1727361618.462,43.945,-30.762,-17.090,-17.090,0.000
1727361618.466,-17.090,-56.641,-22.461,-24.414,0.000
1727361618.470,-69.824,-56.152,-16.113,-59.082,0.000
1727361618.474,-76.172,-34.668,-11.230,-58.105,0.000
1727361618.478,-6.348,-31.250,-19.531,-25.391,0.000
1727361618.482,42.969,-21.484,-20.996,-6.348,0.000
1727361618.486,-10.254,-11.230,-7.812,5.371,0.000
1727361618.490,-87.402,-17.578,-7.324,-34.180,0.000
1727361618.493,-82.031,-26.855,-10.742,-46.875,0.000
1727361618.497,9.766,-33.691,-12.207,-12.695,0.000
1727361618.501,51.758,-47.852,-24.902,-21.973,0.000
1727361618.505,-11.230,-54.199,-35.645,-32.715,0.000
1727361618.509,-93.750,-46.875,-39.062,-52.734,0.000
1727361618.513,-109.375,-33.691,-41.016,-60.059,0.000
1727361618.517,-29.297,-36.621,-34.180,-16.113,0.000
1727361618.521,52.246,-44.434,-24.902,8.789,0.000
1727361618.525,5.371,-53.223,-27.832,-24.414,0.000
1727361618.529,-89.844,-59.082,-30.762,-66.895,0.000
1727361618.533,-118.652,-52.734,-20.020,-68.359,0.000
1727361618.536,-45.410,-45.898,-11.230,-41.504,0.000
1727361618.540,41.504,-32.227,-10.742,-11.230,0.000
1727361618.544,16.113,-24.902,-11.719,-16.113,0.000
1727361618.548,-62.500,-21.484,-11.230,-36.621,0.000
1727361618.552,-102.539,-22.949,-14.160,-50.781,0.000
1727361618.556,-39.551,-43.945,-25.391,-54.199,0.000
1727361618.560,41.016,-53.223,-28.809,-38.574,0.000
1727361618.564,25.391,-50.293,-20.996,-24.902,0.000
1727361618.568,-62.500,-49.316,-16.113,-33.691,0.000
1727361618.572,-109.863,-30.273,-16.113,-53.223,0.000
1727361618.575,-53.711,-21.973,-1.465,-34.668,0.000
1727361618.579,25.879,-28.809,9.277,-4.883,0.000
1727361618.583,30.762,-21.973,7.812,13.672,0.000
1727361618.587,-47.363,-19.043,-2.441,-13.672,0.000
1727361618.591,-106.934,-28.320,-11.230,-53.711,0.000
1727361618.595,-69.824,-33.691,-18.066,-43.457,0.000
1727361618.599,10.742,-24.414,-25.879,-18.066,0.000
1727361618.603,23.926,-25.391,-24.414,-21.973,0.000
1727361618.607,-53.711,-44.434,-19.531,-56.152,0.000
1727361618.611,-115.723,-45.898,-16.113,-73.730,0.000
1727361618.615,-80.566,-37.598,-21.973,-56.152,0.000
1727361618.618,-1.953,-37.109,-30.762,-27.832,0.000
1727361618.622,24.414,-42.480,-26.367,-14.648,0.000
1727361618.626,-28.320,-38.086,-16.113,-26.367,0.000
1727361618.630,-92.773,-42.969,-17.090,-51.270,0.000
1727361618.634,-83.496,-48.340,-27.832,-42.480,0.000
1727361618.638,0.977,-40.039,-29.785,-8.789,0.000
1727361618.642,32.715,-34.668,-28.320,0.488,0.000
1727361618.646,-24.902,-29.297,-32.715,-16.602,0.000
1727361618.650,-92.773,-22.949,-30.273,-48.340,0.000
1727361618.654,-99.609,-23.926,-27.832,-50.781,0.000
1727361618.658,-14.648,-33.691,-28.809,-12.695,0.000
1727361618.661,29.785,-48.340,-24.902,-10.742,0.000
1727361618.665,-23.438,-49.316,-20.020,-16.113,0.000
1727361618.669,-69.336,-28.320,-11.719,-6.348,0.000
1727361618.673,-59.082,-3.906,-8.301,-15.625,0.000
1727361618.677,20.020,-18.066,-22.461,-0.977,0.000
1727361618.681,53.223,-41.016,-34.668,-1.953,0.000
1727361618.685,-12.695,-34.180,-24.902,-7.324,0.000
1727361618.689,-76.172,-21.973,-8.301,-17.090,0.000
1727361618.693,-101.074,-28.320,-11.230,-48.340,0.000
1727361618.697,-37.598,-27.832,-14.648,-29.785,0.000
1727361618.700,42.480,-21.973,-21.484,-6.348,0.000
1727361618.704,23.438,-26.367,-25.879,-8.301,0.000
1727361618.708,-61.035,-22.461,-24.902,-31.738,0.000
1727361618.712,-105.469,-24.902,-20.996,-47.852,0.000
1727361618.716,-41.504,-33.691,-11.230,-28.809,0.000
1727361618.720,37.109,-32.227,-16.113,-15.137,0.000
1727361618.724,13.184,-21.484,-18.555,-18.066,0.000
1727361618.728,-57.617,-14.160,-18.555,-38.574,0.000
1727361618.732,-86.914,-5.859,-26.367,-49.316,0.000
1727361618.736,-42.480,-14.160,-21.973,-19.531,0.000
1727361618.739,35.645,-45.410,-16.113,2.930,0.000
1727361618.743,35.645,-44.434,-15.625,-1.465,0.000
1727361618.747,-55.664,-23.926,-18.066,-29.297,0.000
1727361618.751,-109.375,-26.855,-16.113,-62.500,0.000
1727361618.755,-58.594,-41.016,-20.508,-44.434,0.000
1727361618.759,31.250,-41.016,-27.832,-12.695,0.000
1727361618.763,39.062,-26.367,-21.973,-15.625,0.000
1727361618.767,-41.504,-27.832,-20.996,-31.738,0.000
1727361618.771,-105.957,-43.457,-23.926,-55.176,0.000
1727361618.775,-69.824,-40.527,-23.926,-41.992,0.000
1727361618.779,18.066,-40.039,-21.973,-18.066,0.000
1727361618.782,23.926,-40.039,-20.996,-5.371,0.000
1727361618.786,-46.875,-33.691,-22.461,-17.578,0.000
1727361618.790,-100.586,-44.922,-18.555,-65.430,0.000
1727361618.794,-71.777,-55.664,-20.508,-57.617,0.000
1727361618.798,12.695,-42.480,-28.320,-29.785,0.000
1727361618.802,41.016,-30.273,-24.414,-15.137,0.000
1727361618.806,-21.484,-23.926,-21.973,-5.859,0.000
1727361618.810,-89.844,-19.043,-22.949,-43.457,0.000
1727361618.814,-60.547,-23.926,-24.902,-43.945,0.000
1727361618.818,30.273,-28.809,-31.250,0.000,0.000
1727361618.822,48.340,-43.945,-29.297,2.930,0.000
1727361618.825,-12.207,-65.430,-22.461,-13.672,0.000
1727361618.829,-68.359,-54.199,-12.695,-43.457,0.000
1727361618.833,-58.594,-23.438,-8.789,-34.668,0.000
1727361618.837,24.414,-18.066,-13.184,0.977,0.000
1727361618.841,73.730,-20.996,-18.555,6.836,0.000
1727361618.845,2.441,-19.043,-15.625,1.953,0.000
1727361618.849,-89.355,-24.902,-21.484,-24.902,0.000
1727361618.853,-94.238,-25.391,-30.273,-47.363,0.000
1727361618.857,-8.789,-29.297,-28.809,-20.020,0.000
1727361618.861,47.852,-34.180,-32.227,7.324,0.000
1727361618.865,22.461,-26.367,-26.367,-1.953,0.000
1727361618.868,-41.992,-20.020,-27.344,-29.297,0.000
1727361618.872,-82.520,-25.391,-33.203,-41.016,0.000
1727361618.876,-36.621,-41.504,-41.504,-29.785,0.000
1727361618.880,23.438,-51.758,-42.480,-19.531,0.000
1727361618.884,0.000,-45.898,-30.762,-5.371,0.000
1727361618.888,-75.684,-51.758,-30.273,-20.508,0.000
1727361618.892,-100.098,-44.922,-28.809,-54.199,0.000
1727361618.896,-30.273,-31.738,-32.715,-25.879,0.000
1727361618.900,31.250,-23.926,-41.016,1.465,0.000
1727361618.904,17.578,-23.926,-42.969,-2.930,0.000
1727361618.908,-54.199,-28.809,-38.086,-24.902,0.000
1727361618.911,-100.586,-28.809,-27.832,-50.781,0.000
1727361618.915,-43.945,-40.039,-26.367,-29.297,0.000
1727361618.919,27.832,-45.898,-36.133,-10.254,0.000
1727361618.923,27.832,-33.203,-28.809,9.277,0.000
1727361618.927,-43.457,-30.762,-21.484,6.348,0.000
1727361618.931,-112.305,-58.105,-30.762,-49.316,0.000
1727361618.935,-70.312,-65.918,-35.645,-54.688,0.000
1727361618.939,26.367,-47.363,-32.227,-29.785,0.000
1727361618.943,31.738,-41.992,-34.668,-25.391,0.000
1727361618.947,-38.574,-45.898,-36.133,-30.762,0.000
1727361618.950,-98.145,-30.762,-26.855,-45.898,0.000
1727361618.954,-82.520,-32.227,-28.809,-51.270,0.000
1727361618.958,8.789,-45.410,-30.762,-20.020,0.000
1727361618.962,51.270,-28.320,-22.949,7.324,0.000
1727361618.966,-15.137,-23.926,-26.855,-7.812,0.000
1727361618.970,-101.562,-34.180,-28.809,-23.926,0.000
1727361618.974,-79.102,-36.621,-25.879,-22.461,0.000
1727361618.978,12.207,-41.992,-35.645,-1.953,0.000
1727361618.982,34.668,-40.039,-31.738,2.441,0.000
1727361618.986,-9.277,-27.344,-19.043,-12.207,0.000
1727361618.990,-64.453,-22.461,-26.367,-36.133,0.000
1727361618.993,-67.383,-27.344,-31.250,-32.715,0.000
1727361618.997,4.883,-30.273,-21.973,3.418,0.000
1727361619.001,42.969,-28.809,-13.672,9.766,0.000
1727361619.005,4.883,-13.672,-11.230,1.953,0.000
1727361619.009,-48.340,-12.207,-12.207,-13.672,0.000
1727361619.013,-60.059,-38.086,-17.090,-20.020,0.000
1727361619.017,5.859,-41.992,-21.973,8.301,0.000
1727361619.021,62.988,-21.973,-23.438,11.230,0.000
1727361619.025,16.602,-13.184,-23.926,0.977,0.000
1727361619.029,-59.082,-15.625,-23.438,-14.648,0.000
1727361619.033,-63.477,-24.902,-22.949,-33.691,0.000
1727361619.036,12.207,-47.852,-22.949,-9.766,0.000
1727361619.040,69.336,-55.664,-19.043,18.066,0.000
1727361619.044,16.602,-43.945,-12.207,6.836,0.000
1727361619.048,-65.918,-47.852,-14.160,-26.855,0.000
1727361619.052,-88.379,-60.547,-15.625,-42.969,0.000
1727361619.056,-20.996,-67.383,-22.949,-20.996,0.000
1727361619.060,52.246,-60.547,-27.832,-9.766,0.000
1727361619.064,29.785,-39.062,-28.809,-17.578,0.000
1727361619.068,-51.758,-19.043,-34.180,-33.691,0.000
1727361619.072,-105.957,-18.555,-35.645,-53.711,0.000
1727361619.075,-51.270,-33.691,-34.668,-26.855,0.000
1727361619.079,30.762,-41.016,-28.809,12.695,0.000
1727361619.083,23.926,-37.598,-17.090,19.043,0.000
1727361619.087,-49.805,-31.250,-14.160,-18.066,0.000
1727361619.091,-81.543,-29.297,-20.508,-53.223,0.000
1727361619.095,-24.902,-37.598,-27.344,-23.926,0.000
1727361619.099,45.410,-37.598,-32.227,-5.371,0.000
1727361619.103,51.270,-19.043,-21.973,-4.395,0.000
1727361619.107,-20.020,-13.672,-15.625,-11.719,0.000
1727361619.111,-81.055,-25.391,-20.996,-40.039,0.000
1727361619.114,-38.086,-25.879,-20.508,-20.020,0.000
1727361619.118,42.480,-24.414,-21.484,13.672,0.000
1727361619.122,57.129,-22.461,-20.020,27.832,0.000
1727361619.126,1.465,-23.438,-15.625,25.391,0.000
1727361619.130,-60.547,-23.926,-27.344,-17.578,0.000
1727361619.134,-37.598,-19.531,-43.457,-20.996,0.000
1727361619.138,48.828,-24.414,-48.340,14.648,0.000
1727361619.142,63.965,-25.391,-48.340,20.508,0.000
1727361619.146,-4.395,-17.090,-47.363,2.441,0.000
1727361619.150,-66.895,-15.137,-43.457,-32.715,0.000
1727361619.153,-62.012,-17.090,-36.133,-25.391,0.000
1727361619.157,13.672,-15.625,-29.785,20.508,0.000
1727361619.161,55.664,-15.137,-25.391,22.949,0.000
1727361619.165,1.465,-14.160,-26.855,0.977,0.000
1727361619.169,-70.801,-13.672,-29.297,-30.273,0.000
1727361619.173,-65.430,-15.625,-26.367,-36.621,0.000
1727361619.177,21.973,-20.020,-25.879,-11.230,0.000
1727361619.181,67.871,-23.438,-29.785,4.883,0.000
1727361619.185,9.766,-38.086,-33.691,-0.488,0.000
1727361619.189,-56.152,-39.062,-27.344,-21.484,0.000
1727361619.193,-57.617,-27.832,-33.203,-27.832,0.000
1727361619.196,-10.742,-29.297,-47.363,-14.648,0.000
1727361619.200,42.480,-34.668,-40.527,5.371,0.000
1727361619.204,24.414,-28.809,-38.574,4.883,0.000
1727361619.208,-56.641,-17.090,-49.805,-48.340,0.000
1727361619.212,0.000,-16.113,-55.176,-64.453,0.000
1727361619.216,0.000,-13.184,-55.664,-14.648,0.000
1727361619.220,0.000,-23.438,-57.129,-0.977,0.000
1727361619.224,0.000,-34.180,-48.828,-5.859,0.000
1727361619.228,0.000,-25.391,-40.527,-27.344,0.000
1727361619.232,0.000,-21.484,-45.410,-47.363,0.000
1727361619.236,0.000,-24.414,-45.410,-15.625,0.000
1727361619.239,0.000,-25.879,-55.176,3.906,0.000
1727361619.243,0.000,-18.066,-58.105,0.488,0.000
1727361619.247,0.000,-20.996,-52.734,-31.738,0.000
1727361619.251,0.000,-30.762,-58.105,-69.824,0.000
1727361619.255,0.000,-33.203,-54.199,-40.039,0.000
1727361619.259,39.062,-29.785,-54.688,5.859,0.000
1727361619.263,15.625,-20.996,-56.641,-5.371,0.000
1727361619.267,-60.547,-22.461,-50.781,-21.973,0.000
1727361619.271,-103.516,-10.254,-51.758,-27.832,0.000
1727361619.275,-46.387,5.859,-53.711,-22.461,0.000
1727361619.279,51.270,-0.977,-45.410,2.441,0.000
1727361619.282,52.246,-5.371,-41.504,-0.977,0.000
1727361619.286,-22.461,-16.113,-38.574,-20.020,0.000
1727361619.290,-76.660,-21.484,-33.203,-24.414,0.000
1727361619.294,-43.457,-14.648,-39.551,-19.043,0.000
1727361619.298,49.316,-15.625,-48.340,-0.488,0.000
1727361619.302,64.941,-12.695,-47.363,20.020,0.000
1727361619.306,-2.441,-5.859,-37.109,2.930,0.000
1727361619.310,-71.289,-12.695,-28.320,-30.762,0.000
1727361619.314,-51.758,-28.320,-21.484,-24.902,0.000
1727361619.318,33.203,-40.527,-26.855,-0.977,0.000
1727361619.322,51.270,-47.363,-36.621,5.371,0.000
1727361619.325,-0.488,-45.898,-33.203,4.883,0.000
1727361619.329,-66.895,-29.785,-31.250,-22.949,0.000
1727361619.333,-49.805,-26.855,-39.551,-12.695,0.000
1727361619.337,30.273,-32.227,-58.105,13.672,0.000
1727361619.341,67.871,-25.391,-51.758,18.066,0.000
1727361619.345,20.996,-30.273,-32.715,16.602,0.000
1727361619.349,-62.012,-44.922,-39.551,-25.391,0.000
1727361619.353,-60.547,-47.363,-41.504,-29.785,0.000
1727361619.357,16.602,-28.809,-38.574,3.906,0.000
1727361619.361,54.688,-23.438,-44.434,3.906,0.000
1727361619.365,2.930,-31.250,-49.316,-23.438,0.000
1727361619.368,-84.473,-30.273,-59.570,-57.617,0.000
1727361619.372,-92.285,-38.574,-62.500,-69.336,0.000
1727361619.376,-14.160,-57.129,-57.129,-33.203,0.000
1727361619.380,47.363,-59.082,-49.805,14.160,0.000
1727361619.384,-7.324,-54.199,-45.410,11.719,0.000
1727361619.388,-92.285,-56.152,-44.922,-24.414,0.000
1727361619.392,-106.445,-44.922,-44.922,-28.320,0.000
1727361619.396,-38.086,-67.871,-50.293,-12.207,0.000
1727361619.400,48.828,-94.727,-36.133,-3.906,0.000
1727361619.404,33.203,-50.781,-18.555,7.324,0.000
1727361619.407,-54.199,-1.953,-26.367,-9.766,0.000
1727361619.411,-99.609,-0.977,-35.156,-34.668,0.000
1727361619.415,-46.387,-23.438,-33.691,-16.113,0.000
1727361619.419,28.809,-35.645,-48.828,-7.324,0.000
1727361619.423,20.020,-41.504,-59.570,-16.602,0.000
1727361619.427,-52.246,-46.875,-43.945,-23.926,0.000
1727361619.431,-78.125,-53.223,-27.344,-34.180,0.000
1727361619.435,-26.367,-49.805,-32.227,-11.230,0.000
1727361619.439,35.156,-44.922,-41.504,8.301,0.000
1727361619.443,26.367,-28.809,-38.574,0.977,0.000
1727361619.447,-43.457,-17.090,-39.062,-19.043,0.000
1727361619.450,-81.055,-26.367,-37.109,-40.527,0.000
1727361619.454,-19.043,-39.551,-24.414,-15.137,0.000
1727361619.458,69.336,-36.133,-22.461,19.043,0.000
1727361619.462,51.758,-29.785,-29.297,20.020,0.000
1727361619.466,-24.414,-38.086,-30.273,-9.766,0.000
1727361619.470,-78.613,-42.480,-29.297,-28.809,0.000
1727361619.474,-56.641,-51.758,-25.879,0.977,0.000
1727361619.478,32.715,-47.363,-25.879,11.230,0.000
1727361619.482,55.664,-34.180,-25.391,2.930,0.000
1727361619.485,-13.184,-49.805,-30.273,-6.836,0.000
1727361619.489,-95.703,-59.570,-37.598,-46.875,0.000
1727361619.493,-88.867,-39.551,-46.875,-45.410,0.000
1727361619.497,8.301,-33.691,-68.359,-12.207,0.000
1727361619.501,40.527,-45.410,-82.520,-8.301,0.000
1727361619.505,-17.090,-57.617,-93.750,-30.762,0.000
1727361619.509,-84.961,-57.617,-88.867,-48.340,0.000
1727361619.513,-88.867,-48.340,-76.660,-35.156,0.000
1727361619.517,-5.371,-54.199,-81.543,-13.672,0.000
1727361619.521,48.340,-50.293,-83.008,0.000,0.000
1727361619.525,5.859,-39.551,-73.242,-9.766,0.000
1727361619.528,-77.637,-34.180,-68.359,-37.109,0.000
1727361619.532,-91.797,-46.387,-77.637,-51.270,0.000
1727361619.536,-7.324,-55.664,-81.055,-37.109,0.000
1727361619.540,60.059,-49.805,-70.801,-16.113,0.000
1727361619.544,24.902,-54.199,-64.453,-17.090,0.000
1727361619.548,-67.383,-50.781,-61.523,-49.805,0.000
1727361619.552,-86.914,-46.387,-48.828,-58.105,0.000
1727361619.556,-7.324,-48.340,-46.875,-15.625,0.000
1727361619.560,58.594,-47.852,-54.688,11.719,0.000
1727361619.564,11.719,-36.133,-53.223,8.301,0.000
1727361619.568,-76.172,-36.621,-62.012,-37.598,0.000
1727361619.571,-111.816,-51.270,-65.430,-66.406,0.000
1727361619.575,-59.570,-53.223,-54.688,-25.879,0.000
1727361619.579,20.508,-54.199,-48.828,0.000,0.000
1727361619.583,8.301,-47.852,-45.410,3.418,0.000
1727361619.587,-57.129,-42.480,-45.410,-14.160,0.000
1727361619.591,-89.844,-45.898,-41.504,-37.109,0.000
1727361619.595,-39.551,-51.270,-41.016,-17.090,0.000
1727361619.599,38.086,-53.711,-47.852,12.207,0.000
1727361619.603,31.250,-39.551,-37.109,26.367,0.000
1727361619.607,-52.246,-41.504,-29.297,-2.441,0.000
1727361619.611,-85.449,-41.504,-34.668,-41.504,0.000
1727361619.614,-41.016,-39.551,-29.785,-28.809,0.000
1727361619.618,27.832,-55.664,-29.785,-5.371,0.000
1727361619.622,24.902,-49.316,-37.109,-4.395,0.000
1727361619.626,-41.016,-41.504,-40.527,-24.414,0.000
1727361619.630,-93.262,-46.875,-45.898,-52.734,0.000
1727361619.634,-69.336,-48.828,-38.086,-44.922,0.000
1727361619.638,25.879,-45.898,-24.414,-13.672,0.000
1727361619.642,41.992,-38.574,-30.273,-8.301,0.000
1727361619.646,-44.434,-40.039,-44.922,-15.625,0.000
1727361619.650,-97.168,-45.410,-36.133,-37.109,0.000
1727361619.654,-65.430,-56.641,-27.832,-47.852,0.000
1727361619.657,11.230,-66.406,-35.156,-29.297,0.000
1727361619.661,61.523,-48.340,-22.461,7.324,0.000
1727361619.665,1.465,-15.625,-11.719,10.742,0.000
1727361619.669,-82.520,-20.508,-23.438,-34.668,0.000
1727361619.673,-64.941,-39.551,-31.738,-46.875,0.000
1727361619.677,20.996,-45.410,-34.180,-14.648,0.000
1727361619.681,46.387,-36.133,-32.715,9.277,0.000
1727361619.685,-7.324,-28.320,-31.738,-1.953,0.000
1727361619.689,-70.801,-37.109,-33.691,-45.898,0.000
1727361619.693,-70.312,-42.480,-35.156,-44.434,0.000
1727361619.696,9.766,-42.969,-42.480,-3.906,0.000
1727361619.700,64.941,-52.246,-32.227,2.930,0.000
1727361619.704,20.508,-60.547,-25.391,9.277,0.000
1727361619.708,-47.363,-31.250,-20.996,-4.883,0.000
1727361619.712,-62.012,-20.996,-18.066,-41.016,0.000
1727361619.716,-5.371,-27.832,-23.438,-28.320,0.000
1727361619.720,45.898,-17.578,-23.926,6.836,0.000
1727361619.724,5.371,-25.391,-20.020,1.465,0.000
1727361619.728,-67.383,-39.062,-25.879,-41.504,0.000
1727361619.732,-74.707,-36.133,-27.832,-53.711,0.000
1727361619.736,1.465,-44.922,-26.855,-12.695,0.000
1727361619.739,57.617,-59.082,-21.973,16.113,0.000
1727361619.743,23.438,-48.828,-20.996,23.926,0.000
1727361619.747,-45.898,-20.996,-24.414,-5.859,0.000
1727361619.751,-64.941,-18.066,-19.043,-35.156,0.000
1727361619.755,1.953,-30.273,-12.207,1.465,0.000
1727361619.759,78.613,-19.531,-5.859,32.227,0.000
1727361619.763,62.012,-16.602,-12.695,18.066,0.000
1727361619.767,-20.508,-20.020,-16.602,-6.836,0.000
1727361619.771,-67.871,-20.020,-9.766,-20.508,0.000
1727361619.775,-4.883,-26.855,-8.789,-5.371,0.000
1727361619.779,72.754,-25.391,-9.277,9.277,0.000
1727361619.782,47.363,-23.438,-19.043,-5.371,0.000
1727361619.786,-16.602,-26.855,-25.391,-21.484,0.000
1727361619.790,-64.453,-32.227,-19.043,-35.156,0.000
1727361619.794,-48.340,-43.945,-27.344,-40.039,0.000
1727361619.798,34.668,-41.016,-33.203,-12.207,0.000
1727361619.802,47.852,-28.320,-35.645,9.277,0.000
1727361619.806,-26.367,-12.695,-34.668,-18.555,0.000
1727361619.810,-80.078,-7.324,-31.250,-44.922,0.000
1727361619.814,-48.828,-9.766,-29.297,-32.715,0.000
1727361619.817,41.504,-22.461,-18.066,1.953,0.000
1727361619.821,45.898,-40.527,-20.020,9.277,0.000
1727361619.825,-36.621,-47.363,-24.414,-22.461,0.000
1727361619.829,-103.516,-41.016,-14.648,-50.781,0.000
1727361619.833,-80.566,-34.668,-6.836,-38.574,0.000
1727361619.837,10.742,-31.250,-11.719,-3.418,0.000
1727361619.841,50.781,-40.527,-28.809,3.418,0.000
1727361619.845,8.301,-39.062,-27.832,-14.648,0.000
1727361619.849,-71.777,-20.020,-11.719,-37.598,0.000
1727361619.853,-79.102,-30.762,-16.602,-41.504,0.000
1727361619.857,17.090,-59.570,-26.367,-1.953,0.000
1727361619.860,54.688,-58.105,-16.113,18.066,0.000
1727361619.864,-12.207,-35.645,-8.301,9.766,0.000
1727361619.868,-80.078,-13.672,-8.301,-18.555,0.000
1727361619.872,-62.012,-14.160,-12.207,-28.809,0.000
1727361619.876,19.043,-35.645,-23.926,5.371,0.000
1727361619.880,59.082,-32.715,-20.996,-0.488,0.000
1727361619.884,-1.465,-33.203,-16.602,-24.902,0.000
1727361619.888,-79.590,-35.156,-7.324,-35.156,0.000
1727361619.892,-87.891,-35.156,0.977,-40.527,0.000
1727361619.896,-5.859,-38.574,3.906,-13.184,0.000
1727361619.899,49.316,-31.250,1.953,-0.488,0.000
1727361619.903,4.395,-29.785,-6.348,-11.230,0.000
1727361619.907,-63.965,-36.621,-0.977,-20.508,0.000
1727361619.911,-88.379,-51.270,5.859,-27.832,0.000
1727361619.915,-38.086,-54.688,2.930,-11.719,0.000
1727361619.919,16.113,-48.828,-19.043,-2.930,0.000
1727361619.923,4.395,-29.297,-23.926,0.000,0.000
1727361619.927,-50.293,-35.156,-14.648,-19.043,0.000
1727361619.931,-84.961,-43.945,-14.160,-40.039,0.000
1727361619.935,-29.297,-26.855,-18.555,-19.043,0.000
1727361619.939,41.504,-20.508,-20.996,2.930,0.000
1727361619.942,10.742,-30.762,-19.043,4.883,0.000
1727361619.946,-65.918,-45.898,-14.648,-15.625,0.000
1727361619.950,-104.980,-58.105,-5.859,-33.203,0.000
1727361619.954,-50.781,-50.781,-15.137,-26.367,0.000
1727361619.958,32.715,-33.203,-25.391,-16.113,0.000
1727361619.962,7.812,-33.691,-28.320,-18.066,0.000
1727361619.966,-52.246,-32.715,-28.320,-40.527,0.000
1727361619.970,-84.961,-28.809,-25.391,-51.270,0.000
1727361619.974,-56.641,-33.203,-24.414,-31.250,0.000
1727361619.978,40.039,-34.180,-21.484,4.883,0.000
1727361619.982,63.477,-24.902,-18.555,7.812,0.000
1727361619.985,-2.930,-47.852,-22.949,-13.184,0.000
1727361619.989,-79.590,-64.453,-21.484,-31.738,0.000
1727361619.993,-72.754,-38.086,-15.625,-19.531,0.000
1727361619.997,5.859,-29.297,-17.090,15.137,0.000
1727361620.001,29.297,-22.949,-23.926,24.902,0.000
1727361620.005,-30.273,-21.484,-20.508,4.395,0.000
1727361620.009,-79.590,-20.996,-7.324,-23.438,0.000
1727361620.013,-58.594,-22.461,-11.230,-15.625,0.000
1727361620.017,21.484,-36.133,-23.926,-2.930,0.000
1727361620.021,63.477,-36.621,-22.461,-8.789,0.000
1727361620.025,-9.277,-34.668,-17.578,-17.090,0.000
1727361620.028,-92.773,-39.062,-13.672,-50.293,0.000
1727361620.032,-83.984,-40.039,-16.113,-56.152,0.000
1727361620.036,-15.137,-42.480,-25.391,-19.043,0.000
1727361620.040,26.367,-21.973,-23.926,4.395,0.000
1727361620.044,-12.695,-10.254,-22.949,-2.930,0.000
1727361620.048,-88.379,-27.344,-20.996,-42.480,0.000
1727361620.052,-98.633,-21.973,-9.766,-49.805,0.000
1727361620.056,-16.113,-17.090,-18.555,-22.949,0.000
1727361620.060,46.387,-26.367,-29.785,-13.184,0.000
1727361620.064,11.719,-28.320,-25.391,-4.883,0.000
1727361620.068,-66.406,-34.668,-24.902,-32.715,0.000
1727361620.071,-88.867,-45.410,-24.414,-53.711,0.000
1727361620.075,-18.066,-42.480,-29.785,-33.203,0.000
1727361620.079,35.156,-32.715,-29.785,-20.020,0.000
1727361620.083,-8.301,-37.598,-34.668,-9.766,0.000
1727361620.087,-85.449,-41.504,-45.410,-21.973,0.000
1727361620.091,-117.188,-23.926,-48.828,-46.387,0.000
1727361620.095,-44.434,-33.691,-53.223,-27.832,0.000
1727361620.099,37.598,-44.434,-48.828,-11.230,0.000
1727361620.103,12.207,-39.551,-43.945,-17.578,0.000
1727361620.107,-57.129,-38.086,-40.527,-38.086,0.000
1727361620.111,-90.820,-30.273,-35.156,-50.781,0.000
1727361620.114,-29.785,-37.598,-44.434,-36.133,0.000
1727361620.118,63.477,-29.297,-53.711,-16.113,0.000
1727361620.122,32.715,-22.461,-44.434,0.977,0.000
1727361620.126,-62.012,-21.484,-35.156,-19.043,0.000
1727361620.130,-107.422,-21.484,-29.785,-56.152,0.000
1727361620.134,-51.758,-19.531,-26.855,-38.086,0.000
1727361620.138,38.574,-20.996,-26.855,-3.418,0.000
1727361620.142,43.457,-23.438,-20.020,12.207,0.000
1727361620.146,-22.949,-15.137,-13.184,-10.742,0.000
1727361620.150,-84.473,-9.766,-13.672,-46.387,0.000
1727361620.153,-59.570,-20.020,-20.508,-40.039,0.000
1727361620.157,22.461,-35.645,-23.926,-1.465,0.000
1727361620.161,41.504,-19.043,-18.066,28.320,0.000
1727361620.165,-26.855,-13.184,-11.230,12.207,0.000
1727361620.169,-91.309,-19.043,-16.602,-21.973,0.000
1727361620.173,-63.965,-26.367,-22.949,-12.207,0.000
1727361620.177,14.648,-52.734,-23.438,-2.930,0.000
1727361620.181,40.039,-36.621,-16.113,-13.672,0.000
1727361620.185,-14.648,-6.836,-16.602,-14.160,0.000
1727361620.189,-87.891,-17.578,-24.414,-40.527,0.000
1727361620.192,-75.684,-20.020,-27.344,-50.293,0.000
1727361620.196,11.719,-19.531,-27.832,-33.203,0.000
1727361620.200,50.781,-25.391,-19.531,-13.184,0.000
1727361620.204,-4.395,-30.273,-15.625,-8.789,0.000
1727361620.208,-90.332,-22.461,-23.438,-35.645,0.000
1727361620.212,-104.980,-34.180,-31.250,-52.734,0.000
1727361620.216,-12.695,-64.941,-37.598,-30.762,0.000
1727361620.220,38.086,-58.594,-40.039,-21.484,0.000
1727361620.224,-7.812,-31.738,-38.086,-38.086,0.000
1727361620.228,-64.453,-14.160,-29.785,-45.898,0.000
1727361620.231,-84.473,-17.578,-25.879,-39.062,0.000
1727361620.235,-26.367,-30.762,-32.715,-24.902,0.000
1727361620.239,28.320,-33.203,-36.621,-30.273,0.000
1727361620.243,-18.555,-35.645,-36.621,-36.133,0.000
1727361620.247,-102.539,-30.273,-27.832,-56.152,0.000
1727361620.251,-120.117,-31.738,-28.320,-82.031,0.000
1727361620.255,-37.598,-40.039,-19.531,-28.809,0.000
1727361620.259,39.062,-35.156,-14.648,8.301,0.000
1727361620.263,0.000,-31.738,-27.832,-8.789,0.000
1727361620.267,-64.941,-28.320,-19.531,-15.137,0.000
1727361620.271,-90.332,-21.973,-15.625,-27.344,0.000
1727361620.274,-40.527,-32.715,-26.855,-25.391,0.000
1727361620.278,49.805,-41.992,-13.672,-6.348,0.000
1727361620.282,27.832,-29.785,-6.348,-11.719,0.000
1727361620.286,-63.477,-30.273,-20.996,-38.086,0.000
1727361620.290,-102.539,-28.809,-30.762,-56.152,0.000
1727361620.294,-51.270,-28.320,-27.832,-33.691,0.000
1727361620.298,33.691,-28.809,-20.020,-6.348,0.000
1727361620.302,34.668,-21.484,-14.648,0.977,0.000
1727361620.306,-41.016,-18.555,-15.137,-9.766,0.000
1727361620.310,-85.449,-8.301,-15.137,-27.344,0.000
1727361620.314,-29.785,-3.418,-13.184,-18.555,0.000
1727361620.317,58.105,-11.719,-14.160,-8.301,0.000
1727361620.321,72.754,-16.113,-10.742,3.906,0.000
1727361620.325,-2.930,-30.273,-5.859,-8.301,0.000
1727361620.329,-92.285,-40.527,-15.625,-44.434,0.000
1727361620.333,-69.336,-30.273,-25.391,-20.020,0.000
1727361620.337,31.250,-17.578,-18.555,12.695,0.000
1727361620.341,41.504,-3.418,-21.973,0.977,0.000
1727361620.345,-34.180,-16.602,-31.250,-24.414,0.000
1727361620.349,-90.820,-35.645,-23.926,-45.898,0.000
1727361620.353,-74.219,-33.203,-21.973,-41.504,0.000
1727361620.357,13.184,-24.414,-27.832,-25.879,0.000
1727361620.360,28.809,-21.973,-29.785,-7.324,0.000
1727361620.364,-40.039,-25.879,-26.855,-17.090,0.000
1727361620.368,-101.074,-30.762,-30.273,-55.176,0.000
1727361620.372,-94.727,-37.109,-37.109,-59.570,0.000
1727361620.376,-14.160,-34.180,-36.133,-33.691,0.000
1727361620.380,26.855,-24.902,-31.250,-12.695,0.000
1727361620.384,-24.902,-40.527,-40.039,-24.414,0.000
1727361620.388,-102.051,-46.387,-45.410,-64.453,0.000
1727361620.392,-95.215,-23.438,-37.109,-70.801,0.000
1727361620.396,-10.254,-18.555,-35.156,-31.250,0.000
1727361620.400,34.180,-37.109,-36.133,-16.113,0.000
1727361620.403,-6.348,-42.969,-31.250,-24.414,0.000
1727361620.407,-93.750,-33.691,-30.762,-50.293,0.000
1727361620.411,-114.746,-30.762,-34.668,-62.988,0.000
1727361620.415,-23.926,-41.016,-36.133,-28.320,0.000
1727361620.419,46.387,-36.621,-25.879,10.254,0.000
1727361620.423,14.648,-24.414,-16.602,0.000,0.000
1727361620.427,-54.688,-17.090,-11.719,-32.227,0.000
1727361620.431,-84.473,-4.883,-15.137,-23.438,0.000
1727361620.435,-25.391,-6.348,-27.832,-1.953,0.000
1727361620.439,46.387,-9.766,-34.180,3.418,0.000
1727361620.442,18.555,-15.137,-21.484,-5.371,0.000
1727361620.446,-59.082,-18.066,-13.672,-26.855,0.000
1727361620.450,-84.961,-9.277,-16.113,-44.434,0.000
1727361620.454,-14.160,-10.254,-12.207,-18.555,0.000
1727361620.458,63.965,-17.578,-8.301,15.625,0.000
1727361620.462,53.711,-7.324,0.000,25.879,0.000
1727361620.466,-22.461,-4.883,-3.906,-9.766,0.000
1727361620.470,-79.102,-11.230,-9.766,-39.551,0.000
1727361620.474,-44.922,-15.625,-16.113,-24.414,0.000
1727361620.478,24.902,-26.855,-38.086,-19.043,0.000
1727361620.482,27.344,-33.203,-37.598,-27.344,0.000
1727361620.485,-30.762,-23.438,-28.320,-38.574,0.000
1727361620.489,-102.051,-15.625,-26.855,-54.199,0.000
1727361620.493,-97.656,-20.996,-27.832,-45.898,0.000
1727361620.497,-7.812,-35.156,-35.645,-24.902,0.000
1727361620.501,18.066,-52.246,-35.645,-15.625,0.000
1727361620.505,-39.062,-50.293,-20.020,-19.531,0.000
1727361620.509,-97.168,-31.250,-19.531,-47.852,0.000
1727361620.513,-87.891,-20.020,-29.785,-46.387,0.000
1727361620.517,-2.441,-23.926,-34.180,-27.344,0.000
1727361620.521,30.273,-22.461,-33.203,-32.715,0.000
1727361620.525,-30.762,-21.973,-29.785,-42.969,0.000
1727361620.528,-98.145,-28.320,-38.574,-73.730,0.000
1727361620.532,-94.238,-42.969,-40.039,-68.848,0.000
1727361620.536,2.441,-46.875,-27.832,-18.555,0.000
1727361620.540,44.434,-34.180,-22.949,-3.906,0.000
1727361620.544,-27.344,-34.180,-24.902,-30.273,0.000
1727361620.548,-107.422,-32.227,-26.855,-63.965,0.000
1727361620.552,-106.445,-32.715,-29.785,-57.129,0.000
1727361620.556,-17.578,-29.785,-29.297,-27.344,0.000
1727361620.560,35.156,-19.531,-23.926,-7.324,0.000
1727361620.563,-6.348,-18.066,-19.043,-10.254,0.000
1727361620.567,-73.242,-20.020,-18.066,-43.457,0.000
1727361620.571,-80.566,-27.832,-21.973,-52.246,0.000
1727361620.575,2.930,-40.039,-23.438,-18.066,0.000
1727361620.579,69.336,-30.762,-13.184,10.254,0.000
1727361620.583,21.973,-14.648,-13.184,8.789,0.000
1727361620.587,-76.660,0.488,-23.926,-19.043,0.000
1727361620.591,-98.633,-0.977,-24.414,-36.621,0.000
1727361620.595,-7.812,-17.090,-27.344,-15.137,0.000
1727361620.599,56.152,-24.414,-25.879,11.719,0.000
1727361620.603,16.113,-18.555,-21.973,4.883,0.000
1727361620.606,-74.219,-25.879,-27.344,-29.297,0.000
1727361620.610,-106.445,-31.250,-21.484,-35.156,0.000
1727361620.614,-30.273,-24.902,-9.277,-3.906,0.000
1727361620.618,57.617,-20.020,-3.906,10.742,0.000
1727361620.622,42.480,-14.648,-7.812,2.441,0.000
1727361620.626,-48.340,-16.602,-16.602,-22.949,0.000
1727361620.630,-98.633,-20.996,-20.996,-54.688,0.000
1727361620.634,-48.828,-30.273,-20.996,-34.668,0.000
1727361620.638,27.832,-38.086,-27.344,-2.930,0.000
1727361620.642,22.949,-37.109,-28.320,-3.906,0.000
1727361620.645,-54.688,-32.715,-19.043,-19.531,0.000
1727361620.649,-96.191,-33.691,-18.555,-36.621,0.000
1727361620.653,-39.062,-33.691,-22.461,-17.090,0.000
1727361620.657,33.691,-29.297,-16.602,-6.348,0.000
1727361620.661,15.625,-31.738,-14.160,-20.020,0.000
1727361620.665,-55.176,-31.738,-13.184,-31.738,0.000
1727361620.669,-108.398,-32.227,-15.137,-56.152,0.000
1727361620.673,-84.961,-41.992,-24.414,-46.875,0.000
1727361620.677,12.207,-53.711,-29.785,-21.973,0.000
1727361620.681,46.875,-55.176,-34.180,-10.742,0.000
1727361620.685,-29.785,-36.133,-37.109,-12.695,0.000
1727361620.688,-112.793,-26.367,-36.621,-47.852,0.000
1727361620.692,-79.102,-27.832,-29.785,-45.410,0.000
1727361620.696,17.578,-25.391,-17.090,-17.090,0.000
1727361620.700,37.598,-30.273,-19.043,-16.113,0.000
1727361620.704,-31.738,-25.879,-30.273,-31.738,0.000
1727361620.708,-92.285,-20.020,-27.832,-57.617,0.000
1727361620.712,-73.730,-20.996,-22.461,-48.340,0.000
1727361620.716,11.230,-24.902,-24.902,-6.836,0.000
1727361620.720,49.316,-35.645,-23.438,11.230,0.000
1727361620.724,0.977,-35.645,-24.414,-0.488,0.000
1727361620.728,-65.430,-25.879,-27.344,-30.762,0.000
1727361620.731,-79.590,-29.297,-24.414,-37.109,0.000
1727361620.735,1.953,-26.367,-18.555,-9.277,0.000
1727361620.739,47.852,-23.438,-26.855,-1.465,0.000
1727361620.743,-13.672,-22.461,-38.574,-8.789,0.000
1727361620.747,-84.473,-13.184,-31.250,-35.156,0.000
1727361620.751,-103.027,-20.996,-24.902,-62.988,0.000
1727361620.755,-33.691,-39.062,-20.996,-33.203,0.000
1727361620.759,41.504,-39.062,-14.648,3.418,0.000
1727361620.763,20.020,-35.645,-15.137,7.812,0.000
1727361620.767,-73.730,-39.551,-22.949,-26.367,0.000
1727361620.771,-104.492,-45.898,-24.414,-49.805,0.000
1727361620.774,-21.973,-53.223,-19.043,-15.137,0.000
1727361620.778,35.645,-49.805,-15.625,5.371,0.000
1727361620.782,5.371,-30.273,-19.531,-15.137,0.000
1727361620.786,-73.242,-19.531,-24.414,-48.828,0.000
1727361620.790,-110.840,-22.461,-12.207,-57.617,0.000
1727361620.794,-42.480,-24.902,-5.859,-34.180,0.000
1727361620.798,31.738,-38.086,-15.625,-16.602,0.000
1727361620.802,19.531,-31.250,-14.160,-17.578,0.000
1727361620.806,-43.457,-21.484,-7.324,-30.762,0.000
1727361620.810,-92.773,-34.180,-13.672,-40.039,0.000
1727361620.814,-40.039,-20.020,-9.277,-28.320,0.000
1727361620.817,36.133,-8.301,-7.812,-24.414,0.000
1727361620.821,18.555,-29.297,-19.043,-31.250,0.000
1727361620.825,-53.711,-35.645,-22.949,-44.922,0.000
1727361620.829,-107.910,-30.273,-26.367,-61.523,0.000
1727361620.833,-66.895,-35.156,-31.738,-29.297,0.000
1727361620.837,19.043,-36.133,-46.875,7.324,0.000
1727361620.841,27.344,-23.438,-49.805,1.465,0.000
1727361620.845,-32.227,-3.418,-42.480,-16.113,0.000
1727361620.849,-80.566,2.930,-40.039,-30.273,0.000
1727361620.853,-59.570,-15.625,-46.387,-21.484,0.000
1727361620.857,12.695,-23.926,-53.223,-6.348,0.000
1727361620.860,38.574,-21.484,-59.082,-5.859,0.000
1727361620.864,-25.391,-23.438,-61.523,-14.648,0.000
1727361620.868,-103.516,-26.855,-57.129,-27.344,0.000
1727361620.872,-96.680,-38.574,-49.805,-12.695,0.000
1727361620.876,-0.977,-45.410,-50.781,8.789,0.000
1727361620.880,45.898,-35.156,-58.105,0.488,0.000
1727361620.884,-20.020,-22.461,-59.570,-15.625,0.000
1727361620.888,-100.586,-23.438,-61.035,-51.270,0.000
1727361620.892,-95.215,-33.691,-60.059,-52.246,0.000
1727361620.895,0.977,-34.668,-47.852,-10.742,0.000
1727361620.899,47.363,-28.320,-35.645,-3.418,0.000
1727361620.903,-10.254,-36.133,-41.016,-24.902,0.000
1727361620.907,-91.797,-47.363,-47.363,-61.523,0.000
1727361620.911,-102.539,-41.992,-42.969,-55.664,0.000
1727361620.915,-20.508,-41.504,-40.527,-15.625,0.000
1727361620.919,34.668,-38.086,-39.551,4.883,0.000
1727361620.923,-9.277,-25.879,-40.039,-3.906,0.000
1727361620.927,-84.961,-21.484,-37.598,-34.668,0.000
1727361620.931,-90.820,-28.809,-39.551,-53.711,0.000
1727361620.935,-19.531,-42.480,-44.434,-35.156,0.000
1727361620.938,23.438,-57.617,-40.527,-19.043,0.000
1727361620.942,-18.066,-57.129,-38.086,-23.438,0.000
1727361620.946,-94.727,-49.805,-39.551,-52.246,0.000
1727361620.950,-121.094,-38.086,-39.062,-72.754,0.000
1727361620.954,-47.363,-35.645,-38.086,-41.504,0.000
1727361620.958,20.996,-39.551,-40.039,-13.672,0.000
1727361620.962,-0.488,-35.645,-46.387,-24.902,0.000
1727361620.966,-79.590,-39.062,-47.363,-56.641,0.000
1727361620.970,-116.699,-35.156,-42.480,-69.824,0.000
1727361620.974,-52.246,-33.691,-41.992,-44.922,0.000
1727361620.978,25.879,-45.898,-44.434,-25.391,0.000
1727361620.981,15.137,-41.504,-53.711,-22.461,0.000
1727361620.985,-55.176,-28.320,-58.105,-32.227,0.000
1727361620.989,-95.703,-23.926,-49.805,-51.270,0.000
1727361620.993,0.000,-16.113,-34.668,-25.879,0.000
1727361620.997,0.000,1.465,-19.531,0.977,0.000
1727361621.001,0.000,-5.371,-16.113,-7.812,0.000
1727361621.005,0.000,-18.066,-16.602,-23.926,0.000
1727361621.009,0.000,-20.020,-20.996,-49.805,0.000
1727361621.013,0.000,-24.414,-26.367,-25.879,0.000
1727361621.017,0.000,-21.484,-31.250,0.977,0.000
1727361621.020,0.000,-17.578,-33.203,-2.930,0.000
1727361621.024,0.000,-14.648,-24.414,-11.719,0.000
1727361621.028,0.000,-22.949,-15.137,-39.551,0.000
1727361621.032,0.000,-33.203,-21.973,-41.992,0.000
1727361621.036,0.000,-36.621,-20.020,-3.906,0.000
1727361621.040,69.824,-28.320,-4.395,16.113,0.000
1727361621.044,0.488,-21.484,-6.836,-4.395,0.000
1727361621.048,-83.496,-18.066,-19.531,-35.645,0.000
1727361621.052,-68.359,-20.996,-25.879,-30.762,0.000
1727361621.056,18.555,-31.738,-25.391,8.789,0.000
1727361621.060,50.781,-23.926,-28.809,1.465,0.000
1727361621.063,-7.812,-22.949,-29.785,-40.039,0.000
1727361621.067,-73.730,-41.016,-29.785,-64.453,0.000
1727361621.071,-83.496,-38.086,-28.320,-42.969,0.000
1727361621.075,-16.602,-33.203,-30.273,-10.742,0.000
1727361621.079,33.203,-32.227,-31.250,-9.766,0.000
1727361621.083,-20.020,-20.508,-21.973,-27.832,0.000
1727361621.087,-89.844,-24.414,-23.438,-59.570,0.000
1727361621.091,-99.609,-36.133,-27.832,-55.664,0.000
1727361621.095,-35.645,-50.781,-38.086,-32.715,0.000
1727361621.099,24.902,-56.641,-44.922,-27.344,0.000
1727361621.103,-9.277,-60.547,-50.293,-40.039,0.000
1727361621.106,-78.125,-57.129,-56.152,-62.012,0.000
1727361621.110,-108.887,-50.781,-52.246,-57.617,0.000
1727361621.114,-40.039,-42.480,-43.457,-20.508,0.000
1727361621.118,51.758,-30.273,-29.785,4.883,0.000
1727361621.122,19.043,-27.344,-29.785,-6.348,0.000
1727361621.126,-72.754,-36.621,-36.621,-51.270,0.000
1727361621.130,-102.051,-37.109,-32.715,-73.242,0.000
1727361621.134,-38.574,-29.785,-35.156,-42.480,0.000
1727361621.138,43.457,-23.438,-42.969,-5.859,0.000
1727361621.142,24.902,-7.812,-41.992,4.883,0.000
1727361621.146,-51.270,-2.930,-33.203,-17.090,0.000
1727361621.149,-83.008,-3.418,-26.855,-31.738,0.000
1727361621.153,-20.020,0.488,-28.809,-8.301,0.000
1727361621.157,61.035,-4.395,-24.902,7.324,0.000
1727361621.161,48.340,-21.973,-25.391,-7.812,0.000
1727361621.165,-41.992,-40.527,-31.738,-33.203,0.000
1727361621.169,-93.750,-38.086,-31.738,-52.734,0.000
1727361621.173,-46.387,-32.715,-36.621,-33.203,0.000
1727361621.177,31.250,-34.180,-32.715,19.043,0.000
1727361621.181,42.969,-26.367,-24.414,28.320,0.000
1727361621.185,-28.809,-17.578,-25.879,-8.789,0.000
1727361621.188,-97.168,-21.973,-29.785,-40.527,0.000
1727361621.192,-61.523,-32.715,-27.344,-30.762,0.000
1727361621.196,29.297,-39.551,-18.066,1.465,0.000
1727361621.200,40.527,-45.410,-19.043,0.488,0.000
1727361621.204,-29.297,-42.969,-20.996,-6.348,0.000
1727361621.208,-101.074,-38.574,-28.320,-25.879,0.000
1727361621.212,-85.938,-44.922,-41.992,-47.852,0.000
1727361621.216,11.230,-44.922,-41.016,-17.578,0.000
1727361621.220,41.016,-41.992,-42.480,11.719,0.000
1727361621.224,-18.555,-35.645,-44.922,-9.766,0.000
1727361621.228,-103.027,-38.086,-36.133,-48.340,0.000
1727361621.231,-102.539,-52.734,-39.551,-44.922,0.000
1727361621.235,-2.441,-44.922,-40.039,-18.555,0.000
1727361621.239,40.527,-37.109,-36.621,-16.113,0.000
1727361621.243,-15.625,-44.434,-41.992,-17.090,0.000
1727361621.247,-98.145,-38.574,-43.945,-43.945,0.000
1727361621.251,-112.305,-26.855,-41.992,-52.246,0.000
1727361621.255,-16.602,-22.949,-35.645,-8.301,0.000
1727361621.259,46.387,-24.902,-34.668,-4.883,0.000
1727361621.263,0.977,-33.691,-41.504,-25.879,0.000
1727361621.267,-75.195,-39.551,-42.969,-42.480,0.000
1727361621.270,-107.910,-39.551,-45.410,-56.641,0.000
1727361621.274,-42.480,-38.574,-47.363,-29.297,0.000
1727361621.278,27.344,-33.203,-45.898,-7.812,0.000
1727361621.282,10.742,-30.273,-42.969,-11.230,0.000
1727361621.286,-65.430,-22.949,-36.133,-33.203,0.000
1727361621.290,-103.027,-24.414,-30.762,-47.363,0.000
1727361621.294,-33.203,-31.738,-35.156,-18.066,0.000
1727361621.298,41.504,-17.090,-37.598,2.930,0.000
1727361621.302,26.855,0.977,-32.715,3.906,0.000
1727361621.306,-49.316,-7.812,-34.180,-35.156,0.000
1727361621.310,-95.703,-32.227,-28.320,-74.707,0.000
1727361621.313,-31.250,-31.738,-15.625,-47.363,0.000
1727361621.317,55.664,-12.695,-13.672,-8.301,0.000
1727361621.321,39.062,-12.695,-17.090,10.254,0.000
1727361621.325,-43.457,-12.207,-18.555,-8.301,0.000
1727361621.329,-99.609,-15.137,-23.926,-46.387,0.000
1727361621.333,-46.387,-25.391,-22.949,-25.879,0.000
1727361621.337,41.504,-27.344,-20.020,3.906,0.000
1727361621.341,28.809,-26.855,-18.555,2.930,0.000
1727361621.345,-45.410,-29.785,-17.090,-19.043,0.000
1727361621.349,-97.168,-22.949,-16.602,-40.527,0.000
1727361621.352,-62.988,-18.555,-20.020,-29.297,0.000
1727361621.356,17.090,-29.785,-20.508,-11.230,0.000
1727361621.360,30.762,-42.969,-21.973,-4.883,0.000
1727361621.364,-46.387,-41.016,-31.250,-31.738,0.000
1727361621.368,-113.770,-33.203,-27.344,-68.848,0.000
1727361621.372,-83.496,-35.645,-29.785,-65.918,0.000
1727361621.376,-4.883,-36.133,-29.785,-50.781,0.000
1727361621.380,12.207,-20.996,-25.879,-52.246,0.000
1727361621.384,-69.824,-19.043,-28.809,-75.684,0.000
1727361621.388,-158.691,-30.273,-17.578,-100.586,0.000
1727361621.392,-137.695,-26.367,-15.137,-100.586,0.000
1727361621.395,-42.969,-22.949,-2.930,-86.914,0.000
1727361621.399,-34.668,-17.578,4.883,-78.613,0.000
1727361621.403,-111.328,-14.648,-0.977,-101.074,0.000
1727361621.407,-184.570,-18.066,6.836,-147.461,0.000
1727361621.411,-187.012,-15.137,19.043,-142.090,0.000
1727361621.415,-113.281,-20.020,10.254,-121.582,0.000
1727361621.419,-87.402,-19.531,5.371,-123.535,0.000
1727361621.423,-148.926,-24.414,4.395,-143.066,0.000
1727361621.427,-224.609,-28.809,0.488,-170.898,0.000
1727361621.431,-229.492,-32.227,7.812,-168.945,0.000
1727361621.435,-137.695,-54.199,5.371,-140.137,0.000
1727361621.439,-89.844,-50.781,-3.418,-135.742,0.000
1727361621.442,-126.465,-39.062,-7.324,-163.086,0.000
1727361621.446,-183.594,-46.387,-5.371,-178.711,0.000
1727361621.450,-188.477,-36.621,-7.324,-181.641,0.000
1727361621.454,-116.699,-14.648,-11.230,-159.668,0.000
1727361621.458,-65.918,-22.461,-15.137,-132.812,0.000
1727361621.462,-104.004,-44.434,-17.090,-127.930,0.000
1727361621.466,-155.273,-38.574,-13.184,-140.137,0.000
1727361621.470,-159.180,-27.344,-19.043,-151.367,0.000
1727361621.474,-88.867,-40.527,-20.508,-117.676,0.000
1727361621.478,-19.531,-24.414,-11.719,-67.871,0.000
1727361621.482,-52.734,-0.977,-8.789,-57.129,0.000
1727361621.485,-128.906,-17.578,-12.207,-78.125,0.000
1727361621.489,-157.227,-16.113,-15.625,-76.660,0.000
1727361621.493,-91.309,-7.324,-30.273,-45.410,0.000
1727361621.497,1.465,-8.301,-40.039,-20.996,0.000
1727361621.501,5.859,-12.695,-36.133,-23.438,0.000
1727361621.505,-63.965,-37.109,-38.086,-45.898,0.000
1727361621.509,-92.285,-35.645,-42.480,-60.059,0.000
1727361621.513,-43.457,-17.578,-45.410,-36.133,0.000
1727361621.517,22.461,-27.344,-50.293,3.906,0.000
1727361621.521,36.133,-31.250,-51.758,29.297,0.000
1727361621.524,-20.020,-0.488,-43.945,29.297,0.000
1727361621.528,-62.012,19.531,-38.574,10.254,0.000
1727361621.532,-21.973,7.324,-35.156,25.391,0.000
1727361621.536,66.895,5.371,-24.902,59.082,0.000
1727361621.540,92.773,15.625,-26.367,64.941,0.000
1727361621.544,39.062,20.996,-36.621,46.875,0.000
1727361621.548,-22.461,17.578,-36.621,5.371,0.000
1727361621.552,-3.906,3.906,-31.738,16.602,0.000
1727361621.556,91.797,-3.906,-29.297,62.500,0.000
1727361621.560,128.906,20.020,-26.367,82.031,0.000
1727361621.564,72.266,32.227,-33.691,73.242,0.000
1727361621.567,1.953,26.855,-32.227,43.457,0.000
1727361621.571,13.184,37.109,-30.762,42.480,0.000
1727361621.575,90.820,35.156,-41.504,68.359,0.000
1727361621.579,119.141,29.785,-41.992,68.848,0.000
1727361621.583,62.500,37.109,-36.621,57.617,0.000
1727361621.587,-9.766,38.574,-31.738,37.109,0.000
1727361621.591,-12.207,17.090,-32.227,30.762,0.000
1727361621.595,69.336,9.277,-36.133,56.152,0.000
1727361621.599,110.840,18.555,-41.504,65.430,0.000
1727361621.603,56.152,16.113,-49.316,45.410,0.000
1727361621.607,-22.949,-7.812,-59.570,2.930,0.000
1727361621.610,-33.691,-24.414,-58.594,-11.230,0.000
1727361621.614,49.805,-11.719,-50.781,17.578,0.000
1727361621.618,98.633,-3.906,-49.805,36.133,0.000
1727361621.622,42.480,6.348,-50.781,29.785,0.000
1727361621.626,-31.738,13.672,-49.805,13.184,0.000
1727361621.630,-45.898,2.441,-45.410,12.207,0.000
1727361621.634,21.484,-14.160,-45.898,26.367,0.000
1727361621.638,88.867,-17.090,-48.828,39.551,0.000
1727361621.642,64.453,-13.184,-44.922,43.457,0.000
1727361621.646,6.348,-10.742,-41.992,17.090,0.000
1727361621.649,-28.809,-18.066,-39.062,-7.812,0.000
1727361621.653,23.926,-20.996,-35.645,23.926,0.000
1727361621.657,105.469,-19.043,-33.203,51.758,0.000
1727361621.661,69.824,-25.879,-38.574,43.945,0.000
1727361621.665,-13.672,-19.531,-32.715,10.742,0.000
1727361621.669,-51.270,-8.789,-23.438,-17.578,0.000
1727361621.673,-4.883,-16.602,-26.855,14.160,0.000
1727361621.677,80.566,-19.043,-26.367,44.922,0.000
1727361621.681,71.777,-11.230,-18.066,41.016,0.000
1727361621.685,8.301,-9.277,-13.184,33.203,0.000
1727361621.688,-43.945,-13.184,-5.371,24.414,0.000
1727361621.692,-20.020,-16.602,-1.465,27.832,0.000
1727361621.696,67.871,-23.438,-15.625,29.785,0.000
1727361621.700,76.172,-20.508,-20.508,36.133,0.000
1727361621.704,5.371,-7.324,-24.902,15.625,0.000
1727361621.708,-64.453,-6.836,-27.832,-24.414,0.000
1727361621.712,-43.945,-8.301,-27.832,-23.438,0.000
1727361621.716,50.293,-8.789,-27.344,6.348,0.000
1727361621.720,57.129,-22.949,-31.738,20.996,0.000
1727361621.724,-16.602,-26.367,-47.852,1.465,0.000
1727361621.728,-68.359,-19.043,-47.852,-36.133,0.000
1727361621.731,-43.945,-12.695,-31.250,-30.762,0.000
1727361621.735,22.949,-9.277,-41.504,-6.348,0.000
1727361621.739,36.133,-19.531,-57.617,9.277,0.000
1727361621.743,-24.902,-31.738,-44.434,14.160,0.000
1727361621.747,-89.355,-36.133,-27.832,-19.043,0.000
1727361621.751,-83.008,-48.828,-29.297,-40.527,0.000
1727361621.755,-1.953,-50.781,-29.297,-3.418,0.000
1727361621.759,49.805,-37.598,-22.461,20.508,0.000
1727361621.763,-4.395,-31.250,-24.414,7.812,0.000
1727361621.767,-88.867,-29.297,-28.320,-33.203,0.000
1727361621.771,-97.656,-24.414,-28.320,-40.527,0.000
1727361621.774,-19.531,-35.156,-24.414,2.441,0.000
1727361621.778,38.086,-53.223,-17.090,15.625,0.000
1727361621.782,-6.348,-42.969,-13.672,3.418,0.000
1727361621.786,-74.707,-39.551,-14.648,-17.578,0.000
1727361621.790,-90.820,-45.898,-23.926,-36.133,0.000
1727361621.794,-28.320,-41.504,-30.762,-20.996,0.000
1727361621.798,39.551,-37.109,-21.973,1.465,0.000
1727361621.802,23.438,-29.785,-15.625,4.883,0.000
1727361621.806,-62.500,-32.227,-17.090,-20.508,0.000
1727361621.810,-104.980,-54.688,-15.625,-48.340,0.000
1727361621.814,-23.926,-44.922,-12.695,-23.438,0.000
1727361621.817,60.059,-17.578,-11.230,15.137,0.000
1727361621.821,29.785,-15.137,-13.672,23.926,0.000
1727361621.825,-53.711,-18.555,-23.926,-12.695,0.000
1727361621.829,-101.562,-25.391,-30.273,-69.336,0.000
1727361621.833,-48.828,-30.762,-30.273,-59.570,0.000
1727361621.837,36.133,-33.691,-24.902,-18.066,0.000
1727361621.841,12.695,-26.855,-21.484,3.906,0.000
1727361621.845,-62.988,-21.973,-17.090,-13.672,0.000
1727361621.849,-97.656,-29.297,-22.461,-57.129,0.000
1727361621.853,-46.387,-35.645,-23.438,-41.504,0.000
1727361621.857,25.879,-45.898,-26.855,-20.020,0.000
1727361621.860,23.926,-36.621,-30.273,-25.391,0.000
1727361621.864,-46.875,-28.320,-26.855,-39.062,0.000
1727361621.868,-109.375,-35.645,-28.320,-60.059,0.000
1727361621.872,-71.289,-40.039,-29.297,-58.105,0.000
1727361621.876,7.324,-45.410,-36.133,-41.992,0.000
1727361621.880,8.789,-40.527,-37.598,-21.973,0.000
1727361621.884,-63.965,-48.340,-34.668,-33.203,0.000
1727361621.888,-128.418,-49.316,-35.645,-61.523,0.000
1727361621.892,-96.191,-34.180,-31.250,-52.246,0.000
1727361621.896,-12.207,-42.480,-36.133,-36.133,0.000
1727361621.899,4.883,-48.828,-38.574,-33.691,0.000
1727361621.903,-44.434,-33.691,-27.832,-39.062,0.000
1727361621.907,-94.727,-35.645,-28.320,-65.918,0.000
1727361621.911,-88.867,-45.410,-38.086,-73.242,0.000
1727361621.915,-12.207,-34.668,-37.598,-29.297,0.000
1727361621.919,16.602,-37.598,-31.250,-11.230,0.000
1727361621.923,-33.691,-46.875,-30.273,-24.414,0.000
1727361621.927,-93.750,-37.598,-35.645,-54.199,0.000
1727361621.931,-90.332,-46.875,-36.621,-71.289,0.000
1727361621.935,-12.207,-52.246,-34.668,-32.715,0.000
1727361621.939,37.598,-42.969,-30.273,4.883,0.000
1727361621.942,-3.906,-31.250,-31.250,-1.465,0.000
1727361621.946,-80.078,-33.691,-31.738,-32.227,0.000
1727361621.950,-78.125,-41.504,-30.762,-43.457,0.000
1727361621.954,11.230,-33.203,-39.062,-22.949,0.000
1727361621.958,53.711,-20.020,-30.273,-4.883,0.000
1727361621.962,-0.488,-15.137,-13.672,-8.789,0.000
1727361621.966,-81.055,-16.113,-17.578,-38.086,0.000
1727361621.970,-110.352,-22.949,-29.297,-51.270,0.000
1727361621.974,-46.387,-28.809,-40.527,-34.180,0.000
1727361621.978,30.762,-24.414,-40.527,-23.438,0.000
1727361621.982,-5.859,-28.809,-33.691,-22.461,0.000
1727361621.985,-86.426,-28.320,-29.297,-48.828,0.000
1727361621.989,-107.422,-30.762,-32.715,-66.895,0.000
1727361621.993,-43.945,-52.246,-31.250,-31.250,0.000
1727361621.997,36.133,-46.875,-31.250,3.418,0.000
1727361622.001,21.973,-20.996,-29.297,5.371,0.000
1727361622.005,-62.012,-19.531,-25.879,-19.043,0.000
1727361622.009,-100.586,-24.414,-31.738,-35.156,0.000
1727361622.013,-41.992,-37.109,-32.715,-17.090,0.000
1727361622.017,17.578,-45.410,-32.227,-19.043,0.000
1727361622.021,8.301,-39.551,-31.250,-28.320,0.000
1727361622.024,-62.500,-43.457,-27.832,-44.922,0.000
1727361622.028,-108.887,-47.852,-28.320,-58.105,0.000
1727361622.032,-48.828,-46.875,-21.973,-22.949,0.000
1727361622.036,48.828,-40.039,-23.926,-11.719,0.000
1727361622.040,51.758,-30.273,-35.156,-25.879,0.000
1727361622.044,-20.996,-32.227,-27.344,-29.785,0.000
1727361622.048,-73.730,-33.203,-18.066,-37.598,0.000
1727361622.052,-39.062,-30.762,-25.879,-24.902,0.000
1727361622.056,52.734,-22.461,-30.273,5.859,0.000
1727361622.060,67.871,-14.648,-23.438,23.438,0.000
1727361622.063,-10.254,-16.602,-18.066,-2.930,0.000
1727361622.067,-78.613,-22.461,-18.555,-42.969,0.000
1727361622.071,-63.477,-34.668,-19.043,-35.156,0.000
1727361622.075,15.625,-40.039,-16.113,-0.977,0.000
1727361622.079,38.574,-38.086,-15.137,-0.488,0.000
1727361622.083,-22.461,-39.062,-16.602,-17.090,0.000
1727361622.087,-93.262,-38.086,-20.508,-41.504,0.000
1727361622.091,-77.148,-39.062,-16.602,-28.809,0.000
1727361622.095,17.578,-29.297,-17.090,8.301,0.000
1727361622.099,50.293,-18.555,-12.207,-3.906,0.000
1727361622.103,-14.160,-15.625,-8.789,-32.227,0.000
1727361622.106,-101.074,-20.020,-23.438,-55.176,0.000
1727361622.110,-112.305,-37.598,-25.391,-55.664,0.000
1727361622.114,-32.715,-41.504,-19.531,-29.297,0.000
1727361622.118,20.996,-39.062,-19.043,-18.066,0.000
1727361622.122,-24.902,-44.434,-27.344,-23.438,0.000
1727361622.126,-98.145,-46.387,-28.320,-38.574,0.000
1727361622.130,-101.074,-48.828,-19.531,-40.039,0.000
1727361622.134,-23.926,-62.988,-17.578,-15.625,0.000
1727361622.138,44.434,-51.758,-16.602,-5.371,0.000
1727361622.142,10.254,-39.062,-18.066,-19.043,0.000
1727361622.145,-92.285,-37.109,-25.879,-54.688,0.000
1727361622.149,-115.723,-26.367,-25.879,-67.383,0.000
1727361622.153,-18.066,-23.438,-20.508,-34.668,0.000
1727361622.157,62.012,-37.109,-30.762,-20.508,0.000
1727361622.161,15.137,-34.668,-34.180,-12.695,0.000
1727361622.165,-82.031,-30.273,-31.738,-32.227,0.000
1727361622.169,-105.469,-35.156,-35.645,-63.965,0.000
1727361622.173,-36.621,-39.062,-32.715,-34.668,0.000
1727361622.177,40.039,-40.039,-36.133,-3.418,0.000
1727361622.181,41.504,-32.227,-31.738,6.836,0.000
1727361622.185,-41.016,-29.297,-25.879,-11.719,0.000
1727361622.188,-88.867,-26.367,-24.902,-38.574,0.000
1727361622.192,-32.227,-35.156,-25.879,-25.391,0.000
1727361622.196,47.363,-45.410,-21.484,5.371,0.000
1727361622.200,44.434,-42.480,-12.695,11.719,0.000
1727361622.204,-31.250,-38.086,-9.766,-13.184,0.000
1727361622.208,-94.238,-34.668,-12.207,-41.992,0.000
1727361622.212,-58.105,-29.785,-16.602,-7.324,0.000
1727361622.216,29.297,-21.973,-18.555,14.648,0.000
1727361622.220,27.832,-18.066,-16.602,-3.418,0.000
1727361622.224,-57.129,-17.578,-21.973,-30.273,0.000
1727361622.228,-115.234,-28.809,-25.879,-61.523,0.000
1727361622.231,-66.895,-40.039,-31.738,-41.504,0.000
1727361622.235,16.602,-36.133,-41.504,-23.926,0.000
1727361622.239,23.926,-41.016,-44.434,-26.855,0.000
1727361622.243,-33.203,-37.598,-37.598,-35.156,0.000
1727361622.247,-95.215,-27.344,-31.738,-49.805,0.000
1727361622.251,-90.820,-27.832,-37.598,-42.969,0.000
1727361622.255,0.488,-18.555,-37.109,-15.625,0.000
1727361622.259,40.527,-21.484,-30.762,-12.207,0.000
1727361622.263,-24.902,-33.203,-35.645,-34.180,0.000
1727361622.267,-109.375,-37.109,-40.527,-53.223,0.000
1727361622.271,-101.074,-45.410,-41.504,-47.363,0.000
1727361622.274,-8.301,-54.199,-38.574,-20.508,0.000
1727361622.278,45.898,-42.969,-38.574,-6.348,0.000
1727361622.282,3.418,-21.484,-39.551,-5.371,0.000
1727361622.286,-72.266,-14.160,-44.922,-45.410,0.000
1727361622.290,-93.750,-19.043,-51.758,-43.457,0.000
1727361622.294,-25.391,-18.555,-49.805,0.488,0.000
1727361622.298,44.922,-20.020,-44.922,0.977,0.000
1727361622.302,22.461,-27.832,-44.922,-11.719,0.000
1727361622.306,-52.734,-37.109,-47.363,-46.387,0.000
1727361622.310,-81.543,-32.715,-46.387,-57.129,0.000
1727361622.314,-5.371,-8.789,-36.621,-6.836,0.000
1727361622.317,50.781,-1.953,-36.133,9.766,0.000
1727361622.321,0.000,-12.695,-42.969,-9.766,0.000
1727361622.325,-71.777,-20.996,-35.645,-37.109,0.000
1727361622.329,-90.332,-24.902,-25.391,-44.434,0.000
1727361622.333,-18.066,-22.949,-25.879,-4.883,0.000
1727361622.337,51.270,-37.109,-27.344,20.508,0.000
1727361622.341,22.949,-53.711,-21.484,9.277,0.000
1727361622.345,-54.199,-33.691,-19.043,-27.832,0.000
1727361622.349,-103.027,-26.855,-25.391,-63.477,0.000
1727361622.353,-46.387,-23.926,-30.273,-42.480,0.000
1727361622.356,41.016,-5.859,-22.949,-6.348,0.000
1727361622.360,13.184,-21.973,-24.414,-7.812,0.000
1727361622.364,-86.426,-33.691,-29.785,-34.180,0.000
1727361622.368,-124.023,-29.297,-16.602,-60.059,0.000
1727361622.372,-55.664,-33.691,-7.324,-29.297,0.000
1727361622.376,20.020,-38.086,-13.184,-2.441,0.000
1727361622.380,10.742,-35.156,-26.367,-8.301,0.000
1727361622.384,-48.828,-34.668,-26.367,-15.137,0.000
1727361622.388,-93.262,-41.992,-27.344,-42.969,0.000
1727361622.392,-54.199,-48.340,-33.203,-38.574,0.000
1727361622.395,43.457,-26.367,-26.367,-3.906,0.000
1727361622.399,59.082,-10.254,-23.438,-4.395,0.000
1727361622.403,-16.113,-23.438,-21.973,-22.949,0.000
1727361622.407,-81.543,-35.645,-23.438,-55.176,0.000
1727361622.411,-48.828,-27.832,-26.367,-56.641,0.000
1727361622.415,49.805,-11.230,-24.414,-15.137,0.000
1727361622.419,83.496,-20.508,-34.668,-5.859,0.000
1727361622.423,1.953,-28.320,-42.480,-20.508,0.000
1727361622.427,-96.680,-14.160,-33.203,-31.250,0.000
1727361622.431,-75.195,-16.602,-18.555,-20.508,0.000
1727361622.435,24.902,-15.625,-14.160,4.883,0.000
1727361622.438,48.828,-5.371,-21.973,11.230,0.000
1727361622.442,-12.695,-15.137,-21.973,1.465,0.000
1727361622.446,-81.055,-23.438,-14.160,-30.762,0.000
1727361622.450,-80.078,-23.926,-12.695,-42.480,0.000
1727361622.454,-1.953,-41.016,-10.742,-15.625,0.000
1727361622.458,48.828,-36.621,-1.465,0.488,0.000
1727361622.462,0.000,-14.648,-6.348,-5.859,0.000
1727361622.466,-82.031,-23.926,-19.043,-46.875,0.000
1727361622.470,-96.191,-50.293,-21.973,-56.152,0.000
1727361622.474,-10.254,-42.969,-24.902,-27.344,0.000
1727361622.477,47.363,-9.277,-23.926,-20.996,0.000
1727361622.481,-7.812,-13.672,-19.043,-16.113,0.000
1727361622.485,-87.402,-25.879,-8.301,-41.016,0.000
1727361622.489,-99.609,-19.043,-5.371,-55.176,0.000
1727361622.493,-30.273,-22.461,-14.160,-23.926,0.000
1727361622.497,27.832,-28.320,-17.090,-9.766,0.000
1727361622.501,5.371,-35.645,-20.020,-26.855,0.000
1727361622.505,-70.801,-32.715,-23.438,-47.852,0.000
1727361622.509,-118.164,-24.414,-20.508,-52.734,0.000
1727361622.513,-58.594,-29.297,-19.531,-35.645,0.000
1727361622.517,18.555,-36.621,-23.926,-13.672,0.000
1727361622.520,-3.418,-40.527,-19.531,-12.207,0.000
1727361622.524,-76.660,-48.828,-15.137,-36.133,0.000
1727361622.528,-117.676,-44.922,-17.578,-58.594,0.000
1727361622.532,-64.941,-18.066,-26.855,-41.504,0.000
1727361622.536,30.762,3.906,-28.320,-15.137,0.000
1727361622.540,33.691,24.414,-22.461,-6.348,0.000
1727361622.544,-42.969,32.715,-31.738,-24.902,0.000
1727361622.548,-108.398,26.367,-35.156,-51.270,0.000
1727361622.552,-73.730,11.719,-27.832,-37.598,0.000
1727361622.556,20.996,3.906,-24.902,-10.742,0.000
1727361622.560,29.297,-1.465,-24.902,8.789,0.000
1727361622.563,-39.062,-8.789,-20.020,-6.836,0.000
1727361622.567,-74.707,5.859,-13.672,-30.273,0.000
1727361622.571,-27.344,10.742,-12.695,-1.465,0.000
1727361622.575,47.363,3.906,-26.855,18.066,0.000
1727361622.579,57.129,5.859,-37.109,16.113,0.000
1727361622.583,13.184,8.301,-24.414,14.648,0.000
1727361622.587,-48.828,0.488,-13.672,-17.090,0.000
1727361622.591,-54.688,-8.789,-9.766,-26.367,0.000
1727361622.595,34.180,-11.719,-6.348,10.742,0.000
1727361622.599,69.824,-15.625,-8.301,23.926,0.000
1727361622.603,-4.883,-8.789,-13.672,-8.301,0.000
1727361622.606,-85.938,-6.348,-23.926,-49.316,0.000
1727361622.610,-80.078,-14.648,-37.598,-60.059,0.000
1727361622.614,14.648,-18.066,-41.504,-37.598,0.000
1727361622.618,69.824,-23.926,-36.621,-15.625,0.000
1727361622.622,7.324,-29.785,-31.250,-4.883,0.000
1727361622.626,-105.957,-22.461,-35.156,-36.133,0.000
1727361622.630,-113.770,-27.832,-39.062,-63.965,0.000
1727361622.634,-10.254,-48.828,-38.574,-42.480,0.000
1727361622.638,25.391,-44.922,-41.504,-22.461,0.000
1727361622.642,-34.668,-31.738,-36.133,-21.484,0.000
1727361622.645,-101.562,-24.414,-38.086,-58.594,0.000
1727361622.649,-113.281,-17.090,-39.062,-71.777,0.000
1727361622.653,-34.180,-16.602,-36.621,-44.922,0.000
1727361622.657,30.273,-26.855,-41.016,-24.902,0.000
1727361622.661,-10.254,-39.551,-40.039,-26.367,0.000
1727361622.665,-86.914,-39.062,-40.039,-56.641,0.000
1727361622.669,-95.215,-35.645,-42.969,-61.523,0.000
1727361622.673,-29.297,-37.598,-55.664,-17.578,0.000
1727361622.677,42.480,-30.273,-50.781,-9.277,0.000
1727361622.681,31.738,-20.508,-28.809,-14.160,0.000
1727361622.685,-38.086,-17.090,-22.949,-21.484,0.000
1727361622.688,-74.707,-24.902,-25.879,-36.133,0.000
1727361622.692,-13.672,-16.602,-24.902,-4.395,0.000
1727361622.696,52.246,-11.230,-16.113,19.043,0.000
1727361622.700,27.832,-23.926,-3.906,21.484,0.000
1727361622.704,-26.855,-20.020,-0.977,19.531,0.000
1727361622.708,-52.734,-18.555,-7.324,-0.977,0.000
1727361622.712,-20.020,-26.367,-15.625,-4.883,0.000
1727361622.716,52.246,-27.832,-21.973,8.301,0.000
1727361622.720,42.969,-37.109,-26.855,5.371,0.000
1727361622.724,-55.664,-52.734,-31.250,-23.438,0.000
1727361622.728,-104.492,-35.645,-27.832,-51.270,0.000
1727361622.731,-66.895,-15.625,-26.855,-41.504,0.000
1727361622.735,4.395,-22.461,-31.738,-16.113,0.000
1727361622.739,14.160,-23.926,-27.344,-6.836,0.000
1727361622.743,-52.246,-23.926,-26.855,-23.438,0.000
1727361622.747,-108.398,-26.855,-31.250,-49.805,0.000
1727361622.751,-68.848,-38.086,-44.434,-57.617,0.000
1727361622.755,15.625,-42.480,-55.664,-33.691,0.000
1727361622.759,22.461,-32.227,-52.246,-27.832,0.000
1727361622.763,-44.434,-42.969,-45.898,-44.434,0.000
1727361622.767,-104.004,-49.805,-34.180,-54.688,0.000
1727361622.770,-75.195,-37.598,-32.227,-49.805,0.000
1727361622.774,16.602,-29.297,-39.551,-30.273,0.000
1727361622.778,43.945,-33.203,-37.598,-24.414,0.000
1727361622.782,-23.926,-27.832,-29.297,-19.531,0.000
1727361622.786,-108.398,-20.508,-28.809,-36.621,0.000
1727361622.790,-96.191,-25.391,-34.180,-47.852,0.000
1727361622.794,7.324,-30.273,-34.668,-9.766,0.000
1727361622.798,52.734,-30.273,-26.367,13.184,0.000
1727361622.802,-20.508,-19.531,-20.996,6.348,0.000
1727361622.806,-101.074,-20.020,-27.344,-35.156,0.000
1727361622.809,-101.562,-29.785,-32.227,-57.129,0.000
1727361622.813,-11.230,-25.391,-21.973,-12.695,0.000
1727361622.817,64.941,-4.395,-17.090,11.230,0.000
1727361622.821,20.508,-3.906,-20.996,1.953,0.000
1727361622.825,-69.824,-12.207,-11.719,-27.832,0.000
1727361622.829,-87.402,-16.602,-9.766,-45.410,0.000
1727361622.833,-9.766,-28.809,-14.160,-17.090,0.000
1727361622.837,53.711,-38.574,-14.648,1.465,0.000
1727361622.841,22.461,-37.598,-12.695,1.953,0.000
1727361622.845,-50.293,-26.855,-18.066,-15.625,0.000
1727361622.849,-76.660,-34.668,-24.902,-37.598,0.000
1727361622.852,-13.184,-43.457,-22.461,-28.320,0.000
1727361622.856,58.105,-40.039,-23.438,-5.859,0.000
1727361622.860,25.391,-44.434,-28.320,8.301,0.000
1727361622.864,-57.617,-43.457,-31.738,-16.602,0.000
1727361622.868,0.000,-25.879,-30.762,-52.246,0.000
1727361622.872,0.000,-27.344,-32.715,-42.480,0.000
1727361622.876,0.000,-45.898,-38.574,-26.855,0.000
1727361622.880,0.000,-35.645,-31.250,-18.066,0.000
1727361622.884,0.000,-22.949,-26.855,-29.297,0.000
1727361622.888,0.000,-27.344,-28.320,-52.734,0.000
1727361622.891,0.000,-33.203,-29.785,-36.621,0.000
1727361622.895,0.000,-48.828,-33.203,-16.113,0.000
1727361622.899,0.000,-52.246,-33.691,-6.836,0.000
1727361622.903,0.000,-39.062,-32.227,-15.625,0.000
1727361622.907,0.000,-29.297,-27.344,-41.504,0.000
1727361622.911,0.000,-28.320,-32.715,-41.016,0.000
1727361622.915,9.277,-26.855,-38.574,-23.926,0.000
1727361622.919,29.297,-26.367,-37.598,-20.996,0.000
1727361622.923,-38.574,-29.785,-36.133,-27.832,0.000
1727361622.927,-103.027,-30.762,-26.367,-55.176,0.000
1727361622.931,-68.359,-34.668,-25.879,-56.152,0.000
1727361622.934,26.855,-38.086,-30.273,-29.297,0.000
1727361622.938,47.363,-34.668,-14.648,-2.441,0.000
1727361622.942,-14.648,-25.879,-6.348,3.906,0.000
1727361622.946,-76.660,-27.832,-13.672,-26.855,0.000
1727361622.950,-49.805,-40.039,-17.090,-19.043,0.000
1727361622.954,28.809,-43.945,-20.508,5.859,0.000
1727361622.958,54.688,-49.316,-25.879,8.789,0.000
1727361622.962,4.883,-33.203,-23.926,8.301,0.000
1727361622.966,-68.848,-5.859,-9.766,-15.625,0.000
1727361622.970,-65.430,-22.461,-6.836,-27.344,0.000
1727361622.974,9.766,-43.457,-15.137,-7.324,0.000
1727361622.977,37.109,-31.738,-19.531,0.488,0.000
1727361622.981,-11.719,-20.508,-20.020,-6.348,0.000
1727361622.985,-88.867,-14.648,-33.203,-42.480,0.000
1727361622.989,-89.844,-8.301,-37.598,-63.477,0.000
1727361622.993,-0.488,-15.137,-39.062,-37.598,0.000
1727361622.997,42.480,-35.645,-46.387,-29.785,0.000
1727361623.001,-11.230,-42.969,-37.109,-38.086,0.000
1727361623.005,-93.750,-28.809,-29.785,-52.734,0.000
1727361623.009,-113.281,-25.879,-30.273,-61.523,0.000
1727361623.013,-40.039,-37.109,-33.203,-38.574,0.000
1727361623.017,22.949,-50.293,-38.086,-19.043,0.000
1727361623.020,-13.184,-46.875,-36.621,-22.949,0.000
1727361623.024,-77.148,-31.250,-28.809,-49.316,0.000
1727361623.028,-99.121,-37.109,-28.809,-56.152,0.000
1727361623.032,-51.758,-45.898,-35.645,-37.598,0.000
1727361623.036,29.785,-40.527,-41.016,-22.461,0.000
1727361623.040,30.273,-35.645,-45.898,-14.648,0.000
1727361623.044,-57.129,-35.156,-37.109,-32.227,0.000
1727361623.048,-103.027,-44.434,-28.809,-40.527,0.000
1727361623.052,-41.992,-45.410,-25.879,-16.602,0.000
1727361623.056,25.879,-42.969,-23.926,-3.906,0.000
1727361623.060,11.719,-27.832,-28.809,-9.277,0.000
1727361623.063,-51.270,-11.230,-31.738,-25.391,0.000
1727361623.067,-99.121,-20.996,-26.367,-60.547,0.000
1727361623.071,-38.086,-31.738,-25.391,-44.922,0.000
1727361623.075,62.988,-32.715,-29.785,-11.230,0.000
1727361623.079,54.688,-35.645,-37.598,-2.441,0.000
1727361623.083,-13.672,-40.527,-31.250,-0.977,0.000
1727361623.087,-70.312,-32.715,-11.230,-18.066,0.000
1727361623.091,-55.176,-15.137,-6.836,-12.695,0.000
1727361623.095,23.926,-7.812,-12.695,10.742,0.000
1727361623.099,28.809,-15.625,-13.184,5.859,0.000
1727361623.102,-38.574,-19.043,-11.719,-7.812,0.000
1727361623.106,-98.145,-24.902,-18.555,-33.203,0.000
1727361623.110,-83.984,-42.480,-21.484,-40.527,0.000
1727361623.114,15.137,-47.852,-24.902,-13.184,0.000
1727361623.118,51.758,-37.598,-41.016,-4.395,0.000
1727361623.122,-22.949,-28.320,-41.504,-20.020,0.000
1727361623.126,-95.215,-24.902,-32.715,-46.387,0.000
1727361623.130,-92.285,-36.621,-36.621,-53.223,0.000
1727361623.134,-14.160,-35.645,-39.551,-23.438,0.000
1727361623.138,25.391,-37.598,-32.715,2.930,0.000
1727361623.141,-30.762,-50.293,-37.598,-14.160,0.000
1727361623.145,-98.145,-48.340,-46.875,-72.754,0.000
1727361623.149,-83.008,-33.691,-41.016,-83.008,0.000
1727361623.153,3.418,-34.668,-42.969,-44.922,0.000
1727361623.157,38.086,-44.922,-49.805,-23.438,0.000
1727361623.161,-13.672,-43.457,-38.574,-9.766,0.000
1727361623.165,-88.867,-43.457,-35.156,-34.180,0.000
1727361623.169,-106.445,-42.480,-33.203,-47.852,0.000
1727361623.173,-20.996,-31.250,-26.367,-14.648,0.000
1727361623.177,48.340,-22.949,-30.273,-5.371,0.000
1727361623.181,15.625,-23.926,-32.227,-19.043,0.000
1727361623.184,-76.660,-27.832,-33.691,-38.086,0.000
1727361623.188,-114.746,-35.645,-36.621,-40.527,0.000
1727361623.192,-36.621,-34.180,-28.320,-17.578,0.000
1727361623.196,44.922,-29.785,-20.508,-0.977,0.000
1727361623.200,24.902,-26.855,-15.625,9.766,0.000
1727361623.204,-42.969,-20.020,-6.836,-7.812,0.000
1727361623.208,-77.148,-20.020,-13.672,-30.762,0.000
1727361623.212,-20.996,-31.250,-29.785,-15.625,0.000
1727361623.216,61.035,-38.086,-32.715,-1.953,0.000
1727361623.220,39.551,-32.715,-19.043,6.348,0.000
1727361623.223,-51.758,-36.621,-10.742,-19.043,0.000
1727361623.227,-94.238,-32.715,-16.113,-59.570,0.000
1727361623.231,-35.645,-28.320,-24.902,-31.250,0.000
1727361623.235,46.387,-27.832,-21.484,21.484,0.000
1727361623.239,44.922,-23.926,-7.812,22.461,0.000
1727361623.243,-25.391,-25.879,-10.254,0.488,0.000
1727361623.247,-82.031,-30.273,-23.926,-29.297,0.000
1727361623.251,-49.316,-41.504,-37.598,-34.180,0.000
1727361623.255,37.598,-57.617,-40.527,-10.742,0.000
1727361623.259,33.203,-55.176,-35.156,-10.254,0.000
1727361623.263,-49.316,-40.039,-27.832,-30.273,0.000
1727361623.266,-101.562,-36.621,-20.508,-60.059,0.000
1727361623.270,-72.754,-41.016,-24.902,-49.316,0.000
1727361623.274,-2.441,-36.621,-33.203,-11.230,0.000
1727361623.278,17.090,-30.273,-31.738,1.465,0.000
1727361623.282,-53.223,-27.344,-20.508,-8.789,0.000
1727361623.286,-115.723,-23.926,-16.113,-47.852,0.000
1727361623.290,-75.195,-28.320,-25.391,-48.828,0.000
1727361623.294,6.348,-20.996,-36.133,-20.508,0.000
1727361623.298,32.715,-25.391,-30.762,-5.371,0.000
1727361623.302,-19.531,-40.527,-23.438,-12.207,0.000
1727361623.306,-94.238,-40.039,-28.320,-48.828,0.000
1727361623.309,-73.242,-30.762,-29.297,-41.504,0.000
1727361623.313,21.484,-28.320,-23.438,2.930,0.000
1727361623.317,76.660,-32.715,-14.160,15.625,0.000
1727361623.321,32.715,-22.461,-16.113,12.207,0.000
1727361623.325,-66.406,-16.602,-24.414,-22.949,0.000
1727361623.329,-77.148,-29.785,-22.461,-52.246,0.000
1727361623.333,11.230,-24.902,-22.949,-26.855,0.000
1727361623.337,54.199,-17.090,-26.367,4.395,0.000
1727361623.341,5.371,-23.438,-15.625,-0.977,0.000
1727361623.345,-60.059,-21.973,0.000,-22.461,0.000
1727361623.349,-82.031,-25.879,-3.906,-31.250,0.000
1727361623.352,-7.812,-32.227,-16.602,-17.578,0.000
1727361623.356,67.871,-23.926,-14.648,9.766,0.000
1727361623.360,15.137,-31.738,-17.578,7.812,0.000
1727361623.364,-79.102,-46.387,-29.297,-35.156,0.000
1727361623.368,-108.398,-45.410,-30.762,-48.828,0.000
1727361623.372,-43.945,-37.109,-26.855,-19.531,0.000
1727361623.376,37.598,-28.320,-26.367,-12.207,0.000
1727361623.380,20.996,-26.367,-23.438,-2.930,0.000
1727361623.384,-52.246,-23.926,-17.090,-14.160,0.000
1727361623.388,-97.656,-29.297,-12.207,-43.457,0.000
1727361623.391,-35.156,-38.086,-15.625,-31.250,0.000
1727361623.395,45.898,-41.016,-24.902,-16.602,0.000
1727361623.399,33.203,-43.945,-24.414,-11.230,0.000
1727361623.403,-33.691,-38.574,-22.949,-25.391,0.000
1727361623.407,-90.820,-32.227,-19.043,-54.688,0.000
1727361623.411,-48.828,-28.809,-22.461,-42.480,0.000
1727361623.415,56.152,-29.297,-29.785,-13.672,0.000
1727361623.419,53.223,-22.949,-27.832,5.371,0.000
1727361623.423,-44.922,-15.137,-20.508,-21.973,0.000
1727361623.427,-103.516,-15.137,-22.461,-58.105,0.000
1727361623.431,-69.336,-21.484,-24.902,-34.180,0.000
1727361623.434,18.066,-30.273,-24.414,-1.465,0.000
1727361623.438,41.016,-24.902,-24.414,5.859,0.000
1727361623.442,-23.926,-14.648,-19.531,-6.348,0.000
1727361623.446,-79.102,-29.297,-17.578,-32.715,0.000
1727361623.450,-55.176,-50.781,-20.020,-30.762,0.000
1727361623.454,13.672,-42.969,-27.344,-6.836,0.000
1727361623.458,41.504,-27.344,-21.973,10.254,0.000
1727361623.462,-4.883,-31.250,-8.789,0.488,0.000
1727361623.466,-67.383,-25.391,-6.836,-21.484,0.000
1727361623.470,-59.082,-6.348,-11.230,-3.418,0.000
1727361623.473,27.344,-1.953,-9.766,20.020,0.000
1727361623.477,62.988,-13.672,-16.602,31.738,0.000
1727361623.481,-4.395,-24.902,-36.133,7.324,0.000
1727361623.485,-87.402,-35.645,-40.039,-41.016,0.000
1727361623.489,-78.125,-41.992,-34.180,-46.875,0.000
1727361623.493,17.578,-38.086,-37.109,-18.555,0.000
1727361623.497,64.941,-50.293,-39.062,-12.695,0.000
1727361623.501,-4.395,-44.922,-35.645,-23.926,0.000
1727361623.505,-80.566,-19.531,-40.527,-46.387,0.000
1727361623.509,-87.402,-23.438,-40.527,-54.199,0.000
1727361623.513,-34.668,-41.992,-31.738,-21.484,0.000
1727361623.516,29.785,-36.133,-27.832,8.301,0.000
1727361623.520,6.348,-29.297,-24.414,0.000,0.000
1727361623.524,-80.566,-38.086,-25.879,-48.828,0.000
1727361623.528,-100.098,-41.504,-33.203,-67.383,0.000
1727361623.532,-12.207,-27.832,-35.645,-28.320,0.000
1727361623.536,50.293,-17.578,-38.086,-2.930,0.000
1727361623.540,7.324,-24.414,-40.039,-14.160,0.000
1727361623.544,-72.266,-28.809,-35.156,-48.828,0.000
1727361623.548,-107.422,-41.992,-33.203,-71.777,0.000
1727361623.552,-45.898,-44.434,-35.645,-45.898,0.000
1727361623.555,25.879,-46.875,-38.086,-32.715,0.000
1727361623.559,-0.488,-48.340,-41.992,-39.551,0.000
1727361623.563,-80.566,-38.574,-43.457,-51.270,0.000
1727361623.567,-115.234,-27.344,-31.738,-56.152,0.000
1727361623.571,-49.316,-21.484,-34.668,-17.090,0.000
1727361623.575,37.109,-19.531,-43.945,7.812,0.000
1727361623.579,12.695,-26.367,-40.039,-10.254,0.000
1727361623.583,-70.312,-38.574,-36.133,-37.109,0.000
1727361623.587,-103.516,-41.504,-20.996,-40.039,0.000
1727361623.591,-45.410,-37.109,-12.695,-11.719,0.000
1727361623.595,40.039,-24.414,-25.879,10.742,0.000
1727361623.598,42.480,-27.344,-39.551,0.977,0.000
1727361623.602,-18.066,-37.109,-37.598,-19.043,0.000
1727361623.606,-68.359,-28.809,-28.809,-36.133,0.000
1727361623.610,-44.922,-22.949,-20.020,-23.438,0.000
1727361623.614,35.156,-32.227,-27.344,-3.418,0.000
1727361623.618,54.688,-57.129,-35.645,-16.602,0.000
1727361623.622,-22.949,-62.012,-28.809,-24.414,0.000
1727361623.626,-108.887,-48.340,-26.855,-49.805,0.000
1727361623.630,-84.961,-33.691,-26.367,-41.992,0.000
1727361623.634,10.742,-30.273,-31.250,-13.672,0.000
1727361623.637,32.227,-36.621,-34.668,-6.348,0.000
1727361623.641,-25.879,-25.391,-23.438,-1.465,0.000
1727361623.645,-92.285,-25.879,-24.414,-29.785,0.000
1727361623.649,-80.566,-43.945,-23.438,-29.785,0.000
1727361623.653,-3.418,-42.969,-25.879,-13.672,0.000
1727361623.657,22.949,-23.926,-40.527,-24.902,0.000
1727361623.661,-25.879,-15.625,-36.621,-26.855,0.000
1727361623.665,-97.168,-23.438,-35.645,-52.246,0.000
1727361623.669,-103.516,-44.922,-42.969,-64.941,0.000
1727361623.673,-26.855,-48.340,-41.016,-29.785,0.000
1727361623.677,18.555,-37.109,-42.480,-8.789,0.000
1727361623.680,-23.438,-38.574,-49.805,-5.371,0.000
1727361623.684,-82.031,-36.133,-41.504,-30.762,0.000
1727361623.688,-94.238,-44.922,-35.156,-51.270,0.000
1727361623.692,-21.973,-51.758,-33.691,-24.902,0.000
1727361623.696,53.223,-32.227,-27.832,0.488,0.000
1727361623.700,29.785,-21.484,-27.832,4.395,0.000
1727361623.704,-55.176,-27.832,-27.344,-37.109,0.000
1727361623.708,-93.262,-30.273,-29.785,-61.523,0.000
1727361623.712,-18.555,-29.785,-36.621,-21.973,0.000
1727361623.716,66.406,-28.320,-29.297,6.348,0.000
1727361623.720,31.738,-34.180,-22.461,14.648,0.000
1727361623.723,-54.688,-42.480,-23.438,0.977,0.000
1727361623.727,-79.590,-29.297,-15.625,-21.484,0.000
1727361623.731,-19.531,-25.391,-11.719,-16.113,0.000
1727361623.735,52.734,-49.316,-10.742,2.441,0.000
1727361623.739,18.066,-56.152,-11.230,3.906,0.000
1727361623.743,-73.730,-50.293,-10.254,-18.555,0.000
1727361623.747,-109.863,-41.016,-18.066,-38.086,0.000
1727361623.751,-63.965,-32.715,-25.879,-21.973,0.000
1727361623.755,24.902,-27.832,-18.555,-3.418,0.000
1727361623.759,24.902,-21.973,-14.648,-10.254,0.000
1727361623.763,-47.852,-30.762,-15.137,-31.738,0.000
1727361623.766,-99.609,-39.062,-11.230,-54.688,0.000
1727361623.770,-62.988,-30.273,-7.812,-15.625,0.000
1727361623.774,34.668,-16.602,-16.602,7.324,0.000
1727361623.778,26.367,-20.996,-26.367,-25.391,0.000
1727361623.782,-60.547,-28.809,-35.645,-47.363,0.000
1727361623.786,-107.910,-20.996,-33.203,-63.965,0.000
1727361623.790,-65.430,-25.879,-26.855,-49.316,0.000
1727361623.794,27.832,-36.133,-37.598,-33.203,0.000
1727361623.798,41.016,-32.715,-43.945,-29.297,0.000
1727361623.802,-30.762,-29.297,-49.805,-44.922,0.000
1727361623.806,-97.656,-27.832,-55.664,-61.523,0.000
1727361623.809,-78.613,-28.809,-45.898,-40.527,0.000
1727361623.813,25.879,-41.504,-46.387,-21.484,0.000
1727361623.817,53.223,-41.992,-57.129,-12.695,0.000
1727361623.821,-9.277,-24.902,-53.223,-9.277,0.000
1727361623.825,-70.801,-23.926,-44.434,-40.527,0.000
1727361623.829,-74.219,-26.367,-34.668,-40.527,0.000
1727361623.833,9.277,-27.832,-35.156,-8.789,0.000
1727361623.837,48.340,-34.180,-41.992,-15.625,0.000
1727361623.841,-3.418,-38.574,-34.180,-20.996,0.000
1727361623.845,-69.824,-28.809,-22.949,-37.598,0.000
1727361623.848,-63.965,-18.066,-11.719,-47.363,0.000
1727361623.852,6.348,-37.598,-12.695,-9.766,0.000
1727361623.856,41.992,-48.340,-21.973,8.301,0.000
1727361623.860,3.418,-39.062,-25.391,-21.973,0.000
1727361623.864,-61.035,-41.504,-12.207,-66.406,0.000
1727361623.868,-95.703,-37.109,-4.395,-65.918,0.000
1727361623.872,-35.645,-23.926,-13.672,-38.574,0.000
1727361623.876,38.086,-37.598,-23.438,-31.738,0.000
1727361623.880,-0.488,-47.852,-19.043,-26.367,0.000
1727361623.884,-89.355,-45.410,-8.789,-44.922,0.000
1727361623.887,-110.352,-52.246,-6.348,-58.105,0.000
1727361623.891,-35.156,-48.340,-9.277,-25.391,0.000
1727361623.895,43.945,-40.527,-12.695,-1.953,0.000
1727361623.899,15.625,-30.273,-18.555,-6.836,0.000
1727361623.903,-67.383,-14.648,-18.555,-29.297,0.000
1727361623.907,-106.445,-5.859,-16.113,-54.688,0.000
1727361623.911,-42.480,-15.137,-15.625,-31.250,0.000
1727361623.915,33.691,-31.738,-14.160,-2.441,0.000
1727361623.919,14.648,-39.062,-9.277,-5.859,0.000
1727361623.923,-49.805,-37.109,-12.207,-20.996,0.000
1727361623.927,-94.238,-27.344,-10.254,-34.668,0.000
1727361623.930,-58.105,-31.738,-9.766,-17.090,0.000
1727361623.934,24.902,-47.363,-18.066,3.906,0.000
1727361623.938,22.949,-37.109,-21.484,-14.648,0.000
1727361623.942,-43.457,-28.320,-13.672,-26.855,0.000
1727361623.946,-82.031,-28.809,-10.254,-28.809,0.000
1727361623.950,-50.293,-43.457,-13.184,-24.414,0.000
1727361623.954,30.273,-55.664,-11.719,-11.230,0.000
1727361623.958,41.016,-53.711,-10.742,0.488,0.000
1727361623.962,-23.926,-41.504,-9.766,-5.371,0.000
1727361623.966,-86.914,-29.785,-10.742,-35.645,0.000
1727361623.969,-68.848,-36.621,-16.602,-37.598,0.000
1727361623.973,22.949,-41.992,-25.879,-19.531,0.000
1727361623.977,47.852,-24.902,-28.809,-10.254,0.000
1727361623.981,-27.344,-9.766,-25.879,-10.254,0.000
1727361623.985,-99.609,-14.648,-25.391,-35.156,0.000
1727361623.989,-87.891,-26.855,-24.902,-21.484,0.000
1727361623.993,-11.719,-32.715,-32.715,8.301,0.000
1727361623.997,30.762,-29.785,-35.645,-4.395,0.000
1727361624.001,-25.391,-32.715,-33.203,-27.344,0.000
1727361624.005,-100.586,-47.363,-34.668,-52.246,0.000
1727361624.009,-85.938,-32.227,-24.414,-46.387,0.000
1727361624.012,-4.883,-21.973,-25.879,-4.395,0.000
1727361624.016,31.738,-23.926,-33.203,9.277,0.000
1727361624.020,-21.973,-12.695,-21.484,-13.672,0.000
1727361624.024,-90.820,-20.020,-20.508,-31.250,0.000
1727361624.028,-89.844,-28.320,-32.715,-38.574,0.000
1727361624.032,-19.043,-33.203,-35.156,-20.508,0.000
1727361624.036,31.738,-44.434,-35.156,-2.930,0.000
1727361624.040,11.230,-24.414,-39.062,-15.137,0.000
1727361624.044,-63.965,-16.113,-31.738,-40.527,0.000
1727361624.048,-101.074,-36.133,-26.367,-57.617,0.000
1727361624.052,-18.066,-28.809,-34.180,-36.133,0.000
1727361624.055,52.734,-15.137,-34.180,-15.625,0.000
1727361624.059,22.949,-19.531,-30.273,-10.254,0.000
1727361624.063,-57.129,-35.156,-44.434,-28.320,0.000
1727361624.067,-91.797,-57.617,-46.875,-38.574,0.000
1727361624.071,-30.762,-46.875,-35.156,-4.883,0.000
1727361624.075,41.016,-26.855,-30.273,8.789,0.000
1727361624.079,20.508,-26.855,-27.832,-9.766,0.000
1727361624.083,-54.688,-15.625,-23.438,-24.902,0.000
1727361624.087,-82.520,-10.254,-25.391,-32.715,0.000
1727361624.091,-32.715,-21.484,-33.203,-7.812,0.000
1727361624.095,42.480,-33.203,-31.738,16.113,0.000
1727361624.098,33.203,-26.855,-21.484,14.160,0.000
1727361624.102,-38.086,-20.996,-14.648,-9.766,0.000
1727361624.106,-94.238,-30.273,-17.090,-31.250,0.000
1727361624.110,-58.594,-31.738,-15.137,-17.090,0.000
1727361624.114,37.598,-33.203,-20.996,-7.324,0.000
1727361624.118,51.270,-50.781,-28.320,4.395,0.000
1727361624.122,-26.855,-51.270,-35.645,-18.555,0.000
1727361624.126,-97.168,-37.109,-45.410,-82.031,0.000
1727361624.130,-64.453,-35.645,-41.504,-70.801,0.000
1727361624.134,10.254,-37.109,-46.875,-29.297,0.000
1727361624.138,16.113,-35.645,-46.387,-27.344,0.000
1727361624.141,-33.203,-30.762,-41.992,-38.574,0.000
1727361624.145,-89.844,-32.227,-44.922,-62.988,0.000
1727361624.149,-82.520,-30.273,-31.250,-45.410,0.000
1727361624.153,9.277,-19.043,-28.320,-2.441,0.000
1727361624.157,31.738,-30.762,-36.133,-0.977,0.000
1727361624.161,-34.180,-46.875,-40.039,-5.859,0.000
1727361624.165,-106.445,-43.457,-39.551,-30.762,0.000
1727361624.169,-77.148,-29.297,-28.809,-30.273,0.000
1727361624.173,20.508,-26.367,-28.809,5.371,0.000
1727361624.176,47.852,-39.551,-31.250,11.719,0.000
1727361624.180,-9.766,-33.203,-29.785,-2.930,0.000
1727361624.184,-84.961,-20.996,-37.598,-43.457,0.000
1727361624.188,-96.191,-31.738,-42.969,-68.359,0.000
1727361624.192,-20.020,-43.945,-38.086,-26.855,0.000
1727361624.196,35.156,-52.734,-37.598,1.953,0.000
1727361624.200,-6.348,-45.898,-41.016,-15.625,0.000
1727361624.204,-72.754,-24.414,-40.527,-46.387,0.000
1727361624.208,-81.055,-24.414,-33.691,-43.945,0.000
1727361624.212,4.395,-20.996,-19.531,-1.465,0.000
1727361624.216,70.801,-20.020,-18.555,13.672,0.000
1727361624.219,27.832,-24.414,-24.902,4.883,0.000
1727361624.223,-55.176,-27.344,-24.414,-30.762,0.000
1727361624.227,-78.125,-26.855,-22.949,-43.945,0.000
1727361624.231,-17.090,-23.926,-28.809,-20.020,0.000
1727361624.235,38.574,-23.438,-35.156,-14.160,0.000
1727361624.239,18.555,-24.414,-29.785,-7.324,0.000
1727361624.243,-52.734,-32.715,-25.879,-44.922,0.000
1727361624.247,-100.586,-42.480,-29.297,-75.684,0.000
1727361624.251,-54.199,-52.246,-33.203,-49.316,0.000
1727361624.255,26.367,-36.133,-30.762,-10.742,0.000
1727361624.259,20.996,-26.367,-30.762,-4.395,0.000
1727361624.262,-61.035,-34.180,-31.250,-26.855,0.000
1727361624.266,-115.234,-27.832,-27.344,-54.688,0.000
1727361624.270,-57.617,-27.832,-26.855,-50.781,0.000
1727361624.274,23.926,-41.992,-28.320,-21.973,0.000
1727361624.278,18.555,-54.199,-26.367,-6.836,0.000
1727361624.282,-52.246,-42.969,-23.926,-20.508,0.000
1727361624.286,-104.492,-27.832,-29.785,-46.387,0.000
1727361624.290,-57.129,-25.391,-41.016,-42.969,0.000
1727361624.294,39.062,-36.621,-39.062,-7.324,0.000
1727361624.298,42.969,-40.527,-33.203,23.926,0.000
1727361624.301,-34.180,-26.367,-30.762,0.000,0.000
1727361624.305,-103.027,-25.391,-35.156,-54.199,0.000
1727361624.309,-70.801,-32.227,-36.621,-41.992,0.000
1727361624.313,23.926,-39.551,-32.715,-1.465,0.000
1727361624.317,34.180,-41.504,-38.574,9.277,0.000
1727361624.321,-27.344,-28.320,-38.086,-6.836,0.000
1727361624.325,-78.125,-19.531,-27.832,-38.574,0.000
1727361624.329,-64.453,-25.391,-29.785,-45.410,0.000
1727361624.333,13.672,-25.391,-34.668,-19.531,0.000
1727361624.337,45.410,-29.785,-28.320,5.859,0.000
1727361624.341,-6.348,-38.574,-27.832,-10.254,0.000
1727361624.344,-89.844,-49.805,-35.156,-48.340,0.000
1727361624.348,-98.633,-45.898,-39.551,-49.805,0.000
1727361624.352,3.418,-29.297,-31.738,-7.812,0.000
1727361624.356,61.523,-30.273,-22.949,20.996,0.000
1727361624.360,4.395,-29.297,-29.785,9.766,0.000
1727361624.364,-74.219,-42.480,-37.109,-35.645,0.000
1727361624.368,-84.473,-54.199,-30.273,-66.406,0.000
1727361624.372,-12.695,-42.480,-19.531,-38.086,0.000
1727361624.376,55.664,-25.879,-12.695,-10.742,0.000
1727361624.380,21.973,-18.555,-11.719,-10.742,0.000
1727361624.383,-62.988,-36.621,-17.578,-33.203,0.000
1727361624.387,-65.430,-45.898,-13.672,-41.992,0.000
1727361624.391,5.371,-34.668,-14.160,-17.578,0.000
1727361624.395,53.223,-31.738,-24.414,1.953,0.000
1727361624.399,19.043,-36.621,-24.902,-0.977,0.000
1727361624.403,-62.012,-28.320,-12.207,-29.297,0.000
1727361624.407,-90.820,-23.438,-1.953,-30.762,0.000
1727361624.411,-24.902,-26.367,-7.324,-14.648,0.000
1727361624.415,40.039,-24.902,-9.766,-14.160,0.000
1727361624.419,8.301,-32.227,-17.578,-11.230,0.000
1727361624.423,-73.242,-38.574,-31.250,-26.367,0.000
1727361624.426,-109.375,-31.738,-37.109,-52.246,0.000
1727361624.430,-34.668,-38.086,-33.203,-28.320,0.000
1727361624.434,41.992,-44.434,-29.297,-1.465,0.000
1727361624.438,12.207,-30.273,-31.250,-5.371,0.000
1727361624.442,-53.223,-14.160,-29.297,-31.250,0.000
1727361624.446,-87.891,-8.789,-23.926,-61.523,0.000
1727361624.450,-46.387,-8.301,-24.414,-40.527,0.000
1727361624.454,35.156,-10.742,-30.762,-18.555,0.000
1727361624.458,37.598,-20.020,-40.527,-5.859,0.000
1727361624.462,-33.203,-20.996,-41.016,-7.324,0.000
1727361624.466,-82.031,-26.855,-31.250,-31.250,0.000
1727361624.469,-43.457,-36.621,-35.156,-23.438,0.000
1727361624.473,38.086,-30.762,-35.645,3.906,0.000
1727361624.477,42.969,-26.367,-27.832,11.719,0.000
1727361624.481,-32.715,-34.668,-26.855,-4.395,0.000
1727361624.485,-98.145,-44.434,-26.367,-41.992,0.000
1727361624.489,-71.289,-43.945,-19.531,-36.133,0.000
1727361624.493,11.230,-37.109,-22.949,5.859,0.000
1727361624.497,31.738,-30.762,-23.926,9.766,0.000
1727361624.501,-23.438,-23.926,-16.113,-20.020,0.000
1727361624.505,-82.520,-15.625,-16.113,-41.992,0.000
1727361624.509,-77.637,-28.809,-25.391,-37.109,0.000
1727361624.512,5.371,-47.363,-33.203,-28.809,0.000
1727361624.516,33.691,-40.039,-32.227,-25.391,0.000
1727361624.520,-30.762,-26.855,-31.250,-30.273,0.000
1727361624.524,-89.355,-18.555,-35.645,-55.664,0.000
1727361624.528,-74.219,-24.902,-33.691,-52.246,0.000
1727361624.532,0.977,-37.109,-33.203,-17.578,0.000
1727361624.536,43.457,-29.297,-30.273,-3.906,0.000
1727361624.540,-10.742,-35.645,-30.273,-7.324,0.000
1727361624.544,-89.355,-50.293,-29.785,-31.738,0.000
1727361624.548,-91.309,-37.109,-30.273,-51.270,0.000
1727361624.551,-14.160,-28.809,-36.133,-26.855,0.000
1727361624.555,38.574,-24.414,-30.762,-13.184,0.000
1727361624.559,-0.977,-24.902,-22.949,-26.367,0.000
1727361624.563,-81.543,-29.297,-23.926,-40.039,0.000
1727361624.567,-109.863,-24.902,-33.203,-48.340,0.000
1727361624.571,-21.973,-21.484,-38.086,-25.879,0.000
1727361624.575,69.336,-19.043,-31.738,1.953,0.000
1727361624.579,28.809,-20.996,-28.809,12.207,0.000
