timestamps,TP9,AF7,AF8,TP10,Right AUX
1727436709.860,60.547,-37.109,-27.344,-0.488,0.000
1727436709.864,-65.918,-22.949,-28.809,-21.973,0.000
1727436709.868,-115.723,-14.160,-31.738,-38.086,0.000
1727436709.872,-27.832,-8.301,-31.738,-23.926,0.000
1727436709.875,85.449,-10.254,-26.855,6.348,0.000
1727436709.879,68.848,-11.719,-25.391,-0.488,0.000
1727436709.883,-51.270,-5.371,-21.973,-21.973,0.000
1727436709.887,-131.836,-3.418,-21.973,-37.109,0.000
1727436709.891,-68.848,-7.324,-32.227,-38.086,0.000
1727436709.895,50.293,-9.277,-36.621,-14.160,0.000
1727436709.899,44.922,-19.043,-39.551,-14.160,0.000
1727436709.903,-51.758,-30.273,-42.480,-32.715,0.000
1727436709.903,-51.758,-30.273,-42.480,-32.715,0.000
1727436709.907,-129.395,-29.297,-38.574,-45.898,0.000
1727436709.911,-97.168,-32.227,-41.504,-44.922,0.000
1727436709.915,26.855,-32.227,-50.293,-31.738,0.000
1727436709.918,55.176,-26.367,-49.316,-32.715,0.000
1727436709.922,-36.621,-20.508,-41.992,-39.062,0.000
1727436709.926,-120.605,-20.020,-36.133,-52.246,0.000
1727436709.930,-97.168,-20.508,-38.086,-50.293,0.000
1727436709.934,24.414,-20.508,-38.086,-14.160,0.000
1727436709.938,73.730,-23.438,-37.598,1.465,0.000
1727436709.942,-15.625,-33.203,-43.945,-12.207,0.000
1727436709.946,-120.605,-41.992,-48.828,-41.992,0.000
1727436709.950,-104.980,-33.203,-39.551,-39.551,0.000
1727436709.954,14.160,-31.250,-41.016,-16.113,0.000
1727436709.958,75.684,-23.926,-47.852,-17.090,0.000
1727436709.961,5.371,-17.578,-44.434,-29.785,0.000
1727436709.965,-104.492,-30.762,-41.016,-49.805,0.000
1727436709.969,-109.375,-37.598,-40.527,-58.594,0.000
1727436709.973,2.930,-33.203,-42.480,-28.809,0.000
1727436709.977,86.426,-28.320,-44.434,-12.695,0.000
1727436709.981,24.902,-28.809,-45.898,-34.180,0.000
1727436709.985,-106.934,-37.598,-47.363,-45.898,0.000
1727436709.989,-125.977,-35.645,-43.945,-52.734,0.000
1727436709.993,-2.441,-30.273,-36.133,-30.273,0.000
1727436709.996,84.473,-40.039,-31.738,-9.766,0.000
1727436710.001,22.461,-40.039,-33.203,-22.949,0.000
1727436710.004,-101.562,-38.574,-41.016,-45.898,0.000
1727436710.008,-141.113,-47.852,-47.852,-62.988,0.000
1727436710.012,-35.156,-57.617,-46.387,-49.316,0.000
1727436710.016,46.387,-57.617,-42.480,-24.902,0.000
1727436710.020,-0.488,-59.570,-44.922,-21.484,0.000
1727436710.024,-99.609,-61.035,-41.016,-39.551,0.000
1727436710.028,-138.184,-54.688,-28.809,-41.504,0.000
1727436710.032,-46.387,-47.363,-28.809,-37.109,0.000
1727436710.036,62.500,-41.016,-41.504,-34.180,0.000
1727436710.039,60.059,-32.715,-45.410,-18.555,0.000
1727436710.043,-52.246,-20.020,-43.945,-27.344,0.000
1727436710.047,-142.090,-18.066,-49.805,-60.547,0.000
1727436710.051,-82.520,-20.508,-55.176,-58.594,0.000
1727436710.055,47.363,-27.832,-49.805,-22.461,0.000
1727436710.059,56.152,-30.273,-42.969,-8.301,0.000
1727436710.063,-50.781,-27.344,-41.992,-26.855,0.000
1727436710.067,-115.234,-26.367,-42.969,-52.246,0.000
1727436710.071,-62.012,-30.273,-38.574,-47.852,0.000
1727436710.075,58.105,-28.809,-31.738,-12.695,0.000
1727436710.078,78.125,-26.855,-31.250,-4.395,0.000
1727436710.082,-19.531,-27.832,-21.484,-17.578,0.000
1727436710.086,-94.727,-19.531,-8.301,-24.902,0.000
1727436710.090,-62.012,-16.113,-14.160,-27.344,0.000
1727436710.094,58.105,-24.902,-20.508,-7.812,0.000
1727436710.098,87.891,-28.809,-14.648,5.371,0.000
1727436710.102,-23.438,-33.691,-19.531,-10.254,0.000
1727436710.106,-126.953,-45.410,-28.809,-44.922,0.000
1727436710.110,-99.609,-39.551,-28.320,-54.688,0.000
1727436710.114,30.273,-24.414,-30.273,-26.367,0.000
1727436710.118,83.496,-24.902,-32.227,6.836,0.000
1727436710.121,-6.836,-25.879,-31.250,-2.441,0.000
1727436710.125,-116.699,-18.555,-36.621,-52.246,0.000
1727436710.129,-120.117,-23.926,-43.945,-70.312,0.000
1727436710.133,-15.137,-35.156,-48.828,-44.922,0.000
1727436710.137,58.105,-39.062,-51.270,-25.879,0.000
1727436710.141,3.906,-37.109,-49.805,-31.738,0.000
1727436710.145,-119.141,-36.621,-48.340,-57.617,0.000
1727436710.149,-141.113,-54.199,-51.270,-79.102,0.000
1727436710.153,-20.996,-56.641,-48.340,-54.688,0.000
1727436710.157,68.359,-39.551,-45.898,-24.902,0.000
1727436710.161,3.418,-38.574,-52.734,-42.969,0.000
1727436710.164,-108.398,-38.086,-44.922,-53.711,0.000
1727436710.168,-127.930,-32.227,-33.203,-50.293,0.000
1727436710.172,-21.484,-33.203,-32.227,-30.273,0.000
1727436710.176,80.078,-34.668,-31.738,5.371,0.000
1727436710.180,42.480,-41.504,-31.738,-6.836,0.000
1727436710.184,-84.961,-54.199,-33.203,-35.645,0.000
1727436710.188,-128.418,-52.246,-28.320,-45.898,0.000
1727436710.192,-23.438,-45.898,-29.297,-37.598,0.000
1727436710.196,72.266,-36.133,-35.645,-16.113,0.000
1727436710.200,39.551,-41.504,-38.086,-13.672,0.000
1727436710.204,-78.613,-44.922,-40.039,-37.109,0.000
1727436710.207,-130.371,-35.645,-36.133,-50.293,0.000
1727436710.211,-41.992,-29.785,-32.715,-38.574,0.000
1727436710.215,56.641,-26.855,-35.156,-28.320,0.000
1727436710.219,29.785,-46.387,-39.551,-29.297,0.000
1727436710.223,-75.684,-49.805,-41.504,-41.504,0.000
1727436710.227,-138.184,-41.016,-36.621,-55.664,0.000
1727436710.231,-82.031,-40.527,-37.109,-46.875,0.000
1727436710.235,46.387,-34.668,-40.527,-18.555,0.000
1727436710.239,72.266,-31.738,-37.109,-6.348,0.000
1727436710.243,-41.992,-39.062,-36.133,-29.785,0.000
1727436710.247,-142.578,-47.363,-44.922,-70.312,0.000
1727436710.250,-95.703,-40.039,-50.781,-72.754,0.000
1727436710.254,37.109,-56.152,-43.457,-33.203,0.000
1727436710.258,70.312,-60.547,-40.527,-24.414,0.000
1727436710.262,-34.180,-36.133,-45.410,-51.758,0.000
1727436710.266,-135.742,-22.461,-45.410,-63.965,0.000
1727436710.270,-95.703,-19.531,-35.156,-50.293,0.000
1727436710.274,27.832,-31.738,-39.062,-28.809,0.000
1727436710.278,64.453,-30.762,-41.992,-11.230,0.000
1727436710.282,-12.695,-32.227,-40.039,-18.066,0.000
1727436710.286,-120.605,-33.691,-49.316,-55.664,0.000
1727436710.290,-120.605,-38.086,-58.105,-67.383,0.000
1727436710.293,15.137,-42.480,-59.082,-40.039,0.000
1727436710.297,83.496,-43.457,-58.594,-25.879,0.000
1727436710.301,5.371,-41.016,-50.293,-29.297,0.000
1727436710.305,-109.375,-30.273,-40.039,-43.457,0.000
1727436710.309,-102.539,-29.785,-27.832,-40.527,0.000
1727436710.313,20.996,-29.297,-15.625,-11.230,0.000
1727436710.317,88.867,-36.133,-22.949,0.488,0.000
1727436710.321,19.531,-47.852,-30.273,-14.160,0.000
1727436710.325,-93.262,-59.082,-30.762,-37.109,0.000
1727436710.329,-122.070,-62.012,-37.598,-46.875,0.000
1727436710.333,-15.625,-43.457,-39.551,-34.180,0.000
1727436710.336,81.055,-32.715,-37.109,-4.395,0.000
1727436710.340,27.832,-34.668,-44.922,-7.324,0.000
1727436710.344,-96.680,-30.273,-46.875,-49.316,0.000
1727436710.348,-143.555,-30.273,-45.898,-75.195,0.000
1727436710.352,-38.086,-35.156,-41.016,-56.152,0.000
1727436710.356,78.613,-39.551,-31.738,-18.066,0.000
1727436710.360,38.574,-41.504,-29.785,-4.395,0.000
1727436710.364,-84.961,-41.504,-30.273,-24.902,0.000
1727436710.367,-130.371,-39.551,-28.809,-54.199,0.000
1727436710.371,-31.738,-34.180,-26.855,-41.016,0.000
1727436710.376,0.000,-36.133,-21.973,-8.789,0.000
1727436710.379,0.000,-49.316,-20.020,-9.766,0.000
1727436710.383,0.000,-51.758,-23.926,-34.668,0.000
1727436710.387,0.000,-40.039,-24.902,-55.176,0.000
1727436710.391,0.000,-27.832,-20.996,-36.621,0.000
1727436710.395,0.000,-31.250,-22.949,-15.137,0.000
1727436710.399,0.000,-43.457,-27.832,-21.973,0.000
1727436710.403,0.000,-45.410,-27.832,-30.273,0.000
1727436710.407,0.000,-37.109,-27.832,-55.664,0.000
1727436710.410,0.000,-35.645,-30.762,-63.477,0.000
1727436710.414,0.000,-42.969,-30.273,-29.297,0.000
1727436710.418,0.000,-44.922,-32.715,-20.020,0.000
1727436710.422,-34.180,-45.898,-36.621,-41.992,0.000
1727436710.426,-134.277,-42.969,-37.598,-58.105,0.000
1727436710.430,-83.008,-38.574,-43.457,-51.270,0.000
1727436710.434,38.574,-47.363,-46.875,-30.762,0.000
1727436710.438,54.688,-52.734,-43.945,-23.438,0.000
1727436710.442,-41.504,-41.016,-32.715,-33.691,0.000
1727436710.446,-135.254,-33.203,-31.738,-51.758,0.000
1727436710.450,-99.121,-33.203,-40.527,-42.480,0.000
1727436710.453,15.137,-46.875,-55.176,-35.156,0.000
1727436710.457,52.246,-49.805,-60.547,-38.574,0.000
1727436710.461,-20.508,-45.410,-55.176,-32.227,0.000
1727436710.465,-116.211,-40.527,-53.711,-46.387,0.000
1727436710.469,-109.375,-37.109,-59.082,-67.383,0.000
1727436710.473,8.789,-42.480,-62.988,-53.223,0.000
1727436710.477,70.312,-38.086,-54.199,-35.645,0.000
1727436710.481,-2.930,-31.250,-40.039,-40.527,0.000
1727436710.485,-95.703,-32.715,-27.344,-49.316,0.000
1727436710.489,-106.934,-39.062,-29.785,-56.152,0.000
1727436710.493,-3.906,-44.922,-30.273,-27.832,0.000
1727436710.496,84.473,-43.457,-27.344,-8.301,0.000
1727436710.500,23.926,-36.621,-33.203,-27.832,0.000
1727436710.504,-93.750,-33.203,-40.039,-58.105,0.000
1727436710.508,-116.211,-27.832,-43.457,-70.312,0.000
1727436710.512,-1.465,-21.484,-41.504,-40.527,0.000
1727436710.516,90.820,-30.273,-42.480,-19.531,0.000
1727436710.520,33.203,-35.156,-43.457,-27.344,0.000
1727436710.524,-87.891,-33.203,-43.945,-47.363,0.000
1727436710.528,-138.184,-28.320,-36.621,-65.918,0.000
1727436710.532,-44.922,-24.902,-29.785,-42.480,0.000
1727436710.536,62.500,-31.250,-28.809,-7.324,0.000
1727436710.539,17.090,-31.250,-37.109,-9.277,0.000
1727436710.543,-123.047,-32.227,-36.621,-42.969,0.000
1727436710.547,-174.316,-29.297,-33.691,-79.102,0.000
1727436710.551,-73.730,-19.043,-39.062,-61.523,0.000
1727436710.555,29.297,-29.297,-24.414,-41.016,0.000
1727436710.559,0.488,-25.879,-24.414,-61.035,0.000
1727436710.563,-130.859,-21.973,-44.434,-89.355,0.000
1727436710.567,-211.914,-25.879,-43.457,-118.164,0.000
1727436710.571,-148.438,-19.531,-46.875,-134.277,0.000
1727436710.575,-52.246,-27.832,-50.293,-130.859,0.000
1727436710.579,-67.871,-31.738,-45.898,-142.578,0.000
1727436710.582,-167.480,-21.973,-41.992,-154.785,0.000
1727436710.586,-253.906,-26.367,-45.898,-182.617,0.000
1727436710.590,-238.281,-30.762,-55.664,-202.637,0.000
1727436710.594,-127.930,-28.809,-57.617,-197.754,0.000
1727436710.598,-99.121,-38.086,-58.594,-196.289,0.000
1727436710.602,-210.449,-43.945,-57.617,-201.660,0.000
1727436710.606,-305.664,-44.922,-62.988,-228.516,0.000
1727436710.610,-271.484,-50.293,-58.594,-233.887,0.000
1727436710.614,-148.926,-49.805,-56.641,-196.289,0.000
1727436710.618,-96.680,-51.270,-55.664,-180.176,0.000
1727436710.622,-175.781,-36.621,-46.387,-191.895,0.000
1727436710.625,-273.438,-16.602,-43.945,-199.707,0.000
1727436710.629,-244.629,-20.508,-46.387,-189.941,0.000
1727436710.633,-114.258,-36.621,-48.340,-168.945,0.000
1727436710.637,-57.617,-39.551,-49.805,-164.062,0.000
1727436710.641,-111.816,-22.949,-52.246,-161.621,0.000
1727436710.645,-217.285,-30.273,-60.547,-175.781,0.000
1727436710.649,-234.863,-42.969,-70.801,-178.711,0.000
1727436710.653,-112.793,-40.039,-71.289,-154.297,0.000
1727436710.657,-20.020,-31.250,-65.430,-119.629,0.000
1727436710.661,-83.008,-37.109,-62.500,-110.352,0.000
1727436710.665,-181.152,-36.621,-56.152,-108.887,0.000
1727436710.668,-163.086,-23.438,-51.270,-98.145,0.000
1727436710.672,-43.945,-27.832,-55.176,-63.477,0.000
1727436710.676,46.875,-32.227,-57.617,-20.508,0.000
1727436710.680,4.883,-47.852,-58.105,-16.602,0.000
1727436710.684,-91.309,-46.387,-46.875,-29.785,0.000
1727436710.688,-115.234,-34.668,-41.992,-30.762,0.000
1727436710.692,-7.812,-42.969,-52.734,-17.090,0.000
1727436710.696,97.656,-48.340,-55.176,2.930,0.000
1727436710.699,60.059,-54.199,-49.805,16.602,0.000
1727436710.704,-45.898,-78.613,-47.363,19.531,0.000
1727436710.707,-81.543,-82.031,-40.039,16.113,0.000
1727436710.711,18.066,-74.219,-41.016,32.715,0.000
1727436710.715,132.812,-74.219,-44.434,62.012,0.000
1727436710.719,105.469,-76.172,-39.551,62.500,0.000
1727436710.723,-0.488,-83.496,-37.109,54.199,0.000
1727436710.727,-41.992,-92.773,-35.645,54.199,0.000
1727436710.731,24.902,-97.656,-34.180,56.641,0.000
1727436710.735,137.207,-82.031,-32.227,82.031,0.000
1727436710.739,130.859,-74.707,-34.180,80.078,0.000
1727436710.742,21.484,-74.707,-39.551,55.176,0.000
1727436710.746,-41.504,-69.824,-40.039,48.828,0.000
1727436710.750,3.906,-81.055,-39.062,53.223,0.000
1727436710.754,119.141,-82.520,-43.457,67.871,0.000
1727436710.758,149.902,-76.660,-46.875,79.102,0.000
1727436710.762,41.504,-75.684,-38.574,71.777,0.000
1727436710.766,-50.293,-74.219,-28.809,42.969,0.000
1727436710.770,-4.395,-76.660,-30.273,36.621,0.000
1727436710.774,121.094,-73.730,-34.668,63.477,0.000
1727436710.778,160.645,-64.453,-31.250,69.824,0.000
1727436710.782,55.664,-71.289,-25.391,57.129,0.000
1727436710.785,-55.176,-88.867,-27.832,47.363,0.000
1727436710.789,-25.391,-75.195,-25.879,48.828,0.000
1727436710.793,105.957,-58.105,-24.414,55.664,0.000
1727436710.797,139.648,-65.918,-37.598,50.781,0.000
1727436710.801,37.598,-75.195,-47.363,33.203,0.000
1727436710.805,-52.246,-67.871,-43.457,17.090,0.000
1727436710.809,-38.574,-59.082,-40.527,11.719,0.000
1727436710.813,72.754,-67.871,-37.109,33.203,0.000
1727436710.817,143.066,-64.453,-24.902,59.082,0.000
1727436710.821,72.266,-48.340,-14.648,51.758,0.000
1727436710.825,-46.387,-50.293,-17.090,27.344,0.000
1727436710.828,-58.594,-51.270,-26.855,7.324,0.000
1727436710.832,56.152,-50.293,-25.391,22.461,0.000
1727436710.836,142.090,-42.480,-19.531,44.434,0.000
1727436710.840,73.730,-40.527,-28.809,37.109,0.000
1727436710.844,-54.199,-54.199,-34.668,20.508,0.000
1727436710.848,-64.941,-56.152,-31.250,-2.930,0.000
1727436710.852,30.273,-60.059,-29.297,0.000,0.000
1727436710.856,99.609,-64.941,-31.250,19.531,0.000
1727436710.860,49.316,-58.594,-24.902,15.625,0.000
1727436710.864,-63.477,-54.688,-22.461,0.977,0.000
1727436710.868,-94.727,-55.664,-21.973,-5.859,0.000
1727436710.871,-6.836,-48.340,-16.602,12.207,0.000
1727436710.875,99.609,-49.805,-14.160,30.762,0.000
1727436710.879,65.918,-47.852,-16.113,22.949,0.000
1727436710.883,-69.336,-38.574,-30.273,-5.859,0.000
1727436710.887,-126.465,-57.617,-34.668,-31.738,0.000
1727436710.891,-34.180,-73.730,-35.645,-24.414,0.000
1727436710.895,83.008,-62.988,-32.227,-6.836,0.000
1727436710.899,59.570,-44.434,-28.320,-14.160,0.000
1727436710.903,-68.359,-43.945,-39.062,-33.203,0.000
1727436710.907,-145.020,-58.105,-46.387,-61.035,0.000
1727436710.911,-71.777,-62.500,-53.223,-73.242,0.000
1727436710.914,45.410,-53.223,-58.105,-47.363,0.000
1727436710.918,52.734,-55.176,-55.176,-27.832,0.000
1727436710.922,-54.199,-57.129,-52.734,-40.039,0.000
1727436710.926,-125.000,-54.199,-52.734,-59.570,0.000
1727436710.930,-68.359,-64.941,-55.176,-52.734,0.000
1727436710.934,41.016,-73.242,-51.270,-25.879,0.000
1727436710.938,64.453,-56.152,-36.621,-6.836,0.000
1727436710.942,-32.715,-38.574,-23.926,-8.789,0.000
1727436710.946,-121.582,-47.363,-22.461,-35.156,0.000
1727436710.950,-89.844,-52.734,-29.785,-38.574,0.000
1727436710.953,33.691,-47.363,-37.109,-14.648,0.000
1727436710.957,71.777,-40.039,-35.645,0.000,0.000
1727436710.961,-28.320,-42.480,-31.738,-4.883,0.000
1727436710.965,-139.160,-55.664,-36.133,-45.898,0.000
1727436710.969,-106.445,-61.035,-40.527,-62.500,0.000
1727436710.973,25.391,-50.781,-42.480,-35.645,0.000
1727436710.977,70.312,-42.480,-37.598,-16.602,0.000
1727436710.981,-20.020,-46.387,-28.809,-23.926,0.000
1727436710.985,-133.789,-41.016,-22.949,-49.805,0.000
1727436710.989,-104.492,-36.133,-30.273,-56.152,0.000
1727436710.993,36.621,-38.574,-37.598,-28.320,0.000
1727436710.996,83.984,-40.039,-35.645,-10.254,0.000
1727436711.000,-3.906,-42.480,-36.133,-21.484,0.000
1727436711.004,-125.488,-34.180,-39.551,-42.969,0.000
1727436711.008,-134.277,-36.133,-43.945,-52.246,0.000
1727436711.012,-18.555,-51.758,-42.480,-35.645,0.000
1727436711.016,63.965,-60.547,-44.922,-26.367,0.000
1727436711.020,9.277,-56.152,-42.969,-26.855,0.000
1727436711.024,-104.492,-49.316,-37.109,-50.293,0.000
1727436711.028,-146.973,-54.199,-39.062,-72.754,0.000
1727436711.032,-45.410,-60.547,-41.016,-53.711,0.000
1727436711.036,54.688,-61.523,-45.410,-36.133,0.000
1727436711.039,4.883,-67.383,-53.711,-50.781,0.000
1727436711.043,-111.328,-64.453,-52.246,-67.383,0.000
1727436711.047,-150.391,-49.805,-51.758,-73.730,0.000
1727436711.051,-53.223,-41.016,-56.641,-60.547,0.000
1727436711.055,63.477,-35.156,-47.852,-34.668,0.000
1727436711.059,42.480,-27.832,-43.945,-21.973,0.000
1727436711.063,-81.055,-30.273,-45.898,-42.480,0.000
1727436711.067,-142.578,-35.645,-43.457,-74.707,0.000
1727436711.071,-60.059,-35.645,-42.480,-67.383,0.000
1727436711.074,61.523,-35.645,-42.480,-30.762,0.000
1727436711.079,51.758,-37.109,-38.086,-19.043,0.000
1727436711.082,-63.965,-38.086,-35.645,-52.246,0.000
1727436711.086,-144.043,-42.969,-50.293,-93.750,0.000
1727436711.090,-81.055,-46.387,-55.664,-84.473,0.000
1727436711.094,38.086,-36.133,-44.922,-45.898,0.000
1727436711.098,44.922,-22.461,-39.551,-35.645,0.000
1727436711.102,-55.664,-23.926,-39.551,-36.133,0.000
1727436711.106,-139.648,-31.738,-38.086,-41.504,0.000
1727436711.110,-76.660,-33.691,-31.738,-35.645,0.000
1727436711.114,51.758,-31.250,-31.250,-23.438,0.000
1727436711.117,66.406,-23.926,-39.551,-30.273,0.000
1727436711.121,-38.086,-21.973,-39.062,-40.039,0.000
1727436711.125,-137.695,-19.043,-36.133,-52.734,0.000
1727436711.129,-104.492,-19.043,-37.109,-50.781,0.000
1727436711.133,19.043,-29.297,-38.086,-26.855,0.000
1727436711.137,67.383,-32.227,-42.969,-20.996,0.000
1727436711.141,-7.324,-37.598,-45.898,-33.203,0.000
1727436711.145,-120.117,-57.617,-42.480,-43.457,0.000
1727436711.149,-124.512,-66.406,-47.363,-61.523,0.000
1727436711.153,-2.930,-44.922,-50.781,-47.852,0.000
1727436711.157,56.641,-32.227,-46.387,-32.227,0.000
1727436711.160,-26.855,-30.762,-50.293,-37.109,0.000
1727436711.164,-136.719,-41.016,-51.758,-61.035,0.000
1727436711.168,-141.602,-49.805,-49.316,-81.055,0.000
1727436711.172,-23.926,-42.969,-42.969,-55.176,0.000
1727436711.176,66.406,-49.316,-33.691,-30.762,0.000
1727436711.180,14.648,-55.176,-29.785,-23.438,0.000
1727436711.184,-104.492,-58.594,-29.785,-39.062,0.000
1727436711.188,-142.578,-49.805,-29.297,-54.688,0.000
1727436711.192,-37.109,-30.762,-26.367,-33.203,0.000
1727436711.196,57.129,-26.855,-27.832,-10.254,0.000
1727436711.200,17.578,-32.227,-25.391,-13.672,0.000
1727436711.203,-96.680,-39.062,-20.996,-38.574,0.000
1727436711.207,-142.090,-40.039,-26.367,-58.105,0.000
1727436711.211,-35.156,-39.551,-22.461,-48.340,0.000
1727436711.215,84.473,-31.250,-14.648,-10.254,0.000
1727436711.219,49.805,-29.297,-17.090,2.930,0.000
1727436711.223,-78.613,-36.621,-28.809,-32.227,0.000
1727436711.227,-138.184,-39.551,-36.133,-49.805,0.000
1727436711.231,-41.992,-34.180,-39.551,-39.062,0.000
1727436711.235,72.266,-28.320,-39.551,-13.184,0.000
1727436711.239,46.875,-27.344,-41.016,-9.277,0.000
1727436711.243,-62.012,-38.086,-46.387,-30.762,0.000
1727436711.246,-132.812,-51.270,-45.898,-56.152,0.000
1727436711.250,-69.336,-47.363,-40.039,-47.363,0.000
1727436711.254,55.176,-40.527,-33.691,-13.672,0.000
1727436711.258,54.688,-38.086,-36.621,-11.719,0.000
1727436711.262,-62.012,-40.527,-40.039,-37.109,0.000
1727436711.266,-132.324,-36.133,-38.574,-54.688,0.000
1727436711.270,-69.336,-25.879,-38.086,-42.480,0.000
1727436711.274,48.340,-29.297,-45.410,-22.461,0.000
1727436711.278,70.312,-36.621,-40.039,-2.930,0.000
1727436711.282,-24.902,-37.598,-35.645,-16.113,0.000
1727436711.285,-124.512,-40.527,-42.969,-44.434,0.000
1727436711.289,-78.125,-33.203,-38.086,-32.715,0.000
1727436711.293,49.805,-31.250,-41.992,-29.297,0.000
1727436711.297,74.707,-45.410,-50.781,-36.133,0.000
1727436711.301,-26.367,-50.293,-45.410,-47.363,0.000
1727436711.305,-134.766,-55.176,-41.992,-69.336,0.000
1727436711.309,-112.793,-63.965,-41.504,-66.895,0.000
1727436711.313,13.672,-63.477,-39.062,-38.574,0.000
1727436711.317,68.359,-51.270,-34.180,-15.137,0.000
1727436711.321,-25.391,-44.434,-30.762,-17.578,0.000
1727436711.325,-141.113,-47.363,-38.574,-38.574,0.000
1727436711.328,-134.766,-49.316,-48.828,-53.223,0.000
1727436711.332,-12.695,-52.734,-48.340,-33.691,0.000
1727436711.336,67.383,-52.246,-49.805,-9.277,0.000
1727436711.340,-18.066,-53.711,-56.641,-21.484,0.000
1727436711.344,-140.625,-49.805,-51.270,-51.758,0.000
1727436711.348,-136.230,-46.875,-45.898,-60.547,0.000
1727436711.352,-13.184,-52.734,-48.828,-33.691,0.000
1727436711.356,89.844,-44.922,-45.410,-19.043,0.000
1727436711.360,28.809,-40.039,-41.016,-30.273,0.000
1727436711.364,-104.492,-45.898,-41.504,-40.527,0.000
1727436711.368,-114.258,-43.945,-41.992,-43.945,0.000
1727436711.371,-10.742,-43.945,-47.852,-32.227,0.000
1727436711.375,72.266,-36.621,-51.758,-20.996,0.000
1727436711.379,19.043,-32.715,-45.898,-34.668,0.000
1727436711.383,-110.352,-48.340,-47.363,-69.336,0.000
1727436711.387,-160.156,-53.711,-53.223,-84.473,0.000
1727436711.391,-62.988,-43.457,-51.758,-56.152,0.000
1727436711.395,57.617,-41.992,-50.293,-28.809,0.000
1727436711.399,32.227,-39.062,-52.246,-35.645,0.000
1727436711.403,-87.402,-35.156,-51.758,-51.758,0.000
1727436711.407,-147.461,-40.527,-49.805,-61.523,0.000
1727436711.411,-68.359,-50.293,-47.852,-46.875,0.000
1727436711.414,52.246,-49.805,-46.387,-25.879,0.000
1727436711.418,38.574,-39.062,-46.387,-29.297,0.000
1727436711.422,-74.219,-30.273,-45.410,-47.363,0.000
1727436711.426,-132.324,-21.484,-38.574,-55.176,0.000
1727436711.430,-70.312,-25.391,-28.809,-47.363,0.000
1727436711.434,50.781,-42.969,-33.691,-31.738,0.000
1727436711.438,64.453,-53.711,-35.156,-9.766,0.000
1727436711.442,-54.199,-49.316,-29.297,-24.902,0.000
1727436711.446,-150.391,-47.363,-34.180,-70.312,0.000
1727436711.449,-99.121,-51.758,-34.668,-58.594,0.000
1727436711.454,20.996,-48.340,0.000,-15.625,0.000
1727436711.457,41.504,-35.645,0.000,-8.789,0.000
1727436711.461,-40.527,-34.668,0.000,-22.461,0.000
1727436711.465,-127.930,-44.434,0.000,-49.316,0.000
1727436711.469,-100.586,-45.410,0.000,-54.688,0.000
1727436711.473,28.320,-43.457,0.000,-26.855,0.000
1727436711.477,66.406,-50.781,0.000,-22.461,0.000
1727436711.481,-31.250,-49.805,0.000,-34.668,0.000
1727436711.485,-133.301,-42.969,0.000,-42.969,0.000
1727436711.489,-120.605,-43.945,0.000,-52.734,0.000
1727436711.492,16.602,-58.105,0.000,-47.852,0.000
1727436711.496,81.543,-74.707,0.000,-33.691,0.000
1727436711.500,0.000,-75.195,-58.105,-35.645,0.000
1727436711.504,0.000,-62.012,-54.688,-54.199,0.000
1727436711.508,0.000,-32.227,-47.852,-58.594,0.000
1727436711.512,0.000,9.766,-39.551,-27.832,0.000
1727436711.516,0.000,26.855,-38.086,-5.371,0.000
1727436711.520,0.000,23.438,-46.875,-26.367,0.000
1727436711.524,0.000,22.461,-49.805,-52.246,0.000
1727436711.528,0.000,11.230,-37.109,-48.828,0.000
1727436711.532,0.000,-2.441,-34.668,-20.020,0.000
1727436711.535,0.000,-9.766,-40.039,-6.836,0.000
1727436711.539,0.000,-13.672,-39.062,-9.766,0.000
1727436711.543,0.000,-9.277,-38.574,-25.879,0.000
1727436711.547,-121.582,-2.930,-36.621,-40.039,0.000
1727436711.551,-10.742,-2.441,-30.762,-10.742,0.000
1727436711.555,86.426,-3.906,-29.785,23.926,0.000
1727436711.559,41.016,-6.348,-40.527,1.465,0.000
1727436711.563,-71.777,-11.719,-46.387,-33.691,0.000
1727436711.567,-121.582,-18.555,-49.316,-45.410,0.000
1727436711.571,-40.527,-21.484,-46.387,-32.715,0.000
1727436711.575,76.660,-10.254,-27.832,-5.859,0.000
1727436711.578,56.152,-17.578,-23.438,-9.277,0.000
1727436711.582,-81.055,-32.715,-35.645,-33.203,0.000
1727436711.586,-158.691,-18.066,-36.621,-50.781,0.000
1727436711.590,-80.566,-14.648,-35.645,-30.762,0.000
1727436711.594,42.480,-24.414,-38.086,5.371,0.000
1727436711.598,47.363,-29.785,-40.527,3.906,0.000
1727436711.602,-60.059,-35.645,-38.086,-16.602,0.000
1727436711.606,-136.230,-34.180,-34.180,-45.898,0.000
1727436711.610,-73.242,-24.902,-40.527,-46.875,0.000
1727436711.614,43.457,-21.973,-45.898,-24.902,0.000
1727436711.617,58.105,-25.879,-49.316,-22.461,0.000
1727436711.621,-47.852,-34.180,-44.434,-20.996,0.000
1727436711.625,-158.203,-34.180,-48.340,-44.434,0.000
1727436711.629,-113.770,-30.762,-57.617,-52.734,0.000
1727436711.633,28.809,-33.203,-49.316,-19.531,0.000
1727436711.637,65.430,-32.227,-42.969,-12.695,0.000
1727436711.641,-23.926,-21.973,-45.410,-28.809,0.000
1727436711.645,-117.676,-21.973,-40.039,-38.086,0.000
1727436711.649,-102.539,-48.340,-43.945,-38.086,0.000
1727436711.653,8.789,-59.082,-56.152,-31.738,0.000
1727436711.657,71.289,-39.062,-47.363,-11.230,0.000
1727436711.660,-0.977,-30.273,-33.691,-15.137,0.000
1727436711.664,-116.211,-29.785,-34.180,-36.621,0.000
1727436711.668,-114.258,-25.879,-39.062,-41.504,0.000
1727436711.672,18.555,-31.250,-38.086,-11.230,0.000
1727436711.676,104.980,-36.133,-31.738,8.301,0.000
1727436711.680,35.156,-30.762,-30.762,-17.090,0.000
1727436711.684,-87.402,-37.598,-32.227,-34.668,0.000
1727436711.688,-100.586,-38.574,-41.016,-41.504,0.000
1727436711.692,-1.953,-28.320,-44.434,-31.250,0.000
1727436711.696,72.266,-22.949,-38.086,-18.555,0.000
1727436711.700,16.113,-22.949,-39.551,-21.973,0.000
1727436711.703,-101.562,-33.203,-44.922,-33.691,0.000
1727436711.707,-116.211,-38.574,-44.434,-44.922,0.000
1727436711.711,-15.625,-35.156,-40.527,-29.785,0.000
1727436711.715,77.637,-37.109,-39.062,-11.230,0.000
1727436711.719,34.668,-37.598,-41.992,-20.996,0.000
1727436711.723,-91.797,-43.945,-46.875,-45.410,0.000
1727436711.727,-134.277,-52.734,-47.363,-51.270,0.000
1727436711.731,-36.621,-54.199,-50.293,-44.922,0.000
1727436711.735,79.590,-51.270,-56.641,-42.480,0.000
1727436711.739,50.781,-63.965,-55.664,-34.668,0.000
1727436711.743,-67.383,-65.430,-51.758,-42.480,0.000
1727436711.746,-132.324,-47.852,-53.223,-65.918,0.000
1727436711.750,-80.078,-49.805,-59.570,-66.406,0.000
1727436711.754,36.133,-56.641,-57.617,-38.086,0.000
1727436711.758,43.457,-52.246,-52.246,-25.391,0.000
1727436711.762,-71.289,-49.805,-52.246,-53.711,0.000
1727436711.766,-149.414,-59.082,-60.547,-80.078,0.000
1727436711.770,-87.891,-67.383,-65.430,-59.570,0.000
1727436711.774,38.086,-64.941,-66.895,-40.039,0.000
1727436711.778,48.828,-62.988,-62.988,-41.016,0.000
1727436711.782,-60.547,-56.152,-55.664,-39.551,0.000
1727436711.786,-148.438,-55.176,-65.430,-52.734,0.000
1727436711.789,-99.609,-53.711,-66.406,-52.246,0.000
1727436711.793,37.109,-51.758,-61.523,-28.320,0.000
1727436711.797,68.359,-61.523,-62.988,-22.461,0.000
1727436711.801,-38.086,-62.988,-61.523,-29.297,0.000
1727436711.805,-138.672,-61.523,-53.223,-51.270,0.000
1727436711.809,-105.957,-61.035,-47.363,-54.688,0.000
1727436711.813,25.391,-61.523,-44.434,-26.855,0.000
1727436711.817,74.219,-57.617,-40.039,-11.719,0.000
1727436711.821,-22.949,-54.199,-44.922,-20.996,0.000
1727436711.824,-110.840,-61.523,-47.852,-39.551,0.000
1727436711.829,-80.566,-73.242,-45.410,-43.945,0.000
1727436711.832,33.691,-69.824,-42.480,-14.160,0.000
1727436711.836,100.098,-41.504,-36.133,18.066,0.000
1727436711.840,23.438,-22.461,-28.809,15.625,0.000
1727436711.844,-89.844,-26.855,-32.715,-14.648,0.000
1727436711.848,-91.309,-39.551,-42.969,-19.043,0.000
1727436711.852,21.484,-53.223,-50.293,-1.953,0.000
1727436711.856,105.957,-46.875,-50.781,11.230,0.000
1727436711.860,41.992,-43.457,-47.363,7.324,0.000
1727436711.864,-75.684,-58.105,-51.270,-26.855,0.000
1727436711.867,-96.191,-79.102,-54.688,-44.434,0.000
1727436711.871,-4.395,-82.520,-55.176,-25.391,0.000
1727436711.875,81.543,-61.523,-53.711,1.465,0.000
1727436711.879,27.832,-61.035,-54.688,-7.812,0.000
1727436711.883,-86.914,-68.359,-61.523,-41.016,0.000
1727436711.887,-118.164,-65.430,-64.941,-52.734,0.000
1727436711.891,-18.066,-76.172,-69.336,-31.250,0.000
1727436711.895,80.566,-82.031,-72.754,-4.883,0.000
1727436711.899,41.992,-64.941,-72.266,4.395,0.000
1727436711.903,-64.941,-54.688,-67.871,-8.789,0.000
1727436711.907,-107.422,-52.734,-66.406,-37.109,0.000
1727436711.910,-29.785,-61.035,-73.730,-38.086,0.000
1727436711.914,81.055,-65.918,-71.777,-17.090,0.000
1727436711.918,70.312,-65.918,-62.988,-10.742,0.000
1727436711.922,-47.363,-74.707,-60.547,-11.719,0.000
1727436711.926,-120.605,-71.289,-59.082,-30.273,0.000
1727436711.930,-49.316,-79.102,-59.082,-35.645,0.000
1727436711.934,64.453,-83.496,-62.012,-20.020,0.000
1727436711.938,63.477,-68.359,-59.082,-15.137,0.000
1727436711.942,-41.504,-66.406,-52.246,-18.066,0.000
1727436711.946,-113.770,-68.359,-43.457,-23.926,0.000
1727436711.949,-48.828,-71.289,-37.598,-8.789,0.000
1727436711.953,70.312,-77.637,-41.992,7.324,0.000
1727436711.957,94.238,-86.914,-46.875,0.488,0.000
1727436711.961,-8.789,-75.684,-51.270,-20.020,0.000
1727436711.965,-117.188,-49.805,-56.152,-44.434,0.000
1727436711.969,-77.148,-49.316,-50.781,-34.668,0.000
1727436711.973,51.270,-62.988,-46.387,-3.906,0.000
1727436711.977,88.379,-68.848,-54.688,-0.488,0.000
1727436711.981,-1.465,-71.777,-53.223,-10.254,0.000
1727436711.985,-97.168,-67.383,-41.992,-22.949,0.000
1727436711.989,-70.312,-51.758,-45.410,-24.414,0.000
1727436711.992,49.316,-48.828,-50.781,9.277,0.000
1727436711.996,101.562,-61.035,-48.828,19.043,0.000
1727436712.000,7.324,-62.988,-55.176,-1.953,0.000
1727436712.004,-103.516,-61.523,-53.711,-21.973,0.000
1727436712.008,-89.844,-62.500,-50.781,-31.738,0.000
1727436712.012,41.992,-55.664,-52.246,-2.930,0.000
1727436712.016,128.906,-38.086,-45.898,29.785,0.000
1727436712.020,52.246,-43.945,-32.715,34.180,0.000
1727436712.024,-66.406,-57.129,-31.738,9.766,0.000
1727436712.028,-82.520,-60.547,-44.922,-13.184,0.000
1727436712.032,27.832,-72.754,-45.898,9.277,0.000
1727436712.035,120.605,-69.824,-43.945,30.762,0.000
1727436712.039,67.383,-52.734,-43.457,36.621,0.000
1727436712.043,-48.340,-50.293,-46.875,9.766,0.000
1727436712.047,-87.402,-54.199,-53.711,-22.949,0.000
1727436712.051,7.324,-62.500,-50.781,-0.488,0.000
1727436712.055,110.352,-61.523,-41.016,26.367,0.000
1727436712.059,71.289,-55.664,-40.039,26.855,0.000
1727436712.063,-41.504,-44.922,-40.039,10.742,0.000
1727436712.067,-84.473,-33.691,-41.504,-8.789,0.000
1727436712.071,0.977,-39.551,-54.199,1.465,0.000
1727436712.075,106.445,-46.387,-59.570,28.809,0.000
1727436712.078,77.637,-39.551,-48.828,30.273,0.000
1727436712.082,-38.086,-41.016,-42.480,14.160,0.000
1727436712.086,-81.543,-39.551,-38.574,8.789,0.000
1727436712.090,-0.977,-36.621,-43.457,25.391,0.000
1727436712.094,111.816,-40.527,-52.246,31.738,0.000
1727436712.098,101.074,-50.293,-56.152,21.973,0.000
1727436712.102,-16.602,-54.688,-55.176,9.766,0.000
1727436712.106,-73.730,-47.363,-49.805,-1.465,0.000
1727436712.110,-3.418,-47.852,0.000,8.789,0.000
1727436712.114,109.375,-54.688,0.000,29.297,0.000
1727436712.118,111.328,-58.105,0.000,23.438,0.000
1727436712.121,5.371,-53.711,0.000,4.883,0.000
1727436712.125,-69.824,-40.527,0.000,-7.812,0.000
1727436712.129,-22.461,-34.180,0.000,-3.906,0.000
1727436712.133,95.215,-33.691,0.000,24.414,0.000
1727436712.137,117.676,-32.227,0.000,43.945,0.000
1727436712.141,21.484,-39.551,0.000,40.039,0.000
1727436712.145,-67.383,-35.645,0.000,23.926,0.000
1727436712.149,-47.363,-23.438,0.000,14.160,0.000
1727436712.153,67.383,-26.367,0.000,32.227,0.000
1727436712.157,114.258,-48.828,-57.129,37.598,0.000
1727436712.161,16.113,-43.945,-52.734,16.113,0.000
1727436712.164,-90.820,-21.484,-50.293,-9.766,0.000
1727436712.168,-64.941,-42.480,-54.688,-15.625,0.000
1727436712.172,49.805,-58.105,-57.617,-2.441,0.000
1727436712.176,104.492,-47.363,-59.082,12.695,0.000
1727436712.180,31.250,-38.086,-61.523,19.043,0.000
1727436712.184,-73.242,-41.504,-63.965,-10.254,0.000
1727436712.188,-71.777,-45.898,-57.617,-11.719,0.000
1727436712.192,33.203,-44.922,-57.617,22.461,0.000
1727436712.196,101.562,-51.270,-70.312,21.484,0.000
1727436712.199,39.551,-56.641,-70.801,9.277,0.000
1727436712.204,-82.520,-53.711,-67.871,-2.441,0.000
1727436712.207,-100.586,-44.434,-63.965,-15.137,0.000
1727436712.211,19.043,-38.086,-58.594,9.277,0.000
1727436712.215,112.793,-31.250,-59.570,42.480,0.000
1727436712.219,70.312,-35.156,-61.523,26.855,0.000
1727436712.223,-49.316,-47.852,-65.430,-2.441,0.000
1727436712.227,-89.355,-40.527,-64.453,-11.230,0.000
1727436712.231,8.301,-33.691,-61.035,9.766,0.000
1727436712.235,111.328,-41.016,-60.547,38.086,0.000
1727436712.239,76.660,-43.945,-60.547,32.715,0.000
1727436712.242,-39.062,-57.129,-63.477,6.836,0.000
1727436712.246,-91.309,-42.969,-62.012,1.465,0.000
1727436712.250,0.000,-4.395,-51.758,21.973,0.000
1727436712.254,0.000,6.348,-48.828,35.645,0.000
1727436712.258,0.000,0.000,-57.617,37.598,0.000
1727436712.262,0.000,-4.883,-62.988,24.414,0.000
1727436712.266,0.000,-19.531,-58.594,-0.977,0.000
1727436712.270,0.000,-23.926,-47.363,15.625,0.000
1727436712.274,0.000,-13.184,-42.480,47.852,0.000
1727436712.278,0.000,-16.113,-41.016,48.828,0.000
1727436712.281,0.000,-23.438,-38.086,31.738,0.000
1727436712.285,0.000,-20.996,-40.039,3.906,0.000
1727436712.289,0.000,-8.789,-39.551,11.230,0.000
1727436712.293,0.000,1.953,-39.062,49.316,0.000
1727436712.297,123.047,-16.602,-39.551,66.895,0.000
1727436712.301,18.555,-42.969,-43.945,41.016,0.000
1727436712.305,-81.055,-39.062,-57.129,-0.488,0.000
1727436712.309,-48.340,-31.250,-69.336,-14.160,0.000
1727436712.313,76.660,-26.855,-66.406,10.254,0.000
1727436712.317,99.609,-26.855,-64.453,18.555,0.000
1727436712.321,-3.418,-46.875,-69.824,-5.859,0.000
1727436712.324,-91.309,-41.992,-66.406,-14.160,0.000
1727436712.328,-57.129,-21.484,-60.059,2.930,0.000
1727436712.332,64.453,-21.484,-61.523,27.832,0.000
1727436712.336,130.371,-22.949,-60.547,41.992,0.000
1727436712.340,44.434,-26.367,-58.105,27.832,0.000
1727436712.344,-66.895,-24.902,-57.617,12.695,0.000
1727436712.348,-58.594,-27.832,-55.664,7.812,0.000
1727436712.352,62.012,-22.461,-49.805,36.133,0.000
1727436712.356,129.883,-15.625,-44.922,56.152,0.000
1727436712.360,52.734,-9.277,-37.598,26.855,0.000
1727436712.364,-61.035,-4.395,-36.133,-2.930,0.000
1727436712.367,-75.195,-10.254,-39.062,-7.324,0.000
1727436712.371,35.156,-9.766,-35.645,11.719,0.000
1727436712.375,118.164,-3.906,-37.598,23.438,0.000
1727436712.379,63.965,-0.488,-33.203,26.855,0.000
1727436712.383,-38.574,0.000,-22.461,20.996,0.000
1727436712.387,-60.059,-2.441,-26.855,7.324,0.000
1727436712.391,35.156,-9.277,-39.062,13.672,0.000
1727436712.395,136.230,-13.184,-41.504,41.992,0.000
1727436712.399,97.168,-14.160,-35.645,47.363,0.000
1727436712.403,-31.250,-20.508,-39.551,14.160,0.000
1727436712.407,-75.684,-22.461,-44.922,-2.441,0.000
1727436712.410,22.949,-26.367,-41.504,25.879,0.000
1727436712.414,130.859,-18.066,-36.133,47.852,0.000
1727436712.418,92.285,-20.020,-37.109,24.902,0.000
1727436712.422,-37.598,-45.410,-39.062,-0.488,0.000
1727436712.426,-82.520,-55.664,-36.133,-7.812,0.000
1727436712.430,-2.441,-52.734,-36.133,10.254,0.000
1727436712.434,102.051,-43.457,-29.297,37.598,0.000
1727436712.438,84.473,-45.410,-28.809,31.250,0.000
1727436712.442,-25.391,-43.945,-32.715,16.602,0.000
1727436712.446,-87.891,-38.574,-38.574,1.953,0.000
1727436712.450,-33.203,-29.297,-48.340,-4.883,0.000
1727436712.453,89.355,-25.391,-47.852,25.391,0.000
1727436712.457,110.840,-31.738,-36.133,40.527,0.000
1727436712.461,7.324,-35.645,-26.367,32.715,0.000
1727436712.465,-71.777,-41.992,-27.832,16.602,0.000
1727436712.469,-25.391,-30.762,-27.344,15.625,0.000
1727436712.473,93.750,-19.531,-19.531,43.457,0.000
1727436712.477,111.816,-31.250,-26.367,31.250,0.000
1727436712.481,0.977,-20.508,-33.691,-1.465,0.000
1727436712.485,-93.750,-5.371,-33.203,-10.742,0.000
1727436712.489,-50.293,-8.301,-38.574,-6.836,0.000
1727436712.493,81.055,-7.324,-34.180,11.719,0.000
1727436712.496,125.000,-5.859,-26.855,23.438,0.000
1727436712.500,21.973,-16.602,-35.156,1.465,0.000
1727436712.504,-84.961,-21.973,-38.086,-25.391,0.000
1727436712.508,-69.824,-21.484,-34.668,-28.320,0.000
1727436712.512,49.316,-25.391,-35.156,-4.883,0.000
1727436712.516,114.746,-20.508,-37.109,17.090,0.000
1727436712.520,23.926,-14.160,-34.180,23.438,0.000
1727436712.524,-78.125,-10.254,-30.273,7.324,0.000
1727436712.528,-73.242,-11.719,-31.250,-11.230,0.000
1727436712.532,42.480,-31.738,-33.691,9.766,0.000
1727436712.536,123.047,-36.133,-29.785,32.227,0.000
1727436712.539,54.688,-17.578,-23.926,29.785,0.000
1727436712.543,-60.547,-6.836,-21.484,21.484,0.000
1727436712.547,-63.477,-9.277,-22.461,11.230,0.000
1727436712.551,41.992,-11.719,-24.414,12.695,0.000
1727436712.555,110.352,-7.812,-27.832,17.090,0.000
1727436712.559,57.129,0.000,-29.785,15.137,0.000
1727436712.563,-74.219,3.418,-38.086,-5.371,0.000
1727436712.567,-97.168,-10.254,-42.969,-25.391,0.000
1727436712.570,20.996,-27.344,-31.250,-6.836,0.000
1727436712.574,110.352,-20.508,-19.531,20.508,0.000
1727436712.579,63.965,-17.578,-26.855,26.855,0.000
1727436712.582,-48.340,-20.996,-27.344,0.488,0.000
1727436712.586,-92.773,-7.812,-24.414,-27.344,0.000
1727436712.590,-14.160,-7.812,-38.086,-20.508,0.000
1727436712.594,89.844,-19.531,-45.898,-4.883,0.000
1727436712.598,54.199,-24.902,-50.781,-4.395,0.000
1727436712.602,-68.848,-26.367,-59.570,-29.297,0.000
1727436712.606,-128.906,-31.738,-57.617,-35.645,0.000
1727436712.610,-42.969,-33.203,-43.945,-7.324,0.000
1727436712.613,79.102,-26.855,-41.992,1.465,0.000
1727436712.617,70.801,-34.180,-46.387,-3.418,0.000
1727436712.621,-42.480,-37.109,-42.480,-6.836,0.000
1727436712.625,-120.117,-19.043,-38.086,-19.043,0.000
1727436712.629,-64.941,-6.348,-40.039,-20.508,0.000
1727436712.633,52.734,-11.719,-46.387,-7.812,0.000
1727436712.637,81.055,-10.742,-41.992,-5.859,0.000
1727436712.641,-34.180,-12.207,-41.992,-18.555,0.000
1727436712.645,-124.023,-21.484,-44.434,-35.156,0.000
1727436712.649,-64.941,-20.508,-36.621,-35.156,0.000
1727436712.653,52.246,-18.066,-28.809,0.488,0.000
1727436712.656,81.543,-20.020,-27.832,11.719,0.000
1727436712.660,-19.531,-27.832,-36.133,-13.184,0.000
1727436712.664,-115.234,-35.156,-39.551,-32.227,0.000
1727436712.668,-82.520,-24.902,-33.691,-22.461,0.000
1727436712.672,41.992,-12.207,-33.203,3.906,0.000
1727436712.676,90.332,-9.766,-31.738,4.395,0.000
1727436712.680,3.418,-10.742,-32.227,-10.254,0.000
1727436712.684,-105.957,-29.297,-42.480,-40.527,0.000
1727436712.688,-104.980,-39.062,-47.852,-61.523,0.000
1727436712.692,2.930,-29.785,-41.992,-32.227,0.000
1727436712.696,70.801,-25.879,-41.016,-8.789,0.000
1727436712.699,6.348,-24.902,-40.039,-10.254,0.000
1727436712.703,-123.047,-39.551,-44.434,-29.297,0.000
1727436712.707,-137.207,-48.828,-44.922,-50.293,0.000
1727436712.711,-0.977,-35.156,-41.016,-24.414,0.000
1727436712.715,91.797,-35.645,-40.527,0.977,0.000
1727436712.719,16.113,-50.781,-40.527,-6.836,0.000
1727436712.723,-105.957,-37.598,-38.574,-19.043,0.000
1727436712.727,-124.512,-27.832,-36.621,-25.879,0.000
1727436712.731,-12.695,-37.598,-37.109,-17.578,0.000
1727436712.735,95.215,-40.527,-39.551,-8.301,0.000
1727436712.739,48.828,-35.645,-41.992,-10.254,0.000
1727436712.742,-73.730,-30.273,-37.109,-27.344,0.000
1727436712.746,-123.047,-25.391,-34.668,-39.062,0.000
1727436712.750,-50.781,-41.504,-42.480,-29.297,0.000
1727436712.754,57.129,-64.941,-41.992,-14.160,0.000
1727436712.758,34.180,-69.824,-40.039,-18.066,0.000
1727436712.762,-89.355,-63.477,-47.363,-34.668,0.000
1727436712.766,-145.996,-52.734,-46.875,-50.293,0.000
1727436712.770,-68.359,-42.480,-50.781,-46.387,0.000
1727436712.774,47.852,-35.156,-55.664,-35.156,0.000
1727436712.778,38.574,-23.926,-51.270,-40.527,0.000
1727436712.782,-71.777,-25.391,-44.922,-56.641,0.000
1727436712.785,-125.000,-31.738,-41.992,-62.500,0.000
1727436712.789,-71.777,-27.344,-50.781,-54.199,0.000
1727436712.793,24.902,-34.668,-63.965,-49.805,0.000
1727436712.797,30.762,-39.551,-64.453,-55.176,0.000
1727436712.801,-71.289,-32.227,-58.594,-58.105,0.000
1727436712.805,-147.949,-35.645,-50.781,-63.965,0.000
1727436712.809,-99.121,-42.969,-51.758,-59.082,0.000
1727436712.813,0.000,-42.480,-55.664,-43.945,0.000
1727436712.817,0.000,-40.039,-49.805,-39.551,0.000
1727436712.821,0.000,-41.504,-48.340,-40.527,0.000
1727436712.824,0.000,-50.781,-44.922,-59.570,0.000
1727436712.828,0.000,-58.594,-36.133,-53.223,0.000
1727436712.832,0.000,-41.016,-25.391,-12.207,0.000
1727436712.836,0.000,-27.344,-31.738,-5.859,0.000
1727436712.840,0.000,-35.156,-44.922,-40.527,0.000
1727436712.844,0.000,-34.668,-46.387,-68.359,0.000
1727436712.848,0.000,-33.691,-42.969,-74.219,0.000
1727436712.852,0.000,-37.598,-40.039,-57.617,0.000
1727436712.856,0.000,-41.016,-42.480,-39.062,0.000
1727436712.860,-3.906,-38.574,-37.598,-29.297,0.000
1727436712.864,-112.793,-33.691,-33.691,-50.781,0.000
1727436712.867,-126.465,-38.086,-39.551,-66.406,0.000
1727436712.871,4.883,-44.922,-43.945,-46.387,0.000
1727436712.875,82.031,-48.828,-42.969,-30.762,0.000
1727436712.879,-4.395,-49.316,-48.828,-35.156,0.000
1727436712.883,-114.746,-55.176,-53.711,-67.383,0.000
1727436712.887,-123.047,-57.617,-47.852,-72.754,0.000
1727436712.891,-25.879,-48.340,-43.945,-45.410,0.000
1727436712.895,52.246,-43.945,-45.410,-25.879,0.000
1727436712.899,4.883,-40.039,-45.898,-28.320,0.000
1727436712.902,-109.375,-43.945,-45.898,-44.434,0.000
1727436712.907,-143.066,-48.828,-46.387,-56.641,0.000
1727436712.910,-40.527,-41.016,-41.992,-42.480,0.000
1727436712.914,67.871,-34.668,-40.039,-16.602,0.000
1727436712.918,31.250,-38.574,-41.016,-9.766,0.000
1727436712.922,-95.215,-43.457,-39.551,-24.414,0.000
1727436712.926,-149.414,-37.109,-38.574,-42.969,0.000
1727436712.930,-71.289,-28.320,-35.645,-31.250,0.000
1727436712.934,52.734,-28.809,-31.250,-4.883,0.000
1727436712.938,44.434,-41.016,-18.555,-1.465,0.000
1727436712.942,-73.242,-35.645,-12.207,-23.926,0.000
1727436712.945,-127.930,-18.066,-16.113,-49.316,0.000
1727436712.949,-51.758,-3.906,-22.949,-37.598,0.000
1727436712.953,57.129,-1.465,-26.367,-22.461,0.000
1727436712.957,58.105,-7.812,-23.438,-22.461,0.000
1727436712.961,-51.270,-32.227,-31.738,-29.785,0.000
1727436712.965,-127.441,-41.504,-30.762,-49.316,0.000
1727436712.969,-69.336,-21.973,-29.297,-41.992,0.000
1727436712.973,49.805,-13.184,-43.457,-22.461,0.000
1727436712.977,68.848,-24.414,-38.574,-8.301,0.000
1727436712.981,-40.527,-28.809,-33.691,-20.996,0.000
1727436712.985,-132.812,-30.762,-40.039,-49.316,0.000
1727436712.988,-101.562,-42.480,-50.293,-36.621,0.000
1727436712.992,16.602,-46.875,-58.594,-14.648,0.000
1727436712.996,58.594,-35.156,-53.711,-10.742,0.000
1727436713.000,-31.250,-29.785,-40.527,-22.949,0.000
1727436713.004,-117.188,-31.250,-33.691,-43.945,0.000
1727436713.008,-94.238,-28.809,-30.762,-36.621,0.000
1727436713.012,26.367,-24.902,-32.227,-8.301,0.000
1727436713.016,90.332,-13.672,-36.621,-4.883,0.000
1727436713.020,5.859,-8.789,-40.039,-24.414,0.000
1727436713.024,-110.840,-14.160,-41.016,-56.152,0.000
1727436713.028,-104.980,-16.602,-39.062,-64.941,0.000
1727436713.031,8.789,-16.113,-42.480,-39.062,0.000
1727436713.035,63.477,-28.320,-45.898,-31.738,0.000
1727436713.039,-18.555,-40.039,-41.016,-38.086,0.000
1727436713.043,-141.113,-44.922,-43.457,-56.152,0.000
1727436713.047,-151.367,-57.129,-50.293,-75.195,0.000
1727436713.051,-26.367,-65.918,-48.340,-52.734,0.000
1727436713.055,50.781,-58.105,-48.340,-33.691,0.000
1727436713.059,-13.672,-48.828,-53.223,-44.922,0.000
1727436713.063,-124.023,-48.340,-54.688,-64.941,0.000
1727436713.067,-148.926,-46.387,-57.617,-79.590,0.000
1727436713.071,-61.035,-55.176,-66.895,-70.312,0.000
1727436713.074,32.227,-62.988,-66.406,-43.945,0.000
1727436713.078,1.465,-52.246,-57.129,-40.527,0.000
1727436713.082,-121.582,-37.598,-51.270,-57.129,0.000
1727436713.086,-159.668,-35.645,-46.387,-66.895,0.000
1727436713.090,-51.270,-39.062,-43.457,-50.781,0.000
1727436713.094,50.781,-56.641,-48.340,-31.738,0.000
1727436713.098,18.066,-68.359,-38.574,-32.715,0.000
1727436713.102,-96.680,-55.664,-42.969,-44.922,0.000
1727436713.106,-155.273,-44.922,-55.176,-62.988,0.000
1727436713.110,-77.148,-41.992,-54.199,-58.105,0.000
1727436713.114,42.969,-48.828,-53.711,-33.691,0.000
1727436713.117,41.016,-47.852,-48.828,-19.531,0.000
1727436713.121,-72.754,-38.574,-44.922,-34.668,0.000
1727436713.125,-145.020,-31.250,-45.410,-61.523,0.000
1727436713.129,-84.473,-31.250,-44.434,-57.129,0.000
1727436713.133,43.945,-43.457,-40.527,-21.973,0.000
1727436713.137,54.688,-44.922,-40.527,-11.230,0.000
1727436713.141,-63.965,-38.574,-42.480,-37.109,0.000
1727436713.145,-151.855,-37.598,-46.387,-65.918,0.000
1727436713.149,-104.004,-44.434,-49.805,-70.801,0.000
1727436713.153,20.508,-42.969,-44.922,-40.039,0.000
1727436713.157,46.875,-37.598,-41.504,-23.926,0.000
1727436713.160,-62.988,-47.363,-40.039,-51.758,0.000
1727436713.164,-156.250,-41.504,-36.621,-71.777,0.000
1727436713.168,-125.977,-34.668,-42.480,-72.266,0.000
1727436713.172,-7.324,-40.039,-44.922,-65.918,0.000
1727436713.176,41.992,-42.480,-36.621,-51.758,0.000
1727436713.180,-53.223,-40.527,-35.645,-51.270,0.000
1727436713.184,-158.203,-40.527,-39.551,-66.895,0.000
1727436713.188,-136.719,-41.016,-36.621,-70.312,0.000
1727436713.192,-18.555,-43.945,-34.180,-52.734,0.000
1727436713.196,35.645,-45.898,-46.875,-51.270,0.000
1727436713.199,-45.410,-37.109,-50.781,-70.801,0.000
1727436713.203,-149.414,-35.645,-46.875,-83.496,0.000
1727436713.207,-141.113,-42.480,-57.617,-85.449,0.000
1727436713.211,-31.250,-58.105,-63.965,-79.102,0.000
1727436713.215,49.316,-46.387,-58.594,-61.523,0.000
1727436713.219,-10.742,-23.438,-55.176,-63.477,0.000
1727436713.223,-122.559,-30.762,-55.664,-75.195,0.000
1727436713.227,-134.766,-47.852,-52.246,-74.219,0.000
1727436713.231,-31.738,-50.293,-54.688,-58.594,0.000
1727436713.235,53.711,-43.457,-59.082,-46.875,0.000
1727436713.239,-7.324,-38.574,-57.617,-56.641,0.000
1727436713.242,-134.277,-37.598,-59.570,-81.543,0.000
1727436713.246,-165.039,-41.992,-60.059,-96.191,0.000
1727436713.250,-68.359,-40.527,-60.547,-79.590,0.000
1727436713.254,41.504,-34.180,-61.523,-53.711,0.000
1727436713.258,9.766,-30.273,-57.129,-53.223,0.000
1727436713.262,-115.723,-43.945,-57.617,-65.918,0.000
1727436713.266,-153.320,-45.898,-51.270,-58.105,0.000
1727436713.270,-57.129,-38.574,-45.410,-34.668,0.000
1727436713.274,44.434,-35.156,-51.270,-27.832,0.000
1727436713.277,31.738,-23.926,-52.246,-36.621,0.000
1727436713.282,-76.660,-29.297,-43.457,-48.340,0.000
1727436713.285,-148.926,-33.691,-40.527,-69.824,0.000
1727436713.289,-79.102,-32.227,-42.480,-62.012,0.000
1727436713.293,37.109,-38.086,-46.875,-41.016,0.000
1727436713.297,41.504,-34.180,-38.574,-37.598,0.000
1727436713.301,-65.430,-37.598,-35.156,-49.805,0.000
1727436713.305,-156.738,-46.387,-44.434,-75.195,0.000
1727436713.309,-110.840,-46.387,-48.828,-72.754,0.000
1727436713.313,14.160,-49.805,-53.223,-46.387,0.000
1727436713.317,31.738,-41.992,-54.199,-40.039,0.000
1727436713.320,-74.707,-29.297,-56.152,-59.082,0.000
1727436713.324,-168.457,-26.855,-59.570,-86.914,0.000
1727436713.328,-132.324,-35.645,-59.082,-87.402,0.000
1727436713.332,-6.836,-37.109,-58.105,-52.246,0.000
1727436713.336,24.902,-30.762,-63.477,-40.527,0.000
1727436713.340,-65.918,-33.203,-63.477,-51.758,0.000
1727436713.344,-156.738,-41.992,-61.523,-71.289,0.000
1727436713.348,-135.254,-41.016,-62.988,-71.777,0.000
1727436713.352,-17.090,-39.551,-57.129,-45.410,0.000
1727436713.356,46.387,-44.922,-47.852,-40.039,0.000
1727436713.360,-32.227,-49.805,-49.805,-55.176,0.000
1727436713.363,-152.832,-52.734,-56.641,-79.590,0.000
1727436713.367,-144.043,-46.875,-60.059,-85.449,0.000
1727436713.371,-28.320,-41.992,-62.988,-62.012,0.000
1727436713.375,25.391,-47.363,-65.430,-50.781,0.000
1727436713.379,-44.434,-42.969,-70.312,-66.406,0.000
1727436713.383,-143.066,-19.043,-64.941,-81.543,0.000
1727436713.387,-149.414,-0.488,-46.875,-79.102,0.000
1727436713.391,-48.340,-9.277,-41.992,-56.152,0.000
1727436713.395,40.039,-24.414,-42.480,-33.203,0.000
1727436713.399,-13.184,-26.855,-44.434,-41.016,0.000
1727436713.403,-128.418,-34.668,-38.574,-64.453,0.000
1727436713.406,-165.039,-39.551,-37.598,-78.613,0.000
1727436713.410,-67.871,-33.691,-50.781,-67.383,0.000
1727436713.414,41.016,-30.762,-49.805,-48.828,0.000
1727436713.418,-2.930,-28.809,-44.434,-45.410,0.000
1727436713.422,-117.676,-20.996,-39.062,-58.105,0.000
1727436713.426,-151.367,-36.133,-35.645,-78.125,0.000
1727436713.430,-53.711,-43.945,-34.668,-56.641,0.000
1727436713.434,57.129,-34.668,-34.180,-25.391,0.000
1727436713.438,24.902,-30.762,-34.180,-20.508,0.000
1727436713.442,-92.773,-29.785,-34.668,-38.086,0.000
1727436713.446,-150.879,-31.250,-37.109,-65.430,0.000
1727436713.449,-71.777,-27.832,-32.227,-46.875,0.000
1727436713.453,45.898,-24.902,-29.297,-21.973,0.000
1727436713.457,48.828,-17.090,-26.367,-20.996,0.000
1727436713.461,-61.035,-21.973,-20.996,-27.344,0.000
1727436713.465,-153.320,-36.621,-26.855,-46.387,0.000
1727436713.469,-96.191,-35.156,-34.180,-41.992,0.000
1727436713.473,27.344,-36.133,-38.086,-25.391,0.000
1727436713.477,29.297,-41.016,-41.016,-32.227,0.000
1727436713.481,-83.008,-42.969,-42.969,-47.363,0.000
1727436713.485,-161.621,-41.504,-41.016,-62.012,0.000
1727436713.488,-113.281,-42.969,-42.480,-66.895,0.000
1727436713.492,5.371,-50.293,-46.875,-55.664,0.000
1727436713.496,28.320,-52.734,-50.781,-58.594,0.000
1727436713.500,-84.961,-50.293,-52.734,-79.590,0.000
1727436713.504,-178.711,-45.410,-48.828,-98.633,0.000
1727436713.508,-143.555,-43.945,-50.781,-90.820,0.000
1727436713.512,-18.555,-38.574,-43.945,-57.129,0.000
1727436713.516,25.879,-32.227,-43.945,-47.363,0.000
1727436713.520,-82.031,-40.039,-51.758,-67.871,0.000
1727436713.524,-183.105,-42.480,-47.852,-96.191,0.000
1727436713.528,-160.645,-39.062,-51.270,-103.027,0.000
1727436713.531,-30.273,-35.156,-52.246,-68.359,0.000
1727436713.535,34.180,-31.250,-48.340,-60.547,0.000
1727436713.539,-42.480,-37.598,-46.875,-69.824,0.000
1727436713.543,-142.578,-53.223,-44.434,-75.684,0.000
1727436713.547,-145.996,-42.969,-47.852,-88.379,0.000
1727436713.551,-31.738,-29.297,-44.922,-61.523,0.000
1727436713.555,38.574,-27.832,-45.410,-42.969,0.000
1727436713.559,-36.621,-27.344,-47.852,-58.594,0.000
1727436713.563,-141.113,-31.250,-43.945,-64.941,0.000
1727436713.567,-147.461,-23.926,-41.016,-64.453,0.000
1727436713.571,-28.809,-18.555,-40.039,-48.828,0.000
1727436713.574,66.895,-23.926,-42.969,-12.695,0.000
1727436713.578,29.785,-25.391,-43.457,-21.973,0.000
1727436713.582,-92.285,-34.180,-41.016,-61.523,0.000
1727436713.586,-139.648,-37.598,-41.016,-68.359,0.000
1727436713.590,-31.250,-20.508,-39.551,-44.922,0.000
1727436713.594,72.266,-17.090,-33.203,-22.949,0.000
1727436713.598,39.551,-21.973,-28.809,-17.578,0.000
1727436713.602,-64.941,-6.836,-26.367,-35.645,0.000
1727436713.606,-123.047,-2.930,-25.879,-57.617,0.000
1727436713.610,-54.688,-11.719,-33.691,-52.246,0.000
1727436713.614,55.176,-7.812,-34.668,-19.043,0.000
1727436713.617,36.133,-9.766,-30.762,-13.672,0.000
1727436713.621,-84.473,-21.484,-37.598,-47.363,0.000
1727436713.625,-151.367,-21.973,-40.039,-73.730,0.000
1727436713.629,-75.684,-7.812,-34.180,-56.641,0.000
1727436713.633,41.992,-5.371,-36.133,-36.133,0.000
1727436713.637,40.527,-17.578,-41.992,-50.293,0.000
1727436713.641,-72.754,-34.180,-41.016,-64.941,0.000
1727436713.645,-161.621,-43.457,-40.527,-78.613,0.000
1727436713.649,-117.188,-43.457,-39.062,-73.730,0.000
1727436713.652,7.812,-50.293,-36.621,-43.457,0.000
1727436713.657,30.273,-50.293,-32.715,-24.414,0.000
1727436713.660,-67.383,-38.574,-27.832,-44.922,0.000
1727436713.664,-149.414,-33.203,-29.785,-85.938,0.000
1727436713.668,-118.164,-40.527,-30.762,-80.078,0.000
1727436713.672,-2.930,-54.199,-32.715,-44.922,0.000
1727436713.676,40.527,-52.734,-32.227,-32.227,0.000
1727436713.680,-45.898,-46.875,-31.738,-46.387,0.000
1727436713.684,-131.348,-54.688,-38.574,-70.801,0.000
1727436713.688,-99.609,-55.176,-34.180,-64.453,0.000
1727436713.692,-0.488,-37.598,-31.738,-36.133,0.000
1727436713.695,33.691,-40.527,-39.551,-32.715,0.000
1727436713.699,-42.480,-46.875,-36.621,-40.527,0.000
1727436713.703,0.000,-42.480,-37.109,-64.453,0.000
1727436713.707,0.000,-43.945,-37.598,-77.637,0.000
1727436713.711,0.000,-37.109,-37.109,-47.363,0.000
1727436713.715,0.000,-30.273,-41.016,-30.762,0.000
1727436713.719,0.000,-35.645,-41.504,-38.086,0.000
1727436713.723,0.000,-35.156,-35.156,-48.828,0.000
1727436713.727,0.000,-36.621,-34.668,-62.988,0.000
1727436713.731,0.000,-41.504,-34.668,-45.410,0.000
1727436713.735,0.000,-40.039,-28.809,-22.949,0.000
1727436713.738,0.000,-44.434,-28.809,-23.926,0.000
1727436713.742,0.000,-37.109,-24.902,-55.176,0.000
1727436713.746,0.000,-20.020,-21.973,-75.684,0.000
1727436713.750,-34.180,-17.090,-26.855,-54.688,0.000
1727436713.754,54.688,-26.367,-31.250,-30.273,0.000
1727436713.758,6.348,-47.363,-36.621,-34.668,0.000
1727436713.762,-111.816,-62.012,-34.180,-50.293,0.000
1727436713.766,-153.320,-53.711,-33.691,-70.801,0.000
1727436713.770,-52.734,-41.504,-37.109,-67.383,0.000
1727436713.774,42.480,-31.250,-45.410,-52.734,0.000
1727436713.778,3.906,-30.762,-53.711,-52.734,0.000
1727436713.781,-104.004,-32.715,-45.898,-60.059,0.000
1727436713.785,-160.156,-27.344,-38.574,-70.801,0.000
1727436713.789,-80.566,-34.668,-44.922,-60.547,0.000
1727436713.793,32.715,-43.945,-45.410,-47.363,0.000
1727436713.797,20.996,-50.781,-39.062,-51.758,0.000
1727436713.801,-100.586,-51.758,-44.434,-69.824,0.000
1727436713.805,-171.387,-36.133,-48.340,-84.961,0.000
1727436713.809,-110.352,-35.645,-45.898,-72.266,0.000
1727436713.813,10.254,-48.828,-41.504,-51.270,0.000
1727436713.817,35.645,-50.293,-35.645,-46.875,0.000
1727436713.820,-63.965,-46.387,-34.668,-53.711,0.000
1727436713.824,-145.996,-36.621,-38.574,-65.430,0.000
1727436713.828,-107.910,-35.156,-50.293,-72.754,0.000
1727436713.832,15.625,-35.645,-48.340,-57.129,0.000
1727436713.836,58.594,-31.250,-43.945,-41.016,0.000
1727436713.840,-44.434,-36.133,-57.129,-67.871,0.000
1727436713.844,-156.738,-41.016,-64.453,-96.680,0.000
1727436713.848,-124.023,-49.316,-59.082,-85.938,0.000
1727436713.852,5.859,-59.570,-50.293,-52.246,0.000
1727436713.856,54.199,-54.199,-49.805,-42.969,0.000
1727436713.860,-38.574,-51.270,-49.805,-50.293,0.000
1727436713.863,-152.832,-52.246,-45.410,-61.523,0.000
1727436713.867,-137.207,-54.688,-41.992,-63.477,0.000
1727436713.871,-15.137,-60.547,-39.551,-40.039,0.000
1727436713.875,48.828,-50.293,-37.598,-23.438,0.000
1727436713.879,-18.066,-46.387,-36.133,-28.809,0.000
1727436713.883,-124.023,-53.711,-38.086,-62.012,0.000
1727436713.887,-125.977,-61.523,-36.621,-63.477,0.000
1727436713.891,-17.578,-70.312,-40.527,-35.156,0.000
1727436713.895,62.500,-72.266,-42.969,-23.438,0.000
1727436713.899,2.930,-61.523,-35.645,-23.438,0.000
1727436713.903,-119.141,-69.824,-32.715,-50.293,0.000
1727436713.906,-151.367,-78.613,-38.574,-69.824,0.000
1727436713.910,-52.734,-67.871,-39.062,-61.523,0.000
1727436713.914,56.152,-58.594,-35.156,-39.062,0.000
1727436713.918,3.418,-62.500,-41.016,-34.668,0.000
1727436713.922,-130.859,-77.637,-41.504,-66.406,0.000
1727436713.926,-158.203,-82.031,-35.156,-83.984,0.000
1727436713.930,-57.617,-83.984,-34.668,-57.129,0.000
1727436713.934,41.016,-77.637,-40.039,-41.992,0.000
1727436713.938,1.953,-70.801,-40.039,-55.664,0.000
1727436713.942,-113.770,-75.684,-31.250,-65.918,0.000
1727436713.946,-162.109,-74.707,-40.527,-85.938,0.000
1727436713.949,-84.473,-76.172,-52.246,-79.102,0.000
1727436713.953,17.578,-88.867,-53.711,-47.363,0.000
1727436713.957,3.418,-90.820,-53.711,-40.527,0.000
1727436713.961,-104.980,-82.031,-51.270,-63.965,0.000
1727436713.965,-168.945,-79.590,-53.711,-83.496,0.000
1727436713.969,-104.004,-87.402,-54.199,-69.336,0.000
1727436713.973,14.648,-88.867,-57.617,-46.387,0.000
1727436713.977,30.273,-90.332,-57.617,-48.340,0.000
1727436713.981,-82.031,-85.449,-51.270,-62.012,0.000
1727436713.985,-176.270,-81.055,-49.316,-82.520,0.000
1727436713.988,-129.395,-90.820,-54.199,-74.707,0.000
1727436713.992,2.930,-88.867,-56.152,-49.805,0.000
1727436713.996,45.410,-73.730,-51.270,-41.504,0.000
1727436714.000,-47.852,-62.500,-43.457,-28.809,0.000
1727436714.004,-137.695,-59.570,-43.945,-43.457,0.000
1727436714.008,-104.004,-57.617,-45.410,-46.387,0.000
1727436714.012,15.137,-56.152,-45.898,-17.578,0.000
1727436714.016,58.105,-63.477,-53.223,-21.973,0.000
1727436714.020,-36.621,-71.289,-54.688,-36.621,0.000
1727436714.023,-142.090,-83.008,-60.059,-55.176,0.000
1727436714.027,-127.441,-85.938,-60.059,-66.895,0.000
1727436714.031,-5.859,-86.426,-55.664,-44.922,0.000
1727436714.035,51.758,-98.633,-60.547,-41.016,0.000
1727436714.039,-33.691,-89.844,-61.035,-53.223,0.000
1727436714.043,-151.367,-68.359,-55.176,-72.754,0.000
1727436714.047,-146.484,-60.547,-49.805,-72.754,0.000
1727436714.051,-18.555,-56.641,-52.246,-46.387,0.000
1727436714.055,49.805,-51.758,-51.270,-43.457,0.000
1727436714.059,-28.320,-53.711,-50.781,-55.176,0.000
1727436714.063,-138.184,-61.523,-50.781,-69.824,0.000
1727436714.066,-158.691,-73.730,-52.246,-83.008,0.000
1727436714.070,-57.617,-81.543,-54.688,-67.871,0.000
1727436714.074,41.504,-79.102,-52.734,-46.875,0.000
1727436714.078,-3.906,-75.684,-56.641,-48.340,0.000
1727436714.082,-121.094,-68.848,-59.570,-60.547,0.000
1727436714.086,-154.785,-60.059,-56.152,-71.289,0.000
1727436714.090,-56.152,-55.664,-52.246,-58.594,0.000
1727436714.094,40.039,-66.895,-47.363,-35.156,0.000
1727436714.098,-5.371,-93.262,-53.711,-42.969,0.000
1727436714.102,-127.930,-93.750,-62.012,-74.707,0.000
1727436714.106,-167.969,-78.125,-57.617,-91.309,0.000
1727436714.109,-70.312,-72.266,-55.176,-65.918,0.000
1727436714.113,47.852,-58.594,-48.340,-41.016,0.000
1727436714.117,38.574,-50.781,-43.945,-52.734,0.000
1727436714.121,-88.867,-59.570,-47.363,-61.523,0.000
1727436714.125,-159.668,-59.082,-50.781,-62.500,0.000
1727436714.129,-79.102,-62.012,-54.199,-56.152,0.000
1727436714.133,41.016,-67.383,-51.758,-31.738,0.000
1727436714.137,42.480,-64.453,-48.828,-19.531,0.000
1727436714.141,-63.477,-50.781,-41.504,-32.227,0.000
1727436714.145,-137.695,-35.645,-41.504,-54.688,0.000
1727436714.149,-81.055,-42.969,-47.363,-51.758,0.000
1727436714.152,46.875,-41.992,-44.922,-18.555,0.000
1727436714.156,67.871,-41.016,-41.016,-9.277,0.000
1727436714.160,-50.781,-61.523,-43.457,-43.457,0.000
1727436714.164,-153.320,-65.430,-43.945,-56.152,0.000
1727436714.168,-114.746,-57.617,-41.992,-36.133,0.000
1727436714.172,0.000,-62.012,-41.992,-30.762,0.000
1727436714.176,44.434,-51.270,-39.551,-32.715,0.000
1727436714.180,-46.387,-40.039,-36.133,-34.180,0.000
1727436714.184,-145.508,-39.062,-35.645,-61.523,0.000
1727436714.188,-109.863,-36.133,-34.668,-60.059,0.000
1727436714.192,16.113,-40.527,-40.039,-29.297,0.000
1727436714.195,58.594,-47.852,-45.898,-29.297,0.000
1727436714.199,-34.180,-50.293,-46.875,-30.273,0.000
1727436714.203,-136.719,-51.758,-52.734,-53.711,0.000
1727436714.207,-131.348,-76.660,-57.129,-72.754,0.000
1727436714.211,-18.555,-91.309,-56.152,-52.246,0.000
1727436714.215,40.527,-72.266,-62.012,-39.062,0.000
1727436714.219,-41.504,-67.383,-63.965,-54.199,0.000
1727436714.223,-141.602,-65.918,-55.664,-75.684,0.000
1727436714.227,-138.672,-54.199,-50.781,-83.496,0.000
1727436714.231,-42.969,-49.316,-49.316,-62.500,0.000
1727436714.235,34.180,-49.316,-41.992,-34.668,0.000
1727436714.238,-10.742,-58.105,-42.480,-35.645,0.000
1727436714.242,-118.652,-67.383,-39.551,-38.086,0.000
1727436714.246,-140.625,-75.195,-37.598,-43.457,0.000
1727436714.250,-37.109,-67.383,-45.898,-50.293,0.000
1727436714.254,62.988,-46.387,-49.316,-31.738,0.000
1727436714.258,16.113,-49.316,-52.734,-39.062,0.000
1727436714.262,-107.422,-56.152,-55.664,-65.918,0.000
1727436714.266,-143.066,-48.828,-52.734,-80.078,0.000
1727436714.270,-46.387,-46.875,-44.434,-57.129,0.000
1727436714.274,56.641,-49.316,-40.527,-37.109,0.000
1727436714.278,26.367,-56.152,-44.922,-39.551,0.000
1727436714.281,-81.543,-65.918,-42.480,-48.340,0.000
1727436714.285,-126.465,-68.359,-41.016,-63.477,0.000
1727436714.289,-51.758,-64.453,-42.969,-46.387,0.000
1727436714.293,55.176,-60.547,-49.805,-18.555,0.000
1727436714.297,39.551,-56.641,-50.293,-23.438,0.000
1727436714.301,-83.008,-50.293,-45.898,-49.805,0.000
1727436714.305,-153.809,-56.641,-48.340,-74.707,0.000
1727436714.309,-86.426,-56.152,-47.363,-67.383,0.000
1727436714.313,0.000,-52.734,-45.410,-39.551,0.000
1727436714.317,0.000,-58.594,-45.898,-35.645,0.000
1727436714.321,0.000,-67.383,-54.199,-49.316,0.000
1727436714.324,0.000,-80.566,-54.688,-68.359,0.000
1727436714.328,0.000,-74.219,-49.316,-65.918,0.000
1727436714.332,0.000,-51.270,-46.875,-33.691,0.000
1727436714.336,0.000,-42.480,-42.480,-26.367,0.000
1727436714.340,0.000,-40.527,-40.039,-47.852,0.000
1727436714.344,0.000,-41.016,-30.273,-53.223,0.000
1727436714.348,0.000,-50.293,-26.855,-51.270,0.000
1727436714.352,0.000,-57.617,-31.738,-43.457,0.000
1727436714.356,0.000,-52.246,-30.273,-37.598,0.000
1727436714.360,-12.207,-51.758,-30.273,-40.527,0.000
1727436714.363,-129.883,-61.523,-42.480,-57.617,0.000
1727436714.367,-122.559,-61.035,-46.875,-69.336,0.000
1727436714.371,6.836,-55.664,-46.387,-55.664,0.000
1727436714.375,62.500,-48.340,-46.875,-41.016,0.000
1727436714.379,-27.344,-42.480,-41.992,-40.527,0.000
1727436714.383,-133.789,-37.598,-32.715,-55.664,0.000
1727436714.387,-129.395,-33.203,-33.691,-64.941,0.000
1727436714.391,-23.438,-33.203,-40.039,-42.480,0.000
1727436714.395,54.199,-30.273,-42.969,-20.508,0.000
1727436714.398,-16.113,-28.320,-37.598,-24.414,0.000
1727436714.402,-131.836,-33.691,-20.020,-39.062,0.000
1727436714.406,-142.090,-37.598,-22.949,-62.012,0.000
1727436714.410,-44.922,-35.156,-31.250,-59.082,0.000
1727436714.414,32.715,-33.203,-35.156,-49.316,0.000
1727436714.418,-29.297,-28.809,-41.504,-71.777,0.000
1727436714.422,-150.391,-19.531,-18.555,-90.332,0.000
1727436714.426,-183.105,-23.438,5.859,-93.750,0.000
1727436714.430,-96.680,-34.180,-17.578,-98.145,0.000
1727436714.434,-17.090,-24.902,-29.785,-97.656,0.000
1727436714.438,-58.594,-14.160,-15.625,-108.398,0.000
1727436714.441,-179.688,-14.648,-15.137,-124.512,0.000
1727436714.445,-250.488,-14.648,-36.133,-158.691,0.000
1727436714.449,-172.363,-20.020,-43.945,-167.480,0.000
1727436714.453,-82.520,-34.668,-48.340,-159.180,0.000
1727436714.457,-120.605,-39.551,-60.059,-189.453,0.000
1727436714.461,-239.746,-34.668,-58.594,-212.402,0.000
1727436714.465,-304.688,-33.203,-55.664,-226.074,0.000
1727436714.469,-235.352,-29.297,-56.641,-221.680,0.000
1727436714.473,-128.418,-36.133,-59.570,-208.496,0.000
1727436714.477,-133.301,-33.691,-59.082,-198.242,0.000
1727436714.481,-244.141,-26.855,-57.617,-208.008,0.000
1727436714.484,-308.105,-40.039,-58.594,-218.750,0.000
1727436714.488,-241.699,-53.711,-65.918,-206.543,0.000
1727436714.492,-107.910,-70.801,-74.707,-182.617,0.000
1727436714.496,-67.383,-64.453,-75.684,-161.133,0.000
1727436714.500,-166.992,-57.129,-68.359,-163.086,0.000
1727436714.504,-253.418,-72.266,-64.941,-166.504,0.000
1727436714.508,-201.660,-54.688,-72.754,-146.484,0.000
1727436714.512,-70.801,-32.227,-81.055,-130.371,0.000
1727436714.516,-21.973,-26.367,-82.520,-117.188,0.000
1727436714.520,-94.238,-26.855,-73.730,-102.539,0.000
1727436714.524,-178.711,-23.438,-66.895,-107.422,0.000
1727436714.527,-137.207,-28.320,-61.035,-81.055,0.000
1727436714.531,0.000,-32.227,-58.594,-37.598,0.000
1727436714.535,55.176,-38.086,-63.965,-22.461,0.000
1727436714.539,-16.113,-41.992,-61.035,-11.719,0.000
1727436714.543,-118.652,-44.922,-50.781,-21.973,0.000
1727436714.547,-87.402,-45.410,-46.875,-20.020,0.000
1727436714.551,52.246,-51.270,-48.828,15.137,0.000
1727436714.555,113.281,-57.617,-52.246,38.086,0.000
1727436714.559,45.410,-46.387,-48.340,37.598,0.000
1727436714.563,-67.871,-44.922,-49.316,6.348,0.000
1727436714.567,-75.195,-48.340,-41.016,0.488,0.000
1727436714.570,42.969,-53.223,-30.762,29.785,0.000
1727436714.574,142.090,-54.688,-30.762,50.781,0.000
1727436714.578,83.008,-54.688,-31.738,32.227,0.000
1727436714.582,-46.875,-61.523,-34.668,1.953,0.000
1727436714.586,-66.895,-68.359,-31.738,4.395,0.000
1727436714.590,28.809,-73.242,-32.715,19.531,0.000
1727436714.594,124.023,-70.801,-34.180,41.016,0.000
1727436714.598,91.309,-58.594,-28.809,49.316,0.000
1727436714.602,-28.320,-48.340,-27.832,34.180,0.000
1727436714.606,-69.824,-53.223,-29.297,28.320,0.000
1727436714.610,27.344,-59.082,-32.715,41.992,0.000
1727436714.613,133.301,-55.176,-33.691,54.688,0.000
1727436714.617,100.098,-62.500,-34.668,44.434,0.000
1727436714.621,-20.508,-66.895,-38.574,25.391,0.000
1727436714.625,-85.449,-66.895,-39.062,2.441,0.000
1727436714.629,-2.441,-64.453,-35.156,7.324,0.000
1727436714.633,117.676,-59.082,-31.738,34.668,0.000
1727436714.637,108.887,-61.523,-29.297,45.410,0.000
1727436714.641,0.000,-74.219,-26.855,25.391,0.000
1727436714.645,0.000,-73.242,-25.391,2.441,0.000
1727436714.649,0.000,-68.359,-32.227,9.766,0.000
1727436714.652,0.000,-60.547,-36.133,28.320,0.000
1727436714.656,0.000,-43.457,-31.738,23.438,0.000
1727436714.660,0.000,-26.367,-26.855,12.207,0.000
1727436714.664,0.000,-28.809,-23.438,8.301,0.000
1727436714.668,0.000,-33.691,-24.902,12.207,0.000
1727436714.672,0.000,-28.809,-28.809,24.902,0.000
1727436714.676,0.000,-35.156,-27.344,28.320,0.000
1727436714.680,0.000,-43.457,-22.461,17.090,0.000
1727436714.684,0.000,-47.363,-23.438,-9.766,0.000
1727436714.688,-30.762,-49.805,-28.320,-20.020,0.000
1727436714.692,77.148,-48.828,-29.785,7.324,0.000
1727436714.695,113.770,-40.527,-30.762,16.602,0.000
1727436714.699,27.344,-23.438,-28.809,6.348,0.000
1727436714.703,-74.219,-26.855,-31.250,-9.766,0.000
1727436714.707,-70.312,-41.016,-34.668,-15.625,0.000
1727436714.711,38.086,-47.363,-30.762,15.625,0.000
1727436714.715,91.309,-46.875,-32.227,24.414,0.000
1727436714.719,6.348,-43.945,-37.598,2.441,0.000
1727436714.723,-108.887,-48.828,-44.434,-18.066,0.000
1727436714.727,-104.980,-48.340,-48.828,-27.832,0.000
1727436714.730,9.277,-40.527,-43.945,-4.883,0.000
1727436714.735,87.402,-42.969,-37.598,9.277,0.000
1727436714.738,20.996,-54.199,-43.457,-13.184,0.000
1727436714.742,-93.262,-51.758,-44.922,-37.109,0.000
1727436714.746,-112.793,-50.781,-34.668,-40.039,0.000
1727436714.750,-8.789,-54.199,-31.250,-19.043,0.000
1727436714.754,85.449,-45.898,-33.691,6.348,0.000
1727436714.758,31.738,-33.203,-36.133,11.230,0.000
1727436714.762,-89.844,-37.598,-41.016,-19.531,0.000
1727436714.766,-126.465,-46.387,-49.805,-45.410,0.000
1727436714.770,-32.715,-51.270,-53.223,-34.180,0.000
1727436714.773,60.059,-50.293,-52.734,-17.578,0.000
1727436714.777,35.156,-41.016,-41.992,-15.137,0.000
1727436714.781,-78.125,-42.969,-37.109,-31.250,0.000
1727436714.785,-130.371,-52.734,-45.898,-48.340,0.000
1727436714.789,-31.738,-44.434,-49.316,-34.180,0.000
1727436714.793,82.031,-43.457,-41.504,-6.836,0.000
1727436714.797,52.734,-54.199,-36.621,-3.418,0.000
1727436714.801,-62.012,-46.387,-36.621,-25.391,0.000
1727436714.805,-129.883,-43.457,-44.922,-58.105,0.000
1727436714.809,-59.082,-53.223,-47.852,-36.621,0.000
1727436714.813,68.359,-51.270,-36.133,4.395,0.000
1727436714.816,68.848,-38.574,-31.250,1.953,0.000
1727436714.820,-45.410,-31.738,-40.527,-19.531,0.000
1727436714.824,-122.070,-26.367,-37.598,-39.062,0.000
1727436714.828,-63.477,-31.738,-32.227,-36.133,0.000
1727436714.832,55.664,-38.574,-36.133,2.441,0.000
1727436714.836,70.312,-40.039,-39.062,13.672,0.000
1727436714.840,-38.086,-44.922,-40.039,-32.227,0.000
1727436714.844,-116.211,-44.434,-37.109,-57.129,0.000
1727436714.848,-62.988,-41.504,-40.039,-44.434,0.000
1727436714.852,35.645,-45.410,-41.504,-22.949,0.000
1727436714.856,61.035,-37.109,-38.574,-15.137,0.000
1727436714.859,-31.250,-21.973,-36.133,-25.879,0.000
1727436714.863,-140.137,-25.391,-35.645,-49.805,0.000
1727436714.867,-124.023,-38.086,-42.480,-53.223,0.000
1727436714.871,7.324,-44.922,-47.852,-28.809,0.000
1727436714.875,58.105,-52.734,-50.293,-27.832,0.000
1727436714.879,-25.879,-43.457,-53.223,-41.992,0.000
1727436714.883,-134.277,-35.645,-52.246,-64.453,0.000
1727436714.887,-138.672,-38.574,-51.758,-78.125,0.000
1727436714.891,-15.137,-42.969,-49.316,-52.246,0.000
1727436714.895,58.594,-44.922,-51.758,-32.227,0.000
1727436714.899,-11.719,-49.316,-53.223,-43.945,0.000
1727436714.902,-123.535,-54.199,-50.781,-66.406,0.000
1727436714.906,-141.113,-54.688,-52.246,-65.430,0.000
1727436714.910,-39.551,-55.664,-52.246,-42.969,0.000
1727436714.914,48.340,-52.734,-52.734,-32.227,0.000
1727436714.918,1.465,-45.898,-56.152,-32.715,0.000
1727436714.918,1.465,-45.898,-56.152,-32.715,0.000
1727436714.922,-114.258,-44.922,-58.105,-49.316,0.000
1727436714.926,-141.602,-50.781,-65.430,-71.777,0.000
1727436714.930,-39.551,-53.711,-64.941,-49.316,0.000
1727436714.934,63.477,-48.340,-61.035,-20.020,0.000
1727436714.938,21.484,-50.293,-63.965,-32.715,0.000
1727436714.942,-94.727,-53.223,-57.617,-58.594,0.000
1727436714.945,-127.441,-48.828,-58.594,-64.941,0.000
1727436714.949,-39.062,-46.387,-63.965,-42.480,0.000
1727436714.953,55.664,-46.387,-68.359,-28.809,0.000
1727436714.957,38.574,-47.363,-65.430,-21.484,0.000
1727436714.961,-69.336,-50.293,-53.223,-23.438,0.000
1727436714.965,-125.488,-38.574,-45.410,-35.645,0.000
1727436714.969,-48.828,-27.832,-39.062,-21.484,0.000
1727436714.973,62.500,-43.945,-37.109,-3.906,0.000
1727436714.977,60.059,-52.246,-39.062,-3.418,0.000
1727436714.981,-48.340,-44.434,-34.668,-15.137,0.000
1727436714.985,-125.977,-43.457,-37.109,-46.387,0.000
1727436714.988,-69.336,-42.480,-38.086,-39.551,0.000
1727436714.992,49.316,-35.156,-35.645,-2.441,0.000
1727436714.996,61.035,-23.926,-38.574,9.766,0.000
1727436715.000,-48.340,-24.414,-37.598,-12.695,0.000
1727436715.004,-136.719,-42.969,-36.621,-41.504,0.000
1727436715.008,-89.355,-49.316,-43.457,-31.738,0.000
1727436715.012,33.203,-54.688,-57.129,-16.113,0.000
1727436715.016,50.293,-63.477,-67.871,-22.461,0.000
1727436715.020,-43.457,-50.293,-57.617,-32.715,0.000
1727436715.024,-121.582,-45.410,-45.898,-49.805,0.000
1727436715.027,-96.191,-53.711,-53.711,-59.082,0.000
1727436715.031,11.719,-45.410,-59.570,-50.293,0.000
1727436715.035,66.895,-36.133,-51.270,-32.715,0.000
1727436715.039,-5.371,-41.016,-41.016,-20.996,0.000
1727436715.043,-114.746,-51.270,-39.551,-40.527,0.000
1727436715.047,-105.469,-60.547,-45.410,-56.641,0.000
1727436715.051,19.043,-67.383,-53.223,-28.809,0.000
1727436715.055,82.520,-56.641,-54.688,-9.277,0.000
1727436715.059,-0.977,-44.434,-53.223,-33.203,0.000
1727436715.063,-118.164,-45.898,-59.082,-61.523,0.000
1727436715.067,-110.840,-44.434,-54.199,-61.523,0.000
1727436715.070,-1.953,-50.781,-45.410,-41.992,0.000
1727436715.074,56.641,-54.199,-44.434,-25.391,0.000
1727436715.078,-7.812,-51.270,-36.133,-24.902,0.000
1727436715.082,-116.211,-48.828,-34.180,-43.457,0.000
1727436715.086,-134.766,-53.223,-37.598,-50.293,0.000
1727436715.090,-32.715,-61.523,-42.969,-36.133,0.000
1727436715.094,51.270,-59.570,-46.875,-28.809,0.000
1727436715.098,2.930,-53.711,-48.340,-38.574,0.000
1727436715.102,-97.656,-48.828,-56.152,-43.457,0.000
1727436715.105,-121.582,-53.223,-57.129,-54.199,0.000
1727436715.110,-38.574,-60.547,-52.734,-43.457,0.000
1727436715.113,62.988,-57.129,-48.828,-16.602,0.000
1727436715.117,41.504,-48.340,-36.133,-10.254,0.000
1727436715.121,-81.543,-49.805,-36.621,-31.250,0.000
1727436715.125,-129.883,-56.641,-47.852,-54.688,0.000
1727436715.129,-44.922,-63.477,-55.664,-38.086,0.000
1727436715.133,56.641,-69.824,-60.059,-20.508,0.000
1727436715.137,41.504,-53.711,-60.547,-28.809,0.000
1727436715.141,-76.172,-47.852,-56.641,-45.410,0.000
1727436715.145,-147.461,-56.152,-53.223,-51.758,0.000
1727436715.148,-83.008,-55.664,-59.570,-45.898,0.000
1727436715.152,41.016,-57.129,-66.406,-27.344,0.000
1727436715.156,61.035,-53.711,-60.059,-24.414,0.000
1727436715.160,-44.434,-44.434,-53.711,-30.273,0.000
1727436715.164,-137.695,-42.969,-45.898,-44.434,0.000
1727436715.168,-91.309,-47.363,-46.387,-57.129,0.000
1727436715.172,32.227,-50.781,-45.410,-29.785,0.000
1727436715.176,55.664,-61.035,-40.527,-9.277,0.000
1727436715.180,-49.805,-71.777,-54.199,-35.645,0.000
1727436715.184,-142.578,-69.824,-59.570,-66.406,0.000
1727436715.188,-102.051,-66.895,-59.082,-58.105,0.000
1727436715.191,28.809,-64.941,-55.664,-29.297,0.000
1727436715.195,56.152,-64.941,-51.758,-13.672,0.000
1727436715.199,-39.062,-60.059,-49.316,-21.973,0.000
1727436715.203,-124.512,-46.387,-37.598,-37.598,0.000
1727436715.207,-104.980,-49.316,-35.156,-42.969,0.000
1727436715.211,18.555,-58.594,-34.668,-15.625,0.000
1727436715.215,80.566,-49.316,-29.297,0.488,0.000
1727436715.219,-2.930,-44.434,-32.715,-15.625,0.000
1727436715.223,-107.910,-51.270,-33.691,-24.902,0.000
1727436715.227,-103.027,-59.082,-38.574,-25.879,0.000
1727436715.231,8.789,-65.430,-51.270,-15.625,0.000
1727436715.234,87.402,-56.152,-46.387,8.789,0.000
1727436715.238,22.949,-48.340,-37.598,5.859,0.000
1727436715.242,-85.938,-46.387,-35.645,-22.461,0.000
1727436715.246,-91.797,-45.898,-37.109,-29.785,0.000
1727436715.250,20.020,-44.434,-33.691,-7.812,0.000
1727436715.254,110.352,-34.668,-28.809,12.695,0.000
1727436715.258,55.664,-38.086,-36.133,3.418,0.000
1727436715.262,-77.637,-43.945,-37.109,-16.113,0.000
1727436715.266,-123.535,-40.527,-37.109,-32.227,0.000
1727436715.270,-23.438,-37.598,-42.480,-20.020,0.000
1727436715.273,75.195,-37.109,-41.504,-6.836,0.000
1727436715.277,36.621,-44.922,-35.156,-16.113,0.000
1727436715.281,-74.707,-50.781,-32.715,-20.996,0.000
1727436715.285,-124.512,-55.664,-44.434,-34.180,0.000
1727436715.289,-38.086,-59.082,-49.316,-30.762,0.000
1727436715.293,64.941,-60.059,-47.852,-17.090,0.000
1727436715.297,0.000,-59.570,-53.223,-28.809,0.000
1727436715.301,0.000,-61.035,-48.828,-49.805,0.000
1727436715.305,0.000,-62.500,-51.758,-73.242,0.000
1727436715.309,0.000,-62.500,-61.523,-69.824,0.000
1727436715.313,0.000,-56.152,-56.152,-41.016,0.000
1727436715.316,0.000,-56.641,-50.781,-32.227,0.000
1727436715.320,0.000,-72.266,-47.852,-33.691,0.000
1727436715.324,0.000,-78.125,-45.410,-36.133,0.000
1727436715.328,0.000,-68.359,-48.828,-41.504,0.000
1727436715.332,0.000,-65.918,-52.246,-34.180,0.000
1727436715.336,0.000,-67.383,-49.805,-15.625,0.000
1727436715.340,0.000,-53.223,-54.199,-29.297,0.000
1727436715.344,-130.859,-46.387,-55.664,-57.129,0.000
1727436715.348,-97.656,-60.059,-53.711,-54.688,0.000
1727436715.352,16.602,-65.430,-54.199,-34.180,0.000
1727436715.356,48.828,-60.059,-48.340,-21.973,0.000
1727436715.359,-39.551,-60.547,-37.598,-24.902,0.000
1727436715.363,-131.836,-66.406,-35.156,-38.574,0.000
1727436715.367,-95.215,-62.500,-33.203,-30.762,0.000
1727436715.371,28.809,-56.152,-36.621,-4.883,0.000
1727436715.375,71.777,-62.500,-40.527,0.977,0.000
1727436715.379,-5.859,-64.941,-30.762,2.930,0.000
1727436715.383,-103.027,-60.547,-27.344,-15.137,0.000
1727436715.387,-94.238,-58.594,-31.738,-33.691,0.000
1727436715.391,29.785,-58.594,-31.738,-22.461,0.000
1727436715.395,102.051,-46.875,-31.738,-7.324,0.000
1727436715.399,30.762,-33.691,-34.668,-5.859,0.000
1727436715.402,-77.148,-32.715,-36.621,-21.973,0.000
1727436715.406,-78.125,-31.738,-35.156,-26.367,0.000
1727436715.410,28.320,-38.086,-35.645,-16.602,0.000
1727436715.414,105.957,-40.039,-33.691,6.836,0.000
1727436715.418,46.387,-39.551,-29.297,21.484,0.000
1727436715.422,-77.148,-42.480,-36.133,-9.766,0.000
1727436715.426,-115.234,-52.246,-45.898,-44.922,0.000
1727436715.430,-22.949,-53.711,-54.199,-35.156,0.000
1727436715.434,69.336,-44.922,-56.152,-5.859,0.000
1727436715.438,26.367,-42.969,-54.199,-8.789,0.000
1727436715.442,-88.867,-34.180,-47.852,-24.414,0.000
1727436715.445,-125.488,-36.621,-45.898,-41.016,0.000
1727436715.449,-40.039,-51.758,-43.945,-36.621,0.000
1727436715.453,56.152,-54.199,-41.016,-10.742,0.000
1727436715.457,34.180,-52.734,-46.387,-13.184,0.000
1727436715.461,-78.613,-54.688,-54.199,-36.621,0.000
1727436715.465,-141.602,-60.059,-60.547,-61.035,0.000
1727436715.469,-59.570,-72.754,-59.082,-50.293,0.000
1727436715.473,66.406,-68.848,-47.363,-19.043,0.000
1727436715.477,57.129,-59.570,-42.969,-18.555,0.000
1727436715.480,-45.410,-54.199,-43.945,-33.691,0.000
1727436715.484,-114.258,-44.434,-41.504,-51.270,0.000
1727436715.488,-47.852,-56.152,-41.992,-39.551,0.000
1727436715.492,72.754,-65.918,-43.457,-19.531,0.000
1727436715.496,83.984,-57.129,-41.016,-15.137,0.000
1727436715.500,-18.066,-53.223,-42.480,-21.973,0.000
1727436715.504,-105.957,-41.992,-39.551,-41.504,0.000
1727436715.508,-75.684,-45.898,-36.621,-33.203,0.000
1727436715.512,29.297,-64.453,-40.039,-10.254,0.000
1727436715.516,56.641,-69.824,-45.898,-11.230,0.000
1727436715.519,-34.180,-62.012,-48.828,-12.207,0.000
1727436715.523,-120.605,-47.852,-47.363,-27.832,0.000
1727436715.527,-85.449,-39.551,-47.363,-27.344,0.000
1727436715.531,44.434,-41.504,-45.898,1.953,0.000
1727436715.535,99.121,-38.574,-41.504,11.719,0.000
1727436715.539,15.137,-30.762,-34.180,0.977,0.000
1727436715.543,-87.402,-23.438,-34.668,-20.020,0.000
1727436715.547,-64.941,-28.320,-39.062,-19.043,0.000
1727436715.551,59.570,-38.574,-41.016,-1.465,0.000
1727436715.555,105.469,-28.320,-37.109,7.812,0.000
1727436715.559,28.809,-26.855,-34.668,8.789,0.000
1727436715.562,-72.754,-35.645,-39.551,-16.113,0.000
1727436715.566,-87.891,-34.180,-42.480,-36.133,0.000
1727436715.570,8.789,-48.828,-38.574,-14.648,0.000
1727436715.574,83.984,-83.984,-48.340,-7.324,0.000
1727436715.578,13.184,-74.219,-62.500,-29.785,0.000
1727436715.582,-104.980,-43.457,-59.570,-39.062,0.000
1727436715.586,-118.164,-36.133,-45.410,-40.039,0.000
1727436715.590,-9.277,-37.598,-41.504,-26.367,0.000
1727436715.594,85.449,-60.059,-48.340,-13.672,0.000
1727436715.598,34.180,-71.777,-46.875,-19.043,0.000
1727436715.602,-89.355,-59.082,-39.551,-32.715,0.000
1727436715.605,-124.512,-48.828,-37.109,-46.387,0.000
1727436715.609,-20.508,-37.598,-36.621,-28.320,0.000
1727436715.613,74.707,-45.410,-39.062,-16.602,0.000
1727436715.617,21.484,-60.059,-43.457,-29.785,0.000
1727436715.621,-100.586,-62.988,-42.480,-41.016,0.000
1727436715.625,-135.742,-64.453,-34.668,-51.270,0.000
1727436715.629,-49.316,-68.848,-39.062,-45.410,0.000
1727436715.633,63.965,-68.359,-44.922,-25.879,0.000
1727436715.637,44.434,-54.688,-46.387,-18.555,0.000
1727436715.641,-76.660,-42.480,-44.922,-31.738,0.000
1727436715.645,-122.070,-34.668,-39.062,-55.664,0.000
1727436715.648,-44.922,-41.016,-41.016,-53.223,0.000
1727436715.652,65.918,-51.270,-35.645,-22.461,0.000
1727436715.656,67.871,-48.340,-32.227,-9.766,0.000
1727436715.660,-50.293,-40.527,-35.645,-25.391,0.000
1727436715.664,-129.883,-48.340,-36.133,-49.805,0.000
1727436715.668,-68.359,-56.152,-38.574,-48.340,0.000
1727436715.672,51.758,-52.246,-41.992,-22.949,0.000
1727436715.676,65.430,-50.781,-42.480,-14.648,0.000
1727436715.680,-38.086,-51.758,-41.992,-22.949,0.000
1727436715.684,-124.512,-57.617,-47.363,-43.945,0.000
1727436715.688,-89.355,-59.570,-49.805,-54.688,0.000
1727436715.691,30.762,-56.641,-45.410,-23.926,0.000
1727436715.695,66.895,-55.176,-47.363,-16.113,0.000
1727436715.699,-17.090,-46.387,-44.434,-25.879,0.000
1727436715.703,-114.258,-49.316,-41.016,-36.133,0.000
1727436715.707,-104.980,-48.828,-46.875,-47.852,0.000
1727436715.711,24.414,-43.945,-46.387,-28.320,0.000
1727436715.715,80.078,-47.363,-47.363,-17.578,0.000
1727436715.719,-12.207,-41.992,-51.270,-32.227,0.000
1727436715.723,-125.488,-46.875,-55.176,-52.734,0.000
1727436715.727,-120.117,-55.176,-56.152,-56.641,0.000
1727436715.731,-2.930,-53.711,-57.617,-38.086,0.000
1727436715.734,81.055,-50.781,-52.246,-18.066,0.000
1727436715.738,12.207,-57.129,-45.898,-12.207,0.000
1727436715.742,-105.957,-43.945,-50.293,-31.250,0.000
1727436715.746,-111.328,-25.391,-53.711,-37.598,0.000
1727436715.750,-6.348,-23.438,-60.547,-31.738,0.000
1727436715.754,76.660,-24.414,-65.918,-13.672,0.000
1727436715.758,24.902,-24.902,-63.477,-9.277,0.000
1727436715.762,-95.703,-44.434,-64.941,-40.527,0.000
1727436715.766,-121.094,-62.988,-65.430,-54.199,0.000
1727436715.770,-21.484,-57.129,-68.848,-38.574,0.000
1727436715.774,57.617,-51.270,-75.195,-19.531,0.000
1727436715.777,11.230,-44.434,-81.543,-30.273,0.000
1727436715.781,-110.840,-40.039,-80.566,-54.688,0.000
1727436715.785,-161.133,-41.992,-74.707,-69.336,0.000
1727436715.789,-69.336,-45.410,-70.801,-53.223,0.000
1727436715.793,42.480,-57.129,-73.730,-24.414,0.000
1727436715.797,14.648,-66.406,-76.172,-26.367,0.000
1727436715.801,-99.609,-56.152,-74.219,-41.992,0.000
1727436715.805,-148.438,-45.898,-74.707,-54.688,0.000
1727436715.808,-66.895,-54.199,-71.777,-43.457,0.000
1727436715.813,44.922,-67.871,-70.801,-26.855,0.000
1727436715.816,49.805,-60.547,-68.359,-19.043,0.000
1727436715.820,-46.875,-40.039,-56.641,-16.113,0.000
1727436715.824,-115.234,-27.344,-47.852,-37.598,0.000
1727436715.828,-56.152,-26.367,-46.875,-40.039,0.000
1727436715.832,69.336,-27.832,-50.293,3.418,0.000
1727436715.836,83.984,-39.551,-45.410,23.926,0.000
1727436715.840,-25.391,-51.758,-36.621,-5.371,0.000
1727436715.844,-111.328,-43.457,-38.574,-26.367,0.000
1727436715.848,-63.477,-39.551,-42.969,-17.090,0.000
1727436715.851,55.664,-33.691,-40.527,6.836,0.000
1727436715.855,72.754,-32.715,-43.457,8.789,0.000
1727436715.859,-22.461,-34.668,-42.480,-14.648,0.000
1727436715.863,-115.723,-33.691,-43.945,-35.645,0.000
1727436715.867,-92.285,-37.598,-42.969,-34.668,0.000
1727436715.871,31.250,-37.109,-32.227,-7.324,0.000
1727436715.875,76.660,-37.598,-29.297,2.441,0.000
1727436715.879,-5.859,-38.574,-31.738,-3.906,0.000
1727436715.883,-119.141,-41.016,-39.551,-28.320,0.000
1727436715.887,-115.723,-41.016,-44.434,-52.734,0.000
1727436715.891,14.160,-41.016,-42.480,-27.344,0.000
1727436715.894,82.520,-42.969,-43.945,-6.836,0.000
1727436715.898,11.719,-42.969,-45.410,-26.367,0.000
1727436715.902,-91.797,-37.109,-46.875,-47.363,0.000
1727436715.906,-104.980,-39.551,-47.852,-50.293,0.000
1727436715.910,-3.418,-44.434,-48.340,-32.227,0.000
1727436715.914,77.148,-42.480,-53.223,-20.996,0.000
1727436715.918,5.371,-48.340,-55.664,-38.574,0.000
1727436715.922,-114.746,-43.945,-55.664,-51.270,0.000
1727436715.926,-133.301,-44.922,-53.711,-50.781,0.000
1727436715.930,-33.203,-44.922,-46.875,-31.250,0.000
1727436715.934,53.223,-52.246,-47.363,-20.508,0.000
1727436715.937,7.812,-67.871,-52.246,-30.762,0.000
1727436715.941,-103.516,-58.105,-53.223,-47.363,0.000
1727436715.945,-153.809,-56.641,-59.082,-66.406,0.000
1727436715.949,-61.523,-59.570,-57.617,-45.898,0.000
1727436715.953,46.387,-51.758,-52.734,-24.414,0.000
1727436715.957,3.906,-50.781,-53.223,-39.551,0.000
1727436715.961,-111.328,-55.664,-50.781,-51.270,0.000
1727436715.965,-150.879,-59.082,-51.758,-69.824,0.000
1727436715.969,-69.336,-70.312,-57.129,-59.570,0.000
1727436715.973,42.969,-64.941,-58.105,-35.156,0.000
1727436715.977,30.273,-55.176,-57.617,-39.062,0.000
1727436715.980,-85.449,-59.082,-56.641,-41.016,0.000
1727436715.984,-155.273,-60.547,-52.246,-54.688,0.000
1727436715.988,-93.262,-56.152,-55.664,-61.035,0.000
1727436715.992,25.391,-57.129,-67.871,-39.062,0.000
1727436715.996,46.387,-47.852,-68.359,-29.297,0.000
1727436716.000,-54.688,-40.039,-56.641,-43.457,0.000
1727436716.004,-135.742,-44.922,-56.641,-70.801,0.000
1727436716.008,-96.680,-48.340,-61.523,-74.219,0.000
1727436716.012,19.043,-47.852,-59.082,-48.340,0.000
1727436716.016,39.551,-48.828,-56.641,-41.504,0.000
1727436716.020,-69.336,-56.152,-52.734,-40.039,0.000
1727436716.023,-154.297,-60.059,-50.293,-55.664,0.000
1727436716.027,-116.699,-56.152,-54.688,-72.754,0.000
1727436716.031,7.324,-52.246,-58.594,-57.129,0.000
1727436716.035,47.852,-55.664,-52.734,-42.969,0.000
1727436716.039,-29.785,-46.875,-40.527,-35.156,0.000
1727436716.043,-118.164,-40.527,-34.180,-43.457,0.000
1727436716.047,-106.934,-51.270,-44.922,-48.340,0.000
1727436716.051,-5.371,-63.477,-56.641,-37.109,0.000
1727436716.055,53.223,-53.223,-55.176,-14.648,0.000
1727436716.059,-23.438,-40.527,-54.688,-15.625,0.000
1727436716.063,-142.578,-51.270,-56.152,-54.199,0.000
1727436716.066,-134.766,-54.688,-53.223,-66.895,0.000
1727436716.070,-17.578,-56.152,-57.617,-51.270,0.000
1727436716.074,57.129,-46.875,-57.617,-31.738,0.000
1727436716.078,-7.324,-35.645,-56.641,-32.715,0.000
1727436716.082,-137.207,-57.129,-65.430,-72.266,0.000
1727436716.086,-154.297,-72.754,-66.406,-90.332,0.000
1727436716.090,-42.969,-66.895,-64.941,-58.594,0.000
1727436716.094,34.668,-62.012,-73.730,-45.410,0.000
1727436716.098,-16.602,-52.734,-74.219,-47.852,0.000
1727436716.102,-124.023,-42.969,-64.941,-67.383,0.000
1727436716.106,-158.691,-40.039,-64.453,-81.055,0.000
1727436716.109,-64.453,-40.039,-63.965,-53.223,0.000
1727436716.113,40.039,-41.016,-58.594,-31.250,0.000
1727436716.117,19.043,-41.992,-51.270,-26.367,0.000
1727436716.121,-89.844,-38.086,-41.504,-29.785,0.000
1727436716.125,-141.113,-30.762,-40.527,-48.340,0.000
1727436716.129,-57.617,-30.273,-46.387,-48.828,0.000
1727436716.133,53.223,-36.621,-47.363,-21.973,0.000
1727436716.137,41.016,-43.457,-42.969,-11.230,0.000
1727436716.141,-73.730,-47.852,-42.969,-35.156,0.000
1727436716.145,-135.254,-51.270,-44.434,-57.617,0.000
1727436716.148,-59.082,-49.316,-40.039,-42.969,0.000
1727436716.152,53.223,-35.156,-38.086,-13.184,0.000
1727436716.156,57.617,-25.391,-35.645,-2.930,0.000
1727436716.160,-46.387,-26.855,-31.250,-20.996,0.000
1727436716.164,-122.559,-34.180,-36.621,-37.598,0.000
1727436716.168,-69.336,-42.480,-42.480,-31.738,0.000
1727436716.172,53.223,-41.504,-41.504,-16.113,0.000
1727436716.176,84.473,-32.715,-29.297,2.441,0.000
1727436716.180,-20.508,-36.133,-25.879,-9.766,0.000
1727436716.183,-119.629,-33.203,-29.297,-34.180,0.000
1727436716.188,-86.426,-27.832,-34.668,-41.504,0.000
1727436716.191,41.992,-26.855,-36.621,-25.391,0.000
1727436716.195,80.566,-24.902,-37.109,-16.113,0.000
1727436716.199,-31.738,-32.715,-48.828,-30.762,0.000
1727436716.203,-138.184,-44.434,-46.387,-42.480,0.000
1727436716.207,-105.957,-50.781,-40.527,-39.551,0.000
1727436716.211,17.090,-45.898,-39.551,-19.043,0.000
1727436716.215,53.711,-37.109,-45.410,-20.996,0.000
1727436716.219,-20.508,-32.227,-45.898,-35.645,0.000
1727436716.223,-115.723,-37.109,-43.945,-52.246,0.000
1727436716.226,-124.512,-43.945,-49.805,-64.453,0.000
1727436716.230,-14.160,-45.410,-55.176,-54.199,0.000
1727436716.234,55.176,-39.062,-53.223,-27.344,0.000
1727436716.238,-9.766,-51.270,-54.688,-26.367,0.000
1727436716.242,-122.559,-69.824,-59.082,-55.664,0.000
1727436716.246,-138.672,-55.664,-55.664,-65.918,0.000
1727436716.250,-29.297,-44.922,-54.688,-57.617,0.000
1727436716.254,60.547,-39.062,-52.734,-38.574,0.000
1727436716.258,11.719,-30.762,-49.805,-39.551,0.000
1727436716.262,-107.910,-39.062,-55.664,-62.500,0.000
1727436716.266,-147.461,-49.805,-59.570,-75.195,0.000
1727436716.269,-37.109,-46.875,-62.988,-55.176,0.000
1727436716.273,75.195,-30.273,-57.617,-20.996,0.000
1727436716.277,33.691,-19.531,-44.922,-11.719,0.000
1727436716.281,-73.242,-20.020,-41.016,-27.832,0.000
1727436716.285,-121.582,-22.461,-43.945,-53.223,0.000
1727436716.289,-43.457,-22.949,-48.340,-40.527,0.000
1727436716.293,75.195,-13.184,-46.875,-10.254,0.000
1727436716.297,50.293,-8.301,-40.527,-13.672,0.000
1727436716.301,-63.965,-23.926,-38.086,-30.273,0.000
1727436716.305,-116.211,-40.527,-39.062,-41.016,0.000
1727436716.309,-45.898,-37.598,-38.086,-35.645,0.000
1727436716.312,70.801,-22.949,-30.762,-4.883,0.000
1727436716.316,70.801,-14.160,-22.949,0.000,0.000
1727436716.320,-50.293,-15.137,-24.902,-40.527,0.000
1727436716.324,-126.953,-24.414,-27.344,-49.316,0.000
1727436716.328,-62.988,-34.180,-29.785,-36.621,0.000
1727436716.332,59.082,-34.668,-33.691,-27.832,0.000
1727436716.336,54.688,-38.574,-35.645,-26.367,0.000
1727436716.340,-63.965,-42.969,-36.621,-38.086,0.000
1727436716.344,-141.113,-46.387,-42.480,-56.641,0.000
1727436716.348,-96.191,-46.875,-45.410,-59.570,0.000
1727436716.352,19.043,-43.945,-46.387,-39.551,0.000
1727436716.355,52.246,-42.969,-43.945,-21.484,0.000
1727436716.359,-36.133,-34.668,-35.645,-16.602,0.000
1727436716.363,-135.742,-36.621,-37.598,-40.039,0.000
1727436716.367,-107.422,-31.250,-44.434,-43.945,0.000
1727436716.371,13.672,-29.297,-47.852,-20.996,0.000
1727436716.375,54.688,-33.203,-50.293,-28.320,0.000
1727436716.379,-26.855,-35.156,-46.387,-39.062,0.000
1727436716.383,-123.047,-35.156,-43.945,-47.852,0.000
1727436716.387,-104.492,-29.297,-44.434,-41.504,0.000
1727436716.391,17.578,-23.438,-44.434,-21.973,0.000
1727436716.395,76.172,-25.391,-45.410,-18.555,0.000
1727436716.398,-5.371,-41.504,-48.340,-29.785,0.000
1727436716.402,-117.676,-42.969,-48.828,-44.434,0.000
1727436716.406,-128.906,-37.109,-46.387,-41.992,0.000
1727436716.410,-2.441,-35.645,-45.410,-19.531,0.000
1727436716.414,94.238,-25.879,-34.668,5.859,0.000
1727436716.418,35.156,-28.809,-28.320,8.301,0.000
1727436716.422,-74.219,-33.691,0.000,-5.859,0.000
1727436716.426,-92.285,-37.109,0.000,-11.230,0.000
1727436716.430,2.441,-34.180,0.000,-6.836,0.000
1727436716.434,94.727,-26.367,0.000,3.906,0.000
1727436716.437,42.480,-24.902,0.000,-3.418,0.000
1727436716.441,-76.660,-27.832,0.000,-26.855,0.000
1727436716.445,-110.352,-41.016,0.000,-37.109,0.000
1727436716.449,-15.137,-36.621,0.000,-17.090,0.000
1727436716.453,87.891,-20.996,0.000,4.883,0.000
1727436716.457,48.340,-28.809,0.000,-10.742,0.000
1727436716.461,-70.312,-28.809,0.000,-32.715,0.000
1727436716.465,-129.883,-21.973,0.000,-40.527,0.000
1727436716.469,-54.199,-25.879,-36.621,-21.484,0.000
1727436716.473,63.965,-32.715,-31.738,-9.277,0.000
1727436716.477,66.895,-34.668,-28.320,-18.066,0.000
1727436716.480,-54.199,-31.738,-29.785,-28.320,0.000
1727436716.484,-140.625,-27.344,-32.715,-50.293,0.000
1727436716.488,-62.012,-30.273,-35.645,-54.199,0.000
1727436716.492,56.152,-41.504,-38.086,-32.715,0.000
1727436716.496,58.594,-53.223,-41.992,-19.531,0.000
1727436716.500,-52.246,-62.988,-51.270,-41.504,0.000
1727436716.504,-138.184,-58.594,-53.711,-68.359,0.000
1727436716.508,-90.820,-50.293,-48.828,-63.477,0.000
1727436716.512,22.949,-46.387,-50.781,-34.668,0.000
1727436716.516,47.363,-47.363,-57.617,-27.832,0.000
1727436716.520,-52.246,-49.805,-60.547,-52.734,0.000
1727436716.523,-137.695,-59.082,-59.082,-58.594,0.000
1727436716.527,-104.492,-76.660,-61.035,-56.152,0.000
1727436716.531,-5.859,-88.867,-71.289,-65.918,0.000
1727436716.535,37.109,-79.590,-73.242,-56.152,0.000
1727436716.539,-38.086,-52.734,-61.035,-48.340,0.000
1727436716.543,-127.930,-53.223,-55.176,-65.430,0.000
1727436716.547,-104.004,-65.918,-61.035,-77.148,0.000
1727436716.551,18.066,-50.293,-60.547,-49.805,0.000
1727436716.555,72.266,-40.527,-53.223,-30.273,0.000
1727436716.558,-16.602,-48.340,-52.734,-31.250,0.000
1727436716.563,-126.953,-48.340,-50.293,-44.434,0.000
1727436716.566,-119.629,-42.969,-48.340,-55.664,0.000
1727436716.570,2.441,-41.992,-50.781,-32.715,0.000
1727436716.574,73.730,-37.598,-48.828,-20.020,0.000
1727436716.578,11.230,-40.527,-41.992,-17.090,0.000
1727436716.582,-96.680,-54.199,-41.992,-29.785,0.000
1727436716.586,-122.559,-49.805,-43.457,-51.270,0.000
1727436716.590,-23.926,-46.875,-43.945,-43.945,0.000
1727436716.594,69.336,-59.082,-47.852,-33.691,0.000
1727436716.598,16.113,-63.965,-40.039,-28.809,0.000
1727436716.601,-104.980,-51.758,-35.156,-38.574,0.000
1727436716.605,-134.277,-40.527,-44.434,-60.059,0.000
1727436716.609,-36.621,-44.922,-49.805,-44.922,0.000
1727436716.613,72.266,-39.551,-46.875,-5.371,0.000
1727436716.617,32.715,-28.809,-51.758,-15.625,0.000
1727436716.621,-92.773,-30.762,-55.664,-41.016,0.000
1727436716.625,-136.230,-30.762,-52.734,-55.664,0.000
1727436716.629,-38.086,-30.273,-51.758,-40.039,0.000
1727436716.633,67.871,-39.062,-53.223,-19.531,0.000
1727436716.637,24.902,-48.828,-65.430,-27.344,0.000
1727436716.640,-94.727,-51.758,-69.336,-46.875,0.000
1727436716.644,-152.344,-45.898,-61.523,-68.848,0.000
1727436716.648,-87.891,-39.062,-60.059,-60.059,0.000
1727436716.652,23.438,-42.480,-56.641,-29.297,0.000
1727436716.656,26.367,-53.711,-56.641,-23.438,0.000
1727436716.660,-73.730,-62.500,-63.477,-46.387,0.000
1727436716.664,-155.762,-68.359,-61.523,-64.941,0.000
1727436716.668,-109.375,-66.895,-56.152,-51.758,0.000
1727436716.672,13.184,-60.547,-57.129,-23.926,0.000
1727436716.676,30.273,-59.082,-55.664,-21.484,0.000
1727436716.680,-73.730,-61.523,-53.223,-44.434,0.000
1727436716.683,-152.832,-65.430,-54.688,-61.035,0.000
1727436716.687,-103.027,-58.594,-55.664,-41.016,0.000
1727436716.691,27.832,-60.059,-55.176,-6.836,0.000
1727436716.695,66.406,-65.918,-56.641,-1.953,0.000
1727436716.699,-20.020,-41.992,-47.363,-3.418,0.000
1727436716.703,-101.074,-23.438,-41.016,-23.438,0.000
1727436716.707,-83.496,-25.391,-43.457,-39.062,0.000
1727436716.711,20.996,-29.785,-49.316,-16.113,0.000
1727436716.715,76.660,-27.344,-50.781,3.906,0.000
1727436716.719,2.930,-32.227,-41.504,-7.812,0.000
1727436716.723,-104.492,-45.410,-42.480,-22.949,0.000
1727436716.726,-103.027,-40.039,-47.363,-36.621,0.000
1727436716.730,27.832,-33.691,-41.016,-20.996,0.000
1727436716.734,107.422,-38.574,-37.109,6.348,0.000
1727436716.738,19.531,-46.387,-38.574,-0.977,0.000
1727436716.742,-97.168,-34.180,-30.762,-9.766,0.000
1727436716.746,-95.703,-17.578,-21.484,-11.230,0.000
1727436716.750,0.000,-31.250,-29.297,-6.836,0.000
1727436716.754,73.730,-36.133,-35.645,-13.672,0.000
1727436716.758,23.438,-29.297,-30.762,-27.832,0.000
1727436716.762,-92.773,-22.949,-24.902,-29.785,0.000
1727436716.766,-112.793,-23.926,-23.438,-37.109,0.000
1727436716.769,-14.648,-38.574,-27.344,-32.227,0.000
1727436716.773,58.594,-44.922,-30.273,-28.320,0.000
1727436716.777,10.254,-44.922,-28.809,-26.367,0.000
1727436716.781,-97.656,-46.875,-32.227,-31.738,0.000
1727436716.785,-146.484,-52.734,-41.992,-67.871,0.000
1727436716.789,-68.848,-57.129,-44.434,-69.824,0.000
1727436716.793,31.250,-53.711,-41.992,-46.875,0.000
1727436716.797,-0.977,-51.758,0.000,-47.363,0.000
1727436716.801,-113.281,-53.223,0.000,-58.105,0.000
1727436716.805,-162.598,-52.734,0.000,-72.266,0.000
1727436716.809,-83.984,-64.453,0.000,-75.684,0.000
1727436716.812,27.832,-83.984,0.000,-49.805,0.000
1727436716.816,18.066,-70.312,0.000,-32.715,0.000
1727436716.820,-85.938,-50.781,0.000,-41.992,0.000
1727436716.824,-154.297,-48.340,0.000,-59.082,0.000
1727436716.828,-82.031,-41.504,0.000,-52.246,0.000
1727436716.832,33.691,-34.180,0.000,-40.527,0.000
1727436716.836,43.945,-37.109,0.000,-40.527,0.000
1727436716.840,-48.340,-38.574,0.000,-50.781,0.000
1727436716.844,-137.207,-45.898,-49.805,-70.801,0.000
1727436716.848,-85.938,-48.828,-50.781,-54.199,0.000
1727436716.852,44.434,-44.922,-49.316,-26.367,0.000
1727436716.855,62.988,-46.387,-53.223,-24.414,0.000
1727436716.859,-41.504,-40.039,-49.805,-24.902,0.000
1727436716.863,-137.207,-32.715,-43.457,-38.574,0.000
1727436716.867,-104.980,-30.273,-41.016,-37.109,0.000
1727436716.871,27.832,-25.879,-41.016,-12.207,0.000
1727436716.875,79.102,-27.832,-40.039,-9.766,0.000
1727436716.879,-6.836,-37.109,-36.133,-21.973,0.000
1727436716.883,-111.328,-42.969,-27.832,-25.391,0.000
1727436716.887,-93.750,-57.129,-20.996,-32.715,0.000
1727436716.891,39.062,-62.500,-20.996,-25.391,0.000
1727436716.895,90.332,-52.246,-16.602,2.930,0.000
1727436716.898,9.277,-58.594,-17.090,1.465,0.000
1727436716.902,-97.656,-71.289,-23.438,-30.762,0.000
1727436716.906,-106.934,-72.266,-29.297,-49.805,0.000
1727436716.910,-2.441,-65.918,-30.762,-25.879,0.000
1727436716.914,74.219,-72.754,-29.297,-6.348,0.000
1727436716.918,12.207,-87.891,-35.156,-23.438,0.000
1727436716.922,-111.816,-90.332,-42.969,-49.316,0.000
1727436716.926,-138.672,-84.961,-45.410,-58.105,0.000
1727436716.930,-36.621,-84.961,-49.316,-58.105,0.000
1727436716.933,58.105,-80.566,-46.387,-44.922,0.000
1727436716.937,3.906,-85.938,-45.898,-39.062,0.000
1727436716.941,-117.188,-88.867,-42.480,-59.082,0.000
1727436716.945,-157.715,-97.168,-41.016,-65.430,0.000
1727436716.949,-68.359,-103.516,-47.363,-50.293,0.000
1727436716.953,41.992,-95.215,-44.922,-41.992,0.000
1727436716.957,13.184,-89.844,-41.992,-36.621,0.000
1727436716.961,-96.680,-85.449,-39.551,-46.387,0.000
1727436716.965,-152.344,-83.008,-44.434,-70.312,0.000
1727436716.969,-78.613,-78.613,-48.828,-63.477,0.000
1727436716.972,51.758,-81.055,-43.945,-30.273,0.000
1727436716.976,37.109,-83.008,-45.898,-18.555,0.000
1727436716.980,-95.215,-73.242,-44.922,-43.457,0.000
1727436716.984,0.000,-67.383,-43.945,-59.570,0.000
1727436716.988,0.000,-79.102,-43.457,-45.898,0.000
1727436716.992,0.000,-77.637,-36.133,-26.367,0.000
1727436716.996,0.000,-69.336,-42.480,-29.297,0.000
1727436717.000,0.000,-76.172,-53.223,-52.246,0.000
1727436717.004,0.000,-69.824,-51.270,-47.363,0.000
1727436717.008,0.000,-52.246,-49.805,-31.738,0.000
1727436717.012,0.000,-37.109,-43.945,-20.508,0.000
1727436717.015,0.000,-28.809,-37.109,-9.766,0.000
1727436717.019,0.000,-40.527,-41.504,-21.484,0.000
1727436717.023,0.000,-51.758,-47.363,-47.363,0.000
1727436717.027,0.000,-49.316,-47.363,-43.457,0.000
1727436717.031,32.227,-43.945,-49.805,-15.625,0.000
1727436717.035,76.172,-44.922,-42.969,-7.812,0.000
1727436717.039,-7.812,-44.434,-29.785,-9.277,0.000
1727436717.043,-105.957,-40.527,-25.879,-31.250,0.000
1727436717.047,-84.473,-43.945,-34.668,-47.363,0.000
1727436717.051,16.113,-52.734,-41.992,-10.254,0.000
1727436717.055,58.105,-45.898,-36.621,10.254,0.000
1727436717.058,-16.113,-38.574,-37.109,-31.738,0.000
1727436717.062,-122.559,-47.852,-34.668,-59.082,0.000
1727436717.066,-118.164,-59.082,-32.227,-60.547,0.000
1727436717.070,-15.137,-58.594,-37.598,-48.828,0.000
1727436717.074,49.805,-64.453,-40.527,-36.133,0.000
1727436717.078,-14.160,-70.312,-44.434,-41.992,0.000
1727436717.082,-112.305,-62.012,-46.387,-54.199,0.000
1727436717.086,-132.812,-56.641,-49.316,-70.801,0.000
1727436717.090,-40.527,-62.012,-50.293,-53.223,0.000
1727436717.094,45.410,-68.848,-51.270,-38.086,0.000
1727436717.098,-6.348,-72.754,-54.199,-46.387,0.000
1727436717.101,-119.629,-73.242,-57.617,-60.059,0.000
1727436717.105,-145.020,-62.012,-58.594,-71.777,0.000
1727436717.109,-39.062,-52.734,-56.152,-41.992,0.000
1727436717.113,48.340,-54.688,-56.152,-36.621,0.000
1727436717.117,2.441,-49.805,-54.199,-50.781,0.000
1727436717.121,-106.934,-48.828,-55.176,-59.570,0.000
1727436717.125,-151.367,-55.664,-54.688,-69.824,0.000
1727436717.129,-61.523,-58.105,-50.781,-53.223,0.000
1727436717.133,42.480,-52.246,-50.293,-34.668,0.000
1727436717.137,29.785,-48.340,-50.293,-32.715,0.000
1727436717.141,-78.613,-53.223,-51.270,-49.805,0.000
1727436717.144,-128.418,-54.199,-41.992,-59.082,0.000
1727436717.148,-43.945,-50.293,-36.621,-32.715,0.000
1727436717.152,56.152,-46.875,-40.039,-8.301,0.000
1727436717.156,53.711,-46.387,-40.039,-7.324,0.000
1727436717.160,-54.688,-46.387,-37.598,-33.203,0.000
1727436717.164,-113.770,-36.621,-31.250,-46.387,0.000
1727436717.168,-53.223,-25.879,-30.273,-23.926,0.000
1727436717.172,0.000,-27.832,-32.227,-16.602,0.000
1727436717.176,0.000,-37.109,-39.551,-19.531,0.000
1727436717.180,0.000,-34.668,-41.992,-22.949,0.000
1727436717.184,0.000,-27.832,-37.598,-45.410,0.000
1727436717.187,0.000,-25.391,-23.438,-42.969,0.000
1727436717.191,0.000,-21.484,-12.695,-10.254,0.000
1727436717.195,0.000,-22.461,-21.484,-7.812,0.000
1727436717.199,0.000,-38.574,-26.855,-12.695,0.000
1727436717.203,0.000,-45.410,-21.973,-21.484,0.000
1727436717.207,0.000,-32.227,-20.996,-36.133,0.000
1727436717.211,0.000,-27.832,-29.785,-29.297,0.000
1727436717.215,0.000,-37.598,-40.039,-23.438,0.000
1727436717.219,-2.930,-39.062,-41.992,-27.832,0.000
1727436717.223,-114.746,-33.691,-31.738,-42.480,0.000
1727436717.226,-113.281,-29.297,-28.809,-49.805,0.000
1727436717.230,10.254,-32.227,-33.691,-36.133,0.000
1727436717.234,69.824,-40.039,-31.250,-14.160,0.000
1727436717.238,-6.836,-35.156,-30.273,-14.648,0.000
1727436717.242,-120.605,-40.527,-36.621,-45.410,0.000
1727436717.246,-140.137,-52.734,-42.969,-65.918,0.000
1727436717.250,-36.621,-54.688,-41.016,-58.105,0.000
1727436717.254,51.758,-61.035,-38.086,-35.645,0.000
1727436717.258,3.906,-76.172,-37.109,-31.738,0.000
1727436717.261,-109.375,-87.402,-36.133,-52.246,0.000
1727436717.266,-129.395,-71.289,-35.645,-57.129,0.000
1727436717.269,-21.484,-48.828,-39.062,-34.180,0.000
1727436717.273,73.242,-45.898,-42.969,-15.137,0.000
1727436717.277,25.391,-44.922,-44.922,-17.090,0.000
1727436717.281,-87.891,-48.340,-41.992,-25.879,0.000
1727436717.285,-123.047,-55.176,-40.527,-33.691,0.000
1727436717.289,-25.391,-63.477,-46.387,-25.879,0.000
1727436717.293,71.289,-77.148,-50.781,-7.812,0.000
1727436717.297,36.621,-59.082,-43.457,-9.277,0.000
1727436717.301,-66.895,-30.762,-38.574,-21.484,0.000
1727436717.304,-122.559,-25.879,-41.504,-38.574,0.000
1727436717.308,-60.059,-39.062,-46.387,-35.156,0.000
1727436717.312,55.176,-50.293,-41.016,-17.578,0.000
1727436717.316,55.176,-48.340,-37.109,-26.855,0.000
1727436717.320,-57.129,-44.434,-41.016,-41.992,0.000
1727436717.324,-116.699,-37.598,-37.109,-44.434,0.000
1727436717.328,-37.109,-23.438,-28.320,-26.367,0.000
1727436717.332,67.871,-22.949,-29.297,-8.301,0.000
1727436717.336,69.824,-34.180,-28.809,10.254,0.000
1727436717.340,-44.922,-41.504,-25.391,-4.395,0.000
1727436717.344,-128.906,-37.598,-28.809,-43.457,0.000
1727436717.347,-67.871,-31.250,-24.902,-29.785,0.000
1727436717.351,45.410,-36.621,-27.832,-4.395,0.000
1727436717.355,69.824,-30.273,-30.762,1.953,0.000
1727436717.359,-28.320,-26.855,-27.832,-14.648,0.000
1727436717.363,-125.000,-30.273,-25.391,-38.086,0.000
1727436717.367,-93.750,-34.180,-34.668,-42.969,0.000
1727436717.371,19.531,-59.570,-51.270,-39.551,0.000
1727436717.375,58.105,-68.848,-55.176,-30.273,0.000
1727436717.379,-40.039,-51.758,-47.852,-39.062,0.000
1727436717.383,-156.738,-55.176,-49.316,-73.730,0.000
1727436717.387,-140.137,-60.547,-56.152,-73.242,0.000
1727436717.390,-16.113,-56.641,-58.594,-51.270,0.000
1727436717.394,56.152,-52.734,-59.082,-40.039,0.000
1727436717.398,-12.695,-55.176,-53.223,-42.480,0.000
1727436717.402,-121.094,-62.988,-50.293,-62.500,0.000
1727436717.406,-113.770,-64.941,-49.316,-60.547,0.000
1727436717.410,-0.488,-54.199,-45.898,-33.691,0.000
1727436717.414,70.801,-53.223,-51.270,-22.461,0.000
1727436717.418,-0.488,-62.988,-54.199,-30.762,0.000
1727436717.422,-112.793,-56.641,-49.805,-50.293,0.000
1727436717.426,-129.883,-43.945,-49.805,-57.129,0.000
1727436717.430,-33.203,-45.898,-51.758,-30.762,0.000
1727436717.433,59.082,-43.945,-53.223,-11.230,0.000
1727436717.437,24.902,-32.715,-46.387,-10.742,0.000
1727436717.441,-84.473,-30.273,-35.156,-17.578,0.000
1727436717.445,-110.840,-32.715,-30.273,-20.996,0.000
1727436717.449,-6.836,-41.504,-32.715,-13.672,0.000
1727436717.453,82.520,-54.688,-33.691,-2.930,0.000
1727436717.457,30.273,-54.688,-36.621,-8.789,0.000
1727436717.461,-88.867,-43.457,-39.551,-25.879,0.000
1727436717.465,-125.000,-37.598,-36.621,-39.062,0.000
1727436717.469,-38.086,-36.133,-39.062,-33.691,0.000
1727436717.473,68.848,-36.621,-40.039,-13.184,0.000
1727436717.476,50.781,-39.062,-42.480,-17.090,0.000
1727436717.480,-56.641,-36.133,-39.062,-27.832,0.000
1727436717.484,-120.605,-30.762,-31.250,-29.297,0.000
1727436717.488,-58.594,-45.410,-38.574,-25.879,0.000
1727436717.492,55.176,-57.617,-44.434,-11.719,0.000
1727436717.496,53.223,-45.898,-41.992,-16.113,0.000
1727436717.500,-58.594,-41.016,-48.340,-33.691,0.000
1727436717.504,-132.812,-45.410,-51.758,-48.340,0.000
1727436717.508,-86.426,-44.434,-47.363,-46.875,0.000
1727436717.512,26.367,-45.410,-48.340,-21.484,0.000
1727436717.516,35.156,-49.805,-45.898,-22.949,0.000
1727436717.519,-74.219,-56.641,-41.504,-44.434,0.000
1727436717.523,-145.020,-65.918,-43.457,-63.477,0.000
1727436717.527,-106.934,-69.336,-36.621,-63.965,0.000
1727436717.531,1.465,-63.477,-32.715,-35.156,0.000
1727436717.535,33.691,-52.734,-47.363,-30.273,0.000
1727436717.539,-53.223,-44.434,-52.246,-43.457,0.000
1727436717.543,-150.879,-55.664,-43.945,-62.988,0.000
1727436717.547,-124.512,-62.012,-42.969,-67.383,0.000
1727436717.551,4.883,-60.547,-44.434,-31.250,0.000
1727436717.555,59.570,-59.570,-42.480,-23.438,0.000
1727436717.559,-27.344,-54.688,-42.480,-42.480,0.000
1727436717.562,-138.672,-54.688,-46.875,-58.594,0.000
1727436717.566,-129.883,-45.410,-46.875,-64.453,0.000
1727436717.570,-8.301,-43.945,-49.316,-47.852,0.000
1727436717.574,66.406,-50.293,-49.805,-31.250,0.000
1727436717.578,-8.301,-57.617,-46.875,-33.203,0.000
1727436717.582,-115.723,-59.570,-41.504,-53.711,0.000
1727436717.586,-122.559,-45.898,-37.598,-62.988,0.000
1727436717.590,-20.020,-43.945,-42.969,-39.062,0.000
1727436717.594,69.824,-47.852,-48.340,-10.254,0.000
1727436717.598,33.691,-38.574,-46.387,3.906,0.000
1727436717.601,-81.543,-23.438,-45.410,-23.438,0.000
1727436717.605,-125.000,-17.578,-41.504,-58.105,0.000
1727436717.609,-27.344,-13.672,-41.016,-41.504,0.000
1727436717.613,76.172,-13.184,-42.480,-23.438,0.000
1727436717.617,35.156,-20.996,-44.922,-35.156,0.000
1727436717.621,-89.355,-24.902,-45.898,-52.246,0.000
1727436717.625,-136.719,-24.902,-39.062,-63.965,0.000
1727436717.629,-43.457,-30.762,-35.645,-44.922,0.000
1727436717.633,62.500,-29.297,-31.250,-21.973,0.000
1727436717.636,42.969,-19.531,-33.691,-20.996,0.000
1727436717.641,-75.195,-22.949,-38.574,-33.691,0.000
1727436717.644,-134.766,-38.086,-41.016,-58.105,0.000
1727436717.648,-63.965,-47.852,-40.039,-55.176,0.000
1727436717.652,39.062,-50.781,-41.992,-33.691,0.000
1727436717.656,34.180,-46.875,-46.875,-31.738,0.000
1727436717.660,-79.102,-31.250,-48.340,-47.363,0.000
1727436717.664,-149.414,-30.762,-46.875,-48.828,0.000
1727436717.668,-89.844,-34.180,-46.875,-43.945,0.000
1727436717.672,29.297,-31.738,-54.688,-25.879,0.000
1727436717.676,60.547,-41.016,-62.012,-25.391,0.000
1727436717.679,-58.105,-50.781,-65.430,-41.992,0.000
1727436717.683,-158.691,-54.688,-67.871,-57.617,0.000
1727436717.687,-112.305,-61.035,-70.801,-70.312,0.000
1727436717.691,3.906,-63.965,-70.312,-52.734,0.000
1727436717.695,42.480,-62.988,-65.430,-33.691,0.000
1727436717.699,-51.270,-67.871,-64.941,-38.574,0.000
1727436717.703,-140.137,-67.383,-61.035,-60.547,0.000
1727436717.707,-100.586,-63.965,-57.617,-59.082,0.000
1727436717.711,12.207,-64.941,-59.570,-35.645,0.000
1727436717.715,66.406,-58.105,-60.547,-26.367,0.000
1727436717.719,0.000,-55.176,-58.105,-22.461,0.000
1727436717.722,-101.562,-54.688,-53.223,-26.367,0.000
1727436717.726,-95.215,-57.129,-50.781,-38.086,0.000
1727436717.730,10.254,-58.105,-52.246,-19.531,0.000
1727436717.734,82.520,-50.781,-47.363,6.348,0.000
1727436717.738,22.461,-44.434,-37.109,12.695,0.000
1727436717.742,-90.820,-39.062,-35.156,-10.254,0.000
1727436717.746,-98.633,-37.598,-41.992,-24.902,0.000
1727436717.750,25.391,-39.062,-39.551,-2.441,0.000
1727436717.754,108.887,-40.527,-31.250,12.207,0.000
1727436717.758,46.387,-42.480,-36.621,12.207,0.000
1727436717.762,-58.105,-38.574,-42.480,-4.395,0.000
1727436717.765,-83.008,-38.086,-40.527,-19.043,0.000
1727436717.769,11.230,-37.598,-31.738,11.230,0.000
1727436717.773,106.445,-36.133,-29.785,28.809,0.000
1727436717.777,59.570,-43.457,-36.621,7.324,0.000
1727436717.781,-62.012,-36.621,-37.109,-5.371,0.000
1727436717.785,-101.562,-29.785,-38.086,-17.578,0.000
1727436717.789,-24.414,-42.480,-42.969,-18.555,0.000
1727436717.793,69.824,-64.453,-50.781,-14.648,0.000
1727436717.797,46.875,-73.242,-52.246,-15.625,0.000
1727436717.801,-71.777,-54.688,-46.875,-28.809,0.000
1727436717.805,-127.930,-32.715,-39.062,-41.504,0.000
1727436717.808,-46.875,-31.250,-41.504,-42.969,0.000
1727436717.812,65.430,-43.945,-46.875,-24.902,0.000
1727436717.816,45.898,-54.199,-48.828,-30.273,0.000
1727436717.820,-74.707,-64.941,-48.340,-38.086,0.000
1727436717.824,-142.578,-73.730,-51.270,-43.457,0.000
1727436717.828,-72.754,-62.988,-60.059,-50.293,0.000
1727436717.832,46.875,-52.246,-59.570,-33.203,0.000
1727436717.836,46.387,-59.570,-62.012,-28.809,0.000
1727436717.840,-55.664,-58.105,-62.988,-45.898,0.000
1727436717.844,-138.184,-63.477,-62.988,-65.918,0.000
1727436717.847,-99.609,-65.430,-65.430,-58.594,0.000
1727436717.851,19.531,-63.965,-65.918,-35.156,0.000
1727436717.855,62.500,-72.754,-61.035,-18.555,0.000
1727436717.859,-27.832,-72.266,-58.105,-14.648,0.000
1727436717.863,-141.113,-65.918,-56.152,-39.551,0.000
1727436717.867,-114.746,-64.453,-52.734,-49.316,0.000
1727436717.871,25.879,-64.453,-44.922,-15.625,0.000
1727436717.875,77.148,-53.711,-39.062,-2.930,0.000
1727436717.879,-14.160,-45.410,-41.504,-22.949,0.000
1727436717.883,-114.258,-41.504,-29.785,-37.109,0.000
1727436717.887,-100.098,-39.551,-27.832,-40.527,0.000
1727436717.890,25.391,-36.133,-31.738,-22.949,0.000
1727436717.894,87.891,-28.320,-25.391,-16.113,0.000
1727436717.898,7.324,-28.320,-32.715,-31.250,0.000
1727436717.902,-101.074,-34.180,-37.598,-49.805,0.000
1727436717.906,-125.000,-29.785,-31.738,-62.012,0.000
1727436717.910,-20.020,-20.020,-34.668,-45.410,0.000
1727436717.914,58.594,-26.855,-28.320,-31.738,0.000
1727436717.918,-24.902,-28.320,-21.484,-49.805,0.000
1727436717.922,-154.785,-19.043,0.000,-89.844,0.000
1727436717.926,-187.012,-13.672,0.000,-119.141,0.000
1727436717.930,-105.469,-14.160,0.000,-125.000,0.000
1727436717.933,-30.273,-17.578,0.000,-125.000,0.000
1727436717.937,-83.984,-20.508,0.000,-145.996,0.000
1727436717.941,-208.008,-23.926,0.000,-181.641,0.000
1727436717.945,-255.371,-20.508,0.000,-193.359,0.000
1727436717.949,-169.434,-32.227,0.000,-177.246,0.000
1727436717.953,-57.129,-35.156,0.000,-146.973,0.000
1727436717.957,-104.004,-36.133,0.000,-157.715,0.000
1727436717.961,-245.605,-51.270,0.000,-188.477,0.000
1727436717.965,-284.668,-48.340,0.000,-198.242,0.000
1727436717.969,-194.336,-44.434,-56.641,-185.547,0.000
1727436717.973,-68.848,-51.270,-57.617,-163.086,0.000
1727436717.976,-68.848,-64.453,-62.500,-162.598,0.000
1727436717.980,-173.340,-73.242,-70.312,-160.645,0.000
1727436717.984,-229.004,-62.988,-75.684,-167.480,0.000
1727436717.988,-150.879,-42.480,-75.195,-150.879,0.000
1727436717.992,-17.578,-31.738,-75.684,-104.004,0.000
1727436717.996,22.949,-41.504,-73.730,-67.871,0.000
1727436718.000,-75.684,-54.688,-68.848,-54.688,0.000
1727436718.004,-143.555,-61.523,-63.477,-54.688,0.000
1727436718.008,-82.520,-53.223,-55.664,-39.062,0.000
1727436718.011,37.598,-41.504,-49.316,0.977,0.000
1727436718.016,79.102,-39.062,-43.457,34.668,0.000
1727436718.019,-10.742,-43.457,-43.945,22.949,0.000
1727436718.023,-90.332,-40.039,-53.711,2.930,0.000
1727436718.027,-38.574,-36.621,-52.246,14.160,0.000
1727436718.031,87.891,-38.574,-43.457,54.688,0.000
1727436718.035,128.906,-37.598,-37.598,81.055,0.000
1727436718.039,58.594,-41.992,-29.785,78.125,0.000
1727436718.043,-27.344,-46.875,-29.297,69.824,0.000
1727436718.047,-20.508,-59.082,-36.621,60.059,0.000
1727436718.051,92.285,-54.688,-31.250,64.453,0.000
1727436718.054,156.738,-34.180,-30.273,68.848,0.000
1727436718.058,80.566,-31.250,-41.504,61.523,0.000
1727436718.062,-23.438,-34.668,-52.246,44.434,0.000
1727436718.066,-18.066,-24.902,-50.293,41.992,0.000
1727436718.070,100.098,-27.832,-38.086,72.266,0.000
1727436718.074,172.852,-28.809,-32.227,87.402,0.000
1727436718.078,102.539,-28.320,-33.203,75.195,0.000
1727436718.082,-17.578,-36.133,-39.062,54.199,0.000
1727436718.086,-43.945,-46.387,-44.434,43.457,0.000
1727436718.090,61.035,-46.875,-47.363,53.223,0.000
1727436718.094,155.762,-42.480,-46.387,57.617,0.000
1727436718.097,106.934,-55.176,-42.480,61.523,0.000
1727436718.101,-24.902,-68.359,-39.062,46.387,0.000
1727436718.105,-69.336,-53.223,-33.691,32.715,0.000
1727436718.109,25.879,-50.781,-34.668,36.621,0.000
1727436718.113,127.441,-62.012,-37.109,45.898,0.000
1727436718.117,85.449,-59.082,-34.668,43.945,0.000
1727436718.121,-27.344,-48.340,-34.180,26.367,0.000
1727436718.125,-63.965,-45.898,-36.133,17.578,0.000
1727436718.129,14.160,-45.898,-42.969,26.855,0.000
1727436718.133,124.512,-42.969,-45.410,50.293,0.000
1727436718.136,104.980,-45.898,-44.922,48.828,0.000
1727436718.140,-6.348,-37.598,-42.969,37.598,0.000
1727436718.144,-61.523,-34.668,-43.457,35.156,0.000
1727436718.148,6.836,-40.527,-45.898,42.969,0.000
1727436718.152,126.953,-40.527,-42.969,61.523,0.000
1727436718.156,133.789,-47.852,-39.062,62.012,0.000
1727436718.160,31.738,-36.133,-35.645,49.316,0.000
1727436718.164,-35.156,-21.973,-34.668,36.621,0.000
1727436718.168,10.742,-21.973,-38.574,38.086,0.000
1727436718.172,115.234,-26.855,-38.574,49.316,0.000
1727436718.176,129.395,-26.855,-34.668,50.293,0.000
1727436718.179,23.438,-18.066,-35.645,42.480,0.000
1727436718.183,-69.824,-10.254,-31.250,21.973,0.000
1727436718.187,-22.461,-6.348,-27.344,22.949,0.000
1727436718.191,89.355,-12.695,-29.785,49.805,0.000
1727436718.195,113.281,-26.855,-30.762,47.363,0.000
1727436718.199,24.414,-30.273,-36.133,23.438,0.000
1727436718.203,-79.102,-18.066,0.000,3.906,0.000
1727436718.207,-57.129,-10.254,0.000,4.395,0.000
1727436718.211,48.828,-19.043,0.000,17.578,0.000
1727436718.215,99.609,-17.090,0.000,30.762,0.000
1727436718.219,27.832,-14.160,0.000,30.762,0.000
1727436718.222,-82.520,-31.250,0.000,0.000,0.000
1727436718.226,-80.566,-48.340,0.000,0.000,0.000
1727436718.230,34.180,-43.945,0.000,20.996,0.000
1727436718.234,94.727,-40.527,0.000,19.531,0.000
1727436718.238,15.137,-41.992,0.000,4.395,0.000
1727436718.242,-100.586,-39.551,0.000,-28.320,0.000
1727436718.246,-112.305,-38.086,0.000,-46.387,0.000
1727436718.250,-5.859,-33.691,-51.270,-32.715,0.000
1727436718.254,80.078,-39.551,-50.293,-10.742,0.000
1727436718.258,30.273,-68.848,-48.340,-12.207,0.000
1727436718.262,-98.633,-78.613,-50.293,-30.762,0.000
1727436718.265,-135.742,-44.922,-52.246,-47.363,0.000
1727436718.269,-36.133,-27.344,-53.711,-34.668,0.000
1727436718.273,61.523,-32.715,-57.129,-19.531,0.000
1727436718.277,23.926,-36.621,-54.199,-13.672,0.000
1727436718.281,-89.355,-42.480,-49.316,-19.531,0.000
1727436718.285,-134.277,-51.758,-50.781,-34.180,0.000
1727436718.289,-39.551,-45.898,-54.688,-17.578,0.000
1727436718.293,70.312,-38.574,-55.664,-0.977,0.000
1727436718.297,53.711,-45.410,-51.270,-8.301,0.000
1727436718.301,-56.641,-42.480,-45.898,-25.391,0.000
1727436718.305,-131.348,-42.969,-52.246,-40.527,0.000
1727436718.308,-53.223,-41.016,-58.594,-27.344,0.000
1727436718.312,68.359,-39.062,-53.223,-0.977,0.000
1727436718.316,67.383,-42.480,-50.293,3.418,0.000
1727436718.320,-42.969,-47.363,-49.805,-10.742,0.000
1727436718.324,-112.305,-48.828,-44.434,-14.160,0.000
1727436718.328,-48.828,-40.527,-41.992,-5.859,0.000
1727436718.332,69.824,-39.062,-40.527,1.953,0.000
1727436718.336,94.238,-40.039,-35.156,15.137,0.000
1727436718.340,-7.812,-46.387,-31.738,0.488,0.000
1727436718.344,-116.211,-55.176,-36.621,-39.062,0.000
1727436718.348,-78.125,-60.059,-38.574,-47.852,0.000
1727436718.351,51.270,-54.199,-38.574,-9.766,0.000
1727436718.355,82.031,-46.387,-35.645,5.859,0.000
1727436718.359,-15.137,-47.852,-32.715,-17.090,0.000
1727436718.363,-114.258,-46.387,-37.109,-45.410,0.000
1727436718.367,-86.914,-38.086,-35.645,-39.551,0.000
1727436718.371,23.438,-33.203,-37.109,-10.254,0.000
1727436718.375,60.547,-40.527,-43.457,-14.648,0.000
1727436718.379,-20.996,-44.922,-38.574,-30.762,0.000
1727436718.383,-116.699,-47.363,-37.598,-44.922,0.000
1727436718.386,-104.492,-54.199,-42.480,-51.758,0.000
1727436718.390,6.348,-51.758,-39.551,-32.227,0.000
1727436718.394,78.613,-42.480,-34.180,-13.184,0.000
1727436718.398,5.859,-31.250,-32.227,-3.906,0.000
1727436718.402,-107.422,-14.160,-35.156,-20.020,0.000
1727436718.406,-117.676,-8.789,-45.898,-45.410,0.000
1727436718.410,-15.137,-19.043,-51.758,-28.809,0.000
1727436718.414,68.848,-15.625,-46.875,-12.695,0.000
1727436718.418,15.137,-5.371,-45.410,-17.578,0.000
1727436718.422,-100.586,-9.766,-43.945,-41.016,0.000
1727436718.425,-122.070,-26.367,-41.504,-51.758,0.000
1727436718.429,-13.672,-42.480,-48.340,-28.320,0.000
1727436718.433,76.172,-28.320,-49.316,-5.859,0.000
1727436718.437,25.391,-1.465,-45.898,-15.625,0.000
1727436718.441,-97.168,0.977,-46.387,-36.621,0.000
1727436718.445,-125.977,-9.766,-45.898,-47.363,0.000
1727436718.449,-36.133,-18.066,-48.828,-38.574,0.000
1727436718.453,70.801,-19.531,-50.781,-18.066,0.000
1727436718.457,54.199,-10.254,-46.387,-8.789,0.000
1727436718.461,-74.219,-15.625,-44.922,-11.719,0.000
1727436718.465,-128.418,-25.879,-43.457,-38.574,0.000
1727436718.468,-47.363,-16.602,-45.410,-61.523,0.000
1727436718.472,61.523,-16.602,-57.617,-46.387,0.000
1727436718.476,42.480,-20.508,-53.711,-32.715,0.000
1727436718.480,-72.266,-22.949,-39.551,-43.945,0.000
1727436718.484,-129.395,-27.344,-39.551,-56.152,0.000
1727436718.488,-64.453,-27.832,-42.480,-43.457,0.000
1727436718.492,55.664,-30.273,-44.922,-12.695,0.000
1727436718.496,56.641,-36.621,-47.363,-14.648,0.000
1727436718.500,-53.223,-40.039,-42.969,-31.250,0.000
1727436718.504,-125.977,-35.645,-37.109,-40.039,0.000
1727436718.508,-80.078,-30.273,-31.738,-39.551,0.000
1727436718.511,39.062,-25.879,-26.855,-15.137,0.000
1727436718.515,71.289,-14.648,-25.879,-5.371,0.000
1727436718.519,-24.902,-17.090,-32.715,-19.531,0.000
1727436718.523,-120.117,-27.344,-35.156,-42.969,0.000
1727436718.527,-89.844,-28.809,-34.180,-39.551,0.000
1727436718.531,37.598,-29.297,-37.109,-8.301,0.000
1727436718.535,67.871,-30.273,-38.086,-2.441,0.000
1727436718.539,-39.062,-54.688,-38.574,-18.066,0.000
1727436718.543,-136.230,-68.359,-37.109,-29.785,0.000
1727436718.547,-114.258,-50.781,-39.551,-17.090,0.000
1727436718.551,1.465,-44.434,-46.875,-5.371,0.000
1727436718.554,59.570,-40.527,-48.828,-14.648,0.000
1727436718.558,-18.066,-45.898,-53.711,-31.250,0.000
1727436718.562,-125.488,-50.293,-53.223,-49.805,0.000
1727436718.566,-132.324,-40.039,-49.805,-55.176,0.000
1727436718.570,-19.531,-41.992,-62.988,-42.969,0.000
1727436718.574,57.129,-37.598,-61.523,-32.227,0.000
1727436718.578,1.465,-30.273,-50.293,-21.973,0.000
1727436718.582,-98.145,-34.180,-49.805,-29.297,0.000
1727436718.586,-120.605,-46.875,-48.828,-49.316,0.000
1727436718.590,-15.625,-47.852,-45.898,-25.391,0.000
1727436718.594,70.312,-45.898,-46.387,-10.742,0.000
1727436718.597,22.461,-57.617,-50.781,-22.461,0.000
1727436718.601,-82.520,-57.617,-54.199,-34.668,0.000
1727436718.605,-124.023,-55.176,-52.246,-49.805,0.000
1727436718.609,-32.227,-49.805,-46.387,-33.691,0.000
1727436718.613,75.684,-40.039,-42.969,-17.090,0.000
1727436718.617,47.363,-38.574,-32.715,-16.602,0.000
1727436718.621,-61.035,-35.156,-24.902,-24.902,0.000
1727436718.625,-118.164,-34.180,-27.344,-41.992,0.000
1727436718.629,-47.363,-34.180,-32.227,-34.668,0.000
1727436718.633,67.871,-28.320,-33.691,-13.672,0.000
1727436718.637,51.270,-26.367,-37.598,-3.906,0.000
1727436718.640,-69.336,-41.992,-39.551,-24.414,0.000
1727436718.644,-135.254,-53.223,-44.434,-62.988,0.000
1727436718.648,-71.777,-54.688,-49.316,-57.617,0.000
1727436718.652,45.898,-53.711,-50.781,-25.391,0.000
1727436718.656,45.410,-60.547,-51.270,-14.160,0.000
1727436718.660,-66.406,-63.477,-49.316,-33.691,0.000
1727436718.664,-134.277,-51.758,-41.016,-48.340,0.000
1727436718.668,-60.059,-42.969,-26.367,-31.250,0.000
1727436718.672,68.359,-53.711,-26.855,-15.137,0.000
1727436718.676,63.965,-73.242,-37.109,-16.602,0.000
1727436718.679,-52.246,-83.496,-40.039,-27.832,0.000
1727436718.683,-132.324,-93.750,-39.062,-51.270,0.000
1727436718.687,-102.539,-100.586,-43.945,-56.641,0.000
1727436718.691,8.789,-89.844,-52.734,-26.367,0.000
1727436718.695,54.688,-74.219,-52.734,-16.113,0.000
1727436718.699,-29.785,-66.895,-43.945,-24.902,0.000
1727436718.703,-127.441,-75.195,-41.504,-29.297,0.000
1727436718.707,-109.863,-81.055,-43.457,-45.898,0.000
1727436718.711,5.371,-77.148,-48.340,-38.574,0.000
1727436718.715,61.035,-88.867,-49.805,-27.832,0.000
1727436718.719,-14.648,-96.680,-42.480,-29.297,0.000
1727436718.722,-113.281,-87.402,-36.621,-49.316,0.000
1727436718.726,-100.098,-78.613,-35.645,-52.734,0.000
1727436718.730,19.531,-85.938,-35.645,-18.555,0.000
1727436718.734,83.496,-88.867,-33.691,1.953,0.000
1727436718.738,7.812,-79.590,-25.391,-6.836,0.000
1727436718.742,-106.445,-79.590,-28.320,-32.715,0.000
1727436718.746,-122.070,-89.844,-37.598,-44.434,0.000
1727436718.750,-18.555,-91.797,-34.668,-20.020,0.000
1727436718.754,69.824,-89.844,-31.250,5.859,0.000
1727436718.757,18.555,-82.031,-27.832,-8.789,0.000
1727436718.761,-106.934,-81.543,-32.715,-41.016,0.000
1727436718.765,-137.207,-89.355,-40.039,-58.105,0.000
1727436718.769,-25.879,-86.914,-40.039,-46.875,0.000
1727436718.773,72.754,-81.055,-40.039,-37.598,0.000
1727436718.777,25.879,-79.590,-37.109,-34.180,0.000
1727436718.781,-90.820,-89.355,-37.598,-56.641,0.000
1727436718.785,-130.371,-92.773,-41.992,-77.148,0.000
1727436718.789,-52.734,-81.055,-48.340,-58.594,0.000
