,TP9,AF7,AF8,TP10
0,-20.86747206025188,-4.020624160175595,-17.09548356451604,-15.792061381416984
1,-21.35748953624944,-4.058858717626216,-17.40245594930725,-16.321009787492923
2,-22.00039267944574,-4.065479545119654,-17.47308793804454,-16.815887055658425
3,-22.74399453396785,-4.077864970136449,-17.33669913106489,-17.311802187030242
4,-23.488505383765208,-4.125376086163569,-17.070601157804226,-17.842314076216287
5,-24.191413239483943,-4.225943990826391,-16.76472853213953,-18.396426825319725
6,-24.829103701858482,-4.379999245828234,-16.502231495679002,-18.954152874566883
7,-25.512038242995068,-4.571134058997922,-16.33339220774078,-19.537368174540557
8,-26.335007046570215,-4.776586449331527,-16.26598978996623,-20.16160748576987
9,-27.09753407822205,-4.978709341241453,-16.243722263080105,-20.796041422102014
10,-27.598440602559737,-5.164392478461253,-16.20537298341192,-21.402223501954996
11,-27.975408978018358,-5.325383005263491,-16.170168527886275,-21.943035276962096
12,-28.41707590262288,-5.4587605009075935,-16.172417083800575,-22.404281277103745
13,-28.932946577117164,-5.562672857843221,-16.191494685885385,-22.851153478905946
14,-29.485260695893135,-5.639310518307107,-16.202322957518838,-23.35144896371399
15,-29.98873632009977,-5.7005121358073065,-16.200946422847917,-23.882833319682206
16,-30.365600545571695,-5.759518336867489,-16.19125862038766,-24.398077150785426
17,-30.739857182648954,-5.820835991417613,-16.205507984418745,-24.872959667855046
18,-31.2428033554718,-5.8876759634213,-16.27296135075409,-25.29553472661808
19,-31.737812637534386,-5.97123572628439,-16.361200599053657,-25.691506492174206
20,-32.072515215733844,-6.082084515072157,-16.434249406996628,-26.09424718354233
21,-32.326642129847066,-6.218106491180837,-16.52053452527087,-26.48852567447195
22,-32.61212445831672,-6.376021472413509,-16.655370775320034,-26.85124947211564
23,-32.95629168130106,-6.569627134853388,-16.835549347458564,-27.19768402876122
24,-33.35685354762529,-6.806883472119009,-17.047051953565298,-27.54509484711642
25,-33.70439374540089,-7.061659201920442,-17.26508968675894,-27.883709923011892
26,-33.90556931196259,-7.30476140000666,-17.465733616819982,-28.204621636784267
27,-34.13400447207836,-7.535137163219164,-17.67186542697462,-28.515830848077016
28,-34.56785837943026,-7.759804818428276,-17.90703523560709,-28.830334939695742
29,-35.06072053913706,-7.979099424122186,-18.119715867367507,-29.16487066330564
30,-35.43246179307107,-8.195034911787564,-18.263658291068996,-29.531299012447775
31,-35.73575372525361,-8.409596531439032,-18.38968373550376,-29.920386844185668
32,-36.056341445738234,-8.620884769978511,-18.556919756366252,-30.310327175718424
33,-36.41926337503125,-8.832568052908995,-18.758380808533826,-30.682285368842887
34,-36.82012805047893,-9.040525114285739,-18.967181277719884,-31.0126370407341
35,-37.119105206527834,-9.207699405583307,-19.145746976938376,-31.26257964848572
36,-37.18625117196564,-9.303295588181511,-19.26182453935989,-31.40516511039722
37,-37.15530886138355,-9.344840784445141,-19.34823398302651,-31.447323667714695
38,-37.18424661963756,-9.366093095009406,-19.44394106671947,-31.414557630955063
39,-37.17724457071347,-9.392947571192636,-19.50769564688226,-31.34665653507519
40,-37.01548486494402,-9.4419280041985,-19.49597686310195,-31.276547515198725
41,-36.73896752085357,-9.505383000862102,-19.438434722647003,-31.192106624337868
42,-36.409150472295906,-9.560988992443411,-19.3749588443241,-31.065272772732804
43,-36.09414059626448,-9.59145661139472,-19.32143502912985,-30.898349509121527
44,-35.82636835227668,-9.581473962138505,-19.27908537236166,-30.68994585440341
45,-35.41116439350115,-9.510985825403337,-19.20253263397736,-30.391521488486998
46,-34.671512188632335,-9.372059223086472,-19.047359103914275,-29.965400256614934
47,-33.80175494947341,-9.185149349377175,-18.8519845824936,-29.441013310266037
48,-33.03031826790155,-8.973721956305448,-18.661920746699998,-28.859894590966622
49,-32.27469588687629,-8.746293576841994,-18.446175036464602,-28.240181855025853
50,-31.40143004385686,-8.496924168020177,-18.164294027282327,-27.58155155695075
51,-30.37939632057769,-8.189812263572787,-17.812158694935334,-26.837327735960955
52,-29.216141171484733,-7.792305816358105,-17.398769334938955,-25.96530659325465
53,-28.05940248342106,-7.321599661795706,-16.956846325892677,-24.99725087652437
54,-27.045865543479053,-6.809135502786935,-16.5172607820149,-23.98478426582266
55,-26.00996145142603,-6.266735625232943,-16.055771246765648,-22.960923566765157
56,-24.763840226584538,-5.7023045286241025,-15.537400325903695,-21.939259057981992
57,-23.434439897766257,-5.119762596022906,-14.973509843947683,-20.876411634413298
58,-22.180267565417044,-4.523202027617933,-14.379234613944684,-19.725075561638597
59,-20.949941800729704,-3.933358534058634,-13.73344512134924,-18.513803605832404
60,-19.714792191441536,-3.390704002796296,-13.061553554091756,-17.349482733728955
61,-18.49375083626531,-2.9151095260612703,-12.431606281006479,-16.28386803413902
62,-17.347402108336492,-2.5246775024203294,-11.932268673662596,-15.385776333805593
63,-16.48959441111433,-2.1923012472040133,-11.591417787457493,-14.63639100217365
64,-16.043352865520607,-1.8754243878433428,-11.381656622831416,-13.960820441121191
65,-15.619803589808782,-1.570597184208744,-11.210283313020303,-13.315692000939146
66,-14.804668468745133,-1.2775434757013642,-10.987804393672887,-12.667656665608435
67,-13.709191652954733,-0.9521324738938728,-10.72902042854051,-11.956667487315608
68,-12.527534035775407,-0.5677631933452949,-10.472738397473375,-10.977162246686614
69,-11.392559464231647,-0.1476306031881263,-10.233662190250989,-9.9821847810431
70,-10.347440529680112,0.2631270279599654,-10.008512659506557,-9.05210392073305
71,-9.257766410149145,0.6599638990326027,-9.794491631994802,-8.188980816362735
72,-7.98209943622868,1.0505181503640704,-9.589018872976647,-7.37122368839893
73,-6.733377286767705,1.4292892719334407,-9.42931763675929,-6.612186913219836
74,-5.771627182774839,1.7917214360215161,-9.346435699025596,-5.922649581230452
75,-4.97905789995787,2.128703635550608,-9.279782065537411,-5.3054971548329055
76,-4.15460268173482,2.434741090451695,-9.155106637623561,-4.749936674913949
77,-3.3028635993873054,2.736981834917084,-8.983702061618386,-4.178411892626022
78,-2.4753127079367405,3.0660003473639947,-8.802500965770827,-3.51442850600228
79,-1.7300233982456408,3.4107886631276165,-8.624599530527913,-2.791184377758778
80,-1.1219718143772615,3.7475892200252496,-8.455866917469796,-2.072724073666125
81,-0.5252077448725115,4.0787932855042826,-8.277084587756592,-1.3627588201386436
82,0.20516252637272886,4.407928676996533,-8.061356639790283,-0.6484949930447017
83,0.9261049982747345,4.711327359890386,-7.825756670511864,0.07964947116537016
84,1.4570673547814343,4.970714583362361,-7.596064837467072,0.8306929228871038
85,1.9012051419484106,5.200596219963641,-7.352329297812213,1.580712157405733
86,2.4205641613113458,5.428616217568357,-7.071883767915488,2.296510091476291
87,3.0381051984904692,5.692186748642892,-6.775254749337616,2.9790708937010475
88,3.734020508654284,6.015747449960258,-6.491963572875459,3.6387275618030412
89,4.428544060018163,6.364841480452395,-6.238428176164905,4.27001486402861
90,5.032411403956389,6.685154583564337,-6.022614791346761,4.865809643349488
91,5.647706938396305,6.954665112699507,-5.821477919932406,5.421281032005659
92,6.396250791799385,7.167216558179713,-5.606470413987896,5.933225117233862
93,7.12772074153395,7.326224553822931,-5.404638111614742,6.4101866070428555
94,7.658345962536367,7.444655877215182,-5.247418282513341,6.865171488124218
95,8.049902049597215,7.5242053733307515,-5.093253570188294,7.2962229400284455
96,8.421629226327747,7.565036690414054,-4.8944103031753485,7.6971169318248895
97,8.827149324549515,7.587598883206144,-4.664600098388694,8.088262762900893
98,9.283468944676743,7.611593072584238,-4.440018464723422,8.482226628899374
99,9.646107073727613,7.631190703758679,-4.270434257141047,8.822913025231813
100,9.76163563383788,7.631054412373637,-4.197183013218331,9.053364377944192
101,9.791066617962418,7.60558094562056,-4.181188472276056,9.200167585090785
102,9.950512839100819,7.550962439844515,-4.166792162733147,9.317270392758115
103,10.147937623407767,7.453284172024021,-4.1817673638729325,9.44269586079108
104,10.234374655062462,7.309089605528548,-4.269292475812242,9.598933309584103
105,10.247878391659187,7.149433073581473,-4.417650016921907,9.752621881718037
106,10.264333037556813,7.01495862080403,-4.588295813519658,9.856826696991087
107,10.35503298341222,6.92882840207519,-4.73391936594606,9.929507477856763
108,10.571998335583114,6.897249396724973,-4.793618049752409,10.006092239420724
109,10.777351634517464,6.91268043561972,-4.685109207896212,10.088562013417425
110,10.814801611765317,6.952014086346437,-4.355002679904869,10.170110190982978
111,10.818822617573133,6.963399939801209,-3.8494348808281367,10.234748026494582
112,10.972822689731137,6.9083754873208445,-3.251716159210415,10.266464527243098
113,11.211502822189189,6.824081815216905,-2.602260394197444,10.291739113072156
114,11.411341375058003,6.771282174345189,-1.9211823081646313,10.343043551707321
115,11.527748362366529,6.771391458103054,-1.2250390616702664,10.393728019552533
116,11.541285408138126,6.821052586841024,-0.5132519553893583,10.406049467626021
117,11.543668286570764,6.9003156780589086,0.2293310913153516,10.398796827064233
118,11.635153115647583,6.969550171322339,1.0072367320422402,10.394372645448854
119,11.657199031990421,6.9730453274512,1.8034073377003645,10.35910759870731
120,11.428932696046108,6.869142146479423,2.572961938719622,10.253163240987421
121,11.104502351496903,6.667925012216696,3.218944395351587,10.072363476966464
122,10.898376806443862,6.407305829580768,3.6513808523942477,9.82936618107056
123,10.781033173958773,6.121085649446952,3.8635870236952305,9.55697253487905
124,10.66416833587561,5.84058667775547,3.903067729582409,9.292282693554005
125,10.505432193868236,5.590027733895092,3.8419981451719316,9.030186985117561
126,10.275684031038026,5.378306060244078,3.759397006239778,8.754470145575134
127,10.086980646138977,5.196851938617558,3.712786765893245,8.491334465659198
128,-23.299096567405492,-1.9839127472772704,-21.56095166181784,-20.835924498249117
129,-23.59645788216638,-1.8042095841420553,-21.9682991897867,-21.22511624770401
130,-24.048935523348003,-1.6190807824283127,-22.394119642780208,-21.5644347265247
131,-24.668876224887743,-1.4844723997575466,-22.816854194207725,-21.89719803654432
132,-25.422832551414782,-1.4156655179650404,-23.20277487696499,-22.26487875043844
133,-26.322759770491178,-1.397195500051885,-23.55441158719482,-22.6369341302149
134,-27.351612101352217,-1.3944602649497455,-23.88015788970991,-22.97747629660187
135,-28.42596446060538,-1.3946814560342933,-24.186829024226878,-23.31904851686284
136,-29.46181211115081,-1.3937737356124564,-24.48174046184927,-23.70098658762499
137,-30.419166267796484,-1.3892608880102881,-24.74467216659999,-24.116874392355218
138,-31.280506797127224,-1.3821495838565467,-24.95717792583933,-24.551288479735263
139,-32.04258179106532,-1.369709425887494,-25.16296991551534,-25.0001032784752
140,-32.71528475354988,-1.3491786533810006,-25.39865205257879,-25.455332451164256
141,-33.300169926534785,-1.3211210528355617,-25.60244872628608,-25.907265296465308
142,-33.79788176594454,-1.291544316724728,-25.71056368586966,-26.347398875558003
143,-34.22630156892313,-1.2765891855885632,-25.751517401987478,-26.754975424709578
144,-34.58461500434546,-1.2908352577570872,-25.773114622296692,-27.115580206665516
145,-34.844595999802635,-1.3412435023487101,-25.802414227861647,-27.456075509423332
146,-34.96294548152282,-1.4167172641470418,-25.851859927399488,-27.802018386017075
147,-34.821849523976475,-1.5058479098547595,-25.874545308328987,-28.124731366293318
148,-34.36441435066319,-1.5850343692115578,-25.823750530623098,-28.393626280936108
149,-33.808598695267676,-1.6387584494620708,-25.751181673685625,-28.617404974177045
150,-33.38758000583944,-1.6930610441929712,-25.716631604417216,-28.816708883843834
151,-33.06855092468533,-1.8049654931295704,-25.69348211006534,-29.031957405893916
152,-32.74412152037352,-1.9709543017932636,-25.63868641510908,-29.285765890804278
153,-32.34830629041168,-2.1188810473408033,-25.535538804519206,-29.50589533513952
154,-31.837246718805332,-2.17453763238874,-25.37723804270538,-29.613440464255742
155,-31.308478051616632,-2.1370831385015756,-25.19097202059297,-29.62919544965516
156,-30.864722794523193,-2.0497697973281874,-25.007795056846007,-29.594409739514663
157,-30.36280986981958,-1.9479856055204952,-24.796845006913344,-29.510579555661884
158,-29.654051595174888,-1.8315513959578054,-24.52567544761561,-29.373154634862846
159,-28.859602726581116,-1.675980559307667,-24.23734778969475,-29.157276138641716
160,-28.12761380143256,-1.4779144735484082,-23.974211826277166,-28.847671537564757
161,-27.44108171829646,-1.2549161193415026,-23.71104382693256,-28.513491301081217
162,-26.74410096233892,-1.0212881650889918,-23.408497213920935,-28.22092377163647
163,-25.952237365586704,-0.7547225926972371,-23.033113111113288,-27.930746998703537
164,-25.00146949095849,-0.42731364804753647,-22.56740140753359,-27.57992964581777
165,-24.033545200789984,-0.06887252209024192,-22.066165847668895,-27.1436018741919
166,-23.192213012663977,0.2444790581765027,-21.58811116909988,-26.613486229249357
167,-22.32109005656997,0.4823448441740269,-21.0891530421881,-26.017804273433885
168,-21.249327098546004,0.6838386620840187,-20.518381269469163,-25.392521430493293
169,-20.09359649835923,0.8990036958749166,-19.92370233458315,-24.714703547702374
170,-19.0019694551803,1.1368900248681102,-19.360334890515496,-23.95905383272056
171,-17.972303070208547,1.368324419258376,-18.819228937101528,-23.167089869468253
172,-16.961697727323838,1.5531464000219637,-18.274854878978772,-22.381809482425236
173,-15.860092593507918,1.7060040686775986,-17.698637903074477,-21.595204333942768
174,-14.57782309880625,1.858942801902619,-17.063279739048177,-20.7824933774688
175,-13.272132366046748,2.0386089136777468,-16.383794072092318,-19.910368201073332
176,-12.109406087488615,2.254697044004055,-15.683429098772697,-18.94954573145634
177,-10.94973788790391,2.4654062877247243,-14.929320378247034,-17.915118727675402
178,-9.626644764675744,2.612437198687691,-14.095936334030759,-16.832200261744287
179,-8.204311498296082,2.6677569746449485,-13.241844795519391,-15.680165508547846
180,-6.7830872169315475,2.6206977322038965,-12.423902936562001,-14.436536401346292
181,-5.414069541734293,2.463459628668059,-11.623880352846896,-13.13337290490513
182,-4.107552505029018,2.206451609620611,-10.800229976081665,-11.794303901095125
183,-2.7054306740723097,1.896935896288476,-9.900402311786243,-10.371008942535404
184,-1.0478435774923567,1.5753388009308753,-8.888383434732264,-8.81061056360753
185,0.7560497080797289,1.2247078954948694,-7.823259585258451,-7.110518477393123
186,2.5565715018833868,0.8170597932785566,-6.773480998144831,-5.295486934937296
187,4.428190264375772,0.3551462454024239,-5.698657100402954,-3.4137268774204954
188,6.451036777035291,-0.1525090199765048,-4.605384543604435,-1.5722046146175415
189,8.367065300612598,-0.6655459768589929,-3.616545929769166,0.13766170469044936
190,9.933187725470695,-1.1616565965081187,-2.870581065114276,1.6132052840747537
191,10.999503121356973,-1.6676996540422944,-2.3291636158280586,2.8378490449376086
192,11.53601199221138,-2.2180002111908976,-1.875448922432225,3.8349264362495257
193,11.828959535159509,-2.773072679158609,-1.406827730531184,4.571260323589599
194,12.196939818167587,-3.2203408614675326,-0.8577601205407276,5.041242696741424
195,12.541032455109749,-3.473154369046997,-0.28709314793675067,5.356831500550107
196,11.49748878600433,-2.6913256598196966,0.059521529953268024,4.758188645528001
197,10.397275979648517,-1.8957546748017995,0.34960235778235943,4.178629773323719
198,9.357673131390817,-1.1385176293157815,0.6233469047756496,3.5816768838775896
199,8.406396994122897,-0.4422121773831986,0.8794016502271352,2.9681478580059872
200,7.541888874242757,0.19166041252980992,1.1135295800795804,2.3523053696148644
201,6.645148789702158,0.7682568934361664,1.322043464142862,1.7394527415624819
202,5.594121241279735,1.306772591737759,1.5022527469546851,1.133909427711254
203,4.536733577702327,1.8417877504511215,1.6949247935465863,0.5276021753419151
204,3.658616192710906,2.403403196233099,1.938013009900213,-0.09069568498099895
205,2.8551238212054924,2.9981934082453234,2.1909890130642293,-0.701937004022658
206,1.9628820980762391,3.6168176162126855,2.3951813798957136,-1.2871660472109656
207,0.9735044033430565,4.238941833427599,2.5384753948599315,-1.8810163333365928
208,-0.07284228648648579,4.841563722217119,2.626621246692738,-2.5244826494131143
209,-1.068781113900288,5.419814739419149,2.6834749382989327,-3.1975507600325948
210,-1.914934626001635,5.975426970136023,2.734630598548767,-3.8697113662933087
211,-2.7624831833590173,6.494877180452623,2.7424589835086177,-4.56125783983916
212,-3.8019899620908224,6.966187844237759,2.663433454417631,-5.297200377729229
213,-4.9243386550684445,7.395295665590941,2.5468112832793883,-6.06556865962311
214,-5.9613496684960365,7.791705656439748,2.4570904546845074,-6.8461307643618206
215,-6.962706442266357,8.16675395818248,2.37642565547546,-7.618829603746251
216,-8.0131824070937,8.526077963343926,2.2692653996752976,-8.368731963757275
217,-9.10930570838431,8.83912171775334,2.1432261367579364,-9.120874618028775
218,-10.223717269500192,9.085704600886952,2.0093687817592683,-9.900567532500833
219,-11.247944020534376,9.278020892363315,1.8666387026049072,-10.673647019769767
220,-12.079589566188355,9.466663978582428,1.7103121308262954,-11.391071732760965
221,-12.846427333915292,9.69157795786319,1.5071577750250913,-12.025164274652397
222,-13.71131152232089,9.951728058943354,1.2283918051229066,-12.569519751212018
223,-14.57749230199936,10.233904818785689,0.9141651122316456,-13.074661153936145
224,-15.300977112816067,10.510620415503709,0.6205037079981963,-13.603243996408658
225,-15.922090155912764,10.763602820046925,0.34635945383323674,-14.142654884386138
226,-16.52058375680094,10.991759984674779,0.07830728479250168,-14.660622620629312
227,-17.137535412148555,11.22061390840798,-0.1674888978950396,-15.18478393481899
228,-17.801578523215483,11.484107603786612,-0.3746101126458876,-15.744504602189934
229,-18.429521939523685,11.802509915951157,-0.5316609518625346,-16.311785777421548
230,-18.933234752010172,12.177505328124886,-0.6360190114381878,-16.847813197990348
231,-19.461817731055657,12.5807239964861,-0.7310331998017982,-17.336615667738815
232,-20.182573757201816,12.97361282055301,-0.8607338977535998,-17.76899866159475
233,-20.9789471725217,13.33258738969028,-0.9945803283670241,-18.155713386457734
234,-21.673958598125786,13.650014806159282,-1.0847535809959254,-18.510363705097237
235,-22.236581920056565,13.947200427807697,-1.1329912149039416,-18.790055097572598
236,-22.694007546944764,14.250616497891436,-1.155143209740192,-18.956699461160685
237,-23.162549680682304,14.549742569475942,-1.1659061141221154,-19.07197021378009
238,-23.765132900489466,14.820954092422701,-1.1784878147654958,-19.21505479343166
239,-24.391325381833976,15.05514857634453,-1.1664972312480204,-19.397911821871624
240,-24.88716961870908,15.247600223405652,-1.1006742903204123,-19.602761064547185
241,-25.356176032770602,15.401037781941135,-1.0202248278372101,-19.78233350149644
242,-25.943883161872204,15.523009087287077,-0.9748630135412655,-19.891715522684404
243,-26.59951680580409,15.60358753926803,-0.9497161098589687,-19.975603928195117
244,-27.238242938030943,15.640293317989084,-0.9165902958050925,-20.101707230025852
245,-27.842176823760063,15.636906038402014,-0.8771804293462477,-20.260041950391773
246,-28.418406173925284,15.615416082344233,-0.8408638862141478,-20.422158589558688
247,-29.066817540267472,15.575546287605707,-0.8328237901511234,-20.5954659300311
248,-29.877947926638367,15.484007126375012,-0.8742163209446155,-20.790721596322875
249,-30.728791082200605,15.320145918254,-0.9257223644987144,-21.020230080866153
250,-31.43539925309254,15.111177807328701,-0.9382705663306905,-21.2920097924029
251,-31.95690030736559,14.91492647908861,-0.9281862886708219,-21.566261826437973
252,-32.29752119710686,14.75493906126068,-0.9283131854972146,-21.79790408071631
253,-32.41540702615122,14.6247417524234,-0.9378717413263276,-22.012546536231916
254,-32.29558347384982,14.49516228882043,-0.949418784248095,-22.24643729271993
255,-31.995487465407813,14.355207215886132,-0.9558460923635451,-22.46766246237409
256,-4.356022342422874,-4.575167733385809,-22.14559672349698,2.2049015354817154
257,-4.348701253523496,-4.9299058054630915,-22.67882149423728,2.400123977756073
258,-4.535516950814584,-5.328425436428709,-23.215043110142165,2.525717448680808
259,-4.745867997181881,-5.779609140308316,-23.714124247240285,2.5489568812606
260,-4.7960447881752755,-6.247682459589913,-24.138794160536772,2.5121133051664857
261,-4.817456784633537,-6.705339245937889,-24.535490599883055,2.452251399200729
262,-4.971913404366639,-7.156194932823272,-24.954711861470486,2.368989431173683
263,-5.230341087408211,-7.616498085159881,-25.373781688167206,2.266030479168936
264,-5.527702885278388,-8.085996397707277,-25.757487463582798,2.1345378704914952
265,-5.784332587389935,-8.563300074154219,-26.092444929031632,1.9926644493019312
266,-5.947942319132471,-9.039593472930717,-26.376807905313257,1.8559641607237516
267,-6.18606437211378,-9.51684276619992,-26.648950483989594,1.6984891796736918
268,-6.6584712340518335,-9.995341318523494,-26.946999766175995,1.5030542278294188
269,-7.1913534423686745,-10.45238420084091,-27.234188568909655,1.2256662871428852
270,-7.575503734088587,-10.873796112449195,-27.46638652870877,0.880260008704012
271,-7.865568588425135,-11.254579387531301,-27.67321766189334,0.5350288503265168
272,-8.156886313681841,-11.610557252727013,-27.884235760127957,0.22301459675244736
273,-8.461426220208219,-11.949312382191904,-28.073082827494613,-0.0577459639102043
274,-8.766674331331293,-12.253065890753778,-28.201863093414783,-0.3210449913537584
275,-8.941210947454758,-12.497067214650942,-28.220081749279874,-0.5267878960969986
276,-8.877324930370392,-12.691888778365852,-28.10057813771056,-0.6417269309715611
277,-8.769799895675098,-12.85698135139014,-27.92761269991271,-0.7002151703569505
278,-8.827221632461697,-13.015002456738268,-27.790818719254535,-0.7500667362458094
279,-8.921159704639836,-13.152816417390328,-27.645800521035078,-0.8175010086382974
280,-8.886169613929713,-13.251253330542049,-27.42498051180278,-0.9120867489933229
281,-8.778320996688485,-13.318531918229207,-27.146578837823185,-1.007272183223267
282,-8.689656842551905,-13.366068824569751,-26.835711890093915,-1.069068541358361
283,-8.691360324537623,-13.396055497287904,-26.477873710469595,-1.0967874113454723
284,-8.820634460001125,-13.402678357354134,-26.058408462703717,-1.1039727110435904
285,-8.927710114458318,-13.360331472496027,-25.5585617693214,-1.1086331330454684
286,-8.875393049866158,-13.243385415133362,-24.971263723013063,-1.1273860296727272
287,-8.79845201761288,-13.048582771240635,-24.355047960442185,-1.1499198250327098
288,-8.891992310249421,-12.78771334139488,-23.76676926205483,-1.1619258987569179
289,-9.243156224235841,-12.49045572516203,-23.172725547085165,-1.1834646822423445
290,-9.866364193076823,-12.189071732643775,-22.525991602430665,-1.2365043271528162
291,-10.649454066993396,-11.886956037926852,-21.838935790913897,-1.3047564067258972
292,-11.435551163260739,-11.593323668069502,-21.135614451893847,-1.374858097868158
293,-12.165033438377435,-11.317956252463105,-20.433206498429268,-1.4766709962523463
294,-12.824370656467888,-11.094744613581243,-19.74470880545924,-1.6433641512832629
295,-13.392171203813852,-10.955804886566995,-19.044486874626365,-1.8813467604292962
296,-13.868626166974247,-10.891571755946805,-18.306056031534858,-2.18418880041455
297,-14.287933495627628,-10.873576869407346,-17.56847964697347,-2.5324374295645393
298,-14.663406709580066,-10.867341546087113,-16.870856441989996,-2.903512511384493
299,-14.948433671325622,-10.875643525574556,-16.177564132659434,-3.2939057967102188
300,-15.087332379926421,-10.911581569390405,-15.44626270515964,-3.709273555973863
301,-15.016660398628284,-10.968327986254161,-14.681467622437857,-4.146019514873759
302,-14.719392662698121,-11.034726922544852,-13.900266057341566,-4.603837654830367
303,-14.374983589114482,-11.103983870438638,-13.130457657585861,-5.105781221886227
304,-14.151409213123577,-11.165019331699762,-12.391529148897197,-5.663018650488671
305,-13.899312593914113,-11.201411078813557,-11.641158647398479,-6.2393092154158305
306,-13.443901357568008,-11.19877859719754,-10.8310669619557,-6.799649095510979
307,-12.912575333165046,-11.147074568728392,-9.981050188155319,-7.282356606065466
308,-12.460441987654304,-11.04428886665431,-9.118729485783374,-7.691759665946972
309,-12.050307273893266,-10.9025637043191,-8.227696864818299,-8.066253723483053
310,-11.613341729889726,-10.736846392974558,-7.2853376650809585,-8.456486618178912
311,-11.089357916491474,-10.554330515205034,-6.271716967527918,-8.865976402251505
312,-10.441211271873776,-10.354515787938242,-5.177552066145632,-9.279919082984327
313,-9.808305735368716,-10.125719474339025,-4.045296822732889,-9.692097236951852
314,-9.324284230670552,-9.854569803483606,-2.9195284790281546,-10.0943146575829
315,-8.8302460979403,-9.538295342682641,-1.7744075327171045,-10.481475165421058
316,-8.266918236913664,-9.117041541853077,-0.6532451939107455,-10.94352365231924
317,-7.989434322568277,-8.46479801715221,0.3043366611134985,-11.654793655823367
318,-8.368650447577657,-7.548829354153286,0.938057050053258,-12.688114374827245
319,-9.241675561433402,-6.493828256454704,1.299104334943252,-14.015341018189655
320,-10.230905448738595,-5.451461189508983,1.527476167561783,-15.522894594723882
321,-11.019808791245907,-4.498994240842521,1.6982094948708222,-17.048403233712065
322,-11.410770384647808,-3.6444208075316853,1.8579275660109429,-18.429553299280645
323,-11.595917881803253,-2.8724305065460456,2.009274692985268,-19.616873017950823
324,-12.447385005248622,-2.025215235683442,2.0637847266794243,-20.896277768063783
325,-13.280969279759844,-1.2710683126128508,2.131818775240632,-22.0584549538656
326,-13.931307289814642,-0.6027392264447894,2.262786744844957,-23.118749208609508
327,-14.417908576712286,-0.016344116759670624,2.4340041418054756,-24.058903186362826
328,-14.801274999673684,0.4873447477054018,2.6030987979527307,-24.853143321625048
329,-15.159890646327428,0.9102943736742332,2.740823103249553,-25.53815910537405
330,-15.565834824078241,1.255799636152858,2.827797008746619,-26.14017396656711
331,-15.883940102657938,1.516773697680723,2.891130160027291,-26.662471283332597
332,-15.961827000177857,1.6942035836539677,2.969362995056042,-27.062597628115263
333,-15.978245882635575,1.8241393926116356,3.0351269269213184,-27.345454771370832
334,-16.155318122165074,1.949788762785212,3.0529757348243414,-27.587782957860608
335,-16.39161679049389,2.089896710051279,3.061538426148406,-27.83302555202015
336,-16.516426006275747,2.245876256410193,3.106869574446822,-28.049734035354998
337,-16.50612013654977,2.4095759961254997,3.1779559698283357,-28.213264746964203
338,-16.3827431956435,2.559634162549933,3.246048946999683,-28.2878283345181
339,-16.25415023300036,2.683457610794267,3.275286763508972,-28.28390050923025
340,-16.229440179935523,2.774155893562305,3.2372030317271214,-28.227706085046815
341,-16.159486066599147,2.861336252087808,3.1727848146477724,-28.10859639888109
342,-15.856853915356197,3.011568132879181,3.1357645368470486,-27.907146588583398
343,-15.43905235068856,3.2498607063307094,3.091160111994762,-27.611289363760818
344,-15.07805796980901,3.5323976897771163,2.9904160057848257,-27.216169358390264
345,-14.730975803359895,3.7992429102957916,2.866173710217549,-26.755121652441016
346,-14.308046751987344,4.041672640651982,2.76299162916063,-26.268414494786686
347,-13.753937463493438,4.2862332267643275,2.6799450780036107,-25.741327484261085
348,-13.041604466051826,4.577486709501147,2.6013105840717143,-25.16501625234229
349,-12.312982154188012,4.8976115871195365,2.490504709860798,-24.546512552323904
350,-11.734020686533707,5.2137488993651395,2.313791648807352,-23.94538023664702
351,-11.206953228401895,5.499582238431476,2.1112475094679044,-23.382325899144785
352,-10.585085144509286,5.757585378522505,1.9370583957139185,-22.864103260324118
353,-9.96806379755405,5.982866727517849,1.7636336979379963,-22.365366869257603
354,-9.485733880479131,6.179953230803269,1.5501851227223837,-21.846179458697367
355,-9.092185367207463,6.3410481975399104,1.3191108369756486,-21.292203192883846
356,-8.702357572953161,6.462755055355201,1.1041286984121743,-20.704025520966507
357,-8.236125238776728,6.590177342465164,0.919345119575456,-20.078969334724636
358,-7.641712484353661,6.760028565112461,0.7677643382404927,-19.426238293305083
359,-7.0630389127539805,6.967048705527819,0.6125163683479531,-18.77737396712049
360,-6.669603669487124,7.16445262008646,0.41250659743167045,-18.1660548765959
361,-6.349644263123903,7.3161897449568745,0.1943265005057632,-17.61449062947926
362,-5.941654053452467,7.421350386459063,0.00047490410844422404,-17.129429359542115
363,-5.5256536284633855,7.466307465950472,-0.18156477792618128,-16.686480926727523
364,-5.224880763838106,7.448075731689857,-0.3744168251854416,-16.25272052112472
365,-5.0555077900442145,7.367477116500301,-0.5685910453081189,-15.826564069401092
366,-4.999270811708468,7.226958977197423,-0.7529004454725489,-15.419750133492144
367,-4.9385121355393995,7.032790456427131,-0.9255924251905298,-15.025078288178817
368,-4.760521578616192,6.795798005478192,-1.0890375498169573,-14.642231779495226
369,-4.6340427975157485,6.535495414785186,-1.2742468537276832,-14.311052324788806
370,-4.756559623605846,6.272065882750909,-1.5071702139823608,-14.066039095689296
371,-4.9771534407337805,6.010697628340139,-1.7431191600151485,-13.898639197224478
372,-5.075465134500808,5.749868096045929,-1.9260901713533813,-13.776331372467745
373,-5.049795567377159,5.5026129882085275,-2.0667010933384904,-13.622956051315919
374,-4.964404986606747,5.269439658991704,-2.1947248415562752,-13.391617545849039
375,-4.911537711590401,5.045164619479917,-2.3203303366539054,-13.103450710017338
376,-4.978977087471549,4.804699506416415,-2.4488232724436485,-12.842327891428031
377,-5.037258366946012,4.551773368133586,-2.561679805810896,-12.626376482343899
378,-4.925700804714769,4.331900352214987,-2.6373744035034887,-12.377745866387095
379,-4.797888104786325,4.163182483313128,-2.7135731886217673,-12.053349496613043
380,-4.849778849450924,4.01753963121792,-2.83160423420905,-11.684945754579322
381,-4.967754943610431,3.8705456056102845,-2.948652225648904,-11.30500362870671
382,-4.983764612090104,3.726882517123285,-3.0097345875356565,-10.911276282205671
383,-4.908474377149309,3.605678894074552,-3.0302457559164364,-10.50567256726974
384,-23.79398420478187,0.6332396943931635,-15.35587533793007,-16.217570221840777
385,-24.363667106240328,0.4708367574661028,-15.933369407401647,-16.856423235328936
386,-24.731814866723962,0.32948568335355133,-16.505508520997118,-17.52636221513736
387,-24.96158194754811,0.21725904360494838,-17.045420355264536,-18.20838778509268
388,-25.13266570997233,0.13711094968966986,-17.534341896716246,-18.86993126045568
389,-25.207270389581,0.07346640563939058,-18.028750919296833,-19.511548035004605
390,-25.157209017936687,0.008228526141122842,-18.58060054916884,-20.136505334739393
391,-25.13256362031874,-0.07141536530571634,-19.144711847341746,-20.75619675486518
392,-25.263351678745313,-0.17010380263746452,-19.6605837769157,-21.377486516176806
393,-25.464891629119368,-0.27281937198840106,-20.117634670056393,-21.96347346207982
394,-25.598605233043585,-0.3578217466290737,-20.531590914954638,-22.474911172330398
395,-25.59365035409254,-0.42070202914690497,-20.947511444259682,-22.920802454745242
396,-25.423821866695754,-0.45936093187978216,-21.417960030793093,-23.321032031048738
397,-25.117521526906753,-0.4490854611995263,-21.968906682425253,-23.677713042920118
398,-24.75809642055101,-0.3771685584886623,-22.59547237581663,-23.9920327192404
399,-24.490957523178,-0.27904644553378843,-23.250659692556574,-24.258983296268873
400,-24.415103157566076,-0.197464801694191,-23.87575731803015,-24.478391752359144
401,-24.448322035237027,-0.151791456699042,-24.44263658884197,-24.68762492947174
402,-24.46142258374077,-0.1435953805803744,-24.940691844040607,-24.92112400821727
403,-24.389352634413708,-0.14317025886748505,-25.363052570136915,-25.16086406432503
404,-24.213581817215747,-0.11748678902301707,-25.7127374013883,-25.37816111168088
405,-24.047034065625986,-0.07369493156797634,-26.001007644810883,-25.56931160852635
406,-23.99755758652449,-0.03128513460617863,-26.231911151203338,-25.739235070300378
407,-23.91393836943355,0.004460072239110685,-26.395273824554234,-25.904080509607116
408,-23.641247897269402,0.0288782884986169,-26.46907821047493,-26.08519629346513
409,-23.322106319860545,0.03862669733872731,-26.413805229324026,-26.27883504425148
410,-23.133746552600034,0.02909918774107592,-26.20081324557093,-26.484552859356562
411,-23.078566179318305,-0.02016698372142578,-25.84724833038397,-26.751791205696012
412,-23.11237899886996,-0.1293369884972816,-25.394189625936253,-27.124369697024253
413,-23.142215912968208,-0.2958309859790474,-24.87935915912604,-27.574412458758136
414,-23.09044593823659,-0.5089739716479215,-24.340805444286104,-28.05686709839961
415,-23.10939111099517,-0.7691217862943013,-23.8277441875722,-28.569346409612226
416,-23.347457489440664,-1.0685714615848787,-23.36761273927375,-29.103450464391003
417,-23.61643473621793,-1.3745266210473759,-22.918040969708073,-29.602282430987458
418,-23.703834925452973,-1.6560333545413464,-22.431244274751677,-30.012187182403327
419,-23.690168511150066,-1.8984487553937153,-21.93295869723605,-30.317420817798837
420,-23.69759542735727,-2.1056614055406757,-21.45752852776587,-30.52231800411972
421,-23.72941622874197,-2.321484144609844,-20.991552238138684,-30.657463598596596
422,-23.757988622524223,-2.58780339981349,-20.5123607416469,-30.753396868214907
423,-23.665084404745322,-2.887025481510451,-19.992675124482215,-30.789045160780347
424,-23.354649306754958,-3.186573727821708,-19.413492342375488,-30.737672506002983
425,-22.996987647402978,-3.4803942386648092,-18.818697692398707,-30.617419290655164
426,-22.773672598102543,-3.7664188821175095,-18.250630772634814,-30.448028978358785
427,-22.568587367209783,-4.0461815874091185,-17.65391704924321,-30.23543668620051
428,-22.219387596803003,-4.316589291453309,-16.966204776473198,-29.964385005997016
429,-21.727408050639117,-4.5404166921177165,-16.216840909681444,-29.550952656451283
430,-21.124880050989916,-4.680496963089718,-15.443970942743196,-28.921013712272433
431,-20.455319677846116,-4.740435778864112,-14.635255287962192,-28.114719212230877
432,-19.755855663433653,-4.737184942639724,-13.76981028055344,-27.203553742037357
433,-18.909306194074436,-4.679954765731496,-12.812606517323898,-26.21099804568006
434,-17.81295552334102,-4.576058593727984,-11.747047249126828,-25.153115768573574
435,-16.638223416950055,-4.42562256496169,-10.65396219088977,-24.046911865205274
436,-15.571207982769423,-4.222626103113369,-9.619076549955007,-22.904830762572676
437,-14.533924776811348,-3.967055314694629,-8.618024921163661,-21.76449026364539
438,-13.409273131559459,-3.6622524313113165,-7.601322989881619,-20.65547400804568
439,-12.203616916549272,-3.2984837035813497,-6.570709285874295,-19.546769526962656
440,-10.949512712077718,-2.880142443994451,-5.532653940148239,-18.3982721083947
441,-9.731795284889543,-2.4660251122282286,-4.480074049376235,-17.218615615187684
442,-8.618770746801289,-2.1116012369441277,-3.4107303122841115,-16.022870555974833
443,-7.462333340678025,-1.808334246536543,-2.317262186077616,-14.795632499551166
444,-6.1839410505678085,-1.524617195932365,-1.2547137122772631,-13.598696148561395
445,-5.137669122968795,-1.27736280890863,-0.34189473742400645,-12.517093486763276
446,-4.676490236299646,-1.0778316428372279,0.2986610996483716,-11.66574172745734
447,-4.5896416413529835,-0.9478289667660302,0.7530882993031675,-11.060233025327621
448,-4.5147053998163855,-0.8945037159117136,1.176682994617613,-10.637673442655807
449,-4.368699070039308,-0.8554002921158159,1.6036760123327252,-10.26892587867122
450,-4.162450231131558,-0.7562451520636565,2.0273783149936837,-9.83198884007595
451,-3.990319625670259,-0.5862833532925273,2.443984247885131,-9.328843281961099
452,-3.999123491239595,-0.6540023941485216,2.7063317741036848,-8.751941296646827
453,-4.03424591055905,-0.6743272656831336,2.9627220993756276,-8.184163621293266
454,-3.9051553848742113,-0.6836119275988309,3.236048546748777,-7.627151351508255
455,-3.705572135934393,-0.7218908416758287,3.4889832529568534,-7.025314206177114
456,-3.580993268258355,-0.8127779506935784,3.6837581591894937,-6.3205169194684725
457,-3.5189760134069648,-0.9628480729231925,3.849022079995115,-5.578686052093157
458,-3.4622885643622343,-1.1492686314419727,4.028059671618312,-4.885293455010367
459,-3.3021452117320944,-1.2958815020910293,4.242014483496791,-4.204144949931873
460,-2.939655532706262,-1.3204460438048409,4.496545366197617,-3.4681737829907533
461,-2.509161126771218,-1.1916121653617824,4.750270816364684,-2.6597273125889136
462,-2.1828993494848734,-0.9167173778069757,4.957649991563999,-1.7806200421028417
463,-1.8411698988562464,-0.5338821050617547,5.153902485693379,-0.8594357600534135
464,-1.3204151012863632,-0.0992832605874131,5.391938749798202,0.05820458957057703
465,-0.711295974467707,0.34434594398282786,5.659487620885896,0.9530764142337487
466,-0.1486813764034089,0.7732441793895318,5.927642966043432,1.8189606500514885
467,0.3406318155626051,1.1749633242407074,6.190030204107711,2.6325804900044907
468,0.7644984609697743,1.5565740972523887,6.440816030639174,3.378105407253789
469,1.2478599114126498,1.963707517029433,6.682354514305539,4.086137405229889
470,1.9029650426180875,2.4354055362855482,6.918528039057525,4.789382247812637
471,2.4981700080284703,2.941680436527047,7.1101816728241145,5.453937572251507
472,2.766008208347279,3.426684765100473,7.223423626389151,6.039225075460718
473,2.86635266923508,3.8584079673286076,7.312017379631566,6.575257332293065
474,3.045097805002303,4.217365649820865,7.441935277485498,7.1031147246528
475,3.269459795300965,4.50213362305857,7.60215043413416,7.625440275022586
476,3.436963872801362,4.729255289619269,7.756839355096131,8.125804904532465
477,3.458657847456733,4.906983365148856,7.875933753844408,8.554411510492514
478,3.26851065698127,5.048622282486202,7.938100583136907,8.865128915043794
479,3.03403316518685,5.202462708806374,7.981765918830684,9.083485622679376
480,2.9515514340957876,5.407324764311284,8.055641895052714,9.261002215625243
481,2.874786422535047,5.644893891664371,8.125866972035755,9.433252634515824
482,2.5893253038354183,5.867804118830486,8.14071640748529,9.619862593311145
483,2.144464535122837,6.015614601059088,8.111401669282582,9.777740114429397
484,1.6506537725066779,6.036832177066664,8.059618320967918,9.855666643682282
485,1.1392333791595433,5.9370553637149746,7.978099974056716,9.908682810642592
486,0.6230131261780885,5.749315066127609,7.854377027686064,10.005926020386923
487,0.030001025122147425,5.491329411434822,7.662187589674617,10.103719850399097
488,-0.7140741478589523,5.179866170248756,7.379145727219622,10.136233612508073
489,-1.4868305820121919,4.827218935015703,7.046667258650053,10.102341800116246
490,-2.1174510170716636,4.4487091746556935,6.7148337014983674,10.01994490994338
491,-2.604898945193315,4.0953592893891475,6.346119805584288,9.914826042255976
492,-2.984703496266181,3.8179930051700053,5.894530268403802,9.814914007434517
493,-3.174284500715977,3.6212797672682036,5.406658226251353,9.700441181605035
494,-3.1027484582424023,3.4867166869174184,4.94495701787183,9.54321544861589
495,-2.8333709830334595,3.387343086588246,4.521723557751346,9.375150069716831
496,-2.4627706638911753,3.2958599304753586,4.129295703308687,9.238648543906697
497,-2.034475240710801,3.213810595554795,3.72780853248025,9.132386532801494
498,-1.5726106722817559,3.1554629897393593,3.277347772065109,9.04359560591976
499,-1.0956013797571094,3.1142476293992263,2.8248887248167893,8.961299106731087
500,-0.6027895518527272,3.0816318440578203,2.4327940912314596,8.874311886654178
501,-0.07607741822885851,3.073455537377014,2.069556114028369,8.807896765494393
502,0.49258638671996713,3.103144127354326,1.6837023825363349,8.78586976854262
503,1.0782361478139055,3.149341060648963,1.2834827295800697,8.746378842718498
504,1.6369141466244987,3.1834080494483668,0.8870703931188528,8.62238313061234
505,2.1026627733904886,3.202987656061719,0.49525983241444366,8.460190642072781
506,2.4209158526398418,3.2121397470661512,0.10736568404884694,8.329237378884441
507,2.631657587312632,3.1997343630284028,-0.3031325245922628,8.217355812149979
508,2.801813873236754,3.1585237119333636,-0.7585682147653091,8.094945859722982
509,2.88336415920787,3.1005069961330807,-1.2030473396931032,7.963027860301952
510,2.8313023657796084,3.042820498058308,-1.5758068185588752,7.825726850731646
511,2.7880783766996386,2.999920085391685,-1.9118541019600095,7.696662050444589
512,-26.02181998543273,-2.061783378647345,-19.552790051561562,-21.769036884517448
513,-26.681374963812402,-1.9985197916564101,-20.153717623630644,-22.307109710871988
514,-27.269613578361326,-1.9529060600796446,-20.73069073571177,-22.81862030179373
515,-27.734139188702574,-1.916964456924102,-21.263829987415495,-23.28965145569257
516,-28.081488609232874,-1.8860049715081542,-21.745342447865937,-23.716128224609363
517,-28.542325834045872,-1.86900173456047,-22.212272323790668,-24.129177263245378
518,-29.33898284535645,-1.87622272598264,-22.702125216674133,-24.563826868497156
519,-30.373101503707304,-1.9052387237100756,-23.18457656014095,-25.04062030672675
520,-31.45263767758933,-1.9489165152150187,-23.615368164201257,-25.561141901364778
521,-32.4988009467794,-1.9951532650657537,-23.99546615619744,-26.07884428570792
522,-33.46111515396248,-2.0343150142627087,-24.32866574188498,-26.5457646245265
523,-34.306508809103114,-2.079428002474461,-24.593465799845767,-26.98277726431281
524,-35.042717423401875,-2.1350989908624625,-24.774924166114364,-27.42109788859566
525,-35.681521040485755,-2.20162127845978,-24.866157151905938,-27.837756290840904
526,-36.22359337660394,-2.2578716794773004,-24.87899919870239,-28.20473251089771
527,-36.68261882950914,-2.265773808232977,-24.891143800377968,-28.52613533820421
528,-37.04264543725081,-2.232590429481843,-24.971500802636044,-28.809042229546233
529,-37.173750036681895,-2.219500052548594,-25.07780228788052,-29.05445869822912
530,-36.9794766379656,-2.269095707514442,-25.150592860313203,-29.263019352293433
531,-36.55925598471693,-2.368792927434447,-25.206070505765396,-29.418988456267222
532,-36.063817103284165,-2.485591776352523,-25.274966157344604,-29.5129585074856
533,-35.605305498980094,-2.5872934240157957,-25.37627169251361,-29.58008154080762
534,-35.23906885546421,-2.6559650477989427,-25.51949341528392,-29.656919700277545
535,-34.83198813819554,-2.6753027575675503,-25.66053825788245,-29.735378139097435
536,-34.239711421806874,-2.6222397719958983,-25.752761646077147,-29.794246856632196
537,-33.58360650488237,-2.5120110040233565,-25.831489839087965,-29.819355843588962
538,-33.014031088641374,-2.376952959005574,-25.937805248779693,-29.79750396994384
539,-32.45639063657016,-2.28243104907154,-26.033313670591863,-29.73230981260809
540,-31.814299210125192,-2.2670203515785725,-26.072647619949503,-29.628288000800026
541,-31.103369183276673,-2.3154570859820716,-26.061318400714,-29.456760633771257
542,-30.36352547857634,-2.3572103294725415,-26.013910666219207,-29.19560619451566
543,-29.68737606443506,-2.3126729326753486,-25.94155528583362,-28.869062435591207
544,-29.143197847291713,-2.1569479670450575,-25.850544057035286,-28.512780460416998
545,-28.585186465272642,-1.900228916938052,-25.71018332079649,-28.15919332560766
546,-27.861730765642076,-1.5864001977764073,-25.490360865235278,-27.825233508002036
547,-27.08395225494616,-1.2430814835303128,-25.218511541269095,-27.46751280768379
548,-26.393552087677463,-0.907560387759373,-24.929865462354254,-27.039556359350975
549,-25.75515092805149,-0.6194660341069866,-24.61557574783452,-26.575845842892434
550,-25.103232162774624,-0.421329375489482,-24.261967162020106,-26.120421955085348
551,-24.384003126283304,-0.30069839330398695,-23.874709194893093,-25.650214617302886
552,-23.56618856089318,-0.19274936853834734,-23.461234604890524,-25.13546833834377
553,-22.794780076344345,-0.057021670525625553,-23.041129712357197,-24.58690188539107
554,-22.198105081540287,0.1151568556029632,-22.626819126591077,-24.019705208800364
555,-21.576906508874302,0.3178327808372165,-22.17217081611398,-23.436257540190645
556,-20.719735604683287,0.5290300642581547,-21.635763054389205,-22.83896949466717
557,-19.75581590937811,0.6992180917949768,-21.066983061524088,-22.22460674160131
558,-18.85954662775387,0.8088430136814965,-20.521704575487675,-21.58810659237079
559,-18.019547145676313,0.8558200019999724,-19.979176921858823,-20.943384654452807
560,-17.182474306123222,0.8507867558391043,-19.404085380164197,-20.29672701205216
561,-16.257641002471352,0.7935578186851917,-18.77904314811523,-19.611718328849438
562,-15.169847318818665,0.6859916227947706,-18.09717490528378,-18.85062200592336
563,-14.06411090821628,0.5429012423867207,-17.39979310447148,-18.009159974557022
564,-13.089768928410528,0.38020541966087146,-16.727171095267042,-17.10078670894117
565,-12.08212050575159,0.2118435644731584,-16.03004428287629,-16.161817796059875
566,-10.863346767137765,0.04569472969256463,-15.254577445065596,-15.226654481436382
567,-9.55708446431603,-0.12681600844367236,-14.44300865488469,-14.27559094126806
568,-8.319538591593833,-0.3127819362142023,-13.644241825546963,-13.279704013138653
569,-7.154348117385201,-0.5066001341704203,-12.83953734508526,-12.265568386678261
570,-6.020606943692054,-0.6904659731730316,-11.99690355397463,-11.255751696579825
571,-4.7887576786936386,-0.8189092160080707,-11.08688402983363,-10.208216051368659
572,-3.406972762322549,-0.8671314112200854,-10.170804799955766,-9.125926062296047
573,-2.2190130400965886,-0.8568311327459391,-9.380125968025743,-8.081434568817642
574,-1.561178560614449,-0.8584531856423959,-8.874488441261914,-7.177004865758616
575,-1.1684289878684724,-0.9435563629174613,-8.560595547175058,-6.474346360139215
576,-0.6474037652399525,-1.1103372390452995,-8.266543040752712,-5.969181309939149
577,-0.016608558198572487,-1.2768193918389394,-7.9862767149456655,-5.523656531313739
578,0.6049605383571274,-1.360097314781865,-7.751219692022224,-4.995842512549571
579,1.166536790618816,-1.365626941709113,-7.529009790028305,-4.414414009603145
580,1.7219487247487744,-1.3924377479961296,-7.119654831104238,-3.7575997943510253
581,2.2808471095220786,-1.4651034489323371,-6.6877411902609465,-3.1400653006209875
582,2.9962695797418646,-1.5517957995671416,-6.212222604617052,-2.5530832947488347
583,3.6948682057860567,-1.6346064313751547,-5.73617655403002,-1.9704486352275128
584,4.160225380168008,-1.7006163913156254,-5.30893236516407,-1.3643152076311449
585,4.489388829469944,-1.746689615468623,-4.896469114305221,-0.7606167516995175
586,4.84614473885489,-1.7796643272725485,-4.450244709454149,-0.20256513689942734
587,5.253737685495661,-1.805156643227786,-3.981897038150348,0.3104564963041551
588,5.690271931670927,-1.8281034234040547,-3.5198552415140028,0.7879579471059523
589,6.04632919410959,-1.8526491933023819,-3.094356266236852,1.1978320753108302
590,6.209647133282683,-1.880771206111166,-2.7294442930765914,1.5165812668920295
591,6.316662498008366,-1.9159611809497559,-2.3832522103288456,1.7915452857697942
592,6.543809990235015,-1.9601481644504173,-2.0059704708478994,2.055070887559213
593,6.783759803910306,-2.0067458425244133,-1.6484536260566316,2.3892282127039475
594,6.8793925494752495,-2.049239042640891,-1.3749966558930589,2.786988321698351
595,6.873714026620562,-2.094003169606245,-1.1499648946635033,3.1508468778311594
596,6.850910084757372,-2.152458656467097,-0.917771353432864,3.4732494573026487
597,6.865301787123562,-2.2265475519456657,-0.6721198880069412,3.7896177464913987
598,6.948924840815949,-2.322382461263238,-0.41931213407986,4.155940785359545
599,6.95858067067757,-2.4458576161592567,-0.18760178064012392,4.521421302795359
600,6.744430604509349,-2.607516325106052,-0.00030294521545362607,4.817394081883528
601,6.490223669569176,-2.7959001045188856,0.21061555431260232,5.069223110004638
602,6.425353561795256,-2.9702947892221143,0.5207390791456982,5.326066263273252
603,6.430544055054575,-3.1097591441719645,0.8877000314306769,5.613437846039612
604,6.318706845776576,-3.202777380323523,1.2369630240622946,5.940293995855528
605,6.102064679562816,-3.252511536995396,1.5514715818573395,6.259534276361353
606,5.847367848196916,-3.2767643498689094,1.8300093179299677,6.510845752158497
607,5.65784948755205,-3.3049236090511793,2.077961209706658,6.698778373921032
608,5.624546192796402,-3.362591855125099,2.307153740948713,6.85114937460517
609,5.606393611811231,-3.447530241354386,2.4926897658790654,6.975569180984785
610,5.421804686441774,-3.544905341316784,2.607510013474398,7.0768122287771345
611,5.172947291955957,-3.651512849786492,2.6862893630860096,7.1496412825313485
612,5.015958269512426,-3.7628187636586397,2.774535091276682,7.1857173103936205
613,4.889389955895466,-3.8627566345100055,2.8668230402799426,7.2090373953506
614,4.697976331904716,-3.9344098058263994,2.9457388042832147,7.246147777908365
615,4.441079349458374,-3.9641507034858834,3.01374035532316,7.275906023713528
616,4.144620754532381,-3.9470842750633683,3.076267497621788,7.271768833323036
617,3.91730063949815,-3.892358320712546,3.1450430057962477,7.251017022166785
618,3.8573539028877946,-3.82461109655596,3.2315728599033156,7.24011975855714
619,3.8116706781541123,-3.758260998736013,3.3170883911777094,7.252511985100606
620,3.591445256348037,-3.7115577812839615,3.377990791491903,7.29137310353256
621,3.298815897255728,-3.6795179780221683,3.4326219042570987,7.323920342416909
622,3.0922084451566456,-3.619596048707178,3.50337570081978,7.314111045597353
623,2.9334095224085557,-3.4921445753040574,3.565118684730062,7.283961878233532
624,2.744635694705562,-3.296504361892858,3.588500713276749,7.268972701446208
625,2.4767941090759678,-3.064522860427536,3.581804794412179,7.262513570552402
626,2.101233415498482,-2.849397337584989,3.5654445348925683,7.246914968783371
627,1.7628121986001928,-2.6908552671880503,3.5678072969977426,7.214954105903483
628,1.6125848980266642,-2.6091360940014194,3.6117304616055956,7.16148711703344
629,1.4653625233924767,-2.593640251553567,3.6640068993253303,7.092257455186928
630,1.0888672217860655,-2.615308290733655,3.6840352996224794,7.016920712298133
631,0.615391850773461,-2.6494485742676273,3.7063418969908897,6.930052742322538
632,0.23907202216307818,-2.678165748430681,3.7769869480286316,6.820478786745873
633,-0.09459390676052484,-2.694649728625624,3.8805993464321107,6.687808548488854
634,-0.48710739287124516,-2.7012843818079197,3.9863976483094676,6.532457394618925
635,-1.0031218878442036,-2.7044386237899984,4.073383446250336,6.338167799327157
636,-1.6533683665283376,-2.708138992174441,4.130144580370764,6.0967907558199474
637,-2.2052688638214617,-2.702302916019438,4.1923414609544105,5.837415488030709
638,-2.394974542512354,-2.6737718082748474,4.302464922146401,5.598648267216849
639,-2.264939900175087,-2.6211425656517653,4.436235417162883,5.409788745217335
640,-23.36651968518682,-2.7964595800097727,-16.25493019290544,-16.03730314115393
641,-24.346164846692112,-2.9623583023777034,-16.72181034440913,-16.572943600932955
642,-25.244382791636856,-3.0834601941586026,-17.18815907705535,-17.150078954111358
643,-26.06188954224274,-3.1277622518796537,-17.64819486287435,-17.69864869950694
644,-26.801959141775402,-3.0726521184697386,-18.103881008114325,-18.149101832556983
645,-27.47743344644431,-2.9267261152876576,-18.555780591701666,-18.539248692209892
646,-28.094198540015466,-2.7127206094227834,-19.00290606053392,-18.921489813540003
647,-28.637357523688255,-2.453484991923566,-19.407848796610505,-19.28734230726346
648,-29.078814646270438,-2.172497924822833,-19.737125777556077,-19.612188172552873
649,-29.398578851890104,-1.8929931746535174,-20.023992485749964,-19.857282791943238
650,-29.5693169772704,-1.6281454357081124,-20.307367133086323,-19.992816162485187
651,-29.52622505477027,-1.370350288872062,-20.568677453625114,-20.06433758923847
652,-29.238215993522967,-1.1096532677782627,-20.782068510898576,-20.128780165280624
653,-28.759207408952314,-0.8527541841240031,-20.944842198899252,-20.168277344225487
654,-28.185006052281466,-0.6138120752418834,-21.06610990640298,-20.159205404630747
655,-27.68240195116877,-0.40986337125173344,-21.185633972788676,-20.134708821219633
656,-27.366943210734355,-0.25541325971314355,-21.341738577173714,-20.13432661495532
657,-27.07710286107317,-0.1508765709140385,-21.513958481667903,-20.178920117199077
658,-26.63293407527734,-0.0882439342494432,-21.6711798898506,-20.279725676541517
659,-26.157422980009613,-0.05781120783597469,-21.829529307418074,-20.416079673716315
660,-25.810022661040314,-0.04776343545472732,-22.004619299893324,-20.563467396715875
661,-25.56670080568489,-0.04827595438461876,-22.17326226080914,-20.750705821838196
662,-25.362587910972227,-0.04942827159269832,-22.307425476994002,-21.00486227547958
663,-25.09233773492943,-0.0370963307844726,-22.386782041372065,-21.27861052703164
664,-24.683206602853076,0.0005917168064225042,-22.40164685296613,-21.52174747987514
665,-24.330158213953304,0.06859605363823663,-22.379744044373233,-21.753250028688438
666,-24.227041980598774,0.16260771193995902,-22.35174096709232,-21.999881261721633
667,-24.195908384696367,0.26815951382108705,-22.29947445240913,-22.25283196388204
668,-24.018290012153525,0.36405589816852524,-22.198860651578418,-22.493895075049817
669,-23.762205892363024,0.4247270104855177,-22.066303077857924,-22.692298812177857
670,-23.538497593583603,0.4360666457424026,-21.923023437810944,-22.823853916279024
671,-23.360122788333367,0.40457629447283416,-21.76838503656364,-22.9145055098225
672,-23.21479248712646,0.35659150062807965,-21.602664678611855,-22.999586259825836
673,-22.991382330942848,0.34831029410252917,-21.430034524312582,-23.074581032889988
674,-22.591462403346625,0.42565328542717434,-21.256793129935332,-23.12687411712188
675,-22.16048500261682,0.5776516595907781,-21.11810414044705,-23.15855723239828
676,-21.855222488201402,0.7661753624498395,-21.034586549588397,-23.169561938215
677,-21.565585427424264,0.9538654339382171,-20.94338646924282,-23.161061051548284
678,-21.146352357156267,1.1107036465101487,-20.778352616171503,-23.130553752387186
679,-20.608030765657723,1.223640172833401,-20.556006725898314,-23.042588040710495
680,-19.99075563374362,1.3046621154528544,-20.312439875960834,-22.867226745834696
681,-19.349570031534043,1.4063799044921277,-20.064700209767913,-22.64145769530347
682,-18.729157784949425,1.5767083855705344,-19.819471073436905,-22.402321374690295
683,-17.99873401426059,1.800590613398102,-19.53711216230225,-22.111117170956756
684,-17.048609109873166,2.043697457818531,-19.17905715894402,-21.72218551793729
685,-16.095344832978796,2.2943612800679114,-18.79267526407137,-21.236468593313422
686,-15.365265822355433,2.5450071811068367,-18.430323292463395,-20.67352661718725
687,-14.750716320126735,2.7918653929957338,-18.056434200181986,-20.07622264616427
688,-14.092197506747791,3.031478710140435,-17.623251405965863,-19.486523376342685
689,-13.381723327212702,3.2426136870081983,-17.133000412489082,-18.885508723365398
690,-12.649309135361444,3.4011986009414494,-16.594862229206008,-18.244712406216518
691,-12.009766873167127,3.4975567779177896,-16.013139256544658,-17.6019007376983
692,-11.551716657064654,3.5291960824349777,-15.390557093338677,-16.990506069946264
693,-11.06402183455231,3.5003070367920754,-14.695766071276953,-16.366171219590235
694,-10.329223595776522,3.4217572381675994,-13.90447348854018,-15.681144924126937
695,-9.503842588712507,3.298261281618637,-13.067090285395707,-14.94009999792623
696,-8.786874484823468,3.141872242381623,-12.239648121398961,-14.168200839522175
697,-8.113324254277476,2.9919551807685965,-11.404698421786762,-13.410900127712353
698,-7.378588129344292,2.8815698235200333,-10.534109125948667,-12.707968600102197
699,-6.53772326776763,2.813578465880119,-9.641600983973706,-12.03751467489531
700,-5.678738955510402,2.7607844814477756,-8.827269447510869,-11.3988257859582
701,-5.058565097814942,2.6300039226529845,-8.165447663442501,-10.872238117487854
702,-4.940912425000291,2.3444928855553067,-7.751442309400935,-10.540053579495977
703,-4.932921071711195,1.9446433092876456,-7.458854500793697,-10.37023299716292
704,-4.553399086461871,1.5169337537133976,-7.106192240308821,-10.271279905203075
705,-4.024440812473167,1.1111938973593007,-6.73473514271667,-10.131750979263648
706,-3.7024276740920437,0.7553140039796199,-6.435731790803509,-9.874897298816846
707,-3.5537586989564365,0.4449074499863276,-6.17157119547246,-9.561965461723307
708,-3.4575384118559933,0.2885382216121344,-5.958238016712898,-9.261452303295899
709,-3.351417614267351,0.14695064448754938,-5.723076103236076,-8.98359551150933
710,-3.1277410591262345,0.026470300232367044,-5.467096959841017,-8.68090641541876
711,-2.903954856398186,-0.10495315273996687,-5.224159771554139,-8.348770893460593
712,-2.826411663382213,-0.28122981126299196,-5.030189942409559,-7.99272440531724
713,-2.746320988345247,-0.49352597409284893,-4.853300978789625,-7.622780364771059
714,-2.480583533968532,-0.7189294267522933,-4.653070547309203,-7.252112432342981
715,-2.1046735102811165,-0.9450046453612488,-4.463625230409732,-6.856040177257953
716,-1.7599519956028091,-1.1609766206610401,-4.331429875413183,-6.412068241219027
717,-1.540107821728326,-1.3663972624162946,-4.256872228940927,-5.97340443520099
718,-1.4969381514195577,-1.5635406811245607,-4.223215929735586,-5.602168773022922
719,-1.4866277694682457,-1.7281692974914815,-4.194579330185655,-5.289559043193766
720,-1.3309155643822301,-1.8369038648475797,-4.135783407234541,-5.002564136950301
721,-1.1399947221828413,-1.9107628967815404,-4.074925663119459,-4.715371707984357
722,-1.0783030623480458,-1.9785501206576923,-4.052017759649935,-4.407543099703333
723,-1.0447953111477075,-2.037432904711491,-4.0368705737250234,-4.098481814017624
724,-0.9030351932582973,-2.077881262030825,-3.9872527113647185,-3.818173927431408
725,-0.6977278923533042,-2.0908162747766217,-3.911418051043443,-3.546023018155748
726,-0.5127768298632474,-2.0780391102144105,-3.829237290669972,-3.2546817398133467
727,-0.42428932542615294,-2.0898249278406955,-3.752555876522791,-2.9628091536723624
728,-0.4873576297448058,-2.1797270770856505,-3.6889484446039695,-2.698833356020715
729,-0.5759393831416987,-2.345768941432742,-3.6142253595337945,-2.4785679976676263
730,-0.5459223209015429,-2.555857377522007,-3.500297088548797,-2.3100227734667826
731,-0.5412868412869078,-2.7645269376700425,-3.3727332992292967,-2.166487701487924
732,-0.7477380268363463,-2.9298420171758477,-3.267315942609775,-2.0162456152462407
733,-1.07421377875065,-3.0456796255478755,-3.168248968159812,-1.8922645616863287
734,-1.3707630388243643,-3.1345556743725527,-3.0525309030595977,-1.8316857463022362
735,-1.6139659226769059,-3.241518418955771,-2.936693716969627,-1.784650316794703
736,-1.8161265378125477,-3.4073212249820077,-2.8411871059170735,-1.6887785999566312
737,-2.0600752838563756,-3.63012128897361,-2.7701703957151333,-1.552286336144595
738,-2.4319761202539523,-3.8817521384478444,-2.7193089929225636,-1.4041672412642532
739,-2.78654668104823,-4.116127492147695,-2.6514072927073498,-1.2617885535989486
740,-2.9599471046943724,-4.294894050704947,-2.5318757099361724,-1.1406423664751333
741,-3.1208292801367943,-4.442186475041998,-2.404380606477866,-1.0272290367384682
742,-3.4864116196632264,-4.601172419376092,-2.3236723298864157,-0.9029148937991963
743,-3.9887814746546955,-4.772706417754058,-2.2602442556906697,-0.8057071130545027
744,-4.490244438033513,-4.942872455515681,-2.1674809596403084,-0.7771911233897897
745,-4.930178889705523,-5.098244161272127,-2.045796736481841,-0.7827048150879011
746,-5.277343273280581,-5.224154089034978,-1.9085659161572825,-0.772649259776468
747,-5.646674803480276,-5.331322345661673,-1.7842758201638615,-0.7544289039971249
748,-6.1613684395708095,-5.433871282652524,-1.6980659570538588,-0.7424003864362553
749,-6.639961511720678,-5.506041411785342,-1.6020646858156486,-0.723071311028929
750,-6.86420318824178,-5.518858378635682,-1.4424566011279976,-0.6769632926979967
751,-6.9354785863054325,-5.479280165647992,-1.2659448716903348,-0.559054896715307
752,-7.034150438100346,-5.408620082351946,-1.1417533115474652,-0.33856161534560103
753,-7.21683920399777,-5.334726797764562,-1.0739947111179815,-0.09006569270342694
754,-7.477866347998972,-5.27808270069306,-1.0485392088049685,0.0949160931144365
755,-7.691678427698814,-5.221328281380163,-1.05655161577544,0.2339766545054056
756,-7.700518353979115,-5.12940943429464,-1.0845497319728465,0.37687792106635387
757,-7.5023667432421215,-4.973433384450406,-1.1474173942442005,0.5267815746875772
758,-7.167008541703802,-4.735797371347276,-1.2573797926589718,0.6819444524190839
759,-6.73783347564653,-4.429348458937317,-1.3519281462131727,0.843943783024332
760,-6.257369555244687,-4.084218457482934,-1.362921941556491,1.0113470631021517
761,-5.7487138492894685,-3.716969808914091,-1.3119536502260438,1.2206447490990748
762,-5.210477455067321,-3.3450278431081983,-1.2448561342750835,1.5025746096604113
763,-4.644461913168879,-3.0071693513369357,-1.1648018989889017,1.7926087359167595
764,-4.049895583836709,-2.7381734206663033,-1.0673109044981897,2.0150610435563236
765,-3.4153649502399808,-2.54392568254826,-0.9488558296417781,2.1983098645576944
766,-2.7350157431676805,-2.4147255489772594,-0.8072343588792874,2.392353771776228
767,-2.0246697382828303,-2.337929791723613,-0.6797250766985499,2.589928731969022
768,-13.927670464829664,1.6856398957071803,-21.573497736365223,-18.470968516107277
769,-14.378890934520435,1.886676830483276,-21.86577261214163,-18.751782426172973
770,-14.71914081200424,2.0386392960036432,-21.897684782204102,-19.01686178618427
771,-15.042565723909169,2.170053153913825,-21.76729769439578,-19.281195471790888
772,-15.467443915774346,2.307924165341743,-21.60577539080349,-19.557687236724917
773,-16.033396967096646,2.42474199638613,-21.452082020644315,-19.895710550143562
774,-16.733808220111193,2.4904552820541377,-21.307465983555037,-20.319174954643945
775,-17.427069235217335,2.51186901911011,-21.141771142815443,-20.761207943149092
776,-17.980337185886555,2.50597890194951,-20.919486455742074,-21.142464360778813
777,-18.496941198955874,2.4902506901324037,-20.676693110266747,-21.433612508385316
778,-19.128252448373487,2.478953935369403,-20.46741953258923,-21.63987281115512
779,-19.868606381686647,2.4652363862443885,-20.290401509411097,-21.82159761288605
780,-20.68146747501586,2.4329406855538775,-20.13961626429854,-22.044533032814748
781,-21.59334581682486,2.3765468483016283,-20.044579436614807,-22.29376673945885
782,-22.6075892564081,2.2934302440565095,-20.02655786788831,-22.533676257843165
783,-23.65801810655946,2.1722792364916494,-20.080088751801462,-22.780157121306747
784,-24.673924818133575,2.012831770757112,-20.18092327023646,-23.047953477719073
785,-25.622619250234845,1.8461337327980634,-20.266566874236393,-23.308067354665273
786,-26.488534090729704,1.7067766858900917,-20.280869908636614,-23.533689698750376
787,-27.26779957421816,1.6080340169950196,-20.24100577410011,-23.728648435303384
788,-27.968490218403623,1.5483728139516848,-20.183897580313616,-23.90504994964209
789,-28.591194620753416,1.5129664378963725,-20.10445396320316,-24.080072031380368
790,-29.136485153392655,1.480405215430006,-19.997769493375106,-24.26246275605912
791,-29.620846009927362,1.4317578394425226,-19.888629297409828,-24.42502209626467
792,-30.042105244086365,1.359008991050666,-19.79963152201006,-24.533780733282846
793,-30.375427252563064,1.278824703452204,-19.743390732702508,-24.57621503741098
794,-30.577766339674998,1.2144950627076119,-19.71903226932419,-24.55460386857502
795,-30.515944586461984,1.1698252369647117,-19.683873895804812,-24.4954317612528
796,-30.11716236696418,1.1452700389691506,-19.596497656788852,-24.428303878435752
797,-29.59931009709043,1.155973733722385,-19.480136796407567,-24.34234969358462
798,-29.195965621851723,1.2140608559614743,-19.368718621679697,-24.21985217697953
799,-28.872671165945526,1.3120709617284403,-19.245955007260438,-24.088177123383574
800,-28.517163107989088,1.4385211517895127,-19.093537819069347,-23.966545226171867
801,-28.02547656503611,1.5944307778753377,-18.927275974762633,-23.80573323620563
802,-27.334557553088395,1.7774545279184126,-18.764052628856078,-23.55446443905854
803,-26.62337990880419,1.9660572787200774,-18.61598832872538,-23.22101304973404
804,-26.08481377663543,2.1375293072266657,-18.4836171266493,-22.831715329811047
805,-25.566717574967257,2.283598502651352,-18.316159541864565,-22.406445617508677
806,-24.892244103789597,2.4011548315665228,-18.069100973276957,-21.966595212393635
807,-24.207705476148252,2.4872310677632905,-17.78674064013646,-21.517478740650006
808,-23.685729840224646,2.540533702788335,-17.525013379331515,-21.061954499293332
809,-23.29941361322057,2.560830474267678,-17.272529426927363,-20.631934482724933
810,-22.97688157878825,2.5491061179758763,-17.006453895546894,-20.251565763209925
811,-22.628356033013368,2.502298408157648,-16.721916518682445,-19.902165851055944
812,-22.177614518564784,2.425232763274781,-16.420254019569686,-19.55105720546878
813,-21.73133575931449,2.346202338320038,-16.136480969016976,-19.161975599120158
814,-21.40383641029243,2.2900766501525305,-15.898876216012914,-18.71085805723229
815,-21.0431044150291,2.2610275729668166,-15.659170917893526,-18.227823054687203
816,-20.493391923913602,2.239885201749331,-15.359940727863668,-17.749788337702956
817,-19.87946930137093,2.1676526510852128,-15.011486801610566,-17.25552483888922
818,-19.35403528773531,1.9903626924963942,-14.636231497307046,-16.71617874375881
819,-18.910198547894872,1.7057782383468374,-14.224497726552379,-16.144066063725088
820,-18.4994446215166,1.346688954760476,-13.769487473098721,-15.558192379953235
821,-18.011488219785,0.9775493438871998,-13.272185270138788,-14.959931980129745
822,-17.360040296271958,0.660429332473191,-12.738459980304928,-14.350165097701185
823,-16.730499451318213,0.4054350636730222,-12.216952572296542,-13.739963611672128
824,-16.300978328561897,0.1938702857659047,-11.740277436071803,-13.13061171636519
825,-15.860820277770262,0.0024634539812861747,-11.230779947197645,-12.500240342812722
826,-15.175360034586298,-0.1919701485397582,-10.608951581013075,-11.82334857529258
827,-14.33058812964844,-0.39965607500895034,-9.910063469225333,-11.075521684721135
828,-13.479735711327702,-0.6089732287064596,-9.280446987043202,-10.312930271562188
829,-12.7379193593776,-0.815971467387742,-8.815999448324598,-9.646598413886663
830,-12.172684544591496,-1.0053127807724285,-8.627397311797075,-9.205024582612857
831,-11.61705973169637,-1.1617879276288317,-8.622285121508375,-8.917763737568473
832,-10.887762287898834,-1.2738664680241687,-8.637769417849388,-8.642405929869964
833,-10.11942062702543,-1.3428050692841513,-8.671305741121733,-8.326478939279626
834,-9.479395063194728,-1.3810341483922906,-8.758335738679333,-7.956017633164347
835,-8.892850095156957,-1.4137085378394365,-8.845527396642186,-7.5403048500397425
836,-7.946223569746972,-1.4721310726443062,-8.623385092910073,-6.9078218350742215
837,-6.97193708557403,-1.5734822246838878,-8.396354464263087,-6.329723260153452
838,-5.971879929561862,-1.721171632557408,-8.185796321949457,-5.826215705119121
839,-4.939083350335988,-1.90038544705405,-7.98469282035859,-5.385822216233534
840,-3.887440909727504,-2.085472684643418,-7.776374404226122,-4.9823313916688425
841,-2.8617084000366537,-2.25122524637873,-7.531516863886365,-4.616411923872146
842,-1.9338623080247277,-2.381016986829668,-7.227443059679948,-4.295302035849098
843,-1.2581732643782746,-2.487138062834856,-6.907718990319323,-4.002398414028153
844,-0.9460569400329799,-2.587857623982376,-6.6223215754306635,-3.7187348390713755
845,-0.8765598435514439,-2.665132880966018,-6.330515576065405,-3.449662273244235
846,-0.8607195940386562,-2.6966131169506014,-5.979145411466562,-3.203349175807415
847,-0.8002124724953366,-2.6963512896844346,-5.586965371988497,-2.954813558362247
848,-0.665406970532649,-2.6883153043819354,-5.196919856074329,-2.684172945788427
849,-0.5964871838694209,-2.683354010480406,-4.862626180796044,-2.433324075718869
850,-0.7509304571531679,-2.6892353240743536,-4.628246592112304,-2.2507032611770756
851,-0.9840301107692561,-2.711411843286107,-4.449774833140516,-2.128044079429343
852,-1.0903806509523952,-2.7508337325910643,-4.264916592399936,-2.0374135805950417
853,-1.1327683220670084,-2.8095404896957015,-4.113051003418185,-1.9522091519118967
854,-1.2281962231313637,-2.8885589151675415,-4.050495580440385,-1.8502026752180787
855,-1.3741034203899596,-2.983079271394297,-4.050942538609396,-1.7562002379784574
856,-1.5381118918501697,-3.0872199418893116,-4.072760416504667,-1.7031821848119333
857,-1.610194443185063,-3.1968235975856256,-4.104283915151583,-1.6494661469779746
858,-1.4903347926009458,-3.3067148465805007,-4.144255539781215,-1.5473960658468824
859,-1.3480777320225878,-3.416602505197635,-4.22694567075953,-1.439578613406656
860,-1.3850580739868679,-3.5202040377370496,-4.386110248473554,-1.381420403029761
861,-1.4630960958253694,-3.5834156563132393,-4.571704388168255,-1.3640547271223473
862,-1.3807208289143134,-3.5727364074738714,-4.717248164983007,-1.3577159006469433
863,-1.1870408880232226,-3.487614424495448,-4.837065232920639,-1.3252535910911027
864,-0.9859890444906065,-3.3482482175593073,-4.962884672393561,-1.2358756139286426
865,-0.8177753459417711,-3.1910045121456876,-5.079125087449467,-1.121388986963613
866,-0.7035934491522957,-3.054437960778074,-5.166211715379622,-1.0276119315298713
867,-0.5333456715735232,-2.9502719713246477,-5.218733079164335,-0.9408188874832806
868,-0.19223179663996431,-2.873076924723022,-5.23800939686726,-0.8283170568317821
869,0.14080465970971975,-2.8177139700219596,-5.265652726625657,-0.6725562407310652
870,0.254259842487235,-2.772475789855623,-5.3400648087227065,-0.4630755186459641
871,0.28187374204638826,-2.715614294978395,-5.409450657608336,-0.21467691708411304
872,0.4191757310028275,-2.6268449425101172,-5.408154042457865,0.04505497854126672
873,0.6367521918027208,-2.4954046967110264,-5.355565179388534,0.31778604048232245
874,0.8442462366956713,-2.317463442087164,-5.289456750730831,0.6073371827283374
875,0.9316122212640848,-2.099743930815161,-5.21876995865043,0.866480449275323
876,0.8126828187634398,-1.8529938629808287,-5.132017472825363,1.0525636822851097
877,0.6634154367499933,-1.5726147631930918,-4.9560179376077365,1.2054977889071419
878,0.6988993619557494,-1.260291443152875,-4.615057993717162,1.3803652972731222
879,0.7736275962545291,-0.9523517240311913,-4.1340277069877605,1.570563636305962
880,0.6800985542667144,-0.6954572679879832,-3.575630413266091,1.7520606252707311
881,0.530473741577586,-0.5264630979869831,-2.966020819293454,1.912622130422389
882,0.4848332454015548,-0.4640608139036377,-2.3202879529385103,2.0457100838278555
883,0.5143589149247767,-0.4932164806129668,-1.6534539698634854,2.170670487739693
884,0.5398283187235094,-0.5780886324538819,-0.9660913745209809,2.3119217875480675
885,0.44505576364137034,-0.670824898933962,-0.24626460333930317,2.4675358621434973
886,0.12878767801850455,-0.733745005344037,0.5070331201162593,2.618364489868217
887,-0.2816528546439194,-0.7874542958416914,1.2820295904437577,2.7251796919540654
888,-0.6144875660438822,-0.8685469334623005,2.0423536852007653,2.7519722758452
889,-0.9651977336107493,-0.9557078003559479,2.671158747345557,2.711833062793435
890,-1.46997618314041,-1.0178784781504855,3.0680160837775117,2.641981619815025
891,-2.047182796319647,-1.079928061216017,3.2976026786830523,2.556800569641759
892,-2.573546725866999,-1.169684057626524,3.474764469842068,2.4710183194271025
893,-2.9901811604601853,-1.2604538759948523,3.6355862247589874,2.4414612113402296
894,-3.279807952054615,-1.3180390237350053,3.781755829092558,2.50655489091598
895,-3.5708956621415338,-1.342689612414306,3.881155487452425,2.6114951294986133
896,-11.768427785906116,-2.1809781191852062,-14.915910878558961,-16.015820385194807
897,-12.454452769096228,-2.425229048332069,-15.507346753683763,-16.63616574467403
898,-12.93172155823109,-2.657935764990624,-16.06026290723679,-17.283179280770245
899,-13.352451596856964,-2.8750486727537305,-16.61160447541817,-17.93451651088092
900,-13.897512515512972,-3.067206031260965,-17.197462211773356,-18.560861283087203
901,-14.491512095319115,-3.195366355164033,-17.773808546937616,-19.159463986559416
902,-15.014651320677611,-3.227304944397078,-18.29255762673606,-19.728468252864666
903,-15.384022612898788,-3.162422155694788,-18.759013524831886,-20.208551146017225
904,-15.558548895054194,-3.022546706966225,-19.194681789503587,-20.556368977404492
905,-15.716139780432956,-2.8642865050509747,-19.64345816432166,-20.824772560924146
906,-16.030281442847926,-2.7364948134758498,-20.135166501532307,-21.08286807317835
907,-16.31533178618351,-2.622342776836167,-20.601201826766452,-21.36215232132331
908,-16.36103329118897,-2.486452579763175,-20.968984280774603,-21.663782566804144
909,-16.293801540606065,-2.3140044869329666,-21.280627561963602,-21.916203353613245
910,-16.288495104844603,-2.1071967374970932,-21.59840096866336,-22.04918439497985
911,-16.363528506232182,-1.9068273090184404,-21.91978215011497,-22.109518756521656
912,-16.50011273229811,-1.7588320274712292,-22.22908176582352,-22.16725102398579
913,-16.6140487470656,-1.6617112181341687,-22.51803007081242,-22.217069074067364
914,-16.63111072824903,-1.5953987228295319,-22.77090036438447,-22.241669319702176
915,-16.705152516429237,-1.5554412019973824,-22.98719234358823,-22.24852955812197
916,-16.992462976295368,-1.5317720008832845,-23.16574898805791,-22.246512940011296
917,-17.345436312304262,-1.4905419692164332,-23.255382963316684,-22.252260621630413
918,-17.589169909393767,-1.4110932815441113,-23.221715932798215,-22.28401564915537
919,-17.795297257996562,-1.3145978777277105,-23.133176219707703,-22.33717773194239
920,-18.06639980647343,-1.2389887239597988,-23.06919325582544,-22.40116752204682
921,-18.403102635546833,-1.2266975473055561,-23.033054929704974,-22.48521595645531
922,-18.787047255951386,-1.3050089920697705,-23.00307982007371,-22.592769057515227
923,-19.132723310529094,-1.4534574891188214,-22.950980250841102,-22.69459089937249
924,-19.385180058467412,-1.631559245281285,-22.84912954829227,-22.758897846232276
925,-19.729534002376308,-1.8098689758233293,-22.725567327952795,-22.77743079523975
926,-20.352887117660014,-1.9680140880515793,-22.61128774253655,-22.751829143853016
927,-21.168983661903415,-2.1025133142573473,-22.45197165694469,-22.688746816933183
928,-22.019081015046577,-2.221871796378088,-22.1970932380118,-22.599783195919446
929,-22.835312786884582,-2.332027172826204,-21.896765621152557,-22.488479175940476
930,-23.57097288447885,-2.4396785336564197,-21.61503922609402,-22.358786887986327
931,-24.199539978935412,-2.553160435710234,-21.362182172050794,-22.23273414237778
932,-24.7296095491851,-2.676376104889666,-21.13198898801068,-22.125945523054206
933,-25.167958096141383,-2.8128890160249393,-20.900024024291454,-22.023217571425576
934,-25.513438003562158,-2.9571250653990417,-20.640906211985737,-21.9002159019929
935,-25.78605762004631,-3.0755555438254962,-20.38860245978385,-21.737439037976905
936,-25.9787517491163,-3.1366234166033053,-20.17623139420908,-21.523383193252734
937,-25.977192059991488,-3.15070052957553,-19.95274114934768,-21.27295997955733
938,-25.695346750901162,-3.1412993756188663,-19.66477546847491,-21.010063718569693
939,-25.204505814516818,-3.1052056568003463,-19.33095789001945,-20.728987541861617
940,-24.63111936829958,-3.046240758112187,-18.990262686809462,-20.427553904422037
941,-24.13233259996197,-3.014459834259,-18.679502849312144,-20.156218310854047
942,-23.80405316082768,-3.0489205652438023,-18.425029378746284,-19.952622770038605
943,-23.46918553602621,-3.126402975635927,-18.198190345439368,-19.774782233066716
944,-22.92297852879726,-3.200087197181612,-17.95361604949725,-19.558517813697538
945,-22.26120277288872,-3.222875795451722,-17.698345657725902,-19.262221700462522
946,-21.622881619838317,-3.1589590068168087,-17.43625906010292,-18.857961407403888
947,-20.950522966515837,-3.0138103074502265,-17.0985647238994,-18.346723902534826
948,-20.17129510223426,-2.8145877986415204,-16.626755095987594,-17.747138381247225
949,-19.271493909198632,-2.5799379207175526,-16.04926753665041,-17.05990937716676
950,-18.264604393195487,-2.3261155170103995,-15.416863311295772,-16.291394891050167
951,-17.296527899842104,-2.073002427756105,-14.763784125740766,-15.486439364335753
952,-16.488682738611207,-1.8277692305562727,-14.10951139286763,-14.682152017286473
953,-15.672247797164937,-1.5701844655518509,-13.420745840520834,-13.86959785767417
954,-14.657509574957542,-1.27883611282835,-12.657395536688172,-13.02313557696769
955,-13.537411902369842,-0.9546160011263574,-11.85176366280552,-12.106680752567994
956,-12.529928227858738,-0.611183433895772,-11.07707631990591,-11.151655876678227
957,-11.68277228871313,-0.2712219012356737,-10.33047471607999,-10.257950694285556
958,-11.064037906635143,0.03672120612048352,-9.626187924806727,-9.554824824694226
959,-10.57551675928524,0.27506486172542977,-8.978712282920604,-8.990249965811257
960,-10.091624328952758,0.4147546118157503,-8.392257937532932,-8.465556254283943
961,-9.81359451772341,0.46614317004248856,-7.905464965073994,-8.011564277787667
962,-9.935538705000978,0.4598549003085145,-7.541375920174425,-7.672314853085941
963,-10.210265033638345,0.42819226389571985,-7.225247127269029,-7.427906502845061
964,-10.182389198267135,0.3807321263572765,-6.769908188280038,-7.192467788100199
965,-10.041504951386287,0.35429006878941327,-6.296665423923912,-6.969057056230629
966,-9.888279214654364,0.35144496058761177,-5.839778730683105,-6.694334183247124
967,-9.77676096405303,0.38702783917595623,-5.405850257479661,-6.3836470729289925
968,-9.730660538531602,0.47212448065655305,-4.9930198362334846,-6.071002168674962
969,-9.615023234163205,0.6072879505665445,-4.5830699852642764,-5.738543269871431
970,-9.285718318045825,0.7820367583398606,-4.1601481686856046,-5.364559923234724
971,-8.902807764871968,0.9572317650498744,-3.7670410828809424,-4.957686505732853
972,-8.673914675389943,1.093144437736692,-3.4526241767088703,-4.5335051940791224
973,-8.499500977349411,1.1932235888611367,-3.192632766894608,-4.120724809241188
974,-8.222111138311611,1.2770793379330945,-2.942854708070539,-3.7415668142723018
975,-7.861887470057783,1.3501028190820694,-2.697791071994114,-3.358109297025712
976,-7.483616895740224,1.4158428057034549,-2.4582736199840065,-2.924658334967356
977,-7.181611158642523,1.475373656535119,-2.216032341421065,-2.4612556187828734
978,-7.038361462782214,1.5296310316966308,-1.9664579794765007,-2.006564201231144
979,-6.914287603612571,1.598471423544508,-1.6900407183264996,-1.5809140929881278
980,-6.644845767721931,1.7035536247314564,-1.3751510194534706,-1.1949626534431177
981,-6.374223835725977,1.8390581510199848,-1.0761656220264408,-0.8175592313956417
982,-6.290980233459772,1.9923184133156115,-0.8510306877426479,-0.41517920569204636
983,-6.330877386392561,2.1693060272877687,-0.6704790820889113,-0.03945212629878822
984,-6.347989343386476,2.3742607306322063,-0.4841018791237313,0.24646724500732006
985,-6.213442105286988,2.596238632077306,-0.2892678310734257,0.47306804083647797
986,-5.826141894898387,2.8158514335570253,-0.09673281196291852,0.6927424163398445
987,-5.234395689727053,2.997374814360612,0.0719344514571882,0.9005211860077247
988,-4.555507625674215,3.1109925565035237,0.19660113046452518,1.0826039318421732
989,-3.8297586265396073,3.167737401605282,0.3211517684307148,1.2518928138243424
990,-3.0669840569041558,3.1970048628799344,0.4940908422430569,1.4171085643524985
991,-2.292922653142139,3.221780792209152,0.66623088291651,1.5786756281952807
992,-1.5139908420270902,3.2574466831530393,0.7722846236929979,1.7293070954876857
993,-0.700174068313212,3.3032794698121912,0.8285954665430282,1.8128328076553295
994,0.15620744388741475,3.3456436444240643,0.8708758979499668,1.777720457489832
995,1.0119922369187657,3.363688739894578,0.9113088576878384,1.6871127599850693
996,1.789112941716608,3.342375328945817,0.9532634069139272,1.5923861725467863
997,2.3063992177125643,3.2918182430781093,0.9605483853826409,1.5198812880673462
998,2.430509303093944,3.232743272954416,0.8953902376220216,1.404792713620734
999,2.359750582386693,3.181238306794993,0.803133513440091,1.2121163755117517
1000,2.361394269308592,3.144579547028659,0.7440548393754631,1.0309195700018152
1001,2.4070443564469985,3.107119682653287,0.699606268863188,0.8957353511076526
1002,2.3867085149847442,3.046376043613091,0.6334378152657067,0.8352251955240911
1003,2.3134510849907226,2.9558072035831726,0.5484979587501104,0.7992950009550223
1004,2.213026101838051,2.8395094982582303,0.45554587731575574,0.7169511816419946
1005,2.1203607322831775,2.7144688942792463,0.36869057230921143,0.6045060534723301
1006,2.0741788042744522,2.599931811229658,0.30314910221423497,0.5099451574884935
1007,1.9754613897346731,2.49273017342981,0.23552409159417476,0.4555264132395526
1008,1.7269002592176734,2.383832982679921,0.1396361933696845,0.4554352619622721
1009,1.493913460328498,2.2807570474436676,0.059185163458084444,0.5040611687967498
1010,1.4708590666253964,2.19551183426861,0.04223022236642024,0.5781148639467155
1011,1.5799900965658407,2.138054199903854,0.05068074161075739,0.6714512984504183
1012,1.6791419189895713,2.1171531871642912,0.030393977939494693,0.7776106627506985
1013,1.7349554293230325,2.130325427234857,-0.01693685133840578,0.8442631940103039
1014,1.7531135226645658,2.172594090644216,-0.0724994476968076,0.8316572413813005
1015,1.847811027233093,2.254978782500851,-0.1137680406046811,0.7959055660261503
1016,2.134547965664345,2.389320360084643,-0.11870826805102763,0.8152403102929106
1017,2.443999255928553,2.565300721437124,-0.11185067204388768,0.9043163301184248
1018,2.569189601123831,2.764582601304369,-0.12587876683111404,1.052682629808389
1019,2.642984376457359,2.984158264230368,-0.12374469138798708,1.2455904934267408
1020,2.854203078012747,3.2145810701881454,-0.06288756388048636,1.457468292397043
1021,3.145283276229176,3.4124586093500855,0.019008606973354242,1.6868226876268584
1022,3.3988348528255283,3.5345975183982015,0.07273824541219676,1.9327340047849009
1023,3.5169411548868204,3.5655937524215964,0.09866318814810582,2.1315500085008705
1024,-17.859513389474902,-3.362066166120286,-15.317675934333783,-15.377455815603133
1025,-18.160224177051646,-3.361665927970504,-15.811796124457352,-15.651573468662862
1026,-18.321954669406065,-3.322847634849838,-16.24208308156098,-15.927884883317272
1027,-18.492791102360563,-3.2464699725692117,-16.63496904814072,-16.18191210388797
1028,-18.820492198358043,-3.1463927401094414,-17.026290471190052,-16.38912870724523
1029,-19.1780416662463,-3.0389883475165878,-17.394863346110004,-16.548292099597393
1030,-19.4134665610552,-2.9410844461773262,-17.718053452594862,-16.673054766658183
1031,-19.567537990541993,-2.8509507244034675,-18.019677584115403,-16.779567408555316
1032,-19.723269706165034,-2.7620094688487846,-18.3271703032794,-16.886329341160756
1033,-19.970177068817446,-2.683432743294293,-18.65232307739,-17.020773258731538
1034,-20.364440171778224,-2.626117934459033,-18.995429697725147,-17.19523280869827
1035,-20.746215045220044,-2.591454233743829,-19.31859141304005,-17.371479308570514
1036,-20.951669655216694,-2.579068951741718,-19.586293713784354,-17.51070942917021
1037,-21.126216305537376,-2.590009133384976,-19.833360552771538,-17.625795270899356
1038,-21.44373664666797,-2.6249222733606645,-20.101369948061677,-17.744926429115626
1039,-21.81193817251738,-2.6843764524747704,-20.363601841380586,-17.894587621058587
1040,-22.11036763597612,-2.770615863902307,-20.587576976815573,-18.087909238539027
1041,-22.354460954369355,-2.8896098520423537,-20.78867023930806,-18.286567762670277
1042,-22.588611482084836,-3.047129743775463,-20.98795772532211,-18.44793052396895
1043,-22.90389935456689,-3.243261339705497,-21.195121204110855,-18.57875295229952
1044,-23.372189543898934,-3.4763358256091976,-21.415722087227813,-18.705925187007317
1045,-23.855448941947316,-3.748270986076703,-21.62335949614007,-18.867728735815216
1046,-24.211077243497236,-4.059686410412353,-21.797896420255586,-19.09463715996214
1047,-24.570557307312892,-4.401952961006195,-21.994453358776855,-19.35832780907774
1048,-25.08454237384011,-4.764346236864012,-22.263308571744883,-19.619284205730334
1049,-25.681862132670158,-5.14936741211032,-22.56338655684377,-19.89574069758858
1050,-26.25265668694169,-5.554263543765931,-22.8330711964907,-20.207660947579406
1051,-26.732978466848333,-5.9421427188512785,-23.036657545732158,-20.517121717196996
1052,-27.090117149939143,-6.27901808593861,-23.157777332542356,-20.781574081707642
1053,-27.449584343485988,-6.5756635394997085,-23.235930292604593,-21.00352610839838
1054,-27.927595271033017,-6.850193374766053,-23.318751086468144,-21.187984762858
1055,-28.344206212597747,-7.1012400067311505,-23.376040682311256,-21.307602678934142
1056,-28.505561265179573,-7.321467280282228,-23.370390189994808,-21.341055832960695
1057,-28.52684320776151,-7.483942652116821,-23.34186412017216,-21.29365494236911
1058,-28.56120541876363,-7.572206899052682,-23.331042175101143,-21.18511147245272
1059,-28.585794048579327,-7.637038687080475,-23.313240364782658,-21.06220463974132
1060,-28.54544181671034,-7.7326142920202985,-23.254822291386674,-20.962926822794433
1061,-28.36297841982004,-7.843865782240337,-23.138289234177325,-20.857876655259194
1062,-27.98677428595305,-7.937583487075255,-22.95643019223648,-20.70555382311339
1063,-27.59035622856259,-8.00335442878906,-22.75271509363861,-20.513286057801594
1064,-27.33953997714179,-8.036209461699789,-22.563582921895918,-20.295089272320546
1065,-27.058405282739617,-8.034312392810703,-22.31908756059883,-20.052567809311853
1066,-26.543589428286566,-8.005708060701627,-21.949368192551017,-19.782316319770604
1067,-25.883888355253262,-7.968743731688301,-21.501827915815042,-19.44132318643564
1068,-25.217751342429768,-7.935668121390134,-21.0462610082523,-18.99968675504722
1069,-24.581441853974063,-7.898670787236752,-20.60679224432756,-18.53138031471613
1070,-23.985390832465246,-7.84248145338207,-20.18757439909593,-18.114298361792738
1071,-23.34611836731176,-7.74719590866206,-19.74981896983152,-17.71546858618759
1072,-22.58774090595374,-7.6063325306006755,-19.2473228304651,-17.28204252939614
1073,-21.874702072634495,-7.454764739997818,-18.707949342036354,-16.815238110825888
1074,-21.36843300344969,-7.33205943376374,-18.165330735163927,-16.3267740116449
1075,-20.924840694915797,-7.255961222338979,-17.567655146890594,-15.834174875744635
1076,-20.368203091907287,-7.223489270606376,-16.866663952742485,-15.353741777645219
1077,-19.725613374016458,-7.176258639086611,-16.101296138553103,-14.855759660164562
1078,-19.07102673979144,-7.065486111686398,-15.323917845820075,-14.308353529874365
1079,-18.490126559643848,-6.954566525809521,-14.55547964228106,-13.741826114852683
1080,-18.037282812310377,-6.916444554719969,-13.800466112489763,-13.189816973625247
1081,-17.553731536785058,-6.921963387693396,-13.017842358530887,-12.632080658409176
1082,-16.86849207416007,-6.917937932904262,-12.166524504644633,-12.04066481676633
1083,-16.08871026970322,-6.881509203639025,-11.291411328444983,-11.407288613508891
1084,-15.408006175528802,-6.796772684115491,-10.503139251465472,-10.79926629992753
1085,-14.765672604675856,-6.653005431693561,-9.809897675008008,-10.299473738565892
1086,-14.117255471093914,-6.448662741627198,-9.243371239998952,-10.015128805393049
1087,-13.522625382949066,-6.13551922855303,-8.817742194016677,-9.876923805201065
1088,-13.038573212678028,-5.676557823079863,-8.516668585134717,-9.755098183789007
1089,-12.746629354073022,-5.133420990928749,-8.351015177078033,-9.647793255092568
1090,-12.689299706222386,-4.5862844973668855,-8.320904579972748,-9.58306786972103
1091,-12.676891446495663,-4.048077368551996,-8.334544510349266,-9.519331738490967
1092,-12.186172919551094,-3.3279065882842014,-8.313925476080477,-9.129547264691901
1093,-11.630772643450364,-2.5982783447169986,-8.25479983881874,-8.720011107230055
1094,-11.158138878114684,-1.838517137327186,-8.19849379304174,-8.297293007884349
1095,-10.753503247569322,-1.063176254633199,-8.125899107383113,-7.902339222968111
1096,-10.364292786801888,-0.30430552885502943,-8.008667787316794,-7.574950600386143
1097,-9.945059508507857,0.4201315409025864,-7.8393345232048945,-7.282698276040554
1098,-9.462018257315762,1.0975036765958168,-7.619735674016663,-6.974632677618683
1099,-9.040607148442088,1.7155771573094019,-7.39354395916582,-6.649348945007462
1100,-8.811635206945242,2.2692089698378837,-7.204298345312532,-6.32150578436745
1101,-8.618505072516353,2.759325037212923,-7.0067608025154104,-6.000071289818055
1102,-8.262720658599227,3.1900361627543474,-6.741104156365045,-5.696846145613323
1103,-7.82213238684628,3.5728764390488954,-6.435558567602652,-5.410301626243328
1104,-7.4381329177533155,3.9222265840107413,-6.137286256748385,-5.134746410664116
1105,-7.133765340632167,4.234349921929724,-5.846074319228744,-4.889812842517916
1106,-6.898521918259863,4.512723281162699,-5.549766669728126,-4.693454346399302
1107,-6.647457102669519,4.812623663899694,-5.2319111924293145,-4.522386682712914
1108,-6.288573761613808,5.1891655035869215,-4.875073883419781,-4.341706211993287
1109,-5.958923022183157,5.63876828957246,-4.502369273070666,-4.146813015418028
1110,-5.816128608031946,6.123978936511654,-4.146676353934085,-3.9388120627489998
1111,-5.683106880783724,6.588576829311513,-3.781308095685442,-3.6871693982861053
1112,-5.345965990515263,6.974338781843017,-3.3804479145403015,-3.3745295248040645
1113,-4.918463041847898,7.254584257604199,-3.0082624442188326,-3.0478173660377674
1114,-4.5849739216585395,7.434082840456084,-2.735796814460191,-2.7707291734013513
1115,-4.393645357158915,7.543597501205386,-2.5522225535339516,-2.581875369994057
1116,-4.336498068278497,7.625786274689059,-2.416840320449709,-2.493850556204534
1117,-4.274282911906432,7.718083779690867,-2.2817491608809126,-2.471784189864101
1118,-4.05112739334051,7.840459388587317,-2.106816215953149,-2.457734975316794
1119,-3.796837333784698,7.973431287190151,-1.9323558808469927,-2.4162547713718348
1120,-3.6870842323239414,8.08809727607457,-1.8141381311996225,-2.3244046179629105
1121,-3.579759212909048,8.186810064212988,-1.7089662712111882,-2.1676924289257204
1122,-3.289452843408165,8.285547653065276,-1.5593996472073632,-1.9487408776539328
1123,-2.867089411291796,8.408719639623854,-1.387408378397559,-1.6623123718348298
1124,-2.427475491738509,8.571178182794785,-1.237939623557504,-1.3217869021627313
1125,-2.0850885437878364,8.738294837850228,-1.1516817504164236,-1.0237015935660112
1126,-1.923046200927544,8.86173587957564,-1.158101696011164,-0.8598014070711029
1127,-1.7891350784198052,8.921405506260598,-1.2212016392893963,-0.8041352448592414
1128,-1.4870866689933377,8.92382744936038,-1.2830271670270357,-0.7821307107267906
1129,-1.1215742232471158,8.912110058958755,-1.3495185488447237,-0.7301757004516669
1130,-0.8518674706765329,8.94730318186646,-1.4359227178510667,-0.5960647186765278
1131,-0.5881343348241794,9.075461141990331,-1.4926646124625356,-0.3884694253479283
1132,-0.20227796164596384,9.320115993607656,-1.4712035412489597,-0.14057690109711402
1133,0.3121384639151468,9.677515629190538,-1.3862959874945588,0.1723242610139385
1134,0.917233036869993,10.11675176358574,-1.2732464248568236,0.5765857248373201
1135,1.488915775365531,10.578256997635481,-1.16974223951069,1.035309583464818
1136,1.8998059543011554,11.002390222717437,-1.1047532804818545,1.494456833855199
1137,2.236999267667432,11.37434752500133,-1.0429243923961256,1.9105139911626192
1138,2.63383560740815,11.698047354863949,-0.9373239261568104,2.252391129473862
1139,3.0088284467095425,11.958231237848606,-0.8251445242465796,2.5340784925182316
1140,3.2484469805601663,12.143746995574658,-0.7566879834673687,2.786753799642498
1141,3.407671749694634,12.260038449468075,-0.7090172277713063,3.002832859793146
1142,3.56734801782254,12.320299940089521,-0.6445340617699095,3.1698756465932694
1143,3.743260022950028,12.358758423509034,-0.5531206747770725,3.312143498428959
1144,3.929039999545723,12.4036952064577,-0.437143029569079,3.456966707093424
1145,4.033531492314536,12.429322701894948,-0.33247573211913334,3.6104382468917584
1146,3.9696422913645133,12.395255824294434,-0.28012979245340985,3.765854358397485
1147,3.8734359767391013,12.29485760607008,-0.2597934709903443,3.898455366776728
1148,3.9054243719799127,12.13515659672992,-0.23683633332326703,3.9791851015078046
1149,3.9543434839994958,11.927774439199741,-0.23244374173460522,3.9996801101145074
1150,3.8611574335888648,11.687314177126746,-0.27302410646952585,3.966984470135159
1151,3.649370190400593,11.410996378099183,-0.3387187063197416,3.8927188418552885
1152,-19.08110204640802,0.6013954786458053,-17.071400350446943,-15.918756235704713
1153,-19.599609393087615,0.40399106333346274,-17.47656845692129,-16.18852333487036
1154,-19.9905498140338,0.1534994091239213,-17.844131006357443,-16.410221077976896
1155,-20.416218716814345,-0.1360386722074701,-18.202425792543057,-16.62536210995916
1156,-21.032805882241195,-0.44933446781899644,-18.579476647509406,-16.881504087549274
1157,-21.674010532335693,-0.7765795565197469,-18.938815416590522,-17.189746002554404
1158,-22.14887659510595,-1.1170921082482619,-19.245116262621572,-17.547004691604098
1159,-22.573613597647405,-1.4853067338116317,-19.54902787242636,-17.929744187310376
1160,-23.098903763075494,-1.896738972014937,-19.905306890214387,-18.316458495082365
1161,-23.70045761324385,-2.3530119373560128,-20.295397104674485,-18.744368801491024
1162,-24.32260879400379,-2.8455410075824723,-20.686917851034067,-19.24707034632185
1163,-24.891897028544115,-3.354918207550758,-21.065295381297005,-19.775083085657155
1164,-25.35518063360179,-3.859178315104111,-21.42418620992046,-20.266874227585696
1165,-25.860044049108275,-4.351415923271485,-21.79680008231463,-20.71174861361239
1166,-26.546817007981307,-4.831222617236504,-22.213560098891683,-21.11351384405876
1167,-27.245679725276116,-5.284407047670845,-22.625531602658523,-21.481227522319294
1168,-27.763480527924987,-5.705295536413551,-22.979462404403343,-21.82661474924436
1169,-28.17576139715704,-6.128121986884874,-23.30457999805925,-22.128899903681763
1170,-28.59928232943086,-6.581205781157385,-23.640438286356034,-22.368536013515175
1171,-29.054906506382842,-7.040811750107393,-23.97922651810447,-22.58342574636864
1172,-29.530271209187582,-7.466190894189683,-24.304576078927873,-22.81168023367698
1173,-29.896633743631188,-7.824438148659713,-24.597041237058036,-23.02698216939748
1174,-30.040854136640544,-8.09236251678122,-24.8430957044917,-23.194767115889434
1175,-30.129180956132064,-8.27472564146069,-25.081221963192075,-23.321686505249414
1176,-30.34068114433841,-8.39241040832814,-25.349759979909496,-23.41965383370697
1177,-30.544069085192092,-8.457296624372256,-25.60848085155852,-23.490768281621456
1178,-30.574833749553996,-8.483409196327074,-25.811323307758006,-23.535927694477778
1179,-30.469757395023187,-8.500467767872404,-25.984334110534927,-23.535478783027422
1180,-30.3052023985535,-8.528911134891445,-26.15920085618522,-23.478688668629612
1181,-30.153813494389215,-8.560131722365846,-26.32603951743874,-23.411930730476794
1182,-30.065395024578986,-8.572745241988985,-26.464042614793165,-23.383798129618647
1183,-29.909520235986815,-8.541814702439492,-26.536301978795827,-23.39057767731535
1184,-29.553775207480303,-8.449168690004642,-26.513975587694087,-23.406253900571688
1185,-29.14341578783128,-8.301064001116298,-26.438025492718523,-23.398218390309072
1186,-28.843054647507774,-8.116882873458154,-26.35397073216477,-23.33397500962289
1187,-28.552508032220146,-7.91576705284026,-26.225434874299296,-23.20770147090009
1188,-28.15350122134648,-7.715545097919177,-26.01115917636227,-23.0325391345976
1189,-27.693522036959884,-7.527323444684737,-25.733152593195822,-22.81406233655706
1190,-27.25710503422372,-7.357797485667434,-25.426598485372192,-22.57171767883681
1191,-26.961476304953223,-7.211201458447204,-25.12328112706777,-22.37204682802573
1192,-26.885095026005978,-7.09261990550956,-24.841543818866345,-22.268655977614504
1193,-26.865974979915343,-7.019087937611616,-24.5371299072328,-22.238692668990492
1194,-26.720313695544387,-7.0024998265547165,-24.15907135605644,-22.232935369415802
1195,-26.541266482804655,-7.025474583439241,-23.732350216334634,-22.216154279068842
1196,-26.452472976172267,-7.06380407966121,-23.29211592868964,-22.15900429957546
1197,-26.368584229243986,-7.11139050580668,-22.81412267024698,-22.057608945884226
1198,-26.189651220200638,-7.163889930624084,-22.27369937255443,-21.91838112345932
1199,-25.905477484958983,-7.205991406600066,-21.68588587724467,-21.7114168615132
1200,-25.53460790737485,-7.224760474222926,-21.07165179942091,-21.416167511710405
1201,-25.199422624018908,-7.216997323302634,-20.45808751553189,-21.085893476479956
1202,-24.992906322369947,-7.185698339670623,-19.859672120566863,-20.772629225131183
1203,-24.715312187636872,-7.137472275348838,-19.221580082075445,-20.45091524809316
1204,-24.161207491756347,-7.081906092876942,-18.4912850939017,-20.079893143388574
1205,-23.466788925892434,-7.034018551377193,-17.71298214326806,-19.641062350080922
1206,-22.811951051292656,-6.999805145658316,-16.94282195219168,-19.12587526339482
1207,-22.175103890966053,-6.959292906666723,-16.174585302434163,-18.572559142418378
1208,-21.486676771632467,-6.884218839880995,-15.38463550847806,-18.01068089193023
1209,-20.637041580685647,-6.7568851529331795,-14.53587467436382,-17.35997331759049
1210,-19.545122878950536,-6.567972473381458,-13.600148541627389,-16.54273057926973
1211,-18.391500566763224,-6.313026983184407,-12.62930085773256,-15.605769334218866
1212,-17.377309038579586,-5.993148065736189,-11.73377933786456,-14.68249130523863
1213,-16.325741649996075,-5.632748238080617,-10.91521668794325,-13.842887953967177
1214,-15.062518955833571,-5.2541004756428356,-10.188028781319424,-13.16037962289408
1215,-13.822610102333243,-4.855732765897937,-9.573695771003088,-12.533450766333482
1216,-12.878863455562243,-4.43936502192587,-9.059568728683118,-11.825477175480122
1217,-12.19761895486164,-4.040696271435643,-8.597337597939605,-11.103195354742379
1218,-11.661320224426229,-3.6935524746973,-8.145756547647482,-10.474424336053122
1219,-11.149227207982268,-3.392746073120998,-7.699294378271815,-9.914696472195502
1220,-10.397059518975816,-3.0697183168180366,-7.140207323635496,-9.247321219472996
1221,-9.701636259286914,-2.77499170442139,-6.620610550872537,-8.655903955055969
1222,-9.240867749758978,-2.504200431493582,-6.153537635964092,-8.164117549124624
1223,-8.864007211748797,-2.244616770969542,-5.707562374205292,-7.757126243784063
1224,-8.365626738374637,-1.9879617944107077,-5.247798325639238,-7.407123314263766
1225,-7.781925482638993,-1.7446682823850683,-4.79785351292963,-7.088204373170182
1226,-7.213419769343031,-1.5248460208659727,-4.391519852935827,-6.7801955557073
1227,-6.7580433781219345,-1.3247852522171235,-4.029600421510582,-6.495708152138004
1228,-6.4826916735035045,-1.1297693435510656,-3.6969942069779744,-6.250687468034031
1229,-6.207195078607759,-0.8979715853822705,-3.3433654926231755,-6.014487407306142
1230,-5.720850411755535,-0.5950739591994169,-2.924515386494577,-5.750462600565804
1231,-5.162440458590966,-0.2493364549069711,-2.4916403301851675,-5.450652068184986
1232,-4.744328059550912,0.09250163800553705,-2.1161060467815935,-5.127290764005737
1233,-4.418919115044638,0.4104154017972742,-1.7848520314424332,-4.83672625892806
1234,-4.080847102253064,0.7065725894167716,-1.4615896655332588,-4.633072959155431
1235,-3.70952562881712,1.0196463403856404,-1.142333710935638,-4.483869156078207
1236,-3.298094428255379,1.3989457242769694,-0.826924478799713,-4.329484830617729
1237,-2.911728757775163,1.8648754796845102,-0.5216738488372732,-4.156920802190443
1238,-2.620737126995029,2.4111341119735274,-0.23592209872085815,-3.965500074300404
1239,-2.2950891764208965,2.9967805508184653,0.05827254275997487,-3.753139574090249
1240,-1.7878702182006183,3.571534793203076,0.3891294621944062,-3.5187269664455196
1241,-1.219450254548476,4.1205607351745455,0.7164003479894565,-3.2318268092721882
1242,-0.7549990398300804,4.648451894331362,0.992607837739959,-2.8617483948085822
1243,-0.3604534151654287,5.15923107161856,1.2424744500424871,-2.4301128145289983
1244,0.044508157225721254,5.658766285375945,1.505347125181512,-1.9780551913215336
1245,0.5185479881174088,6.151991870566346,1.785885228369371,-1.5164149740467456
1246,1.0938475912644454,6.636417567151438,2.076492976554423,-1.0560097969926183
1247,1.6034932680761753,7.088058361944183,2.3420825441074866,-0.651509119016117
1248,1.873068355428005,7.486082992264759,2.5507634428517205,-0.344515734357995
1249,2.0876983374104894,7.853784410379887,2.7539818166745587,-0.09955821358755829
1250,2.492238905770562,8.220920978936475,3.015125094207661,0.14482401655154858
1251,2.9880529070661224,8.58372719718624,3.301888496591651,0.43291178547595777
1252,3.4030348998362228,8.922450086636514,3.5594077373064814,0.7898998020456823
1253,3.7514322240202738,9.197879574775722,3.791755449358013,1.1911370188921342
1254,4.079428031224427,9.37748777445669,4.0124592129991985,1.5917513515431665
1255,4.420989662385761,9.489208061321245,4.2150049565852745,1.9852243890881036
1256,4.804492005480204,9.578116906265342,4.393995533965157,2.3764855484814906
1257,5.100638349329058,9.6568892944729,4.528195034365671,2.7517232435888626
1258,5.18018895788687,9.718862167314622,4.6052209562377815,3.1016467938050143
1259,5.2184864048493536,9.728579575231551,4.68799224346451,3.422568104602019
1260,5.4308065392190885,9.648703024645553,4.844239533179363,3.7161215467296476
1261,5.734262957338272,9.494039949078184,5.0458412548817195,4.029448989310929
1262,5.972066280137136,9.300495924387489,5.236152145471449,4.399631386699034
1263,6.092106675581434,9.087569426034381,5.399787668820668,4.746830214444066
1264,6.085595995651818,8.866330441766411,5.532644086209301,4.977729388258519
1265,6.075340281395459,8.635226278349469,5.639188557888322,5.127221449104689
1266,6.199927242247438,8.381675268212282,5.731003849247074,5.264734300887316
1267,6.324321821177622,8.09522798691083,5.789016454214044,5.400101103993735
1268,6.270260987557226,7.769962631350775,5.792796988183985,5.526991395236096
1269,6.15881801297574,7.404639113890644,5.775958573957796,5.633202854650117
1270,6.157276295774583,7.006765101002995,5.77678061126397,5.69708254646715
1271,6.218722652216099,6.596320183462022,5.77862196235679,5.7236261104378325
1272,6.2480740814176805,6.19489999857253,5.75062901239132,5.724520391465182
1273,6.170699703670812,5.813712972242392,5.678063041536735,5.670976015024245
1274,5.940264077073171,5.454642778136462,5.554180012548642,5.537956673237747
1275,5.71163822460514,5.110523452709807,5.40444727333055,5.361603342065228
1276,5.660716309482701,4.771025864098538,5.25872846014884,5.191467788466265
1277,5.641798993002828,4.429580121581794,5.081879365630959,5.046002712966002
1278,5.455303349190162,4.088137203766544,4.83382921454769,4.930891820165228
1279,5.201611206199566,3.765209519326445,4.561464329529935,4.829878873124408
1280,-20.6577956331632,-0.3775351003482549,-19.218550381149687,-18.27261472693726
1281,-21.362268074749633,-0.7157592877891504,-19.818572146232018,-18.97857210589375
1282,-21.990228144975767,-1.0243339714487283,-20.439403877340204,-19.623510222747843
1283,-22.641563987509606,-1.3191237555211661,-21.09637202289199,-20.22546331091395
1284,-23.39788381559468,-1.6253268635598355,-21.79279179955142,-20.817635699079425
1285,-24.11281850208966,-1.9376604631611012,-22.492461658835843,-21.402003007971413
1286,-24.63260671440419,-2.2387313204534656,-23.154996353527668,-21.975851751055522
1287,-25.111563095729576,-2.49951528228867,-23.809788612291882,-22.54647521017997
1288,-25.72294638985207,-2.6937096230007467,-24.48647073737216,-23.11432987249829
1289,-26.363618499548764,-2.83260095291857,-25.129387056212515,-23.675306462304775
1290,-26.896394120413557,-2.9369324241344326,-25.67923529392448,-24.216437053553914
1291,-27.316027999632034,-2.9985803395459545,-26.143989736940735,-24.694811037680633
1292,-27.650025237719404,-3.0107148860570643,-26.549611047770156,-25.072913104290595
1293,-27.984713252204205,-2.9947396946901237,-26.921417405981046,-25.36507720977747
1294,-28.397004325821527,-2.974461003631025,-27.280440369187705,-25.59837025901552
1295,-28.7587607403191,-2.9597571267624527,-27.599942973560864,-25.77274667395982
1296,-28.93954032749289,-2.953447955386999,-27.850343748056634,-25.886105037345857
1297,-29.089641660666487,-2.950806660071245,-28.07516162849503,-25.94783326174017
1298,-29.370708658930045,-2.944601639280827,-28.316690617348442,-25.968597440338513
1299,-29.69027135295376,-2.9325822504464365,-28.534489768367568,-25.965205675582794
1300,-29.922986410368736,-2.921886105416471,-28.67913054052123,-25.95401969190135
1301,-30.035025693320193,-2.931397658364286,-28.748694527143854,-25.93136203598361
1302,-30.04048469676669,-2.9829791787652926,-28.758021765686866,-25.89385108599461
1303,-30.110959622400753,-3.100837808698707,-28.74001988706137,-25.866902706094127
1304,-30.3971789232653,-3.293643074306785,-28.727236360340157,-25.87366000259371
1305,-30.715526484147798,-3.5240764498354205,-28.700142602111775,-25.90506993818213
1306,-30.85245750171468,-3.7499581784660942,-28.63079788987485,-25.942876732844574
1307,-30.914453390450436,-3.9716329926038334,-28.547240478834166,-25.970479127066575
1308,-31.049302229003843,-4.202330057175993,-28.474371656794982,-25.974205564171637
1309,-31.235552058385426,-4.448121554207208,-28.375398602720686,-25.96589407517778
1310,-31.418715127485775,-4.7129273593369385,-28.210659246602212,-25.956199422452862
1311,-31.501991529355685,-4.985270349509532,-27.972585381988342,-25.908287526718365
1312,-31.411910572236305,-5.252918530523703,-27.67133688469681,-25.7876988448536
1313,-31.32153123908733,-5.527190457219962,-27.363240303671798,-25.617455170031583
1314,-31.403467253082084,-5.823000071432485,-27.094721972781073,-25.43043684499817
1315,-31.472852175153772,-6.141895356272427,-26.80134902327526,-25.233328762167105
1316,-31.322633047947193,-6.477253663064205,-26.4106100699862,-25.022587180716503
1317,-31.077138256197916,-6.811647198482383,-25.966226666534823,-24.77626702495484
1318,-30.893012499968187,-7.123378874287217,-25.52570309733803,-24.469362887289986
1319,-30.747944900922676,-7.399634965422667,-25.07289117625539,-24.116372801531924
1320,-30.574259710285702,-7.632331799034341,-24.58051932842242,-23.730920338498553
1321,-30.2353000187863,-7.812719439476793,-24.030336528486284,-23.270618792464308
1322,-29.62837655499723,-7.9377757043092085,-23.412226315746995,-22.696684218275024
1323,-28.941061082049462,-8.01395261520585,-22.7729640787733,-22.02696634997143
1324,-28.382723952133198,-8.052354397747303,-22.15810708813491,-21.298162835307192
1325,-27.836976896396145,-8.064833167527983,-21.515542515508383,-20.551327767303555
1326,-27.147284649588222,-8.062890609704773,-20.78863913743565,-19.818190560538294
1327,-26.371866823807864,-8.053386966209818,-20.023019365449258,-19.077324643265467
1328,-25.59599056761401,-8.03610417582734,-19.273422869379754,-18.294932916330886
1329,-24.863938737412987,-8.012784614989746,-18.532459723712872,-17.48799734575557
1330,-24.188948057255395,-7.9745212311001366,-17.78439638306084,-16.673553108868905
1331,-23.41456316090476,-7.872478832146123,-17.001238893421583,-15.815543567326122
1332,-22.39539424892303,-7.665644193397046,-16.178330440855284,-14.87878655047133
1333,-21.294067369125752,-7.382058839938848,-15.433495066826277,-13.86667460227041
1334,-20.294597377073003,-7.061362400341822,-14.87296386995416,-12.796310350262132
1335,-19.281712206168095,-6.700331094627063,-14.42713608218801,-11.702602008565536
1336,-18.107494012465676,-6.286477993460988,-13.97873224582078,-10.61258925174066
1337,-16.792140215713957,-5.811715232725257,-13.477136638256958,-9.49060293637672
1338,-15.39629877193524,-5.277725554315339,-12.892017536887854,-8.29846596588877
1339,-14.027231152599507,-4.71761412419507,-12.203129706687347,-7.064234243638639
1340,-12.791787037933014,-4.175318892299708,-11.466121198979815,-5.898059168852586
1341,-11.619600440382555,-3.7009936716682725,-10.742067440523854,-4.904348572661193
1342,-10.44210564135054,-3.331323243722248,-10.103896258824056,-4.200335049263053
1343,-9.537101789790682,-3.06664330496053,-9.56929992413472,-3.7406483274389806
1344,-9.159261661008122,-2.8942524753808683,-9.088692730858492,-3.415205326757759
1345,-9.124876480655256,-2.8304953577029144,-8.498929002713812,-3.2215147776851487
1346,-9.146109328932367,-2.8790657093122483,-7.67559073872666,-3.167531749206273
1347,-9.0872289193103,-2.987436891124465,-6.703941653132753,-3.174760202479845
1348,-8.807204543361454,-3.099248427651944,-5.827770220544765,-3.0873493477586655
1349,-8.504043473663456,-3.1967554725714455,-4.979351040773906,-2.9703357408149182
1350,-8.342130030241742,-3.2773723099561494,-4.185704076539449,-2.820803724070939
1351,-8.181539587115344,-3.346577186259569,-3.4057928788049616,-2.649034476201107
1352,-7.8323249843858305,-3.4088459786896417,-2.592578327255651,-2.468515815672429
1353,-7.4000057172230616,-3.446576373942625,-1.7943523560751784,-2.260946724588377
1354,-7.042457607195142,-3.438537369444102,-1.0721182660373618,-2.006522918986949
1355,-6.756642761047146,-3.385243174715362,-0.402983689956437,-1.7366624954326206
1356,-6.495067343424591,-3.294672804804901,0.25482015827989823,-1.4892432827303588
1357,-6.152018841809408,-3.1710937121148093,0.9147080454234817,-1.2551869546979297
1358,-5.631191465338614,-3.0173206373402874,1.577986691701339,-1.011602939940722
1359,-5.092785462944174,-2.8289373027084226,2.208640537414261,-0.7496357845840467
1360,-4.727903902516127,-2.5994823654012547,2.7674421452304183,-0.46504937207786706
1361,-4.381762263540024,-2.330612750673825,3.2879611605248473,-0.1606669146413687
1362,-3.8465158787804645,-2.0294552653030236,3.821183724361873,0.1527281019724055
1363,-3.207516737405698,-1.7056882099776294,4.358656741177111,0.46177877974154485
1364,-2.6167991956173347,-1.371196337397882,4.880267870691568,0.7550809385487796
1365,-2.1314289062203375,-1.0391248979517866,5.39678650742624,1.0305374299502552
1366,-1.7728470351313679,-0.71934119122992,5.920874050292831,1.2894265337202717
1367,-1.4363313695964763,-0.41097178091691045,6.462181744107326,1.527926524781827
1368,-0.9983744531028894,-0.10888787694816468,7.023109597364963,1.7408933867612715
1369,-0.5872220243069372,0.18304556120309712,7.564215023911068,1.9233425800521105
1370,-0.3640234093770953,0.4606369074640498,8.04302936283396,2.0743841808484067
1371,-0.2025718485367498,0.7339145605587667,8.479863424655067,2.201180231708806
1372,0.06959809286513542,1.0098630654971297,8.911320284996233,2.3167910911973713
1373,0.43135650540313625,1.2741995658319536,9.329976835508143,2.445477072750632
1374,0.8085928318676279,1.5043413657499172,9.722373409082774,2.605544850023353
1375,1.1064760898745796,1.6782462294244576,10.100695120741063,2.777553458196394
1376,1.2472910998984386,1.7814545574756098,10.476456419716278,2.9302274101326393
1377,1.3855014418467013,1.820417843435496,10.858748196285696,3.060656129962342
1378,1.6971456976797306,1.8151143407196606,11.245844834774852,3.16825070700819
1379,2.0063092853019153,1.788941900777796,11.581550168307148,3.2291798525630515
1380,2.080974820762332,1.761423691502192,11.811492797118698,3.2211434975735647
1381,1.9984378305145667,1.7367609493712262,11.97004136139081,3.1280721022115543
1382,1.9082612137401467,1.7050989935388083,12.114772974358754,2.9517730496663686
1383,1.8501024193792082,1.6507291517804967,12.25856432241097,2.7560563149331863
1384,1.8341375903998252,1.5557213378909354,12.394617767325583,2.6083854685853094
1385,1.7668286166772154,1.3959398619626877,12.487516605614708,2.4915030313438984
1386,1.547979903730485,1.1621746071907917,12.49887663558543,2.3605804951443896
1387,1.3510986224772379,0.8932156852196538,12.460939890405033,2.2051390791456265
1388,1.3737667210658169,0.6407873022945423,12.421884055343622,2.0241070000841397
1389,1.4560791345949342,0.42373546470378315,12.358082752244767,1.8264405659349665
1390,1.3746903131653545,0.24490634212226423,12.236278498008657,1.6259971561367217
1391,1.1638158095969533,0.10389345743687566,12.082666723390076,1.4038461793011114
1392,0.9282403389460797,-0.009011519476365025,11.931610452778163,1.1378765454994937
1393,0.7464686158257529,-0.10099960469258351,11.79157031035282,0.8542401788426831
1394,0.6836458039064495,-0.1786084778001448,11.660760555313026,0.5888582177352694
1395,0.6405067714891441,-0.2688717229689361,11.504666787272514,0.33780810030048203
1396,0.4918172565213866,-0.38956097246412297,11.289803690803103,0.09246151481763704
1397,0.3813382515288936,-0.5043213766002216,11.068029539917799,-0.12635831512059437
1398,0.4811061652666528,-0.5664485439210544,10.901021087721544,-0.29709693470151144
1399,0.6677730239378852,-0.5653296016723817,10.742738147786843,-0.41118780502950725
1400,0.7627284849037906,-0.5098188025978292,10.53096415827749,-0.4727845336036104
1401,0.753039917459094,-0.4307893835620397,10.291391781920558,-0.5225042568300325
1402,0.6789695818498134,-0.36034794380279367,10.071119200774964,-0.6026920697567139
1403,0.639543716735097,-0.28417110028778175,9.893951158407031,-0.6991494168365168
1404,0.7312442830351352,-0.1751852890560447,9.774055940486663,-0.7783864439874949
1405,0.8182533606706871,-0.034925302394375676,9.684171783373577,-0.835058799929663
1406,0.7321892665583517,0.12129171332231076,9.58696230085448,-0.8682868582218769
1407,0.6115430874524344,0.26263384283615704,9.514163081746876,-0.866483339372811
1408,-22.20665707579788,-1.0647611933645276,-16.182834716882013,-16.61408517449184
1409,-24.913569092608686,-0.04006102200145413,-16.8019669219127,-19.369427719423648
1410,-27.733731205966023,1.100264911569656,-17.465364140684326,-22.15299857529955
1411,-30.59879112260834,2.291599100104676,-18.146270066278547,-24.958579492445246
1412,-33.4144474238495,3.475364373956715,-18.80771286456023,-27.777356967737358
1413,-36.10597327781618,4.647969836273862,-19.43514397144186,-30.571499406697146
1414,-38.62802318441957,5.826130469116111,-20.025785402784265,-33.296866999293236
1415,-41.114737332361464,7.018146665901536,-20.620915989463434,-35.94436253719923
1416,-43.69279133476581,8.219675227024757,-21.26071127757185,-38.5167486578716
1417,-46.194212775206566,9.39034833971772,-21.90527953614455,-41.01643840469128
1418,-48.43287543383699,10.480575260105583,-22.50567282349953,-43.44135930770924
1419,-50.488588851432205,11.469746367511094,-23.087890326518373,-45.75048930245644
1420,-52.486217343086835,12.35223166281742,-23.68269452047384,-47.90647847078322
1421,-54.469794679247315,13.12381959735305,-24.26845415808599,-49.946871365275754
1422,-56.441321671036235,13.788672892294247,-24.81974785479441,-51.91072663892219
1423,-58.2469257548059,14.365777215325277,-25.321334554790734,-53.75366082259326
1424,-59.73961057011903,14.866065169184994,-25.773754804971272,-55.4228619009616
1425,-61.081477480640274,15.267742874842657,-26.240766372968473,-56.92227427362909
1426,-62.453965128475765,15.546812139156778,-26.78200772480944,-58.269567351571915
1427,-63.704429074286125,15.700949558486233,-27.35413732905279,-59.47674766644119
1428,-64.6603907461153,15.7466510619916,-27.898295894451024,-60.556221034835204
1429,-65.40536923358127,15.728247427397312,-28.431630416302177,-61.502291227728975
1430,-66.06519645777394,15.688620837985452,-28.9783274393999,-62.30513296410529
1431,-66.71236157832556,15.639793054752626,-29.5302440008256,-62.97836018471558
1432,-67.37988458659811,15.568119039300397,-30.069767579391993,-63.533767322748844
1433,-67.93148906910405,15.421807654784818,-30.546212139031457,-63.95814254420599
1434,-68.22547120048476,15.15331912521151,-30.921159969657225,-64.2338041278344
1435,-68.38002670860855,14.784421029488039,-31.249868755626572,-64.3407431689127
1436,-68.53531528340397,14.355065554202739,-31.596100018997276,-64.26547958722499
1437,-68.60723445670251,13.868192980035476,-31.938306368957022,-64.04335508768047
1438,-68.47530400428005,13.325548513593619,-32.23095325960367,-63.70059795995997
1439,-68.09292326638746,12.741458414036861,-32.448931079295285,-63.16644496882117
1440,-67.44557430283797,12.136266774817566,-32.56917670890284,-62.37259658091592
1441,-66.62524855505049,11.55675706391062,-32.58189974032093,-61.356026421870126
1442,-65.72859501175361,11.039775580275627,-32.4919509290818,-60.18516173315668
1443,-64.64859312942572,10.5652344073951,-32.2900106334631,-58.909444665437505
1444,-63.27020514638933,10.095260761181201,-31.980668176715767,-57.56766253169822
1445,-61.7249728194868,9.60505940200133,-31.633945446718727,-56.16172014322296
1446,-60.14967337615649,9.084417628141582,-31.31019589543991,-54.67147946015489
1447,-58.45807277217874,8.555637466242327,-30.975471815055275,-53.10096323617517
1448,-56.540611388172735,8.052129801149766,-30.577088106804844,-51.4508146374457
1449,-54.38089334655283,7.589038903699221,-30.10182229599545,-49.66758805660526
1450,-52.019634455541556,7.168131282644505,-29.55529409558862,-47.731458046829275
1451,-49.62533785436609,6.774587576001617,-28.983744551291263,-45.65250271408223
1452,-47.36220563041706,6.385400138005796,-28.43046293684568,-43.50374675394529
1453,-45.19059991771889,5.9906320161978455,-27.852416162337306,-41.321260380627095
1454,-43.00660991093213,5.579401406734958,-27.194743520213184,-39.06357563464245
1455,-40.77852470847646,5.126792789179391,-26.48058113785808,-36.68450100107181
1456,-38.48922590489267,4.610623650989807,-25.74440124987501,-34.22341226346507
1457,-36.127531229065404,4.013221490947475,-24.972613173890814,-31.746527804499255
1458,-33.701816374427466,3.336439752966371,-24.152893625638104,-29.328795023851608
1459,-31.215540088586454,2.62998520790453,-23.305073762861145,-26.971952177843786
1460,-28.66947510882692,1.9483123071873667,-22.4499307787487,-24.637291162880423
1461,-26.0712293283338,1.3050946082950092,-21.60139190024352,-22.274867666683978
1462,-23.425369543837856,0.6906972662077783,-20.765694701527025,-19.835955986041686
1463,-20.725924396319698,0.07955071019511914,-19.913320037250166,-17.306184617616122
1464,-17.964644620347514,-0.5598971151695799,-19.01995529306651,-14.698988945801448
1465,-15.138432667333424,-1.2397502595153056,-18.12904200217348,-12.033719750425213
1466,-12.242098349028979,-1.960340289683781,-17.28642252764003,-9.342295640438607
1467,-9.274390750836032,-2.7245944411359653,-16.474950907408804,-6.683135753459711
1468,-6.233356302736624,-3.5434209147801843,-15.714723351405143,-4.125648977439151
1469,-3.128280390511957,-4.4069378544411695,-15.047096807065492,-1.6678324050495674
1470,0.017838989116350956,-5.312022553413427,-14.536759920117465,0.6817068759845185
1471,2.964933146818271,-6.242055938382418,-14.206499348197992,2.949859999942261
1472,5.532950627875434,-7.172366834965262,-14.02268670673129,5.150356386261488
1473,8.034067807888809,-8.0961981970945,-13.866468723659406,7.3182598754679775
1474,10.814229545337554,-9.005117641729807,-13.625197120301186,9.546622111604004
1475,13.752623954164438,-9.853398870704613,-13.310394435412396,11.910180184211537
