,TP9,AF7,AF8,TP10
0,-7.043419360074288,-7.985405589032618,-8.154252200676499,-7.445653583218338
1,-7.056140711087345,-8.244130228801254,-8.414709193914222,-7.477948083006556
2,-7.891052937445785,-8.46932319665755,-8.638600070098137,-7.977502269127958
3,-8.58468793554952,-8.651455850693656,-8.829285364457503,-8.370699064614547
4,-8.132242578347505,-8.79380013643198,-9.000512223238747,-8.064091541332681
5,-7.329183072938788,-8.906183765697723,-9.166145571321687,-7.5346354188519395
6,-7.139403319639488,-8.988698309804548,-9.339062258365926,-7.359629585977243
7,-7.328558528226546,-9.041011460702006,-9.528659239429258,-7.415604573186017
8,-7.419867121280582,-9.072432133264318,-9.735692910450013,-7.422583175229145
9,-6.87935793219842,-9.089274541105555,-9.947164131690498,-7.022682960912685
10,-5.3655835123354505,-9.089076719847494,-10.147796577662403,-5.967371600856179
11,-3.9398001762356007,-9.072115529582552,-10.3322353021125,-4.876352780562597
12,-3.641112035683543,-9.043755950351128,-10.50074028142995,-4.376808508605189
13,-3.3515322085114656,-9.005645005130539,-10.657570002715515,-3.8234002011786656
14,-1.8159065741368883,-8.94820522589264,-10.807582075441081,-2.502967093095099
15,0.22122872780709457,-8.863704955827416,-10.948211099719884,-0.9072731516427675
16,1.752169916595517,-8.765801867750358,-11.073658972673199,0.32590313238463775
17,2.7095163130392734,-8.680658603774676,-11.18049764826319,1.1586716650299906
18,3.2678368172441665,-8.621578646141309,-11.263784761717815,1.7097388721190052
19,4.082993852139978,-8.587265218283031,-11.315837020993897,2.3678171966797117
20,5.7018252286669195,-8.567591076655386,-11.327761781199818,3.4522554873148117
21,7.0545026841354606,-8.55638974799749,-11.289211323413612,4.318113783617345
22,7.0260331650035255,-8.550753604603239,-11.193432826832918,4.291852279284555
23,6.524488369497949,-8.556838068280587,-11.038995839674298,3.9142016544149465
24,6.64791987577232,-8.581586380527288,-10.832012787014095,3.8394712177673167
25,6.965744829119677,-8.618962508514773,-10.595955578679256,3.798921941017646
26,6.816620946855535,-8.663075937328347,-10.34776137111533,3.3865199163089317
27,5.964966655472092,-8.708212407142552,-10.094551669616182,2.4614156459680965
28,4.358058591437876,-8.761080358642884,-9.823508257060112,0.9978261218237938
29,2.743678826574083,-8.825911632611932,-9.53150361243793,-0.5512057647701716
30,1.8275382574153922,-8.909552579820268,-9.233261023825287,-1.75413462145545
31,0.7349069159749302,-9.019430245422006,-8.929035284596495,-3.114971021234033
32,-1.5010892747513813,-9.160186954737343,-8.598615542124332,-5.196687056682017
33,-4.2082051348046505,-9.331428692704842,-8.240046589450502,-7.600261234272031
34,-6.528123343116244,-9.530785459613607,-7.8758242804250305,-9.817669294369088
35,-8.588244182928607,-9.745219280855881,-7.517449557262386,-11.922576557004094
36,-10.705354053618152,-9.96629674374976,-7.15379675569775,-14.092748756313245
37,-13.241040084004492,-10.19103160656758,-6.768123444696011,-16.51370208403835
38,-16.449429873894314,-10.41193359241424,-6.353413846356215,-19.31029615428597
39,-19.59714287287052,-10.628040713594446,-5.909633343051499,-22.04221376723527
40,-21.956873866440358,-10.84708045966842,-5.427286308728656,-24.290855636298282
41,-24.290460283960048,-11.099917108488077,-4.891832832797812,-26.551630864040572
42,-27.461198670713323,-11.414753256338736,-4.3137281841940425,-29.375951527783887
43,-31.004092095219647,-11.789144174903422,-3.7319035657383712,-32.471470055014244
44,-34.273476256206166,-12.206361799863748,-3.183467599168929,-35.42247841348647
45,-37.16400894660857,-12.643659691182972,-2.6689548238770135,-38.164169343098
46,-39.74957571610126,-13.07997839241789,-2.1541755619400256,-40.738079522615564
47,-42.634889504811504,-13.519898071819844,-1.5961514843308087,-43.476249837810066
48,-46.340873732645804,-13.969227162980095,-0.9377298685387493,-46.66463493034683
49,-50.004787123576556,-14.422211469376265,-0.12611914021660225,-49.79001854917664
50,-52.71104866384353,-14.866575876705282,0.8248889230112284,-52.31370058613608
51,-55.16841266071067,-15.295373631155087,1.849858311677951,-54.66067536103865
52,-58.22278513876698,-15.726797159760821,2.8867917436436947,-57.33439469196516
53,-61.5396299805972,-16.19869746877993,3.862170237242287,-60.11985224345457
54,-64.58649895643597,-16.708716953039836,4.690848838299943,-62.68203265965547
55,-66.98020359827657,-17.209216295650435,5.34903885175594,-64.79973661930993
56,-68.52678395021626,-17.654603934070046,5.857800684559914,-66.36387941284103
57,-70.10428599140323,-18.01490404897131,6.271564323027301,-67.86676938553053
58,-72.55311905624941,-18.292224663598045,6.682768256564737,-69.7795960826688
59,-74.87167214325908,-18.51076030172667,7.188755274814194,-71.52244753548649
60,-75.87719292915045,-18.732401794181396,7.840536545679305,-72.40702520934585
61,-76.64040877862769,-19.038285213583404,8.59268670235285,-73.08700648070683
62,-78.22957653167931,-19.42925204341878,9.317657652002117,-74.20008361539783
63,-80.2558350254295,-19.822631795305416,9.86999617009594,-75.49382318417165
64,-81.950901769849,-20.15624320292411,10.187971204800501,-76.49595301454757
65,-82.46554677490228,-20.419604518732534,10.329762957236008,-76.75557995326906
66,-81.24779361218133,-20.6221888276432,10.401492346032422,-76.003045647327
67,-79.3698721797816,-20.769426989114336,10.47923191578829,-74.87516941487077
68,-77.53625103422394,-20.43910031879692,10.252026771864404,-73.23854489970044
69,-75.98347131629652,-20.089222395854375,10.0364531375298,-71.76060443078468
70,-73.80741298680937,-19.734504683300546,9.845736014453447,-69.88073977637302
71,-71.18045962746088,-19.38601455749037,9.678751235495941,-67.71239138138
72,-68.53655524370411,-19.049985984138115,9.52706464619119,-65.53137917367572
73,-66.25061311630226,-18.7318700177241,9.377795517745911,-63.55739754334278
74,-64.58798602998797,-18.430711067593798,9.21657890968257,-61.93776344685587
75,-62.737268541510446,-18.13166888458128,9.044697515600372,-60.171923541062036
76,-59.80825095529536,-17.8175019512752,8.857568730951598,-57.714742707890316
77,-56.75675107171019,-17.48013050114758,8.64255655343103,-55.15224935763082
78,-54.80344941011717,-17.119834348694663,8.374571929128948,-53.23432770252241
79,-53.331629715061666,-16.747393634568223,8.05267214020426,-51.58378033985075
80,-51.370956707113244,-16.377709544005256,7.713790965957529,-49.60871951996828
81,-48.932808163206566,-16.01938587370928,7.399248964356109,-47.319893380060655
82,-46.29618910553317,-15.674924009515763,7.129871180507378,-44.89766802371232
83,-44.08457221248427,-15.339602485325049,6.889147974308961,-42.755517951824395
84,-42.861348122189106,-15.004302651230715,6.648340008966749,-41.26630316060127
85,-41.6249609742246,-14.663967398613387,6.389373566029925,-39.804211604229906
86,-39.190406204969044,-14.314533209619103,6.116829144300154,-37.61776729938782
87,-36.49476133229903,-13.94681022876022,5.831612711256958,-35.266167983529655
88,-34.82673986261715,-13.554444013492349,5.521128612475111,-33.5351263303869
89,-33.716313882770024,-13.14157521616103,5.180857609883465,-32.15895348700356
90,-32.326125911790655,-12.718054665184965,4.828512449567479,-30.65298831522982
91,-30.460705587352326,-12.295971646306514,4.490876781611015,-28.90364317463958
92,-28.134968898134137,-11.886865040025157,4.172330849963954,-26.908801367751103
93,-26.054199966583035,-11.495641695714543,3.858782706415032,-25.067150815587006
94,-24.961165237876166,-11.121153448373011,3.5242085913468544,-23.797377742725203
95,-23.963318325312397,-10.760992255635633,3.155261816771556,-22.549213570526373
96,-21.92675789003789,-10.40887959176135,2.749873314659664,-20.639547812231726
97,-19.552737621073593,-10.048869768743735,2.3135394655161137,-18.50157608662267
98,-17.8655986126551,-9.667272672384827,1.8626649706630325,-16.766635144227116
99,-16.62730357283586,-9.266972142529445,1.428224816262533,-15.291460242176681
100,-15.310963003247823,-8.858164870775505,1.0366065403963778,-13.752879472017232
101,-13.545841430410357,-8.450428292336694,0.6875586971433802,-11.932220220389867
102,-11.082138092093318,-8.050398671591442,0.36413974743121325,-9.682624142271344
103,-8.622742047846193,-7.653432410097112,0.042171981408995585,-7.415950274085481
104,-6.984457095280002,-7.250079721087042,-0.30243565017528606,-5.613490081124216
105,-5.453739300592375,-6.836520391051175,-0.679002778827837,-3.8512218240620797
106,-3.0643293735696613,-6.412477118023186,-1.0839210868083111,-1.5607041492564413
107,-0.2665964686990846,-5.979420347299803,-1.5070840777117405,0.9726589462587594
108,2.216584849910088,-5.539793305846841,-1.9334708186998222,3.301881810290901
109,4.369253523229141,-5.097379006483607,-2.3476778458999914,5.411356065781216
110,6.364765959777009,-4.647648415248797,-2.7403520448003102,7.411551130149998
111,8.669418034005123,-4.182503938936413,-3.109988782189809,9.60958526458775
112,11.72144139854262,-3.682580826441051,-3.467438056923707,12.29678689292018
113,14.810984300978662,-3.1364072428852916,-3.822729375655901,15.059404025775443
114,17.083178834548825,-2.550770768481474,-4.193143197735711,17.378171460967028
115,19.166259349503243,-1.9358255896706877,-4.57911210804975,19.584582853478338
116,21.941224141676127,-1.3051383090444126,-4.953937730594837,22.15991777230214
117,25.142926953009226,-0.6633017157186921,-5.30627406512089,24.959350470877528
118,28.254804697319194,-0.010086510960044981,-5.628822362467225,27.70528793099142
119,31.021999077556476,0.6542433507081725,-5.919143826712835,30.240920218941817
120,33.31854948064342,1.3275129015961626,-6.184780402098879,32.47702229083648
121,35.80964957587387,1.998725006523654,-6.445950380714016,34.80545389222723
122,39.19821407514542,2.6577418752604185,-6.721363141755686,37.6398244160692
123,42.58529142507184,3.2902916890526233,-7.0108564358469545,40.440313525578524
124,44.864959820160905,3.8939540588497215,-7.302688411982125,42.54870584945427
125,46.70456557982886,4.473523380469856,-7.5827868235002605,44.3614646008897
126,49.08183684424146,5.024505066243344,-7.835738509485808,46.4601817293089
127,51.841025757228515,5.541590220165368,-8.047470805823478,48.765641432081836
128,26.79828846229492,0.08575332664811766,-20.53543348286603,23.912936794505068
129,27.271292539822742,0.006116632498742822,-20.69794605815917,24.206382519697762
130,27.229093867330334,-0.08925204551468782,-20.830712834317684,24.13301693759206
131,27.358190829487267,-0.19820365425024905,-21.005698500105574,24.105034772956355
132,28.2964159035908,-0.3134858812562729,-21.229835993255634,24.508210837270877
133,29.178721784717006,-0.42647040603861097,-21.479299424094876,24.843562759315578
134,29.057085069672965,-0.5345641849248118,-21.6992965255838,24.558210834178002
135,28.53492049315123,-0.6418938425809698,-21.853854411393336,24.011699698941726
136,28.410600594053957,-0.7585851202871092,-21.9208508700949,23.68084117054231
137,28.605115146152116,-0.884379657018381,-21.867576172671985,23.528989568396174
138,28.860880241111484,-1.0001041833605684,-21.69663984733411,23.42110196699833
139,28.80937643756891,-1.0847151568383275,-21.50046783384887,23.16540264030533
140,28.16821569728794,-1.1356424945284773,-21.375022619799033,22.618604327159083
141,27.625567819281006,-1.1592318535751238,-21.339235547441938,22.204549228359117
142,27.864921836966904,-1.1575614856078944,-21.365002096922506,22.325905487755833
143,28.148435199205935,-1.1412909933493607,-21.386490854235376,22.50334987480871
144,27.642228081459404,-1.133706200965765,-21.32902715604241,22.19547470437913
145,26.751593967170233,-1.1544603755088265,-21.160901464066658,21.634976290140575
146,26.066569259369704,-1.2050501620983127,-20.883039275815598,21.17533318545879
147,25.736777052893633,-1.272870453691332,-20.51492037346844,20.89193781811606
148,25.749759273154282,-1.350591324025108,-20.08960824499184,20.768634352625362
149,25.513621975183845,-1.4283366993904614,-19.63915656482835,20.46254258237812
150,24.50199970115567,-1.5003973371407902,-19.185043729261952,19.67437577596375
151,23.56006532667624,-1.5616302150577592,-18.729405567542354,18.916972413228716
152,23.565104952830488,-1.6116397484038305,-18.265171949988314,18.722035509018518
153,23.764426451143066,-1.6603069859561579,-17.789103424634316,18.65419352395092
154,23.264243996851587,-1.7182781442662844,-17.297679825596482,18.188474967326012
155,22.33173867736179,-1.7899985597114936,-16.79053319735953,17.475409040643125
156,21.444410488815457,-1.8757272417310509,-16.26460119889729,16.78697189320339
157,20.99740687293898,-1.9669461454539219,-15.697855905604287,16.355131290664275
158,21.20595480585254,-2.0632844039353158,-15.07249911967139,16.304484751495004
159,21.138276253879226,-2.1710950636608572,-14.401225719415875,16.07205223160873
160,19.91451925070758,-2.3169117878489702,-13.706718562121686,15.123127569411507
161,18.59877868661738,-2.5139366699099015,-13.007241979933735,14.072863402509839
162,18.370839253272383,-2.764703344090404,-12.318210600046756,13.610869393461805
163,18.51317772375536,-3.0497618902950316,-11.63745892649629,13.316388027226592
164,18.087112506114543,-3.3404866242704947,-10.959088921270608,12.64695531599102
165,17.172680927319846,-3.6144977600305404,-10.30890915885817,11.674277253718703
166,16.079589360760192,-3.8595176013961408,-9.703949218790726,10.60119204280565
167,15.441788451027822,-4.0813112392559425,-9.096156575930994,9.794749588302306
168,15.733895623037146,-4.2953313110481375,-8.445853780855439,9.520258415862171
169,15.847745954478722,-4.512762261995365,-7.727537458913142,9.12064259398243
170,14.659208528354831,-4.7429759079095,-6.965742723135598,7.933905362521349
171,13.169679673808012,-4.996062644235803,-6.188998658964828,6.555998762220593
172,12.575503861271994,-5.276393847407511,-5.380576631817817,5.700563662776584
173,12.377968606161303,-5.577310187727079,-4.5270921769129435,5.076893881968527
174,11.827872910625004,-5.888202460673085,-3.6144977975126342,4.243606790199003
175,10.75835929855616,-6.20305286617312,-2.6791575718126968,3.1051247555942645
176,9.187683350557903,-6.514581173760027,-1.7564307308853808,1.6747163532950884
177,7.800046228141662,-6.809688474936939,-0.8181595055401333,0.348162918574867
178,7.224307613319548,-7.075939537842091,0.17717818295420895,-0.5053487245596189
179,6.5616468019287835,-7.3045627587715725,1.2496305003639987,-1.3860367078547546
180,4.841269249862888,-7.494021131365877,2.401618278068088,-2.840266199080361
181,2.7983985676592806,-7.654785288228099,3.5956447615269767,-4.4494069533201746
182,1.3375698722059,-7.8042118478174505,4.785488037912447,-5.707962698445882
183,0.20777324866402833,-7.961182620183676,5.965701508745521,-6.785823573260051
184,-1.039995272917687,-8.141061245373763,7.1443871810242605,-7.963397539231165
185,-2.7268768715206857,-8.349758475979971,8.312120836905024,-9.424562587565669
186,-5.029718786278925,-8.584277930632698,9.464636563825422,-11.261883643190636
187,-7.19771920504006,-8.834616322467639,10.62218769354436,-13.03740833886869
188,-8.388099393629421,-9.075944960394596,11.729036051842943,-14.271772261899388
189,-9.889043743732207,-9.272381023649494,12.623336223897,-15.65913779686658
190,-12.810204223079868,-9.408699494101208,13.222072217898095,-17.804744754378305
191,-16.014369091716585,-9.49386855843086,13.544870313606891,-20.02806523027987
192,-18.02396330765346,-9.55880402663006,13.602718774159712,-21.465464706184644
193,-18.87978743210661,-9.644700655943081,13.465171763357413,-22.127253016279205
194,-19.098174757783735,-9.771755877902386,13.216713223417184,-22.320324076037235
195,-19.430832264412693,-9.92938059391064,13.011604656187616,-22.54334656158874
196,-20.762569938284926,-10.038609466395066,13.076431969933115,-23.374049038611325
197,-22.22701412990364,-10.12658762051133,13.389864603644556,-24.305511772336715
198,-22.76310748675805,-10.18938565536176,13.910313668953298,-24.719599626106863
199,-22.966637271071853,-10.224196285691956,14.516409394331726,-24.96457117821802
200,-23.7398718187688,-10.233432217187753,15.105775621779337,-25.556817244223662
201,-24.894071996117237,-10.225963978893047,15.594445581997384,-26.34898378573509
202,-25.99941228701549,-10.211775310671783,15.943120873868287,-27.048867827176384
203,-26.71303859248515,-10.194939050802533,16.12916868270813,-27.431657164347573
204,-26.788132065101564,-10.177944295384956,16.160632821363784,-27.34847981875376
205,-26.89857769985011,-10.1686311215211,16.093652140219657,-27.219241827698177
206,-27.814787549719227,-10.173950757115104,15.990838684846123,-27.5335213154213
207,-28.822800369460534,-10.19266332708909,15.874776706708115,-27.901938287430248
208,-28.97483294921891,-10.21990318631125,15.746210381508197,-27.78626548425498
209,-28.711078284316198,-10.252523459995496,15.597494814658422,-27.440141728880256
210,-28.74337954964984,-10.285041442281493,15.418307367366236,-27.266433572984752
211,-29.111167021178304,-10.306734215634826,15.220958422095102,-27.289813573659224
212,-29.657125007860447,-10.306302405546655,15.025998200050548,-27.42398228260857
213,-29.874079800219192,-10.273956809437637,14.832042187381271,-27.3631409805716
214,-29.27450749358994,-10.205381921874043,14.630096148043725,-26.816024420779126
215,-28.556310249084795,-10.108544552983982,14.432288457780045,-26.206298638347512
216,-28.5852411030192,-9.997984964480825,14.243786370676702,-26.058863070548757
217,-28.775787554705232,-9.884204725470344,14.016066034001678,-26.03909676016087
218,-28.294229498216545,-9.774764081170348,13.715858624974189,-25.65678332613029
219,-27.393906930713378,-9.681490062648693,13.342424370060213,-25.035751542320043
220,-26.559058414453936,-9.603169089128034,12.963693388045257,-24.429542438288927
221,-26.059708555579125,-9.525105589978347,12.612627447430933,-23.99316158467729
222,-26.034072166533743,-9.41857846533877,12.308554501139891,-23.81418610886269
223,-25.762610176789476,-9.261571367705526,12.050868782152845,-23.459630190275387
224,-24.484530499652234,-9.062681400649922,11.801261208047626,-22.477458036177843
225,-23.096710920672685,-8.84849346988807,11.524618246173388,-21.418249063381083
226,-22.723134813272782,-8.654441642181832,11.171966075291042,-20.970397319042878
227,-22.724154441900332,-8.494715150288087,10.750641215715882,-20.766699493554885
228,-22.135144977943146,-8.369375014359054,10.338289180902244,-20.236975175206258
229,-21.051974211145737,-8.274755350405417,9.960076802921861,-19.42934875841268
230,-19.845774663300578,-8.20070746014499,9.555972116991201,-18.545851537789073
231,-19.068211194402362,-8.133228998336028,9.083896150139493,-17.88219874525918
232,-19.18461248086553,-8.059518892067745,8.570931232476529,-17.692035375199755
233,-19.25418659055197,-7.972437773861979,8.081942775616241,-17.436838516660625
234,-18.18770112397269,-7.8682049346536935,7.701669019423498,-16.506747348184202
235,-16.96065589297757,-7.740200053879961,7.44944522099501,-15.50303970360074
236,-16.865974694022103,-7.584901641616713,7.302326439059193,-15.206751049844316
237,-17.341051898290402,-7.409663960268836,7.218649192646415,-15.286524369467465
238,-17.4434620970083,-7.22444522803395,7.145586893450974,-15.175254387460443
239,-17.026814973835922,-7.034121178858435,7.056978740404956,-14.781005407943013
240,-16.193886145997794,-6.839573679733344,6.942271735060187,-14.159416720960873
241,-15.638652892618788,-6.636361926799092,6.772705188572017,-13.709551754686444
242,-16.06525786385578,-6.418508892540266,6.532225738688284,-13.841900656683736
243,-16.54244599483683,-6.183824844467236,6.249028943596677,-14.008272141087183
244,-15.905556624857002,-5.934751903463768,5.962481326439014,-13.529003492914537
245,-14.91788293128247,-5.68077548390294,5.707165174266238,-12.88879943693741
246,-14.688731249691626,-5.432134341455408,5.49891817283978,-12.766121285959722
247,-14.941587951600722,-5.192515969197189,5.288630135814303,-12.947493629161658
248,-15.100412667350007,-4.9593727165621955,5.03166950733521,-13.025971687885754
249,-14.8990653886249,-4.720708032647931,4.71530725923609,-12.835466065115144
250,-14.198401794276796,-4.4639955404350244,4.386836666771044,-12.305378109735171
251,-13.660118720901167,-4.1892147865440545,4.12336069448104,-11.82537139241965
252,-14.010209679751778,-3.9020650897946774,3.9442284570733115,-11.826073573888912
253,-14.459583449677188,-3.6108572958895895,3.8375967468258696,-11.84733273479015
254,-13.984956308191228,-3.318805364458899,3.7548023696621287,-11.286910854608397
255,-13.077868612278163,-3.022313998142112,3.6585744345742883,-10.433833812381295
256,-5.908604058070053,-9.653820273443486,-6.920886001236156,-8.162284604247336
257,-6.403550706103418,-10.038980039198597,-7.107686597145844,-8.453309264562947
258,-6.8019346359220325,-10.385014618610265,-7.335247029366784,-8.720405506856588
259,-6.698549876729868,-10.693790901353257,-7.585304320358438,-8.699532132169303
260,-5.867658609742072,-10.972751351895212,-7.823971952625584,-8.22318235444929
261,-5.2645241874534126,-11.220841124556008,-8.01453107521764,-7.858785045680858
262,-5.79008295596212,-11.437362055767446,-8.151566743626276,-8.152368089978903
263,-6.359955485925695,-11.622473199880671,-8.2449013398166,-8.463661884009865
264,-5.77572121042588,-11.780027942201555,-8.3175256635125,-8.08693191649441
265,-4.764028025137477,-11.927953915398588,-8.378487769479976,-7.468317110584525
266,-4.289123266011789,-12.082790006168866,-8.433990279259076,-7.187530182996048
267,-4.332920731147239,-12.2436001069925,-8.500719712944992,-7.211292745046711
268,-4.628865377437567,-12.400110729286311,-8.588817060589298,-7.360068577843253
269,-4.492421980584031,-12.536702322278233,-8.716437792692668,-7.245021808613728
270,-3.3745595095103607,-12.6391630998011,-8.883960780839155,-6.563234379719389
271,-2.3420602833340296,-12.706131014101858,-9.078835226462731,-5.946210686765928
272,-2.50551522896105,-12.745282816079651,-9.29856763852372,-6.044501547270492
273,-2.9134625846844813,-12.767310640066356,-9.550639228013145,-6.284459917389947
274,-2.4267260972715134,-12.78448563959327,-9.813278562510995,-5.981763707447284
275,-1.5157210413245794,-12.808576765094069,-10.042026270869028,-5.418841593370356
276,-0.8859949294637454,-12.844001197256626,-10.195746470824561,-5.022943649986813
277,-0.7215633916049053,-12.882978381902765,-10.276511483547191,-4.907122753428462
278,-1.027305011032539,-12.912377838536562,-10.3089695186265,-5.076357599027589
279,-1.112298966954735,-12.916375105715622,-10.327668025857415,-5.124016416959889
280,-0.340811325165136,-12.885708838222529,-10.363534810731219,-4.67141718297371
281,0.3929841196018708,-12.834070973984455,-10.418487354649654,-4.238799497800068
282,0.117646037222498,-12.779358610247343,-10.480494818181404,-4.3926077436210225
283,-0.4673792971649113,-12.720969084855263,-10.53839279982808,-4.710687525945571
284,-0.4900202549840106,-12.654777453115209,-10.584484258563375,-4.676481991593956
285,-0.1705565132230854,-12.582236507535152,-10.629032665277167,-4.446975922908881
286,0.07707926198870424,-12.506510830151779,-10.681921783559202,-4.290609496157045
287,-0.09444637800050565,-12.43980649843453,-10.728853914779243,-4.392810702040908
288,-0.8918721806912694,-12.390518472483311,-10.746488274926174,-4.848110049321643
289,-1.5585087788300342,-12.342821126007493,-10.715093806339226,-5.211295770016303
290,-1.3504679012461662,-12.275639587189966,-10.622103017468527,-5.051281387343621
291,-1.036189162376734,-12.18288990434089,-10.4652345666905,-4.817769347113357
292,-1.5035581579466517,-12.062876608234967,-10.260166047169369,-5.0343471864847995
293,-2.2955888260003445,-11.911729055960718,-10.046975901199476,-5.448937504510682
294,-2.7727098506045866,-11.728963335415848,-9.86088107229057,-5.696173558068184
295,-2.877128138248824,-11.516976479146678,-9.72079459374467,-5.721300442387422
296,-2.7094786505276174,-11.27919994687504,-9.607156738772451,-5.561317520112637
297,-2.784537728132155,-11.02352428340203,-9.463088184983068,-5.525830890156418
298,-3.539120416845366,-10.756146121133762,-9.221508566172144,-5.885834390149576
299,-4.179565687120371,-10.470227588684564,-8.900623701211332,-6.183294086506521
300,-3.886538732820811,-10.159478542867836,-8.598085189237773,-5.93973514801537
301,-3.374965451442314,-9.834981318142708,-8.367680323882164,-5.562632830642758
302,-3.4899175421412743,-9.509245000229818,-8.1921089544728,-5.533722988006353
303,-3.921070770247556,-9.182125306601085,-8.034050566112366,-5.668058983628941
304,-4.172767176381193,-8.849091306273765,-7.856212653449166,-5.680540311366188
305,-3.959855305106341,-8.503629059954575,-7.632075319229065,-5.424960327470636
306,-3.1680050690072483,-8.139399238302959,-7.3585261586769946,-4.851824968297119
307,-2.622134928772778,-7.759648418112627,-7.051102391220324,-4.431004576246417
308,-3.0748236037196603,-7.370349102074025,-6.731274717330537,-4.583341511187017
309,-3.5068472494056095,-6.967068357825266,-6.411005178966,-4.708058368855307
310,-2.817596567951874,-6.54787052858631,-6.09117690460852,-4.164584333757375
311,-1.752806127683586,-6.12810450600274,-5.757859736841575,-3.399823374711331
312,-1.2691281822539189,-5.721910093987444,-5.395986531739078,-2.9849114612264542
313,-1.2553871415419318,-5.3268767219009705,-5.00357935328438,-2.8611367984557012
314,-1.3711106929561365,-4.931079938053191,-4.591016173753579,-2.8234205008567193
315,-1.059199941411742,-4.51649278390387,-4.186167312851311,-2.5140022157407933
316,0.17165412564958493,-4.087596853924286,-3.8284643220527883,-1.615626188200876
317,0.8571210653664348,-3.6691584535447923,-3.54149722970894,-1.02439397813692
318,-0.22420698984950194,-3.3020311323364444,-3.3369505091741622,-1.493394314510632
319,-1.3822883527607126,-3.0074351088221842,-3.1970371886750444,-2.042549860496942
320,-0.6742023875543832,-2.7793614713083605,-3.084510483218174,-1.5293810053892605
321,0.9192073426645091,-2.5769407596327865,-2.9637775016949783,-0.5228301546732519
322,1.9191151745977653,-2.3514493396859084,-2.8088276290484138,0.11065164997464277
323,2.2329433684392423,-2.084885841908541,-2.6127004765710025,0.2887123707860769
324,1.8431503810637926,-1.7227315292540473,-2.3909889594579328,0.1306293528992433
325,1.6218839129446414,-1.334410631533185,-2.1420261749269933,0.056927243651842985
326,2.3503660827283257,-0.9364995198718149,-1.8793511566228982,0.5445559863434271
327,3.129536897600728,-0.5465508131648595,-1.6297188610016793,1.053464745276178
328,2.832060418937315,-0.18003357000695652,-1.434612584775078,0.9024666940821492
329,2.130284326389589,0.14661675782562505,-1.2874412675654705,0.4866185696157795
330,2.0269488135785902,0.422376773814217,-1.1193065462096334,0.4011625610013571
331,2.4427065066630607,0.645890108772569,-0.8778175670325709,0.6098632398684088
332,3.0151135463749643,0.8265063242487679,-0.5724334597346107,0.9094513515199651
333,3.186541210297958,0.98679826578406,-0.251930175300169,0.9598084647146463
334,2.4882574004058227,1.1515889701010238,0.013546693211640728,0.4697987235723523
335,1.9051921593941055,1.3399788937301602,0.20561909972155035,0.03048885652392387
336,2.569185763474539,1.557708141163729,0.3368717032347347,0.3253868167429909
337,3.484786616844328,1.779853649411445,0.42354756983450853,0.7685579333740237
338,3.3111800244617777,1.9748980567011611,0.49121022654410884,0.5674707144199312
339,2.553614216426952,2.1394961543482043,0.5639556974419818,0.02208948786636339
340,2.1068914804989936,2.2834294050131176,0.6554399280252533,-0.3382155282117828
341,2.1307420157789814,2.4135696719249218,0.7732453799525305,-0.41343264161539184
342,2.5559616765593023,2.536769472070065,0.9114557279038946,-0.2382763379521319
343,2.6894539949295626,2.659470657193708,1.0357823506029895,-0.2295782458238515
344,1.8128820958159528,2.78034815070244,1.1094985341851489,-0.819755589595612
345,0.8194955485661611,2.8790839497147767,1.1275437210877095,-1.4647828519425852
346,0.8416181163464355,2.9367268157897897,1.0992008049015891,-1.4781496551790254
347,1.161098176306132,2.9624856347839197,1.0343827766439637,-1.3022034480357552
348,0.733713466549039,2.9771471616385417,0.9462035615560377,-1.5762998340522678
349,-0.16657223422966283,2.9986163810148994,0.8323578676099281,-2.1225814634187548
350,-0.9822554397433433,3.0384075316740957,0.695505828171877,-2.58997206739842
351,-1.4225970657888507,3.087020566560495,0.5833822546780028,-2.817547321040378
352,-1.325611843809579,3.1240555076735252,0.5471403573152808,-2.7259732194451938
353,-1.3716166570394246,3.138338060380812,0.5954672837388015,-2.713166192754855
354,-2.314131615263265,3.1215119867732204,0.7103665868002816,-3.217402936549185
355,-3.3700605335703284,3.060907201665011,0.8524650358475921,-3.7785251342786212
356,-3.5176927106175215,2.9502686144572663,0.9753486418026243,-3.7961648564806114
357,-3.262649240442226,2.795865062228952,1.0551978817752263,-3.5707124318877668
358,-3.4059011872671725,2.612768019699709,1.0877655562583022,-3.5772328099186947
359,-3.905944061253913,2.4247851007544168,1.0824276839400995,-3.788604155062414
360,-4.506485768241529,2.254665721056174,1.0571030369157826,-4.050313728214172
361,-4.772227733133409,2.112356782336593,1.0259270095954247,-4.11304986931678
362,-4.314829967067307,1.9971086294191303,0.9963239289776001,-3.755496360667247
363,-3.827163796895315,1.8959829304024047,0.9663176072530059,-3.375814456400824
364,-4.139701485534573,1.794819336556161,0.9287667441944777,-3.452002524454295
365,-4.6165733500354005,1.6973823938677663,0.8824927967947088,-3.6209826958658753
366,-4.374543838526669,1.6141713184975013,0.8295813783068784,-3.3780241261107125
367,-3.7256617720744316,1.548789690657875,0.76666700243687,-2.8995980318380417
368,-3.230968020201954,1.501304829455342,0.6962272679481173,-2.504596472983373
369,-3.064857183986827,1.4671772472394542,0.6403235524589673,-2.3113932845153484
370,-3.2573005363171412,1.4395972482409998,0.6221191525257935,-2.3525091572452395
371,-3.2167142407820783,1.4146889327549081,0.6517827874199876,-2.245324400267877
372,-2.3314239512266335,1.3932130778014389,0.7234828196744075,-1.5965243958983442
373,-1.3995586382656235,1.3832052269127408,0.8035542968878484,-0.9148598058460918
374,-1.4027712913237638,1.3939340689742177,0.8606124500144193,-0.8282950705340077
375,-1.7062497502729828,1.4304049375290064,0.862135343820487,-0.9588937767245788
376,-1.3936775851814938,1.4907314653835282,0.8198509008343162,-0.7437631183028282
377,-0.6366222301569193,1.5573495755448143,0.7761490924786141,-0.25635490216451273
378,0.13044619622363982,1.6100960953716386,0.7768491665470861,0.27049761033933173
379,0.4591149907674045,1.6476734224856646,0.8104056085503198,0.5511198949129227
380,0.02175808814567151,1.6748777292959052,0.8457003520120827,0.3569345481969826
381,-0.27363357550170997,1.6883209993537724,0.8428825702539972,0.22379348662167695
382,0.5839644680302212,1.6846080425970504,0.7894713088038392,0.7602701240136958
383,1.6138563873501923,1.6609148229649795,0.6880025052104618,1.3858816538036451
384,1.5739294826284866,-7.188388857219397,-11.290656103580211,-0.6046392830235336
385,0.7621845592923324,-7.514776609945917,-11.689089499767997,-1.175649743537271
386,0.45501233086320736,-7.837416596718283,-12.047277110180888,-1.4173287433054953
387,0.49483274443726705,-8.154097866362381,-12.329285404296398,-1.422753227681465
388,0.5396655756360808,-8.461654612325269,-12.515174941853452,-1.402953979570611
389,0.2538057577512616,-8.755500386640188,-12.630475685416183,-1.5682008810692272
390,-0.5830771704548559,-9.034422329354808,-12.729702066940728,-2.065862039061388
391,-1.2393742971929402,-9.307574135305556,-12.891844231616645,-2.4946752786836157
392,-1.004571771713155,-9.5863709500008,-13.17889966810494,-2.455918171295114
393,-0.6511125351870761,-9.876869502746402,-13.585135818111173,-2.3923744369484314
394,-1.066656535063057,-10.179752218914693,-14.063038461689324,-2.7996683217339515
395,-1.8453590437356184,-10.488093762593788,-14.548441999913162,-3.4105846406143816
396,-2.384544875055102,-10.790943611023748,-14.978538874579437,-3.8479827163466025
397,-2.5647382739068805,-11.076932301389126,-15.320931426311889,-4.034883057179893
398,-2.415550392878134,-11.336062518940269,-15.575122982642824,-3.996574974776599
399,-2.4699385892855252,-11.566803965531314,-15.767330871649017,-4.072378353056076
400,-3.198265714504191,-11.762776016340789,-15.936777755056756,-4.561441449230264
401,-3.786198317465549,-11.918677206332774,-16.119857461990286,-4.97265773424801
402,-3.4008159098915822,-12.019698400729835,-16.336042257734498,-4.796347791622429
403,-2.790931028509986,-12.052714769722897,-16.57250112629167,-4.475405673095728
404,-2.838653282061782,-12.031948607688244,-16.801574454903676,-4.536602162359602
405,-3.2615314553517654,-11.990455452573867,-17.00023444392051,-4.816143751198102
406,-3.5713339650549365,-11.952944441435656,-17.154047648659823,-5.029761956347231
407,-3.4233271243908594,-11.933379641239371,-17.267333095042673,-4.97841270295407
408,-2.6423777240375297,-11.933255573917128,-17.355199283303257,-4.557038977961622
409,-2.082866155647001,-11.947542680405093,-17.425726820410755,-4.257759245258856
410,-2.543446500184626,-11.967391862825746,-17.485627002806396,-4.53651176393229
411,-2.99083990533037,-11.984890624202237,-17.55061023082278,-4.770800633520959
412,-2.3025971360801787,-11.995702621210668,-17.61404645250981,-4.29319040022921
413,-1.2322167143931777,-12.00190234739228,-17.688050277687054,-3.5547920505724235
414,-0.741234109180848,-12.007507465092557,-17.745060829796888,-3.1387591756983264
415,-0.7040953229513811,-12.012602032244606,-17.717912377875546,-2.9973039591558424
416,-0.7646380431819955,-12.015865064548008,-17.609139197048965,-2.9409948922998455
417,-0.3613499079315499,-12.014862758635655,-17.484788860043015,-2.6335082188655905
418,0.9115472480147133,-12.006851631341746,-17.423995603970354,-1.8201287594792486
419,2.005635371712689,-11.995342530373003,-17.42961509466985,-1.1083735659055205
420,1.8795322978829985,-11.979968738145896,-17.47200785382908,-1.1037220382785005
421,1.58981170500384,-11.95679573467827,-17.52628362634672,-1.1841918044613589
422,2.3486661417278536,-11.916528397193177,-17.561299450618804,-0.6400566168781513
423,3.541154812514869,-11.859134552537126,-17.54741048240317,0.17724064297292697
424,4.302497856032967,-11.80015986501505,-17.467542970485162,0.7630480240760968
425,4.5351698383991526,-11.756424567159229,-17.31934182645716,1.0260635184811002
426,4.362154666455757,-11.730437858520057,-17.10948413107304,1.0063737129846697
427,4.474316117820606,-11.710947111873612,-16.847005067409967,1.1243960415257135
428,5.47666573748156,-11.680221485759143,-16.543218945515502,1.7601174708416372
429,6.418357809403463,-11.623502457777407,-16.21051748319375,2.3558132233280937
430,6.2778743943045,-11.549033194225169,-15.863071446743247,2.307322444130418
431,5.832228966453635,-11.483935687308348,-15.514234013154148,2.0735603967156777
432,6.044066691651213,-11.442067394773314,-15.177410266884161,2.2188498215191212
433,6.634130147392746,-11.421969206535904,-14.877863128955635,2.567303923917838
434,7.114611443117638,-11.40954885377782,-14.627286768970402,2.8255219119363284
435,7.188501746653299,-11.389106572563358,-14.389214010776934,2.8339281156030194
436,6.702758998496283,-11.345708687665574,-14.117842703360324,2.519963261087518
437,6.380380163096439,-11.270616975233098,-13.799624385585485,2.311648825416968
438,6.922332582062269,-11.161819590451227,-13.433090482941902,2.6177322852790534
439,7.529075575327412,-11.02350923711011,-13.014893629059516,2.9564569675529775
440,7.300172464779993,-10.862270939836602,-12.550971889686124,2.789243337926245
441,6.778437843955908,-10.680861299537687,-12.054704515296926,2.451159407125701
442,6.6792997497946605,-10.481271015619956,-11.540706148303821,2.381302927631594
443,6.953912502422442,-10.268167487248348,-11.03079436958724,2.5443609036980357
444,7.0757805355630605,-10.062887489673164,-10.564933017733738,2.621949552527636
445,6.3987771248478715,-9.903825628130232,-10.16843081744866,2.2316214127154392
446,4.322450673326577,-9.803984001798577,-9.866620128760337,1.019982154269141
447,2.528069187076706,-9.739077012338592,-9.638396380492317,-0.013743942699531053
448,2.8344354122086006,-9.680974591367653,-9.440565848373536,0.21090190688063115
449,3.8428040345590797,-9.613355677001788,-9.270504803234573,0.8518730077858307
450,3.6342056163696266,-9.528075882297815,-9.116192262439665,0.7579417769687881
451,2.6080031616627597,-9.432087635434412,-8.98347847367863,0.1774183352300599
452,2.466319763824769,-9.311674640873091,-8.759570345677957,0.24646198453629986
453,2.6369617624814605,-9.1795677815239,-8.572314232973099,0.49839486122967014
454,3.313037007900244,-9.034140532778586,-8.453195738206043,1.0435661146043382
455,3.8330026487010853,-8.873221057716238,-8.370891539619663,1.4972397763989844
456,3.456546607809094,-8.702929901380791,-8.273872803689914,1.4245267402101582
457,2.94426123729604,-8.52916513191144,-8.142911588513552,1.2494566303437897
458,3.2914153559176933,-8.357799600742819,-7.976840514663586,1.539391234799382
459,4.043905147472996,-8.182232476691837,-7.796819379500292,2.0573811318346156
460,4.459294875419457,-7.999478993933855,-7.630743155459111,2.4060735093212813
461,4.540497854200094,-7.816787301707102,-7.469898118869684,2.590459393283493
462,4.484713708729735,-7.652991144598106,-7.295939479857331,2.713404906919114
463,4.732889987817653,-7.514573538586192,-7.118465357237312,3.016466936789008
464,5.691686722903074,-7.390278166618739,-6.953001591814995,3.7173818119283175
465,6.663317183725657,-7.269089914944802,-6.806450586590424,4.395695244285566
466,6.810067447073677,-7.148750017868661,-6.680566647863717,4.557868359390457
467,6.747613205299441,-7.031931496823897,-6.563969982575245,4.567314358628318
468,7.338454563694566,-6.917254170183272,-6.439264652495362,4.937806733490634
469,8.300102678249175,-6.803476327127941,-6.298426493775045,5.511998190950074
470,9.106622786817226,-6.688143689544127,-6.1406124110530955,5.9934949114844684
471,9.535385677912009,-6.577344200024014,-5.965889730139202,6.273514812231965
472,9.503419020005733,-6.473485287317398,-5.784348602116314,6.322261879319919
473,9.667650411440569,-6.370119221456295,-5.622540574057006,6.536312397395754
474,10.717563874440764,-6.253454567286392,-5.506985291770332,7.315038927915804
475,11.808874766248532,-6.112629989986881,-5.459289635090206,8.117569118433426
476,11.893272227422251,-5.953622538379375,-5.478507087050693,8.279780533655746
477,11.62058520349223,-5.796101851688495,-5.50538306443972,8.182301073311205
478,11.942232945043814,-5.663501812385528,-5.469932538100738,8.405307009808897
479,12.717443683318336,-5.561481977942583,-5.352522573731479,8.883141356823996
480,13.532870712018218,-5.485644859244013,-5.165169606996822,9.391129553056166
481,13.893277728346932,-5.4201570746762755,-4.938745843890629,9.651144283068355
482,13.410961584191808,-5.353452881591705,-4.71538266653816,9.437271699127052
483,13.013691255740843,-5.278016015126414,-4.522784343600205,9.291385477807841
484,13.754114730262271,-5.196259169751234,-4.372452781174621,9.821926647790113
485,14.650168012272736,-5.11462061943393,-4.263852091963558,10.425672295890513
486,14.407583654844505,-5.044364934808061,-4.184210339382117,10.320801381063825
487,13.617507133052792,-4.988452391994556,-4.113481096113232,9.866518977936574
488,13.242050142912051,-4.936431657183955,-4.031327196531655,9.651009635616655
489,13.353205020396889,-4.8764013604444,-3.925490566246243,9.729354459190606
490,13.760659725554817,-4.805918996192669,-3.791301488735773,9.994216836899696
491,13.757715171248156,-4.727055468165424,-3.6265216241227103,10.012366017983833
492,12.669054768114064,-4.647697167187124,-3.4378082446679272,9.365231168454514
493,11.508998445130757,-4.577823935699885,-3.2452635655674897,8.66100485668356
494,11.523916343112617,-4.523508382578852,-3.0735083269142023,8.652103544335173
495,11.900253421057531,-4.477263898717012,-2.9478744707557527,8.855790751587485
496,11.446673314167901,-4.428387693907933,-2.8811380276758776,8.561990850377558
497,10.477848108370715,-4.365825103701795,-2.8564269501941073,7.952385963830123
498,9.630826251161423,-4.288903549377276,-2.841586118834689,7.402256116506546
499,9.155701070815375,-4.1963851183000305,-2.8001600063634977,7.071795096876042
500,9.163766782317506,-4.0903793710824035,-2.7049698206899087,7.0434262383699355
501,8.986993436525575,-3.973065206221998,-2.568743424295921,6.930484150023822
502,7.896633902895504,-3.846287132289759,-2.4186251961411935,6.302336454092572
503,6.714961409696627,-3.713511230819678,-2.2554390671274445,5.634966993935575
504,6.499345100309569,-3.5774358211470423,-2.0787092389846302,5.536629041284443
505,6.698624304854826,-3.436363785019372,-1.9045674911265655,5.6658125834341
506,6.451366647999528,-3.2882901855880853,-1.7581836843361331,5.501211560284292
507,5.84787352322993,-3.1347126662458566,-1.6835100850538693,5.091228136192398
508,5.20041581506311,-2.978476923443146,-1.7140285835183133,4.624771949477487
509,4.871349485940997,-2.824483607859237,-1.8383935483881444,4.324724014554086
510,5.158302637848098,-2.6747790258303645,-2.0104805675206125,4.383262984890626
511,5.369131342104476,-2.5204118214319307,-2.148732724538819,4.425716873754725
512,13.280817769418743,-10.496841354834086,-17.20915923216145,11.465903280330197
513,12.954269941635483,-10.80180732970817,-17.707713617545586,11.330286867392285
514,13.6586224358947,-11.093691474858518,-18.14206574395211,11.734873066336611
515,14.633527951777905,-11.392991366071175,-18.521150263441683,12.226993225383975
516,14.897122114508928,-11.713153390151072,-18.857611836003905,12.229053530110654
517,14.546982875679122,-12.051516536872004,-19.156084973045335,11.806413780816069
518,13.919170290382798,-12.396715750095861,-19.41635831829043,11.168969855454288
519,13.620668979766247,-12.74139889539203,-19.634030255015425,10.687409767373962
520,14.103417306706818,-13.078610893666584,-19.803675327032597,10.634090421970617
521,14.277300418490478,-13.403014328013574,-19.92141457940482,10.361424984795873
522,13.053713026737865,-13.711436860632725,-19.988132221365728,9.215882991389096
523,11.503186096469049,-14.000450982028225,-20.01925433486448,7.803617331584067
524,10.871125468036361,-14.268653048542092,-20.026900856496972,6.848147685292001
525,10.60310809968947,-14.51563156449517,-19.99664412434933,6.0606729700934565
526,9.8737920636449,-14.74592148837254,-19.909744034090842,5.003370578783313
527,8.506355802843535,-14.965871809812954,-19.763663828168113,3.599241858757517
528,6.536273363805716,-15.18291297890469,-19.565199279936486,1.8738249335427635
529,4.679975232188976,-15.391778489792307,-19.327771364300425,0.2182555351356379
530,3.6055786808903996,-15.571692194068866,-19.068761096780243,-1.0150065181271049
531,2.421984401386691,-15.70602088171107,-18.806443657006845,-2.3769947797487077
532,0.15708371728249548,-15.798439473983311,-18.54796880516768,-4.445162837964376
533,-2.432304416032816,-15.869279213360166,-18.27387610230885,-6.732543306725869
534,-4.4196306128366905,-15.94134249395655,-17.95718673504774,-8.650815713622583
535,-6.049690804617109,-16.0114148040016,-17.584867208683384,-10.359696902781515
536,-7.770956160253404,-16.066742479413207,-17.150560046318265,-12.152185678085065
537,-9.902579412438264,-16.096746499872413,-16.653848476432916,-14.223345836433475
538,-12.623529846708385,-16.09354134567311,-16.101683700715355,-16.669917023393747
539,-15.201429918516983,-16.067408497977617,-15.493973876212888,-19.022934160383063
540,-16.919627358187405,-16.025091137369152,-14.838320919822348,-20.819648159498616
541,-18.559826529524518,-15.962519710268989,-14.18012993841196,-22.505772424913314
542,-21.011007036119413,-15.86245145249378,-13.55261973493091,-24.615974519347844
543,-23.759769062543047,-15.724549482165212,-12.9560274207224,-26.897923084911383
544,-26.127551416902,-15.571025218567563,-12.362437448822504,-29.002932351612195
545,-28.147678917960754,-15.418572166629893,-11.73475705747841,-30.952812808418717
546,-30.024535763842305,-15.266030259270662,-11.07472502367082,-32.84744306704744
547,-32.266719002810625,-15.105363459456356,-10.423414439785049,-34.96513389943981
548,-35.27052235338958,-14.923002696829982,-9.788701196139655,-37.51900158128349
549,-38.2167731068005,-14.715580262853397,-9.132916287483804,-40.02114807920918
550,-40.25890611296619,-14.487187387729108,-8.449613437620718,-41.97841318354859
551,-42.09909495468879,-14.244690756620086,-7.767361953998528,-43.81365925751093
552,-44.58363581670774,-13.999468630230961,-7.115296609195054,-46.031527009568634
553,-47.39426061567861,-13.753260776003113,-6.476034675269028,-48.43587451973425
554,-50.021107784695715,-13.508367332097304,-5.813246321536047,-50.712736551025834
555,-52.18739874210743,-13.253510413407781,-5.077273109552123,-52.689205628763894
556,-53.76374967332619,-12.961728137104622,-4.242661576497252,-54.28288289499035
557,-55.45580205866286,-12.622938212324415,-3.3610245654629582,-55.917178436502894
558,-57.912740400828525,-12.232116564192197,-2.518590238009672,-57.98002313669668
559,-60.164580444705024,-11.787576117003349,-1.7900778044353278,-59.87805061878895
560,-61.19353742264161,-11.294523671210376,-1.225097746335251,-60.98886511398122
561,-61.772253649397264,-10.76104812973263,-0.8327355107847908,-61.768976221803285
562,-62.85150515283354,-10.200999591479963,-0.5638642024153431,-62.789384224597725
563,-64.23682508417464,-9.625894158422616,-0.32116141712622154,-63.950648643127465
564,-65.50157756701363,-9.051697264961605,0.013639785385044623,-65.01256168618787
565,-66.13078769792656,-8.488723427433829,0.5231730925441689,-65.6602995298025
566,-65.77841774852763,-7.930772069457311,1.2226283154366702,-65.6662856088219
567,-65.46711220894387,-7.362347044993366,2.0913797713294824,-65.61609157153514
568,-66.18326557737329,-6.771962763161216,3.079749451636,-66.07012902495373
569,-66.78515981233959,-6.148946823486585,4.1026437406818985,-66.31786308991299
570,-65.99997262413163,-5.4796457500518745,5.045499332386671,-65.58312814734337
571,-64.52078957677573,-4.765792175780912,5.820793937686878,-64.28516103202315
572,-63.50886480134733,-4.04915991493186,6.390134300365985,-63.1410104252332
573,-62.91514969255871,-3.4207240267548715,6.753629723653342,-62.15809042974821
574,-62.5887275542068,-2.924898161242619,6.972258229782537,-61.2823183639094
575,-61.31903014747547,-2.535926533671399,7.141387809421755,-59.82051756544905
576,-58.073080349683465,-2.2047851169013453,7.301678877721101,-57.16686100217912
577,-54.67862066378186,-1.9068631915507999,7.455548909828084,-54.376710929547905
578,-53.1912280502176,-1.6380586841530642,7.632549695896565,-52.64616603182798
579,-52.59735614325849,-1.3981468479776247,7.8678622993046075,-51.40574683602938
580,-49.552867149917674,-1.0585770546264839,7.917763351840554,-48.44250063679686
581,-45.99101418554841,-0.7427597555076365,7.963547969921847,-45.2062635113734
582,-42.313212292179,-0.45760710083245154,7.989609876175585,-41.914594513454674
583,-39.072903645975,-0.19234243949783672,7.999233835828921,-38.87316317051247
584,-36.72351561298728,0.06865985639607071,8.016459937668902,-36.329270743704434
585,-34.31877898084466,0.33233322595000675,8.037629561091268,-33.70453303973569
586,-30.761054237436397,0.6002404688644065,8.0151698281466,-30.342482314960534
587,-27.0115578177154,0.8653043375235484,7.909328497325358,-26.828436100467574
588,-24.358621311005898,1.1193469048349247,7.7360896678290905,-23.950300663339352
589,-22.254823099733468,1.3662767347043712,7.5556505133572704,-21.398564040427214
590,-19.78631137445162,1.6157729518379138,7.418232687796786,-18.64204766934307
591,-16.84848944553803,1.879013723904708,7.339129434221402,-15.628643679437875
592,-13.579153651108104,2.163634530261749,7.30320289908586,-12.444597214755532
593,-10.673616112884437,2.461688300768178,7.286075964591296,-9.503547862431917
594,-8.816902458670672,2.7589647313577355,7.258697567230312,-7.207804046639434
595,-7.046425914822793,3.0484772520962684,7.201564805162115,-4.969295924560779
596,-4.166480431716794,3.3267938962365298,7.105181142942567,-2.06022800960453
597,-0.9450042099302306,3.5927809550967447,6.973621731523055,1.0649473447976339
598,1.4977050106902037,3.84812383621722,6.807239432496272,3.735763548721864
599,3.4702279348039706,4.092697207033165,6.5999694441208225,6.1418015777003765
600,5.586070425490118,4.326001496051047,6.33350723523003,8.649537888213956
601,8.114064893967296,4.552205461119515,6.015610663427964,11.391442792397672
602,11.181016069214042,4.774077775991589,5.686047496362444,14.41365343530056
603,14.105308569295254,4.9853853880664865,5.367324556496022,17.318813684933883
604,16.13357409866919,5.178484472172983,5.050874865105659,19.675682240996032
605,18.047258148045678,5.350240092377609,4.731126817469125,21.937231092387098
606,20.866076983350766,5.5020835462843385,4.423527709857699,24.696916646101993
607,24.04953979564779,5.6457883231019625,4.131216331470261,27.646155433278132
608,26.766628348378436,5.794131456034025,3.8558258372218988,30.30829969064905
609,29.10233529405855,5.945176661377988,3.576713095772384,32.74339103820847
610,31.368776394655566,6.091460202976669,3.2694686425362844,35.14180308986843
611,33.987973047936215,6.231692510325086,2.936666995785119,37.742989941088084
612,37.311765739821176,6.365904092198587,2.590104141538461,40.74234569507352
613,40.638614490611126,6.491140109143719,2.2323040427900858,43.737653286140066
614,43.12392325368481,6.60873463653026,1.862730549287071,46.24528139746533
615,45.357474550440195,6.715860514550756,1.477602780463439,48.601102056328955
616,48.18093119383999,6.8138684263482165,1.0706367541466848,51.28431015083645
617,51.26520470571181,6.906436878119734,0.6376570047754864,54.099900417418816
618,54.04786937013506,6.980964022413003,0.18022844794347878,56.71604881346081
619,56.39203616498902,7.010577360298898,-0.2903317804886357,59.04444174628485
620,58.2916958890005,6.972083973186027,-0.7582993799458911,61.06600216615136
621,60.257503600588315,6.877976966559319,-1.2061864510402782,63.050582440859
622,62.79366452612654,6.7555948443527996,-1.6202437392591045,65.25895772223059
623,65.06699599130332,6.630985326457244,-2.006625045471763,67.17219500138569
624,66.09738496012571,6.516530490193163,-2.366761659377659,68.19805739990942
625,66.53357991986566,6.4031891606573215,-2.6966240588170596,68.72202072655033
626,67.33081396169558,6.263281052679796,-2.9691935475300624,69.32609785867358
627,68.36427874139015,6.083524040302346,-3.1676187489893883,69.9709747910362
628,69.24325373563403,5.879764003382566,-3.3011861014293684,70.459533949141
629,69.57430560581734,5.678883311601937,-3.3732622505830756,70.5696374972434
630,69.06350139121761,5.494901017433433,-3.39495245049311,70.12526713948297
631,68.57589800099944,5.322421192357195,-3.3794906700935337,69.6333819064756
632,69.0658941046475,5.1474892122451115,-3.338844068810417,69.65493183799559
633,69.55811017676892,4.953082812064166,-3.2880353617007425,69.62298691431683
634,68.79543692516935,4.739217958556317,-3.237391014653028,68.80961615013673
635,67.40939528991824,4.5273382534824105,-3.181109234279424,67.59658452365387
636,66.39375367286675,4.334892884851535,-3.108145756139326,66.57440746449853
637,65.74121362470733,4.164527396347251,-3.014172245864196,65.73671296958142
638,65.17649926270714,4.0094360925274355,-2.899416511503436,64.91413009710892
639,64.0769860755197,3.865599709897518,-2.768767098695397,63.729830693310674
640,27.436945135659457,-3.3905406375632667,-12.343968209881098,19.95797501882515
641,26.929860738268008,-3.5938309309658156,-12.534780630298796,19.71058984342272
642,27.237542545542752,-3.8128903701524735,-12.633357915011063,19.922698731317794
643,27.588039737772387,-4.046825758688904,-12.68187828827113,20.129759691498748
644,27.096987178921523,-4.2960655242493555,-12.74848199435997,19.80905865715361
645,26.24663580866633,-4.563769013883077,-12.839717463704751,19.244571982268457
646,25.696703283307436,-4.84949168352389,-12.898161116039386,18.833989575480796
647,25.47122708581449,-5.133460764182426,-12.895978271987882,18.61243342289919
648,25.432071315550925,-5.396630042555638,-12.867220538923034,18.518710454626316
649,25.092731713632546,-5.645383541359865,-12.848116199659751,18.27294049991362
650,24.048045653489428,-5.891758660154269,-12.87834827277075,17.63478924344014
651,23.054577787957236,-6.136415816584518,-12.942228526300545,17.045730992917118
652,22.896659681895805,-6.376982155330164,-13.001714857720948,16.95636393674709
653,22.89130841933417,-6.610185632023158,-13.03691366865172,16.946062626757907
654,22.23265938518753,-6.832873392804894,-13.031249647042776,16.52066305872851
655,21.24248248523814,-7.045182443629747,-12.977432982276003,15.848328583637437
656,20.4125940020862,-7.252621298397556,-12.874396038489937,15.209006176408817
657,19.986074692894366,-7.468965688304416,-12.698193821728704,14.763188468527597
658,20.041203750532222,-7.704930094308084,-12.457435469859831,14.584099618726462
659,19.791359808867355,-7.959391138178326,-12.16390788385339,14.231558498985839
660,18.535851870007342,-8.219262111578479,-11.888049919842903,13.306121434572612
661,17.304898546728637,-8.45466798776153,-11.730321185255153,12.405016201027454
662,17.19188992605069,-8.637280440782037,-11.702134412820998,12.155109017899914
663,17.419129226445484,-8.7620937493662,-11.720914997438049,12.09096811014892
664,17.001961126656727,-8.840387076476084,-11.713637982050967,11.632856943911944
665,16.082042328208832,-8.891539916578102,-11.649326863581443,10.875544445721694
666,15.046959840116338,-8.941170272967254,-11.52794443417007,10.058624077297148
667,14.465955200865055,-9.017199269196807,-11.349444256762359,9.51640504829507
668,14.746459042675214,-9.135797073639166,-11.123243023103413,9.479351934807749
669,14.848155749459123,-9.289799446164306,-10.871129504352071,9.310746733525006
670,13.731159851886655,-9.457794360843835,-10.603977405376375,8.381900645482
671,12.445432223086444,-9.611758357040058,-10.299307933176712,7.3327157484285195
672,12.195647283291718,-9.728278173728272,-9.940951076944732,6.9015945956835765
673,12.352072625536858,-9.801048722821093,-9.500720110631718,6.732031252527678
674,12.045110485335979,-9.837167683285227,-9.004500303462775,6.3096672157756934
675,11.210908291504342,-9.855824811171834,-8.493829898909771,5.557033464000373
676,10.003249726110433,-9.873383022021065,-8.01371378234632,4.525883163467497
677,9.105676873432461,-9.883762530085429,-7.560133813023245,3.630314107163108
678,9.09929241034537,-9.869865138226904,-7.1164989456950885,3.2447580241524565
679,8.978310122987704,-9.816176472526775,-6.701818542431651,2.806841623305285
680,7.6828807235035725,-9.710731048794958,-6.323247717854196,1.7179759007323043
681,6.069770643159037,-9.54951721964387,-5.9788779691474385,0.4862992192087581
682,5.180002435575243,-9.34171372345742,-5.633799487761329,-0.2841156761267853
683,4.653765924181142,-9.111765988468218,-5.246604444027996,-0.8102836422507533
684,3.9053134857656815,-8.888903469741157,-4.800913178226478,-1.4440914038340162
685,2.6616775815803853,-8.697932535716415,-4.2940293111622125,-2.355303144172349
686,0.8141239868709447,-8.551317627472189,-3.709520070537423,-3.6189754248869592
687,-0.9118415898719966,-8.440909170288627,-3.0348154775328826,-4.825563371270661
688,-1.818256032197568,-8.345752899911338,-2.3107144378394864,-5.581255458513546
689,-2.732772226991752,-8.239630095453466,-1.6090103201765595,-6.382145936766801
690,-4.581471744174001,-8.101010294037865,-0.9950506112325962,-7.773073903451783
691,-6.767068703477002,-7.926370193248347,-0.45700537348249665,-9.394115166784573
692,-8.520058876621126,-7.722888225466633,0.04944705026946397,-10.77382001353774
693,-9.94835528087903,-7.499705928007778,0.5599739357807966,-11.945170632352555
694,-11.334506812943546,-7.266559576357677,1.1048722233433603,-13.048090737265005
695,-13.079752321867602,-7.027917794459552,1.6890563369328222,-14.307242160337626
696,-15.475468188071297,-6.784404786682439,2.303996735442799,-15.90039298250289
697,-17.76587144343708,-6.537857615289241,2.959055236255806,-17.41869157603107
698,-19.19996066633725,-6.287060110723491,3.6578727474205164,-18.457142071158835
699,-20.541594796608475,-6.024764474886645,4.373830797380604,-19.468100513615884
700,-22.685531410005247,-5.756172601758807,5.029154244669467,-20.996094533235844
701,-24.947533096914466,-5.490602170274964,5.510868716328645,-22.50707772113183
702,-26.451138421454647,-5.24613240021162,5.818324151873208,-23.46816314939983
703,-27.003241231414187,-5.035332398702971,6.087684716310712,-23.823674450479768
704,-26.80099747015236,-4.857258588190798,6.418560818157684,-23.762450215419655
705,-26.98609164402315,-4.688874691241075,6.827888220937235,-23.947236100842062
706,-28.595578100893743,-4.5042390319941665,7.247004312945793,-24.95136014652227
707,-30.64739557191237,-4.292982274625892,7.6683303875966216,-26.18088529673342
708,-30.98011941444818,-4.0673746264524855,8.159959546805627,-26.337974071771377
709,-30.81014196742824,-3.8277848859323176,8.586679690472604,-26.192203069413733
710,-30.980268564786037,-3.5920823116681304,8.95318805643669,-26.252336581838705
711,-31.46850177170572,-3.3656704629157734,9.23613755671417,-26.496859501015606
712,-32.02267717177146,-3.1459857580447674,9.40783001713175,-26.764513422811568
713,-32.223326757907444,-2.922891093454682,9.475362220780987,-26.81163013027624
714,-31.690626558068786,-2.684458506936632,9.459481017835564,-26.421121738909108
715,-31.10415184140348,-2.4327195247639377,9.368222915124228,-25.996730261778126
716,-31.280063072978148,-2.175230186849567,9.220509278895982,-26.019691950594655
717,-31.589859553511506,-1.9101223232358389,9.066965759931884,-26.10565602743868
718,-31.16231955141016,-1.6362030454075167,8.961439804430322,-25.72768835480188
719,-30.310434812129547,-1.3638266708976876,8.942750263144502,-25.080366122445486
720,-29.593483124779716,-1.1037373666360626,9.023081758546226,-24.510288269651273
721,-29.17494061707951,-0.8581020320817891,9.161504066907053,-24.124702120765672
722,-29.07625266276561,-0.6235221094779084,9.29500053118728,-23.94139729491031
723,-28.736467080925372,-0.3907389025301927,9.381165122201946,-23.610013199873674
724,-27.57423023426246,-0.14927886825599881,9.39425791015143,-22.766449721283244
725,-26.35521721018091,0.10600580430831776,9.329555477980664,-21.889403205850897
726,-26.01830184323066,0.37500765274619935,9.197491986682815,-21.563890251224166
727,-25.932616320328528,0.6477991641800115,9.003111898964677,-21.391364377367704
728,-25.20285999364081,0.913117246856249,8.75524293761997,-20.808937092979445
729,-24.029785248969436,1.177102892211796,8.46796653707747,-19.935902438411876
730,-22.872801652197232,1.447054408149319,8.161959220619954,-19.06221185019506
731,-22.154740945679873,1.7097264560230043,7.890848827840934,-18.480820260442393
732,-22.16557521013389,1.9492489464127745,7.696463394691351,-18.40330896757762
733,-22.01000596795196,2.158045975104483,7.5443881446429435,-18.287869010068366
734,-20.70138294788018,2.3386801082262116,7.376538170546097,-17.512001364424574
735,-19.21747575660114,2.5212681720271037,7.159216775439676,-16.617817975141815
736,-18.83624365988822,2.7368241125944137,6.883705513867489,-16.33038571606043
737,-18.95838161498324,2.9786050292980812,6.602673672066757,-16.28740224346362
738,-18.614733002147474,3.22260383960794,6.385578899703738,-15.927778875456285
739,-17.775230372684113,3.4449811854863235,6.23301772178775,-15.245818741272153
740,-16.67333538571703,3.625951478067815,6.134120063087152,-14.396360486907698
741,-15.966227737890843,3.769095684838456,6.083674484951822,-13.806862248831708
742,-16.271935607930885,3.8887524161955405,6.108608762445766,-13.870804454656533
743,-16.60678730006757,3.986847588306056,6.1983829425542885,-13.974660766742858
744,-15.78261914729176,4.062136678137089,6.326998275933864,-13.370508585496282
745,-14.680268271319369,4.116617356577338,6.452646307647316,-12.578370033541837
746,-14.532936050312296,4.152114276019569,6.523530040663868,-12.341797275393965
747,-14.931069298665255,4.1743446161963575,6.466937822488432,-12.426966526307012
748,-15.119807478699446,4.18897142203405,6.258678690496694,-12.39403652004113
749,-14.881590807238096,4.193458540302627,5.940527909590902,-12.104922690635581
750,-14.182545656166502,4.182388489796742,5.629263299882518,-11.524776689996493
751,-13.711901037609962,4.152922299479736,5.409263056016525,-11.059043723839462
752,-14.204456150222208,4.103391110512967,5.282354117171907,-11.14831862928307
753,-14.806290168367308,4.034971215767532,5.2187120044965365,-11.305083947987352
754,-14.422709354008337,3.949711708632568,5.158974718838878,-10.89895937690487
755,-13.66907041517205,3.845584417632713,5.072859589553544,-10.287893358415687
756,-13.478852191134383,3.7208261361034154,4.957854145591079,-10.011078466602525
757,-13.701131320115456,3.577540017476343,4.833846977417217,-9.974103603654859
758,-13.93183967977242,3.4209726364349398,4.72780418751789,-9.939791371141744
759,-13.79548783979245,3.263240815484649,4.654727626106408,-9.709314839983316
760,-13.003508957298216,3.1160357334225544,4.611000048667394,-9.13446740982409
761,-12.24957753367467,2.9778437269354145,4.53848742706032,-8.608579629132457
762,-12.340422842308856,2.8435641808850556,4.390388787992102,-8.57864968536799
763,-12.58403483361625,2.7150394058816145,4.19951186402815,-8.625024343750434
764,-12.038804504849988,2.5956547689792426,4.033393817193038,-8.18783846901872
765,-11.089726928989627,2.492115193939973,3.904413434378513,-7.489860807973939
766,-10.390124709514158,2.408080500473618,3.7570478224263617,-6.921515173180568
767,-10.016580529071915,2.32649046329936,3.558100468144748,-6.547667913620621
768,-8.85535947799108,-5.55713472212741,-1.2567059413052215,-9.968567294896593
769,-8.865038852127286,-5.772938800336879,-1.286056218465991,-10.250466076928557
770,-8.007270964931795,-5.995814672445592,-1.3315656254300232,-9.983858504505108
771,-7.350823508705344,-6.233784164955609,-1.401038032975896,-9.796437258507165
772,-7.945166868324437,-6.485696054371709,-1.4971760710261715,-10.305092394768819
773,-8.681411612270487,-6.736012186240567,-1.6123005910830772,-10.828176489874
774,-8.296918805119258,-6.9669056762722725,-1.7311921171713756,-10.601944210354471
775,-7.443391377332656,-7.173577576853322,-1.822922514243895,-10.039359428768304
776,-7.035496039341485,-7.359378413023098,-1.8667972213470692,-9.718454258706661
777,-7.157613478070061,-7.532201710723989,-1.8820835817215307,-9.705195916459994
778,-7.663934131094562,-7.702562678093912,-1.9017108417323367,-9.922319355226609
779,-7.8682524290391305,-7.878081872375665,-1.9565712770578214,-9.96445754957542
780,-7.168542469936388,-8.061762760082049,-2.063629649160683,-9.474107851035967
781,-6.513223206665876,-8.251412091411055,-2.19232706033475,-9.033725130385806
782,-6.921475802959002,-8.440655873505557,-2.304792529256116,-9.264183081117718
783,-7.590345275742344,-8.620536127055678,-2.410081737690921,-9.670380116212586
784,-7.541984896195238,-8.781867125481925,-2.5227337290725744,-9.648883069190022
785,-7.112521555932089,-8.919287053850667,-2.6347623432846627,-9.398226644996356
786,-6.844236278839288,-9.029140584022414,-2.7304831271375916,-9.247468075175284
787,-7.000704448030843,-9.105419019612231,-2.7693821308422155,-9.361524708794217
788,-7.687306061811936,-9.145464260724653,-2.7342492025698304,-9.810401141998213
789,-8.175047055956394,-9.1550792200213,-2.6577025274007977,-10.163664556797405
790,-7.774017992633551,-9.144044695529429,-2.6080353175943305,-10.001967245919376
791,-7.327338634489086,-9.123798391216503,-2.6337110928904397,-9.79334119729978
792,-7.775439980091492,-9.105358158070311,-2.7232446630108718,-10.064405362606053
793,-8.538230561098132,-9.093081148259209,-2.8398208624286325,-10.466890306273575
794,-8.853046492954094,-9.08982357538599,-2.936812325085224,-10.560022053032476
795,-8.79494358257155,-9.104960576184661,-3.008777845117651,-10.403249953758673
796,-8.618809105535933,-9.144447217453349,-3.072849295870217,-10.167761643641088
797,-8.75785180207815,-9.20363852564874,-3.1591406099367267,-10.137553410110566
798,-9.54304551991068,-9.271433875418543,-3.290556841940725,-10.523517289464381
799,-10.227870235433853,-9.328400578425518,-3.442402491495836,-10.86511056265632
800,-10.05006996803681,-9.357765376421733,-3.5805765661103193,-10.683372602109245
801,-9.723955987273253,-9.362131990956152,-3.7003797729404204,-10.385077997867976
802,-10.081202364508886,-9.350161827470838,-3.8115353823931417,-10.457840766358613
803,-10.728852395003422,-9.321914360964175,-3.9431665735598638,-10.687054116838361
804,-11.103983040326248,-9.276772601693397,-4.11785748179858,-10.761558867061655
805,-11.06470933882458,-9.217185765604354,-4.309731593624381,-10.595293313158692
806,-10.628802125862151,-9.146242597653185,-4.477553729793417,-10.189386589371779
807,-10.436626752134536,-9.068827167384775,-4.596608110693319,-9.9220841453157
808,-11.04400258789679,-8.989957405058506,-4.655852842366253,-10.123212811385532
809,-11.537414830819326,-8.913082166921036,-4.665368540379825,-10.252773749987133
810,-10.964399670620317,-8.83772506216718,-4.648981865488828,-9.75086748647327
811,-10.080165560620635,-8.75681631196569,-4.632489470617708,-9.073195878378895
812,-9.804549246201594,-8.6613316732527,-4.634731756196609,-8.77019482593777
813,-9.907177314463889,-8.543047973388084,-4.653285005631215,-8.700826553677343
814,-9.933765524771175,-8.397760482467474,-4.679550484524721,-8.589169824023852
815,-9.42092800692997,-8.233510313088049,-4.716460622627488,-8.155826402680553
816,-8.088406107126278,-8.05996673527981,-4.772134220540806,-7.233397112376424
817,-6.921797928606452,-7.871496324341647,-4.856596563004091,-6.418129904066046
818,-6.884447543185499,-7.661656643682122,-4.976600580760161,-6.289303756628423
819,-6.961300258382601,-7.440907613931227,-5.132066490863179,-6.228450725673127
820,-5.997726344129925,-7.21874008097726,-5.302388853891481,-5.530194490335092
821,-4.6731969084080065,-6.988007198471549,-5.473053278498728,-4.587355168812386
822,-3.872866072457439,-6.738343472230043,-5.611715944815099,-3.927084944448713
823,-3.538937815498455,-6.464106836038684,-5.683338371889008,-3.539297083798343
824,-3.3913115504472597,-6.164561497465408,-5.70534524347106,-3.286317096245107
825,-2.749662901848401,-5.84906090323967,-5.739895157359272,-2.777046960679783
826,-1.0991989751228413,-5.531903161247937,-5.816866541230966,-1.7007824639442664
827,0.4218297992228896,-5.223613961330893,-5.925333117513966,-0.7110630910871636
828,0.4710419413390575,-4.949152119942641,-6.035839108989981,-0.574835139728449
829,0.5779525728064028,-4.741940554015451,-6.148372577622389,-0.3473475400761037
830,2.1899781723736362,-4.628777435850696,-6.265089371520915,0.8265753361370969
831,4.503487817438406,-4.579708392856974,-6.3771433671360045,2.398814021717178
832,6.257117675361575,-4.53877929923275,-6.46936949399733,3.545055500255257
833,7.038068095489793,-4.46250859269114,-6.512744436372676,3.9940672290678005
834,6.800767393149927,-4.3267440489071785,-6.506758662154694,3.737492004656414
835,6.478514902583797,-4.141637955760625,-6.451686057848836,3.4095302382954182
836,7.4986834495778645,-4.00191086123159,-6.431861825804772,4.077126498408564
837,8.717644859070406,-3.855097468184838,-6.4583559427051185,4.882379404361405
838,8.876071578189872,-3.7179963148858937,-6.552076650122745,5.0801365183874685
839,8.561408872054978,-3.5997061990717336,-6.705293784658574,5.027858207745699
840,8.718160566055715,-3.503945719415231,-6.887454631905812,5.286581928703489
841,9.362808699543171,-3.436557077637402,-7.0539221906503995,5.84418372134186
842,10.239918203093346,-3.397383678116615,-7.16494852273502,6.522291823456588
843,10.614873554203864,-3.3753648825709157,-7.207121468536009,6.860227890854073
844,9.808745188740442,-3.352621045799122,-7.192398560487745,6.442659482500134
845,8.843800791113528,-3.3013618314359365,-7.158659543011406,5.909872715490781
846,8.990143625174335,-3.200252439588657,-7.147590903986214,6.055856825878325
847,9.461652164066605,-3.056342100567221,-7.179973039825664,6.394098858538943
848,9.094848116928224,-2.8912447948323168,-7.256639790904515,6.203093165771211
849,8.246087242250155,-2.730340784603473,-7.340623473398728,5.712133495247476
850,7.581554265030298,-2.59376144214997,-7.40440087351199,5.346536566766537
851,7.325571299876902,-2.4747160159206505,-7.45284487452884,5.251988590110563
852,7.54845838546035,-2.3576459500972202,-7.52790849090726,5.474518058062366
853,7.57876516189772,-2.242521591523063,-7.642212929351492,5.61324719091974
854,6.692373512122674,-2.1370474650739673,-7.753070063874838,5.222210219806907
855,5.702097439202826,-2.0584489673793613,-7.813098499191614,4.743257312592969
856,5.653951698014602,-2.021001964297164,-7.813550575413387,4.761723870630996
857,5.970454919589874,-2.0107004496455643,-7.7577153292824725,4.9448164884337915
858,5.77218564611068,-2.00225391375989,-7.670309852064141,4.799715303447661
859,5.188999057731534,-1.9791694272307079,-7.576400644800404,4.422292387867625
860,4.58785117724108,-1.9322944250288374,-7.4905755802939185,4.043583773780438
861,4.340209157476827,-1.8650119739911342,-7.403600641822156,3.8867206023138126
862,4.737891743589475,-1.789206633108344,-7.293678867525819,4.1195081951245305
863,5.103470667073945,-1.7142631718625732,-7.140679956320973,4.334454860502451
864,4.648231605345809,-1.6455356307177602,-6.93379705882368,4.05994166054993
865,4.0303961321860875,-1.5853598238580922,-6.687239388040659,3.6989752827982607
866,4.151607245181326,-1.5298998122722471,-6.428337436469218,3.7984653286550545
867,4.6734651140396215,-1.4618823402595242,-6.180867902678553,4.129660570890518
868,4.994758834734682,-1.366089300153788,-5.969461591848296,4.306317897315909
869,4.969444970325191,-1.2528805337595657,-5.804795035564569,4.269490159104128
870,4.606669204568059,-1.1407622446307073,-5.7106097037935575,4.061234615844829
871,4.446644415676299,-1.0363566568165627,-5.7032060190887,3.9914842810623883
872,5.05043301123821,-0.9437235338474277,-5.81369398377234,4.368722962891618
873,5.695531922866054,-0.8633657233135785,-6.023343261531604,4.751814869327055
874,5.488150954648837,-0.7974831716239333,-6.22711801150503,4.601274413476272
875,5.044143386948492,-0.7711079408536149,-6.315477556241933,4.282165361695122
876,5.229467118019091,-0.807787591056016,-6.257095823028832,4.3149792540912095
877,5.813998980147866,-0.8947191126831471,-6.096553025995354,4.568866620061241
878,6.323424857802219,-1.0045852489868836,-5.9059384340816905,4.766273473097111
879,6.421322262247169,-1.118133916925011,-5.716006464322345,4.703770309672899
880,5.903604401653783,-1.2184105947664734,-5.504666386640058,4.258652953043899
881,5.565144332069497,-1.2942037271791615,-5.258865607308524,3.918816354616472
882,6.265713860979088,-1.3417303582307631,-5.009791138401368,4.217604280229327
883,7.076015840585972,-1.356164249807631,-4.778029218130383,4.623418470557153
884,6.809548918994047,-1.3382807097379585,-4.589010769319954,4.446576923956111
885,6.103853148651811,-1.3041701251081617,-4.443006147625314,4.0655022398821075
886,5.937214463079867,-1.272961379541366,-4.32458491347324,4.052061320079938
887,6.248325787390393,-1.256145519850601,-4.2201650393751144,4.3644040871480225
888,6.706035891073945,-1.256419712236914,-4.11615286292051,4.798862215349029
889,6.727460283989896,-1.2627718337948761,-4.004968043683993,4.993806324431312
890,5.8097768359525634,-1.258958069788803,-3.8826799213047054,4.632665267311237
891,4.958445706009911,-1.2340572674356813,-3.738744089458321,4.302689657718295
892,5.338441508973627,-1.185462923740993,-3.56654612302878,4.685067372839867
893,5.9612863795791,-1.1260757026630137,-3.3699317424622834,5.162393232264573
894,5.48894678272197,-1.0737558515458017,-3.1619354943765483,4.915007596150167
895,4.438043333724276,-1.0353051952457928,-2.975116306165516,4.264582851289139
896,7.942990250786796,-12.633752322516468,-9.801787115108542,2.5710058588995603
897,7.953574676293796,-12.94353298212213,-10.16660535207107,2.581604143654041
898,8.11738678030446,-13.249058733421622,-10.541313624453462,2.7075152813132406
899,7.995463865273926,-13.564674262859567,-10.939787305542529,2.6662314232867828
900,7.241557447313635,-13.900319176560052,-11.373611650057605,2.2332813100452418
901,6.58615007797905,-14.252527941451618,-11.82750449563386,1.8557896343341076
902,6.777398703977785,-14.617089165836479,-12.275430451707175,1.997413731276045
903,7.120124728737559,-14.993753853506124,-12.689140718757843,2.2602876292221437
904,6.804677598097394,-15.389329733641635,-13.047099571834803,2.1662651966004067
905,6.1885423329330225,-15.811656660209065,-13.355583006875593,1.893881328008966
906,5.80214405798503,-16.252221772405303,-13.632916604798584,1.7230528823520757
907,5.845823515400503,-16.696740003430286,-13.883692353123767,1.7713633186700803
908,6.3546754886176675,-17.12809182024145,-14.115851038214192,2.0770322601769067
909,6.622056389948143,-17.537335033979904,-14.359365107579658,2.261845566182584
910,6.015916884683018,-17.921835321461682,-14.63987774698946,1.9827006602087454
911,5.468654693373979,-18.286074270232056,-14.954137498540439,1.7607560540308407
912,5.965691574441333,-18.632468113014212,-15.286042554967356,2.135249990550353
913,6.745871434729236,-18.9610270518973,-15.624813612665129,2.650134897794846
914,6.874471105844124,-19.260132114128382,-15.954588199522899,2.7610913288970926
915,6.550365754186485,-19.526389574611866,-16.240668828377338,2.5979926329744494
916,6.196631041901356,-19.75961796664737,-16.459385996418472,2.426289769438229
917,6.298368030894468,-19.96335475078906,-16.63051861352017,2.540852091699692
918,7.170005435700952,-20.147004719851644,-16.78660181381225,3.125480903193759
919,7.799535476173432,-20.316100862521736,-16.939960734701113,3.5617195936537915
920,7.214731964142034,-20.477664028107117,-17.09589219199994,3.256662286126417
921,6.5308615629969315,-20.62821837608683,-17.265925224883684,2.8840610130937363
922,6.997480218792667,-20.752254167428447,-17.44741425183916,3.2015057103284636
923,7.931649408680331,-20.840288288184983,-17.60754378601941,3.799178678860615
924,8.392595891487275,-20.899251865197034,-17.7138411689788,4.109993508597558
925,8.335743402494062,-20.936084725045355,-17.754732898807738,4.101070250285308
926,7.952706876509241,-20.95987976314784,-17.74203756164844,3.8831977791457626
927,7.93031546459927,-20.971694010778588,-17.725861773149976,3.87865799707726
928,8.84310210650982,-20.96740430031129,-17.759922865756035,4.443869940570873
929,9.651511613626218,-20.944491313915425,-17.859239499442644,4.9532389425842975
930,9.259297148188677,-20.899984309471677,-18.014503279915246,4.744532494537036
931,8.550521156303091,-20.826728398251102,-18.20236415664645,4.347788731993247
932,8.597364251629518,-20.724422743821286,-18.390721198146533,4.40752742100452
933,8.983145111032446,-20.607438997766963,-18.55278728092062,4.681572402605629
934,9.073924302613484,-20.494505895444526,-18.66999017678021,4.795278985634309
935,8.668226172408422,-20.407794508808664,-18.737680558712043,4.618542386268571
936,7.7373750204904015,-20.35314101928653,-18.754304573959548,4.122157669558692
937,6.9957737542383365,-20.306922558768473,-18.70387140308475,3.7300813792697993
938,7.109808016548713,-20.23017753315426,-18.575544074550656,3.8435219292797878
939,7.232047819186748,-20.09773184815559,-18.375845408669612,3.96354759723962
940,6.42646790386694,-19.910955371771824,-18.12579025979559,3.539405448922939
941,5.335000264858077,-19.686790192454396,-17.87417969312598,2.9631353125852478
942,4.77329087276973,-19.434456574668427,-17.66181498644718,2.7215958770929674
943,4.598129873947586,-19.154868538002127,-17.474549257000906,2.707000921419472
944,4.473962247903238,-18.840693692003786,-17.279272282911812,2.69570761850313
945,4.004788836757248,-18.490372363667475,-17.056647479715092,2.4478465895222143
946,2.908544409445521,-18.09821278922036,-16.79235945797415,1.8054425832903385
947,1.8911001080433154,-17.655930816146988,-16.486382845946718,1.2116138798102216
948,1.6707110675154264,-17.151791160147482,-16.143386796736877,1.1197215578269
949,1.5502501091246554,-16.5853485103962,-15.747283719829387,1.1321180384932517
950,0.722029580902887,-15.9698247363627,-15.2847258479254,0.771739581929469
951,-0.41627851004932254,-15.313371103309391,-14.770067696055186,0.2540057389437387
952,-1.2974038827145669,-14.622949986871145,-14.225385145321466,-0.1082792667553257
953,-1.7935192003959823,-13.898422755418867,-13.668017770512613,-0.23839339823796024
954,-1.9313195671631596,-13.135813834092984,-13.110524535220009,-0.14415913494257576
955,-2.2883463166657907,-12.33443199881489,-12.550472518591288,-0.17192249988286615
956,-3.4237003555016927,-11.528804074893927,-12.011224140914225,-0.6349366673460295
957,-4.0091772888881225,-10.789678647948998,-11.52574832069141,-0.7908457927365804
958,-2.9241639043367593,-10.149981497978006,-11.137089120700226,0.01120423512658536
959,-1.5048231776901986,-9.587347194811693,-10.814358283604069,0.956427806430486
960,-1.3887005885495416,-9.077146734446925,-10.499361401513598,1.0628766216089582
961,-2.0510833768284993,-8.597215656524778,-10.174546923646048,0.6630565431139654
962,-2.511444741556139,-8.140786519899223,-9.838708917869308,0.3688508009286513
963,-2.4797827737847102,-7.707396585320477,-9.488854659780719,0.37588359151153794
964,-1.9036340107690581,-7.144836917697461,-8.977451019289106,0.6163068875304882
965,-1.379568443607776,-6.602320418995764,-8.44813846648366,0.8479750126660521
966,-1.7150049255936821,-6.0822767400589095,-7.889201806560111,0.5675430822526814
967,-2.246953091853386,-5.572212570328751,-7.326065447686642,0.17620137064044372
968,-2.056376885012074,-5.056837331384819,-6.791264272772963,0.23586517505147497
969,-1.4783263769637927,-4.5297878538071,-6.292619753294252,0.5492813331167017
970,-1.1088402649348374,-3.99377960880684,-5.818150347581581,0.7599911506309267
971,-1.065541205790886,-3.466998663899844,-5.326480997829097,0.7940436176653783
972,-1.3145941209775271,-2.9699284752230346,-4.775165124616374,0.6623232404494346
973,-1.3276876855621946,-2.507953464086403,-4.162945935852808,0.6681158442354708
974,-0.5660943949702454,-2.0741107576266145,-3.5158654260200075,1.1217227400452319
975,0.24468073860250517,-1.6477313997291345,-2.8774403737769405,1.5815966006007554
976,0.2141091429322548,-1.2060801354628652,-2.291830286758035,1.5149650278362536
977,-0.043550246179897,-0.7442205034557032,-1.770540383559528,1.2987420275337545
978,0.33866099016915363,-0.2694562622293801,-1.3032508940282845,1.467885403029926
979,1.1430055137951005,0.2087098546960068,-0.8761757125292499,1.911126964165659
980,1.9050108692193501,0.6777833417922761,-0.4733765431438764,2.3649267192256964
981,2.2670159927565865,1.1188795141313295,-0.08023914156542772,2.6214594159718736
982,2.000693642555593,1.5251656825728048,0.3069325718070396,2.5350658668107684
983,1.9263080395964867,1.9043696892283026,0.6678402284255672,2.5603908483428945
984,2.9294761944667727,2.28097432976697,0.9816823204632633,3.1853424258763923
985,4.039899465208842,2.6678893151478764,1.255033221411582,3.80828005991006
986,4.021387579980694,3.0544837572193653,1.5097483479506437,3.6862643365830063
987,3.5054262565514978,3.4296465065906294,1.7791224016872065,3.208302922767172
988,3.4866598156599875,3.7810190922072984,2.0908994721677168,2.99283778115029
989,3.954280997308246,4.113472716401421,2.4346054102515664,3.0649104263954006
990,4.6228883406308015,4.435077899083946,2.7825258884219437,3.2800447790092333
991,4.8741979714830705,4.7663686409570465,3.1171534257114306,3.2660790768381025
992,4.1463030192027315,5.108680386385217,3.4283318716829223,2.6736949956194445
993,3.4228881253261187,5.4388968115572816,3.7168045833713457,2.1047925951549047
994,3.8675764032362463,5.739882686200706,3.993353012034515,2.269788405759145
995,4.54293440848545,6.013998485559137,4.27088199382597,2.5738510622554336
996,4.1639504282050455,6.273541530375313,4.557428988976585,2.215774813493698
997,3.1767941023579396,6.5248865392524165,4.851033835848535,1.506726882975228
998,2.405006179564357,6.770629823644518,5.1377725426775225,0.9882887717592392
999,2.085219075925957,7.006701675270561,5.389885351388947,0.7735641930625087
1000,2.2574642039492527,7.225403364825916,5.581631536436722,0.836192197213703
1001,2.2568329416386255,7.418812259528342,5.701144262813297,0.7388257029932984
1002,1.3590030139008968,7.5865001224015245,5.757004309642319,0.030678800477207557
1003,0.4066507638297451,7.73442545384647,5.7980646291078255,-0.7238751593091151
1004,0.4719142391141166,7.876100492408937,5.87781775453819,-0.8043521909346275
1005,0.8802222904991124,8.011653666168273,6.001672856412101,-0.6055062169771387
1006,0.6507044320920449,8.122774861865476,6.151426486823506,-0.7370844865889759
1007,-0.0030896699920765075,8.197491198471804,6.31287564551298,-1.0956867100314125
1008,-0.5984204084731043,8.242273026653963,6.467023956952456,-1.4183414544740063
1009,-0.799998453381386,8.263765662635493,6.596014272150529,-1.5030957966705834
1010,-0.3849980541758359,8.273444430218882,6.68764115537804,-1.2029523871973922
1011,-0.04764545331332978,8.277462018549544,6.7234467389766355,-0.9345876891780289
1012,-0.5765085039138116,8.275111429513958,6.694589274060955,-1.1777609411603123
1013,-1.238814918560559,8.261839216902937,6.629240462377218,-1.5114819377988677
1014,-1.0557500095511312,8.228429694172013,6.563098802985491,-1.3672394875686935
1015,-0.4773380094139306,8.15767490070172,6.503499345159958,-1.0024248522356194
1016,-0.23507900220678676,8.036435844206078,6.4474285081310665,-0.8352602114590175
1017,-0.34420267668458465,7.870870501623223,6.392091057082096,-0.8845966188667407
1018,-0.6291353794254828,7.676211177340494,6.336158751508513,-1.0581953461392986
1019,-0.6416449843532491,7.467447600066076,6.297431602310972,-1.0699819258454277
1020,0.04284447363324717,7.257391943816165,6.29400637653836,-0.6475425712860494
1021,0.7454782494111831,7.046320179729307,6.3173803778678765,-0.20531462837635034
1022,0.6455077044736344,6.833471476591551,6.3453091658965475,-0.25070784324521955
1023,0.3545250616523415,6.622005745155892,6.348954081987417,-0.4391835618559294
1024,-41.709620044295725,-14.443888414143458,0.7985397267717165,-43.215160934832966
1025,-42.501450521612455,-14.891595318673764,0.9531335093118556,-44.32357436805753
1026,-43.70559391356179,-15.34506260488757,1.1564853906483685,-45.606182448074314
1027,-45.35090586750573,-15.781431954423018,1.4243776799272043,-47.09331004424803
1028,-47.22310972389842,-16.1733483350616,1.7327792974546292,-48.659232220655646
1029,-48.59037411617612,-16.506786606480173,2.0191091235107885,-49.85746968314942
1030,-48.84524928925127,-16.777307502963378,2.213150792818851,-50.31088018808196
1031,-49.01458968619048,-16.98361677740244,2.2684638558768597,-50.62761908827332
1032,-50.203233349650375,-17.137676861775148,2.191015330032005,-51.473956714162114
1033,-51.58260454280048,-17.271381941158015,2.023916358930937,-52.38333536102591
1034,-52.12725190928467,-17.418168051746903,1.8456359263027926,-52.770593021894655
1035,-52.21853074525098,-17.601808396305298,1.7511972461693233,-52.85550401372592
1036,-52.43368934940402,-17.827757030732055,1.7436444917723861,-52.96671463678646
1037,-52.95575950959697,-18.066358763088864,1.7314168924206093,-53.218312913838744
1038,-53.80716870706629,-18.278431382578717,1.676594063084171,-53.62987963217464
1039,-54.276904137445484,-18.447566628148582,1.6265578421510543,-53.77452296328588
1040,-53.714145785448224,-18.568810613038618,1.5742353430684952,-53.26024157714961
1041,-52.964620289315064,-18.63835250738862,1.4457464628249288,-52.580045190582446
1042,-52.972568116920975,-18.661457442208434,1.1671803656922706,-52.28886264011949
1043,-53.16338818865767,-18.656108324014195,0.7673822327850119,-52.06536883172613
1044,-52.781945189747454,-18.640669674257257,0.3142738775071867,-51.47949817031311
1045,-51.9520032203933,-18.619480723806458,-0.13739938250043224,-50.58129986871296
1046,-50.96723765985876,-18.594009377611076,-0.5377848401968375,-49.52083735029737
1047,-50.2116679328076,-18.578615924911436,-0.8485264820516041,-48.54873390502018
1048,-49.9611575060389,-18.584141552014433,-1.0641987505486024,-47.85966141215828
1049,-49.49878141618696,-18.59959115863619,-1.230617971750125,-47.02465615343821
1050,-48.108128802728366,-18.61112969697331,-1.4043639484351798,-45.61551099604419
1051,-46.508268939012375,-18.61997963995406,-1.6017405273849854,-44.09169527242005
1052,-45.53134531998887,-18.62828040745402,-1.8307917839376566,-42.96886356943293
1053,-44.79328794421024,-18.631259875412987,-2.0874307310408478,-41.994157527117075
1054,-43.73329129795369,-18.620868769468352,-2.376645063037611,-40.794487041996746
1055,-42.219329481349945,-18.58120103601863,-2.6874199971895356,-39.24452139127899
1056,-40.27178465665535,-18.499472442389795,-2.9822117604508507,-37.32847705656145
1057,-38.480215962582854,-18.38046738005574,-3.2487089733861527,-35.43804524451038
1058,-37.36143934915685,-18.236380193844536,-3.483702763307672,-33.93796741050338
1059,-36.06565507576081,-18.079548728523175,-3.698130065351914,-32.33330241789508
1060,-33.71297224391401,-17.91926000736057,-3.9114748487133086,-30.096628988838866
1061,-31.044112427551482,-17.75151702655412,-4.140547043835205,-27.673150475391825
1062,-28.951346274336554,-17.567954633919477,-4.39585283717852,-25.593628448263665
1063,-27.200339158479053,-17.36858785248971,-4.67270887454087,-23.713514997572624
1064,-25.35027324076859,-17.15215884974038,-4.960638315221151,-21.768991204108346
1065,-23.01450863987024,-16.91056778918139,-5.267049260814071,-19.537900557916526
1066,-19.970875048110763,-16.63088062939985,-5.589957738724922,-16.893266436317003
1067,-17.143120208020786,-16.292681830625632,-5.920771334913946,-14.37502768732551
1068,-15.390893996495448,-15.878531419227812,-6.23758860507648,-12.48028338945568
1069,-13.607484114604716,-15.383163902646334,-6.5511348795394815,-10.537103098423424
1070,-10.581874119012415,-14.813644782233121,-6.908657692386676,-7.81673371479579
1071,-7.039340096323578,-14.195066896597364,-7.328244439072033,-4.7608781197469865
1072,-3.9510106022476847,-13.553319792918531,-7.780832524154943,-1.9625089588986846
1073,-1.2906393701236794,-12.893350969928179,-8.241438220168408,0.5956546880867599
1074,1.2044648235267892,-12.211798349528936,-8.672937481505556,3.0695915037543466
1075,4.163911615324201,-11.506188707073722,-9.0523834197289,5.814095393440987
1076,8.079351495142735,-10.775957477056128,-9.363708118784375,9.102902462571109
1077,11.872447271396432,-10.029942473506871,-9.573629955011201,12.283988461686693
1078,14.441443054910788,-9.276823667576569,-9.665267693960333,14.70647522162443
1079,16.75030829108701,-8.517221656635618,-9.675215904075054,16.98682969581884
1080,19.957742960279706,-7.740935317020738,-9.661139063601444,19.857473164142977
1081,23.609940294755265,-6.917106865363849,-9.662475932057266,23.04321338270038
1082,27.01029126165627,-6.015154122044427,-9.717729885682214,26.10882086912636
1083,29.98095393787336,-5.032060918923626,-9.88615619775457,28.94019412846287
1084,32.78475343598194,-4.011262806049097,-10.21676136923683,31.680014836600478
1085,36.320960177713914,-3.001668638300779,-10.745959614250838,34.864276559793176
1086,41.461094392773596,-2.0718558200066797,-11.41534148448433,39.00799434047496
1087,46.342000590419595,-1.260447854823017,-12.12696834433718,42.959642511008894
1088,48.90203586563487,-0.5662768298162424,-12.778231949072293,45.461644114306324
1089,50.51959485930011,0.04880550676824141,-13.349882318088275,47.39297659084829
1090,53.147006344965796,0.6343405436393065,-13.865682971743183,49.97780440458768
1091,56.566906109044666,1.2219929217904524,-14.361236011566044,53.072121787426184
1092,59.796591262762384,2.0356275786729525,-14.719376531011715,55.96902267757321
1093,62.50310085969739,2.858664490106187,-15.041641650706918,58.53230513639048
1094,64.08988278445844,3.684997105183961,-15.345887325374104,60.36206007671937
1095,65.57227669053324,4.505741757662997,-15.650106903399614,62.05622453037856
1096,68.16502340152906,5.308757404794478,-15.965221297029938,64.35391347437586
1097,70.94203029032022,6.078013822259305,-16.2805762863564,66.74026888059484
1098,72.60283648539962,6.80019559977263,-16.575520335136776,68.46997735881412
1099,73.54725975163569,7.471027608866019,-16.840878627673334,69.7499068959043
1100,74.53507400394723,8.09251398953324,-17.067519542373955,70.97255967476538
1101,75.7524760812667,8.669780207446717,-17.233439651730848,72.20454188908874
1102,77.20304681013057,9.210354460864558,-17.318794822102916,73.41429728241397
1103,78.2105433378966,9.721579147764338,-17.315298389468907,74.17265504804223
1104,78.05300099499333,10.209911795699954,-17.227290707874502,74.04795792553206
1105,77.5457619157451,10.680048602770592,-17.077893660015345,73.57036616060967
1106,77.74524498513118,11.1341775294148,-16.89624653699523,73.4234047735322
1107,78.04273125962162,11.575700693396437,-16.704800917176815,73.25458544398683
1108,77.538350621499,12.003307503330422,-16.51334839157939,72.52482543748967
1109,76.45659931607057,12.399981341548223,-16.30344432874611,71.39108541010046
1110,75.26953977549232,12.74691993037533,-16.049756622563155,70.15595355536448
1111,74.33240921274009,13.040192848881857,-15.753607112423092,69.03466693056306
1112,73.88331366752844,13.283691511021068,-15.427773843243282,68.1651390447611
1113,73.21560458715815,13.48624667759849,-15.078839056953388,67.10205747244949
1114,71.52863835034451,13.658987496295554,-14.71367170874531,65.35011911274346
1115,69.5476702244596,13.80099464370083,-14.342443410966943,63.379345943035375
1116,68.25510124793395,13.910881638835955,-13.970342020115623,61.825936980881295
1117,67.26326235667626,14.008523240543088,-13.587404055160574,60.46701528211205
1118,65.89825132766299,14.113764762953492,-13.181765975728416,58.89198247705949
1119,64.08127131496597,14.223417529089406,-12.759418586323235,57.04711153475509
1120,61.90409807265253,14.323530563032858,-12.329683915663871,54.976310041414486
1121,59.851996032386694,14.39542855997578,-11.889306261465697,52.9617028621979
1122,58.415826709540575,14.42265887863163,-11.432759109560834,51.29437512921531
1123,56.913978709117785,14.407124801682428,-10.953851325914304,49.56694999379307
1124,54.51975212852379,14.36076177446009,-10.450049704744666,47.286201401288594
1125,51.87669484500281,14.295074779965375,-9.942716662971296,44.84179597287625
1126,49.87568507014759,14.219907037357425,-9.454241285428564,42.77092300980529
1127,48.29949330058401,14.134475802311888,-8.969375059238569,40.927735818940526
1128,46.68022508122662,14.035270721220412,-8.465378555024676,39.0236402305507
1129,44.75244002870826,13.930560681269817,-7.948702704082989,36.95018581882347
1130,42.3680655735797,13.830726968638265,-7.433084507579394,34.67626036518364
1131,40.21558841108199,13.741520072774767,-6.923736619400254,32.604901815481284
1132,39.02786109814058,13.66423899273167,-6.422837550320007,31.146281069755208
1133,37.91940004023823,13.585547050148433,-5.923688367903635,29.777724305343877
1134,35.79527901751571,13.491611265445131,-5.417151673938659,27.852623367673676
1135,33.3021987114085,13.39226124434932,-4.906402666286353,25.742764437395465
1136,31.416564651962815,13.302352347884355,-4.402728011964335,24.018842842140806
1137,30.098457542938448,13.221947395639004,-3.913375456724685,22.651562455241397
1138,29.027616248740962,13.14345724392425,-3.44883812884192,21.45651384844762
1139,27.64573984483498,13.05134683947794,-3.041309648631052,20.14262630413777
1140,25.459353442541257,12.930064009451154,-2.7039382797211835,18.45725164575252
1141,23.379407672995676,12.779685901491039,-2.4333417467504144,16.944833681727484
1142,22.47757904576731,12.61093566459617,-2.187974821510728,16.218117724482443
1143,21.821329501085266,12.437403211950379,-1.9102502915166901,15.66309796941971
1144,20.17140184789909,12.273181242546357,-1.5966228058422753,14.484882336041034
1145,18.07849659381876,12.130119024944932,-1.2951936907995754,13.01896038525876
1146,16.44414398595444,12.00949790893527,-1.0752702342580214,11.835431558014353
1147,15.384002673170638,11.891710182061228,-0.9661513094367109,11.014674399814602
1148,14.761800389237026,11.748548237876635,-0.9576902144753894,10.476820553454742
1149,13.847915838216945,11.561443542190597,-0.9947586278188169,9.775175756950585
1150,11.92054975848644,11.319400205531757,-1.0035772150670763,8.460454209979337
1151,9.918544689557642,11.013495191066134,-0.9235774018458038,7.082259193791955
1152,5.629683475885697,-3.518819436539871,-5.0097220851215205,1.4759944498197985
1153,5.775948138615556,-3.6124783053353746,-4.9989267714082715,1.5264555390030479
1154,5.246036415294864,-3.6778299614163528,-5.004127184038709,1.2043993462160956
1155,4.390588194556429,-3.7202007543845914,-5.023183776898362,0.7104048546498601
1156,3.7366867319113273,-3.7495195864028097,-5.048964576028097,0.33584560420667425
1157,3.4647330320022767,-3.7728275277892473,-5.072923876577602,0.16373776340554735
1158,3.6020885962624125,-3.7958763540195064,-5.09566214050404,0.1966737572566717
1159,3.508750580756798,-3.8182344425890644,-5.159838079353381,0.08108854089417963
1160,2.608175219306955,-3.8384681079624463,-5.301074088122104,-0.4909910232227184
1161,1.7653453428728019,-3.863844410080144,-5.487774703197818,-1.00325141068853
1162,1.891114522285802,-3.9003917055196977,-5.667842561028877,-0.9234084619557359
1163,2.2481300813423344,-3.944775402386259,-5.809584103530691,-0.6950811358276099
1164,1.9549447646594618,-3.9892484972412214,-5.8901875092698015,-0.8485409449890013
1165,1.276140922372142,-4.022021057348325,-5.900746200760501,-1.2303392337068124
1166,0.6797655222045961,-4.035856736177789,-5.845887833781245,-1.5611170139674733
1167,0.5786953910700039,-4.036059906774644,-5.73298192652929,-1.5868711867507275
1168,1.1995372616797848,-4.0360384171644785,-5.574562784635644,-1.1665374226368435
1169,1.5624166878662196,-4.059932561189619,-5.383812683025399,-0.8935496146542045
1170,0.743646051278413,-4.119177741119733,-5.17924409654436,-1.3301207147529563
1171,-0.16523156986097587,-4.2077088103147755,-5.00104930290337,-1.8243400949120385
1172,0.05017303193542583,-4.297016256288252,-4.88125639073745,-1.6490673423673288
1173,0.6774907443354434,-4.353109322496032,-4.807938274422218,-1.2325414347772936
1174,0.7588094346172157,-4.369188828017738,-4.753184837475745,-1.149433145807333
1175,0.28894712222717867,-4.36487581342229,-4.701119889180657,-1.4048887943238473
1176,-0.4907009993466144,-4.352218709780052,-4.635651689854327,-1.857460881481663
1177,-0.8901639544938882,-4.334589943379548,-4.539129649212228,-2.092075598264515
1178,-0.3441985132448653,-4.31097790604775,-4.402724890576381,-1.7703523165963602
1179,0.09879071428635555,-4.293581552804235,-4.217055259107611,-1.5380127128213634
1180,-0.6603069869835352,-4.2925918108532075,-3.988863828644049,-2.0662769103012306
1181,-1.688452922025194,-4.304265629701768,-3.7741017995208983,-2.775533429586018
1182,-1.8691582395472948,-4.320764661143146,-3.623081944409089,-2.973071136569078
1183,-1.6738175287627481,-4.333324863385342,-3.5219707525067117,-2.9424916015116636
1184,-1.7953218540712168,-4.337563397824358,-3.431876631665963,-3.109341687034516
1185,-2.3866447532016455,-4.343900693855608,-3.3195645781493055,-3.5775028578361976
1186,-3.4238531331150033,-4.366424698044549,-3.1625490439596313,-4.342701853864675
1187,-4.221531950733576,-4.41163538305689,-2.9617926091973468,-4.9925406063040345
1188,-4.161310284864408,-4.4785519091895,-2.7450622590094618,-5.144909163299354
1189,-4.143954642517913,-4.55651736448775,-2.5697044363826236,-5.318897350396578
1190,-5.1420279973032645,-4.6307974422861635,-2.481480848366965,-6.080019535270589
1191,-6.451861714471715,-4.688747104090231,-2.4820882880627964,-7.007538274526908
1192,-7.190864554594714,-4.72602579459332,-2.5364412694169527,-7.583852800965106
1193,-7.561471180989758,-4.752965168900197,-2.5546131321282943,-7.944918124022816
1194,-7.967983635720231,-4.786164355444289,-2.472901368215539,-8.343576621608896
1195,-8.774365238343522,-4.842781475205925,-2.3003768971189804,-8.9980282959763
1196,-10.209906083727217,-4.931108456523679,-2.113887729307223,-10.034712778293255
1197,-11.533001265163275,-5.035476494623057,-1.98751161412821,-10.978378894465505
1198,-12.004402309189443,-5.1327216590892055,-1.9385059298976222,-11.362604803361622
1199,-12.364991499923175,-5.211847887893572,-1.9473979434889053,-11.650674426481352
1200,-13.477737915796817,-5.266900293677739,-1.9672419683530034,-12.38923229141603
1201,-14.91560744273617,-5.2941075274488645,-1.9858687297094884,-13.334380748130464
1202,-16.07681944763839,-5.293961400595203,-1.9944254110611985,-14.125774774785443
1203,-16.895446379465927,-5.265548235773652,-1.9536326164147875,-14.702326892405821
1204,-17.452903782913186,-5.210180682026641,-1.8322879719379477,-15.090236908565718
1205,-18.272560684834932,-5.140017900478867,-1.6239443168059264,-15.610109370234044
1206,-19.79194254882627,-5.065989118644889,-1.347752737391469,-16.541529638487365
1207,-21.17015207210206,-4.983797822817931,-1.0697815141719818,-17.395097573400342
1208,-21.556623157729362,-4.8862087659059,-0.856392729991158,-17.668001261178777
1209,-21.70545854578233,-4.774009945242692,-0.7181264631033907,-17.79631169844704
1210,-22.524287753747284,-4.649915191187573,-0.6343581732360121,-18.302045430839716
1211,-23.77125911013756,-4.517615794350525,-0.5750871491297027,-19.030390797361957
1212,-24.80783364527974,-4.391050899869118,-0.5195344921510161,-19.61763605537538
1213,-25.120819626344463,-4.2886240285107595,-0.455323293752047,-19.82108906608286
1214,-24.319934649095217,-4.216029116520773,-0.39185310978054655,-19.439178014317225
1215,-23.82102793543644,-4.173934599580116,-0.2964718929273237,-19.30230943212093
1216,-25.039669347854492,-4.150756480201443,-0.16047125430337386,-20.215949831219902
1217,-26.306064045494093,-4.1319921478696875,-0.017692673415175095,-21.162270143026987
1218,-25.648417992949188,-4.105408293234658,0.06453936880083522,-20.95380971590672
1219,-23.90775601224683,-4.066068557374615,0.018168873029846544,-20.068486103390327
1220,-23.171419583539176,-3.9659161513122987,-0.06034703179869168,-19.70071805270177
1221,-22.784221141028375,-3.8615868910285855,-0.2108090038791088,-19.531151102142278
1222,-22.661571451492,-3.756023093043912,-0.39993839305904405,-19.533437508365772
1223,-22.29921061866282,-3.6435777007542876,-0.620022084054458,-19.407666221479325
1224,-21.191877693796762,-3.5180612737976102,-0.845915572804944,-18.84523667818562
1225,-20.037213149995793,-3.38831244514652,-1.0485367262956595,-18.244916361579396
1226,-19.695022203257906,-3.266031398274664,-1.1719772551077015,-18.10376809825664
1227,-19.567297582228047,-3.151940489342561,-1.1918096153773203,-18.079400853830478
1228,-18.811219016292686,-3.0425584341607226,-1.1400321375401372,-17.691004671132482
1229,-17.658848971382554,-2.9312275863091504,-1.0702448650689786,-17.083133238657993
1230,-16.581301859986116,-2.8119115059603166,-1.008696575304996,-16.53215317831771
1231,-15.894851985739548,-2.691919242289338,-0.9901038939988711,-16.197430560671453
1232,-15.785775263514356,-2.58053034251526,-1.0297896186111901,-16.161409418959273
1233,-15.494467305396032,-2.4727924315217322,-1.133500150537736,-15.992172380718362
1234,-14.2035625341709,-2.359514978700022,-1.2916254225133332,-15.234683913401497
1235,-12.82093531424425,-2.235543335694903,-1.4593815000422925,-14.426575747579882
1236,-12.497714383067095,-2.099982773928456,-1.5882607130720827,-14.237137651089002
1237,-12.608030212128673,-1.960109789826921,-1.6723289603464342,-14.276320242334007
1238,-12.192569093357024,-1.82880135740777,-1.7213856155384482,-13.95686102942882
1239,-11.300775161948883,-1.7206803392831496,-1.7286532331951,-13.307532731301366
1240,-10.251876720842274,-1.6460563988976251,-1.690602248798616,-12.52923114503669
1241,-9.637456971257174,-1.6039563797900778,-1.6183090071409048,-11.994966541103318
1242,-9.972155330183638,-1.585102088165836,-1.532822776033723,-12.028878916899906
1243,-10.26699846075162,-1.5740208516383871,-1.4629199321833664,-12.027308545009495
1244,-9.365741003062967,-1.5572689080733695,-1.4425662490730342,-11.278300137046767
1245,-8.217125253237064,-1.5350914510355052,-1.5115819006558806,-10.358260729096955
1246,-8.115515601144544,-1.5164235751504125,-1.676426291026999,-10.05521198833789
1247,-8.57012211834802,-1.5126252016856705,-1.9393499940745333,-10.05419101414863
1248,-8.718660821137785,-1.5331829388088354,-2.228997050420245,-9.821770614285995
1249,-8.388001737342153,-1.57912794630108,-2.435349155994483,-9.291351915413765
1250,-7.62382026378279,-1.6388793688617325,-2.4629785374418645,-8.533594016738395
1251,-7.1174435087954855,-1.7048631859524805,-2.3442167476847233,-7.964381403657493
1252,-7.5863877156071675,-1.7579616833133211,-2.1597273501760594,-7.998266579889305
1253,-8.136643164280127,-1.773787470633538,-1.9954348795522965,-8.068840940970034
1254,-7.635719351062947,-1.7461143143806603,-1.8988449475076739,-7.4718516158670925
1255,-6.774596153848218,-1.678827363324983,-1.9037694322751215,-6.660297582068144
1256,-6.5761026846057655,-1.5708743846786701,-2.0379754927069413,-6.298526538941612
1257,-6.813903485453794,-1.4324740497787374,-2.291306263370226,-6.230261517569337
1258,-6.985820485148421,-1.2977181098318329,-2.582462293880908,-6.118168552148891
1259,-6.7849862926818485,-1.2033999689075,-2.777772024888455,-5.793093464348409
1260,-6.015623339202807,-1.1540952622948302,-2.797438913384618,-5.158643569078782
1261,-5.346569129325605,-1.1230726699568434,-2.6684181456175784,-4.605624557648064
1262,-5.534239993828855,-1.0858175096794382,-2.476784417817975,-4.572667047318828
1263,-5.849960899134878,-1.0233472477482508,-2.2763416827734204,-4.615709909268109
1264,-5.329363990642456,-0.9284289170541645,-2.103388482255887,-4.153003921655974
1265,-4.4389693668839385,-0.7996691689711344,-1.977810830195124,-3.4713061634370437
1266,-3.921498002560259,-0.6439732813256689,-1.8950412368664282,-3.0268308142571723
1267,-3.7626565582325693,-0.4786844310515308,-1.8370880008511152,-2.816363067744907
1268,-3.7515722094620636,-0.3203700608298629,-1.7863626633960634,-2.710328442933097
1269,-3.4554874889076963,-0.17138226368963755,-1.7399258713142525,-2.43175531501634
1270,-2.479315652046873,-0.02779842041993981,-1.7036156617998532,-1.723735170119829
1271,-1.5040742423944362,0.11391484927654477,-1.687492182333911,-0.9814188672252948
1272,-1.3451522401837093,0.25495222787804034,-1.6978930603966362,-0.6938168914455725
1273,-1.3892341638855081,0.3846477746862543,-1.7169386551236607,-0.5259765356419595
1274,-0.778831396269415,0.49039925289889236,-1.7222590816354681,0.00151553903275492
1275,0.22007024284676713,0.5736308816789741,-1.713333442380546,0.7339079526868633
1276,1.0960345766798307,0.6413656379308881,-1.6951986175620117,1.3868515467900557
1277,1.6240769699107755,0.698974711789338,-1.6754795579168575,1.8523868202839702
1278,1.7102861707856551,0.7515228276041523,-1.653260699457832,2.093368330668119
1279,1.9756447544422047,0.7983110453736019,-1.5817763567796472,2.4563602988598485
1280,-9.366774056828602,-7.774750832158209,-5.5902928278251425,-10.904876865660965
1281,-8.705427021306633,-7.972376274677699,-5.844860564747278,-10.605828663092181
1282,-9.214682827055166,-8.165645633053167,-6.053112727287276,-11.080747162012157
1283,-9.984378866595039,-8.355539571135422,-6.230924421485673,-11.739666169101964
1284,-9.923019686855021,-8.545921521032076,-6.402917052719832,-11.865825466884418
1285,-9.453838277207662,-8.740100165983927,-6.586662442711783,-11.698427556697139
1286,-9.228587960150087,-8.935701358302813,-6.787531111567085,-11.634936484773398
1287,-9.46160610345794,-9.11684166830205,-6.989675084290116,-11.837391536402903
1288,-10.192992254390742,-9.26542883695783,-7.166262160049465,-12.364180080967063
1289,-10.712707953938006,-9.369381238456683,-7.29868616864132,-12.770740983062348
1290,-10.358683530107712,-9.428016400759986,-7.374738814190285,-12.627812527919001
1291,-10.000201063451565,-9.46345896215416,-7.3801436788448775,-12.45467268930907
1292,-10.594666644634268,-9.501974567316385,-7.329753941202987,-12.832247043958862
1293,-11.494921542970047,-9.55327050999034,-7.241809390106507,-13.377733107070085
1294,-11.874817382561051,-9.616517346375021,-7.169772370247784,-13.604821140062153
1295,-11.890474420935199,-9.680852934903482,-7.194084258371425,-13.615395800954431
1296,-11.882026345765153,-9.733050201680314,-7.325747765520718,-13.614105002901324
1297,-12.209767418019526,-9.772246905703385,-7.510013990137911,-13.81016352693913
1298,-13.116951710597078,-9.802202017362552,-7.6688807195872,-14.33700386574112
1299,-13.881137432615503,-9.82370856758548,-7.777142323485081,-14.737666193751192
1300,-13.783627633995671,-9.836936895019804,-7.83202247178728,-14.56781496710058
1301,-13.553296631288298,-9.837052201836979,-7.858878312513033,-14.289506922478825
1302,-14.029710704337605,-9.818919744132925,-7.875558101592933,-14.440684801610528
1303,-14.792582838645126,-9.789270266276635,-7.910092365881966,-14.785740957190415
1304,-15.244672805191794,-9.753226820818194,-7.9776313267379075,-14.972781658697564
1305,-15.278271108128468,-9.697865775835655,-8.075160974486051,-14.928934453932525
1306,-14.946188682638995,-9.610574791691896,-8.18304310450047,-14.671381920544203
1307,-14.814545839643776,-9.491734146428762,-8.269093650908147,-14.543596286149914
1308,-15.37828597393098,-9.349222538963708,-8.29693988421864,-14.844847244576483
1309,-15.827120652189995,-9.206324556324837,-8.232486007886465,-15.062518414871121
1310,-15.314802640210976,-9.081359323888288,-8.059669522949585,-14.665600919362518
1311,-14.556985431459982,-8.953752477500114,-7.796430645448079,-14.09038382332585
1312,-14.403779285441475,-8.797581266014527,-7.481193641027569,-13.865617885465346
1313,-14.570213269789866,-8.618692798268736,-7.155115479058776,-13.844675162916179
1314,-14.581461254891337,-8.429157754479816,-6.851776013172886,-13.760909663134134
1315,-14.10261440827404,-8.231903287257134,-6.616790163443646,-13.402206260846723
1316,-12.973140029956774,-8.02661107877432,-6.453975067620402,-12.651119490271935
1317,-12.080772584542832,-7.800925201745088,-6.33098718299181,-12.031217353104628
1318,-12.246686814145663,-7.5446347341409385,-6.1988593123226625,-12.032726497875814
1319,-12.411993279716835,-7.2702756377405295,-6.032293921151096,-12.024734550047206
1320,-11.426935863738539,-6.997752213637327,-5.805585305020678,-11.326481504933353
1321,-10.057653924641638,-6.742105328085398,-5.500179394248351,-10.403878382153785
1322,-9.29007791677927,-6.5109553198906225,-5.100058777410823,-9.84977151071685
1323,-9.035667599251235,-6.2972018786441835,-4.6026032627743945,-9.608005712083985
1324,-8.956013326595912,-6.085127620163628,-4.055228288559445,-9.468559831048893
1325,-8.422355628979885,-5.857063485882786,-3.5821630196334073,-9.038602351851495
1326,-6.957410739780971,-5.6017736058492344,-3.2837771399397897,-8.022430907725113
1327,-5.620478087373454,-5.324355077407669,-3.1677397060165764,-7.0735674682919605
1328,-5.491406863827857,-5.037795235031289,-3.1519120763179203,-6.859959545060868
1329,-5.556528757588151,-4.757159766455437,-3.120734973044257,-6.772773550199831
1330,-4.6293154694797645,-4.490343855657898,-2.992290997647532,-6.091128993252303
1331,-3.270170092291174,-4.222988303919796,-2.767959875322974,-5.129846099696152
1332,-2.276536140890892,-3.9346101560983766,-2.5030518230614973,-4.352285959234359
1333,-1.7455390516423708,-3.6166152770318583,-2.239098581359578,-3.848828576513886
1334,-1.5776175804998265,-3.2685117404303443,-1.9802514656320787,-3.593629051905237
1335,-1.1087005500980647,-2.896447053430122,-1.7220632502634847,-3.164480528810413
1336,0.2467592074351183,-2.51111822220303,-1.4444868885879283,-2.1777875850891304
1337,1.5636121721992073,-2.125667658555873,-1.1415692304465377,-1.1983559219358488
1338,1.8592947717943784,-1.7455341185691327,-0.8131334193829974,-0.8300053201222214
1339,1.9223073844207546,-1.354509659890439,-0.4535215881734967,-0.5864972045553634
1340,2.7115011909859636,-0.9426929905633601,-0.08784364422824911,0.13757478097681908
1341,3.917801718532486,-0.5130125326231952,0.1848343466332541,1.058608968897342
1342,4.923442117347198,-0.0846748226210669,0.24745610477329189,1.7964342799158342
1343,5.014881247821822,0.31181756834753704,0.11026507862664772,1.9218835186914176
1344,3.772637367490889,0.6513198522176262,-0.05561436939767979,1.1909911678260623
1345,2.749343415868554,0.9419080107376089,-0.08708530393794885,0.587946799808134
1346,3.5748715532895847,1.2069349279803105,0.04477908599134937,1.1344242797324218
1347,5.114301159236121,1.4673820367136394,0.26808473170793257,2.1125595190484363
1348,5.152059182216118,1.6721933285413864,0.538068041434636,2.159346086931064
1349,4.596151607551348,1.8917722741678862,0.6826828049618014,1.8540114106646475
1350,4.24305727239088,2.1115201614135435,0.705477357215204,1.6790608473868656
1351,4.308521321334503,2.317994807824207,0.7181878277343752,1.7543309670740457
1352,4.805606023593059,2.4982014600550615,0.8351897819480552,2.0784921006626966
1353,5.047780097608385,2.6416493549330395,1.0778154816700365,2.2481163611312858
1354,4.302863825676122,2.744408593132318,1.3524274354376626,1.833283551161216
1355,3.428704423088718,2.8077613349938817,1.5259966662419646,1.3395707031869635
1356,3.523327600216656,2.8376158915989023,1.5582647896320148,1.412961103731766
1357,3.9333633725792305,2.8491115730122374,1.5223717946282467,1.6556765958359092
1358,3.690685534054219,2.8561314370289397,1.5098414132559068,1.4863777010240127
1359,3.0089093102631823,2.852248288550965,1.5556984657097297,1.0475879344159698
1360,2.362518554640595,2.82877949415107,1.6518432953456916,0.6399518302020508
1361,2.069820095324292,2.7983509196748275,1.7819445142062744,0.44658571788364865
1362,2.3450000028797415,2.778826729665883,1.9082608353193122,0.5826930828329661
1363,2.526480309450492,2.7810710877936615,1.979340275902464,0.6555607967494944
1364,1.866486921280739,2.807894838214152,1.956070795205074,0.22523945219985447
1365,1.0994493825135885,2.844830507929083,1.826339940160544,-0.2627935001696613
1366,1.192559533686976,2.8697441099885204,1.620290661065489,-0.22546470042371888
1367,1.6958863596800628,2.8671875476448556,1.3748393670931087,0.06277295606175406
1368,1.879223527145134,2.8299893902271727,1.162349868266023,0.1572535137944351
1369,1.7295515447018681,2.7630066877136907,1.0748726141483245,0.047641932667388476
1370,1.4265900488050336,2.6796058654185053,1.1381817049001823,-0.1563343873593523
1371,1.420398230221694,2.594836689165205,1.2973144703128345,-0.1707049730769167
1372,2.1332946711500576,2.5213687434285985,1.4646343526695618,0.26973606151405605
1373,2.875261831540689,2.4627925391028427,1.567770641035141,0.7395896154830182
1374,2.8136835812243897,2.4168037865799654,1.583952610777386,0.7211534718175441
1375,2.561523505536247,2.3820738539221913,1.5305423537259657,0.5692345796777372
1376,2.9742568032203485,2.3557236326882625,1.4347605491131088,0.7934103043147351
1377,3.7749049171882825,2.3323278215580143,1.3409978850509097,1.253348247175154
1378,4.442090819717289,2.30673734929226,1.2824005836595616,1.6650583597359345
1379,4.729094877555712,2.2728943170668106,1.267155607124621,1.8719777686840187
1380,4.5276272073174475,2.2284903434177643,1.2800977776600648,1.7863912756142395
1381,4.510009047498983,2.182509546866483,1.282065323526605,1.795747849979899
1382,5.386786601911646,2.146633339254641,1.2309756039342192,2.3159832285659556
1383,6.296927228304325,2.1270535983879957,1.111897627714237,2.8403428248843445
1384,6.169608643165964,2.124257956993129,0.9295904342947661,2.74491803906457
1385,5.65257781009971,2.126770514197076,0.7035780180071112,2.4169675692648678
1386,5.703706186126923,2.1205858511608002,0.4618420270910854,2.4257722051152135
1387,6.2055108368263285,2.107206383801514,0.21380539695049544,2.7178803152675557
1388,6.7678013074122445,2.092278517289325,-0.026754274068025857,3.0722183185979386
1389,6.876262756092362,2.0698439860401154,-0.23903674604023328,3.1602907705291994
1390,6.118117182029822,2.032905333384725,-0.3912806884974407,2.708567838783383
1391,5.439385434706914,1.9826738963344794,-0.4814484989066452,2.2709676380013306
1392,5.920327145324298,1.9216749867105714,-0.5506073451208845,2.4968412756737415
1393,6.5937413732994266,1.8520304643442906,-0.6432827093154553,2.843854142195277
1394,6.169208282930054,1.7751745722193786,-0.7878369138377752,2.580205378328271
1395,5.201218004620938,1.683717991483831,-0.9642477800778742,2.037035149083939
1396,4.616461732721522,1.5719653429522467,-1.1155109239150796,1.7463892767203228
1397,4.518867675329562,1.4535198236218745,-1.2066420839352368,1.7486260534090168
1398,4.767984819818796,1.3462570277648,-1.2462451409372244,1.9404746349373374
1399,4.685422784074859,1.255610178648693,-1.2469569844026298,1.8976951286070824
1400,3.5996534283438266,1.1810683961380823,-1.2362201280926308,1.2193433956326025
1401,2.457434542988067,1.1177258393828133,-1.240843084204864,0.5325678654706822
1402,2.4289832788695915,1.0598464931022114,-1.2738997503231753,0.5960195794377038
1403,2.7253868855627545,1.0096412383150828,-1.3238969748135556,0.9025007249986214
1404,2.212878632630105,0.9727260450880636,-1.367465455437884,0.7115687008486904
1405,1.2106443374428002,0.9549296645572245,-1.3847342894182784,0.19514489260644663
1406,0.3509164723296183,0.956686446388603,-1.3658506200461564,-0.26703162203132724
1407,-0.09774386618624642,0.9635627350135062,-1.3227183640027187,-0.4834642733246931
1408,-2.852622224093464,-6.735831990246353,-7.578615363656814,-3.333009698462152
1409,-2.9499214213197806,-6.999561503691345,-7.830672845432869,-3.3400150092868137
1410,-3.7985576115727624,-7.250362702511242,-7.95712221845737,-3.8213015845474025
1411,-4.533124474843016,-7.491912326558235,-8.035317271860936,-4.2574860022012535
1412,-4.268750108298806,-7.717921742526419,-8.152025291515313,-4.10639262235788
1413,-3.7644508724671466,-7.914823471055976,-8.318334222242003,-3.811709816103037
1414,-3.929876075218138,-8.084071165731077,-8.512602813728586,-3.9088207986189216
1415,-4.52465888530998,-8.242515407004547,-8.697247239388346,-4.2430444932617135
1416,-5.08043639570475,-8.4123241255467,-8.838935383020761,-4.538811575586789
1417,-5.15772361764172,-8.60369300290689,-8.972061727717852,-4.573198517989785
1418,-4.487995142292524,-8.819518272774397,-9.13997706529411,-4.224128864083213
1419,-3.977839851610211,-9.05732976845588,-9.313878404005088,-4.0440741624436445
1420,-4.51038313372865,-9.309679310758465,-9.457970023510683,-4.544107181646719
1421,-5.075920740390879,-9.569846785304833,-9.581594122349262,-5.0541481888965825
1422,-4.557923729106451,-9.830957131272784,-9.702770685034888,-4.843333960524852
1423,-3.6835119795627786,-10.082090271242071,-9.847197898075969,-4.358394196866739
1424,-3.382885158399322,-10.314367240222811,-10.027093397309454,-4.190941808938519
1425,-3.58240093459155,-10.52834543378157,-10.190854952783926,-4.3063316166572605
1426,-3.970870196479425,-10.725585423286908,-10.286449566066187,-4.522290234084277
1427,-3.9070134102394434,-10.900533931849093,-10.320828533211802,-4.452721582482207
1428,-2.8990801568853204,-11.04693022449025,-10.333140559774684,-3.7965715824502535
1429,-2.000048619601221,-11.160173073228808,-10.400352685142938,-3.193079535605211
1430,-2.287779474696146,-11.239425892469058,-10.581833002324405,-3.298775267356206
1431,-2.779716197867237,-11.293828551038926,-10.837728794461954,-3.519787587038543
1432,-2.317016595666847,-11.332574766569985,-11.093671163498815,-3.1581462773742683
1433,-1.4180994232376873,-11.356384226927378,-11.300194529825804,-2.537383512377743
1434,-0.8400951832234922,-11.3596026884923,-11.433763538428739,-2.126767664018018
1435,-0.729153677214286,-11.326414519780512,-11.520033186449034,-2.0243281597827494
1436,-1.0418727595256678,-11.244800680561735,-11.606536815723155,-2.2089601224963564
1437,-1.1047572535747323,-11.124935338922384,-11.728858490159961,-2.2683204404125425
1438,-0.31105052796734944,-10.986580738590394,-11.894275439971455,-1.8245796452736305
1439,0.43267560019327705,-10.846094360811891,-12.056299681805532,-1.4177337412126814
1440,0.14966834012926145,-10.717008114129827,-12.15287438799927,-1.6282477003753864
1441,-0.4382481111063101,-10.608853314561985,-12.142027992243937,-2.000178932209182
1442,-0.43141905513998624,-10.521731907176315,-12.014681293392632,-1.974420625057467
1443,-0.06321612485038204,-10.441205899321826,-11.826605749567983,-1.6948073135070492
1444,0.23386063280328662,-10.350866595029375,-11.645501239613182,-1.4318787807104927
1445,0.136819299068611,-10.247006415438916,-11.490141484629687,-1.3892666564838674
1446,-0.5452536185288672,-10.132640661836518,-11.353263063749079,-1.6892512447914303
1447,-1.0970470928610478,-10.008947962864951,-11.201922824027912,-1.8940834606485901
1448,-0.8210355878706442,-9.880297619633042,-11.007838547329637,-1.5786856697711218
1449,-0.5066883963092843,-9.762641490547765,-10.808087619531321,-1.2409474551940103
1450,-1.03961673150072,-9.662873810906053,-10.650992617655255,-1.4389390705054297
1451,-1.9039599941163339,-9.571445001939242,-10.533617113970395,-1.862114982068014
1452,-2.4013365378632434,-9.465815809236203,-10.436176138742134,-2.0828105296329276
1453,-2.505063826675306,-9.335012119496946,-10.34386953689791,-2.0852957720384544
1454,-2.362563679978669,-9.18697575277622,-10.23625529992444,-1.95645986450944
1455,-2.4634955470612088,-9.024941793177954,-10.09656999542159,-1.9815954048363202
1456,-3.2162832551579204,-8.854930647824045,-9.914955690932429,-2.4012221876944437
1457,-3.857642206611014,-8.678438930085395,-9.673459306005325,-2.759950669181909
1458,-3.6006595207528194,-8.494225070765468,-9.36831461281422,-2.592384283835888
1459,-3.149768090346699,-8.303704018759017,-9.043980650171445,-2.3380858795837858
1460,-3.3364643968264693,-8.109042192626317,-8.744719318554681,-2.5027371482782232
1461,-3.8578258185956433,-7.9113596079207555,-8.466298757428998,-2.8776060485863004
1462,-4.221938485087632,-7.711927721315009,-8.188042405814302,-3.129936015987215
1463,-4.146644022046499,-7.5131176682420975,-7.88569144162202,-3.0606002704100015
1464,-3.504178540515432,-7.31442294205403,-7.543688617308715,-2.5785118966283824
1465,-3.0447621922213193,-7.109404236070147,-7.19620852516998,-2.147736772199696
1466,-3.455706278709835,-6.888061820534403,-6.879657894723284,-2.2090588037758234
1467,-3.7378134184995466,-6.638608231048935,-6.569754794834063,-2.195007207938379
1468,-2.747475004954671,-6.370670470156194,-6.224636938905489,-1.4315346254295327
1469,-1.6232647353777843,-6.107089481689214,-5.8890179387238755,-0.6141535170921065
1470,-1.4901089402968535,-5.860318239993798,-5.603647113286374,-0.40130424897642425
1471,-1.9227857779316542,-5.617115509834656,-5.416033537081439,-0.5181358179229837
1472,-2.0941872509194206,-5.366169095621466,-5.347281062840836,-0.4423615186555278
1473,-1.2346983599653405,-5.09100923384423,-5.315789053780691,0.3240148513875483
1474,1.1013622911034187,-4.794428210385562,-5.214897673167441,2.0572522862295712
1475,3.8770054458603176,-4.494106681122789,-5.016487200727412,4.066154364521758
1476,3.334910734890032,-4.331931776857524,-4.594175355989558,3.4002169484742693
1477,2.584125394509985,-4.194199024940597,-4.127695438221109,2.635324241701356
1478,2.4437056518243088,-4.078633143485504,-3.6596911140728228,2.310892982753308
1479,2.632172750595724,-3.982525852678302,-3.250200114924363,2.2742381945941954
1480,2.6408631874543684,-3.9005274750217818,-2.9373225357381187,2.208742691462967
1481,2.267403732489721,-3.8236364316808733,-2.6883350329234874,1.9184749639730005
1482,1.4559657753850828,-3.7420974499943593,-2.445523753660494,1.2915853310792507
1483,0.9076289658282624,-3.6458501581274283,-2.193229376846418,0.777152611701054
1484,1.3396002749477596,-3.527939659483881,-1.9292277430440778,0.863434635195711
1485,1.873464340560688,-3.3904352854769733,-1.6305501264572353,1.0072217762404678
1486,1.4101220386158315,-3.2398713184496466,-1.286082862534287,0.5205683811247088
1487,0.5763372739705903,-3.0796295535616425,-0.923654929846893,-0.21050673667945266
