,TP9,AF7,AF8,TP10
0,-14.705096678476913,-14.212390314740203,-10.527095236795361,-13.596036532084582
1,-15.18024836210514,-15.093697722619535,-11.029633005867193,-13.994235317262444
2,-15.595998034863594,-15.964053085180115,-11.573602091669887,-14.369065166764347
3,-16.068266977181565,-16.83212873382212,-12.159652113934285,-14.96574425072935
4,-16.68583091066382,-17.70281266707213,-12.771528009307433,-15.935871048472025
5,-17.22284297667961,-18.56535546333789,-13.38746907501561,-16.725993030504895
6,-17.471211312587513,-19.406723613946014,-13.984074946682782,-16.82279206187284
7,-17.71847789321419,-20.22347621218034,-14.545955740518822,-16.876643999929012
8,-18.26729132216493,-21.019800017582693,-15.065803050454731,-17.599960597590876
9,-18.938547858966324,-21.81138496316147,-15.544452129318856,-18.607182730086265
10,-19.474670825898674,-22.612220464122732,-15.982438774258224,-19.343600141846114
11,-19.809942872369884,-23.420279651439596,-16.369323931291817,-19.709238032702032
12,-19.95131288048565,-24.22307228237273,-16.691725382580003,-19.757505363119154
13,-20.08394291277146,-24.99372468254014,-16.93973491421206,-19.90936477640691
14,-20.397031107128225,-25.70942991473521,-17.113232776231015,-20.563357035277836
15,-20.695887594043466,-26.383032389968932,-17.228099125324704,-21.23359696892589
16,-20.76834800978358,-27.020993790573538,-17.312111171148203,-21.37638211699943
17,-20.857519628808642,-27.647870726736326,-17.405035016678386,-21.43510249062982
18,-21.22403509646244,-28.250271209385975,-17.539228848749328,-21.929260770505454
19,-21.741980831627473,-28.77481664766058,-17.71435144915844,-22.644393912734675
20,-22.215299814638524,-29.224645550109802,-17.915377487459352,-23.25068793152797
21,-22.556867318305628,-29.670613139838373,-18.13143720983765,-23.57852502242128
22,-22.730445363042246,-30.154181963039157,-18.35042073171817,-23.557455424733277
23,-22.861765313989313,-30.6810897254333,-18.561537620893706,-23.580492846766358
24,-23.095709933686006,-31.226752049821712,-18.755026279471284,-24.031908104661813
25,-23.337682336418585,-31.762843365459478,-18.918109887919922,-24.496939255332748
26,-23.46172209280974,-32.255863481833806,-19.041563319457147,-24.49503754682032
27,-23.53229722026245,-32.66938454089847,-19.11818779320891,-24.283060137314266
28,-23.63768275647242,-32.986806707756564,-19.15407248222587,-24.21244450569239
29,-23.79066487660087,-33.23040219317143,-19.189673965908867,-24.28397298765507
30,-23.984811935128793,-33.44032361329385,-19.261112271393987,-24.414272483318403
31,-24.151864859089383,-33.65559980422638,-19.389590202250275,-24.337543955234505
32,-24.232189386043032,-33.90437371554744,-19.56216144110987,-23.84525485954572
33,-24.329053797723603,-34.18762255667969,-19.75438574906173,-23.38934954602287
34,-24.545137681277993,-34.48548883111699,-19.95466455260304,-23.430601391402742
35,-24.790103949683207,-34.77053788082325,-20.148662900965753,-23.591448662334482
36,-24.943072172310515,-35.0088165632006,-20.32865894367684,-23.408374630023086
37,-24.974603186586265,-35.16407417394999,-20.4879112537021,-23.01251304712779
38,-24.886937715765086,-35.208925912383854,-20.62000509743659,-22.63931252289408
39,-24.754224430459114,-35.13084243421552,-20.7182084197083,-22.465544241371582
40,-24.650198956069637,-34.93505549957626,-20.777014280669565,-22.586495564145004
41,-24.451521679151966,-34.64346664711435,-20.79336150848995,-22.54232024708446
42,-24.052394529311393,-34.2849049943731,-20.76704640474447,-21.914945614239794
43,-23.665451460282032,-33.897568063457236,-20.70390251871324,-21.294843234642656
44,-23.506719659887267,-33.49385733368146,-20.610814846787296,-21.313090319704397
45,-23.482710212443273,-33.06914330985306,-20.485348900132873,-21.569886323954734
46,-23.433355753646843,-32.58696459672364,-20.326367371814488,-21.53227724867512
47,-23.282475012167062,-32.03169428044688,-20.147799888759575,-21.192001727914366
48,-23.002914831012763,-31.44274759485618,-19.96069385679976,-20.680910902533206
49,-22.706092506732237,-30.877421503175047,-19.7598641414357,-20.38100344168994
50,-22.522245754639915,-30.336370302319057,-19.530519801849728,-20.594652377294803
51,-22.408082957564222,-29.7858854063015,-19.24521800937447,-20.696710614682477
52,-22.26905616860335,-29.170300141059744,-18.88137776336256,-20.040206360577084
53,-22.075422977257613,-28.45942608595343,-18.447204217893976,-19.159046793147905
54,-21.80944895852471,-27.646184157823047,-17.96203659554008,-18.701844594363386
55,-21.449087077785112,-26.744388232214924,-17.435531041138074,-18.416041041740623
56,-20.993495347104865,-25.783637615217295,-16.875452658817018,-17.91620501506616
57,-20.465189659048626,-24.804172751534004,-16.287775411612863,-17.097365912180756
58,-19.867192825562217,-23.828262599568642,-15.674724557022673,-15.953388203179873
59,-19.173897346892662,-22.82833307972572,-15.041913237986765,-14.877388105149794
60,-18.31874757453674,-21.798331838426716,-14.419331240501679,-14.198528949042066
61,-17.224621007311892,-20.78503678115876,-13.853082804024709,-13.3992724930321
62,-15.856706696422233,-19.811044170016952,-13.348587230404828,-11.928034175089595
63,-14.505578932482239,-18.878750274964087,-12.874693545181369,-10.492130164646031
64,-13.464143195777247,-17.97947077336553,-12.371124117835627,-9.901458779183342
65,-12.617351030856526,-17.121515335500376,-11.81568979933995,-9.736708607626333
66,-11.751952439587598,-16.28993505276068,-11.20326725168038,-9.359191830825402
67,-10.849421385984016,-15.432708232808087,-10.550603840651247,-8.733788639297284
68,-10.037462886302837,-14.255355122821426,-9.796189272199259,-7.926060777779717
69,-9.309827421523563,-13.085349429477539,-9.03711239935899,-7.259186599690131
70,-8.762976381613022,-11.9447202930828,-8.300418114094308,-7.036084051941648
71,-8.301110176998236,-10.844592088389025,-7.621467864741586,-6.875249794262269
72,-7.781252783581648,-9.783792115332517,-7.002742839983224,-6.291867196560813
73,-7.246248538579884,-8.738854575943858,-6.429936366473435,-5.592299973471818
74,-6.771467802589784,-7.679752486767561,-5.879612333659857,-5.221958935074091
75,-6.316516906946075,-6.601444562454483,-5.346615080993146,-5.0903194856550735
76,-5.820641569128449,-5.5050245253359025,-4.836426069491505,-4.978480251765263
77,-5.20499086137181,-4.370233895440218,-4.358957511323275,-4.652814463429385
78,-4.417335577355802,-3.17874922768413,-3.917601467848959,-3.9403940612447776
79,-3.6245110140088532,-1.933635838782738,-3.5207821884049015,-3.3118631102342215
80,-3.0115335856962764,-0.6477461987220847,-3.1541378737376125,-3.2868217375128856
81,-2.4283809051043614,0.6571088325570924,-2.7826708310480788,-3.3240207577677348
82,-1.6716556283642612,1.9627662703857949,-2.3903583579558254,-2.731834750253358
83,-0.8489307723825631,3.2746833644806617,-1.9885592479274865,-1.8618327759061344
84,-0.12039549544546346,4.607528281290039,-1.5986810293203462,-1.2647537540629068
85,0.5138425231351896,5.978687173429083,-1.2151669700155534,-0.9554242452854592
86,1.0994481902365394,7.383502519053314,-0.8242840437378682,-0.790091272520577
87,1.7890888758223509,8.796064472153654,-0.42065753775315906,-0.36518181778876785
88,2.711450334734325,10.160083775119983,-0.0030011906651077405,0.6827948379310111
89,3.592734957231108,11.432350138346468,0.4198770694139192,1.7483718234521863
90,4.115391506791294,12.618485954727612,0.8344486926790997,2.0887626856723447
91,4.493737511204547,13.753789371922688,1.2351613369288017,2.134338550948392
92,5.037684848529903,14.84966926046932,1.6213049273872042,2.5498069025052317
93,5.635749208934143,15.9053199976712,1.991808072101688,3.1825457592799973
94,6.092640670362848,16.8770566199747,2.3477727763802956,3.7153041347139877
95,6.376697901794215,17.70873052097812,2.6977167313170463,4.043738393044468
96,6.5086643458434335,18.318173927129397,3.0473676982575557,4.130044189700307
97,6.6496366692658375,18.665706472123077,3.382344325718235,4.3598317894465
98,6.973572729810064,18.78167087345415,3.6857881622211437,5.131106780227478
99,7.333725126453951,18.722989028762715,3.962655935497283,5.941489466411805
100,7.519266455742425,18.540687443842927,4.223950503249549,6.153118874367945
101,7.640947259257524,18.31214499414788,4.4709443447476485,6.051818802377924
102,7.8634552696631745,18.099172597234038,4.702076134097377,6.120376924402144
103,8.11845927836235,17.921057714799307,4.913591062925752,6.348950203095998
104,8.300538246900267,17.775981654797505,5.099853202227447,6.608024564028582
105,8.394157454720936,17.670209329713767,5.260032572848403,6.684908233836862
106,8.412298673168966,17.602245032398578,5.393334517750844,6.385947125587795
107,8.448459288937515,17.552593325378037,5.493602355516861,6.092018954678622
108,8.599835055409793,17.497194959614603,5.55276444200982,6.2507042615451285
109,8.78332127192856,17.40791642681321,5.5608704842375944,6.514382784971062
110,8.879513170105616,17.26781325452974,5.513465068039982,6.395491809860489
111,8.923416940215592,17.095304122727203,5.4217997673596585,6.026105461928182
112,8.986618908989684,16.922405386787933,5.307836565976253,5.68400400806456
113,9.10234026106164,16.775068355546907,5.19638427522553,5.505477220111194
114,9.283146622936473,16.665697031356785,5.110043388509641,5.566153999026722
115,9.42461534508962,16.567168051585902,5.068799356031265,5.568247798649878
116,9.41951104646233,16.441211911520956,5.077202619037688,5.181398001543431
117,9.403173731357839,16.288157343515387,5.1046700014068564,4.809916317366578
118,9.540932469253724,16.11969342424148,5.113973252808709,4.9473017267618555
119,9.73311087177001,15.925739386072003,5.093247290961152,5.254673288269763
120,9.828504973250014,15.696334326903003,5.05026813322782,5.250565409858571
121,9.817835230988988,15.435614038082374,5.01533126176793,4.994755170500258
122,9.734572553710803,15.15095354076044,5.023988643434215,4.684645005197179
123,9.695778250269383,14.85286903037443,5.086399737133792,4.5825311631446315
124,9.809307532692602,14.549477789273858,5.195300328381962,4.893118302260327
125,9.85815807768586,14.233072726193647,5.335395561640256,5.085723312184062
126,9.606141827258904,13.891897337609917,5.486376020979204,4.578997191835192
127,9.317216796105852,13.522502353864752,5.632823796159366,3.9613261899400416
128,-17.108357812626252,-8.537352389772753,-13.328750721703113,-13.936695014915035
129,-17.47957249899854,-8.547929549460141,-13.524397571214454,-14.135090475127685
130,-17.862192924478713,-8.648893739176842,-13.754675183166244,-14.250486499527161
131,-18.370876574820265,-8.807209231316703,-14.022884332892081,-14.665254203088502
132,-19.08295927559421,-8.967649909912208,-14.32942467908029,-15.66661210786901
133,-19.76863906997674,-9.084333955221455,-14.683916271730565,-16.62711915494288
134,-20.196205686624097,-9.135212026168793,-15.093049962448623,-16.904428975572017
135,-20.556985740046265,-9.126186367205836,-15.543925876414656,-17.071238072467505
136,-21.07905948570809,-9.096964570937661,-16.022095853689617,-17.80459160328672
137,-21.640701719094533,-9.142067919519606,-16.532259727919495,-18.80755508982424
138,-22.07405102394304,-9.338835873297391,-17.07879699620051,-19.629972838681574
139,-22.354542871659604,-9.65898905096087,-17.648034045782115,-20.12736856404231
140,-22.506952732928237,-10.036200996041257,-18.222780083825793,-20.27136596014392
141,-22.670742678586535,-10.432473552731654,-18.790743906803318,-20.46292895992748
142,-22.982029083010392,-10.817343512039281,-19.342861092748034,-21.091401544393808
143,-23.329056649844997,-11.173749990980776,-19.878150368983555,-21.6834699074739
144,-23.56503489993493,-11.500823970392638,-20.39763473201348,-21.713846794285846
145,-23.7708588493051,-11.787432643963797,-20.896405213717255,-21.563956373650143
146,-24.04529036797136,-12.033314677337472,-21.367481231722447,-21.70991271552027
147,-24.321963076115058,-12.282622247969522,-21.800311203154646,-22.057167929709582
148,-24.52448241023258,-12.576209927181152,-22.187468872499622,-22.401960813644482
149,-24.646945786267814,-12.90580172794237,-22.54111022337829,-22.545616549668132
150,-24.70602739080794,-13.244219268220625,-22.874309986870696,-22.35386244765483
151,-24.78544695295485,-13.563747980660047,-23.173933592253174,-22.197615771956794
152,-24.95407477758263,-13.842435444373633,-23.427236383234135,-22.454420959030728
153,-25.10469275262269,-14.082725683984707,-23.649886904788456,-22.766831433633964
154,-25.120604974879836,-14.298352658588206,-23.861262121683325,-22.71289391141779
155,-25.069318930334504,-14.505336867791717,-24.065400513686413,-22.478226069730624
156,-25.043493347615065,-14.710016628661878,-24.260039267388574,-22.338108238040924
157,-25.0506359761204,-14.877926762957886,-24.43698555451926,-22.373768904845118
158,-25.068460863071707,-14.975553632021768,-24.58389803748074,-22.590152107668164
159,-24.994629421667472,-15.02671783978707,-24.69549077103665,-22.665946952997544
160,-24.747241549784206,-15.066807239499187,-24.768309815745305,-22.322114060812766
161,-24.473008635467362,-15.099211991395977,-24.785918547678516,-22.02970848211225
162,-24.325702813917875,-15.1221015867451,-24.737295088491607,-22.276478790842305
163,-24.199511627399858,-15.139624615788255,-24.644470231383245,-22.68042177737777
164,-23.960084710860883,-15.156003565087735,-24.527211329180084,-22.76662574703763
165,-23.61660255626577,-15.185445537029993,-24.36397184411641,-22.623633016842287
166,-23.223938716718227,-15.241134055649873,-24.126662692708805,-22.447550923290336
167,-22.929086111362693,-15.31669558359998,-23.807302247249524,-22.45563155037904
168,-22.840333973668393,-15.400344264001339,-23.40763894599795,-22.78221494776555
169,-22.74150459157433,-15.48993672896365,-22.949145091998243,-22.905842527693537
170,-22.39827462527267,-15.584104657357448,-22.45623100964045,-22.340456407553237
171,-21.952046957886658,-15.67366914683257,-21.916038866122097,-21.679863823852138
172,-21.592940557189234,-15.750303628146481,-21.319983793846117,-21.58678631846897
173,-21.24882356790714,-15.817583409213162,-20.71167118464011,-21.7161274762964
174,-20.821647486089827,-15.874381725205927,-20.135481251841536,-21.58504218600517
175,-20.318961964049297,-15.896484268160481,-19.604403527412487,-21.172559085525
176,-19.762178972099683,-15.85730900260527,-19.102182017430376,-20.57865743460911
177,-19.246501665053557,-15.74422672892202,-18.557588019689714,-20.177450973325616
178,-18.839111650660676,-15.553207008698527,-17.900262325957225,-20.275352306222835
179,-18.328384252332206,-15.298440775608027,-17.132113943688566,-20.28330387015555
180,-17.5167900094801,-14.99728115637647,-16.28957527290816,-19.59282675226753
181,-16.604461962540068,-14.632422448510603,-15.409611525695224,-18.70417114084474
182,-15.833446372224746,-14.194302337586933,-14.529113923530526,-18.234945718516144
183,-15.14343121600697,-13.73903371792557,-13.673409186694144,-18.01331036014037
184,-14.417763029467471,-13.324529196071062,-12.844000913842978,-17.725872667771196
185,-13.61934562518242,-12.944099073877936,-12.007014980185625,-17.206080299865114
186,-12.734526637208466,-12.5697275915281,-11.125755186012677,-16.361961217041966
187,-11.86398133674613,-12.192755221326435,-10.195860841175401,-15.552962901862662
188,-11.096938160173378,-11.828428716761495,-9.264891190920942,-15.121082367768514
189,-10.374614922309126,-11.478575202427233,-8.436334449189166,-14.558716092506579
190,-9.607534821563311,-11.17318176136781,-7.766138282712533,-13.349823531674243
191,-8.991162158867988,-10.95009422901093,-7.217332127359779,-12.139373104504728
192,-8.702554066768666,-10.830879525297755,-6.697617002217179,-11.675744751695724
193,-8.551036194843276,-10.823102925160534,-6.160833535033317,-11.617186626544624
194,-8.291629564198782,-10.900132991260666,-5.586250406743191,-11.42020572619587
195,-7.894661741710333,-10.972521752503358,-4.9637424274448785,-11.002505507600487
196,-7.310534444071037,-10.655409607423126,-4.217155059861832,-10.217944417374204
197,-6.719079008211259,-10.292629959207247,-3.447105038837506,-9.62762852724132
198,-6.2263186003810524,-9.926444453315943,-2.6644283977262466,-9.60909868716269
199,-5.789006856158982,-9.573135784441368,-1.8828473940464585,-9.637657653860854
200,-5.323292823404396,-9.236335345028014,-1.1134148801894155,-9.062628621995259
201,-4.856988536988996,-8.923590360170673,-0.35914815016139034,-8.221093323229296
202,-4.433909017251423,-8.63606464299982,0.3827047685840952,-7.653191206054619
203,-4.041459581337401,-8.365206027498125,1.1194395887014343,-7.331818272099551
204,-3.6606031833087678,-8.09840628002905,1.8582869308591026,-7.085520819855208
205,-3.243436715892322,-7.827997627992307,2.593779684326442,-6.65597449004415
206,-2.7522150890277857,-7.545045201646242,3.3163835856807045,-5.816838691524728
207,-2.312625807520381,-7.220585617375692,4.032214586265518,-5.035048159172854
208,-2.0522567515493666,-6.8351840907775,4.742720096373393,-4.85186115619528
209,-1.8070352053352143,-6.418201052881505,5.419525504950773,-4.787442166360757
210,-1.3849740137712638,-6.015126946472425,6.028136848403765,-4.207431879199244
211,-0.9114898717534413,-5.653761170905151,6.5462240808256205,-3.3892037387821627
212,-0.5742738409634192,-5.3441215866220695,6.9666245079046645,-2.7944260275813373
213,-0.4096305172923152,-5.073253049986266,7.3144779452184965,-2.5213820719939712
214,-0.38764256319973045,-4.807955480678154,7.625247332254307,-2.530425578735029
215,-0.3202536592060044,-4.500630818000819,7.910126806117202,-2.377749832787352
216,-0.02122319411658629,-4.11757783121299,8.168473532548138,-1.611814174037086
217,0.2956225156675311,-3.666342561225066,8.399061647862101,-0.7486926705059556
218,0.35701987305510996,-3.186678396760507,8.59892640122889,-0.45965332350363786
219,0.34663445682493327,-2.7539304172896975,8.771333851570922,-0.36381166863297937
220,0.528000030747512,-2.4349217620624777,8.925238840334401,0.11178349109298819
221,0.8381041250992729,-2.220121201261415,9.069621325544906,0.8273067381077516
222,1.1353045403904651,-2.062075724541399,9.212974623634397,1.4918799831610912
223,1.3400856980514635,-1.9205064283531925,9.36627142597684,1.9396214092924198
224,1.4013375565464408,-1.761530297455399,9.53576433346256,2.0710295611019434
225,1.4274265437905291,-1.5767631825703625,9.707392828812704,2.2519042009139816
226,1.5664843350909439,-1.3750364891380717,9.86664989421061,2.9030931698920814
227,1.757446282240397,-1.1573722342731192,10.028803612238029,3.6648443196357787
228,1.891270539561235,-0.9207385582440761,10.21622392898464,4.044756690846448
229,2.015850885683684,-0.6623684608714354,10.429296099299348,4.283115105073157
230,2.2033500410254283,-0.37503427339871614,10.659897272053545,4.7495753742054685
231,2.4416195483574605,-0.04232701595484406,10.908136972625528,5.4112972676635085
232,2.7034145606342266,0.34697596138489845,11.166504714224553,6.129200095968842
233,2.9639797855623877,0.7792481275727154,11.4026624821776,6.63570358560989
234,3.195187703327646,1.2311622478858861,11.586302850414276,6.694729009688808
235,3.420617779445036,1.6886240163378543,11.71247356988912,6.690583912052705
236,3.6686040786065344,2.142229740667106,11.796074954016396,7.0870765085163185
237,3.866927516921092,2.584015995647751,11.876713554928402,7.544266163720372
238,3.9449134639886787,3.012599950979537,11.993628446356835,7.586672935618142
239,3.9629311803266147,3.4348029410185723,12.149356897983095,7.345089915992341
240,4.005775117071171,3.8563078085435247,12.319856994228678,7.095363495337457
241,4.119902307876781,4.275191064297784,12.464346051592678,7.055512766659915
242,4.309086715685469,4.677017276954178,12.53696991290133,7.3646726596284005
243,4.398270430585077,5.030819691864143,12.50911694257174,7.564340683895695
244,4.21744563331332,5.301294583067638,12.370335336241705,7.149592027996187
245,3.9564676540310533,5.45383622117158,12.127571172045794,6.641230100947862
246,3.8668152351784113,5.4772011724492335,11.799173348678433,6.709280204195355
247,3.853036828040716,5.416191578663147,11.40002781096794,7.003475961601948
248,3.750847112772599,5.336973414048464,10.943894277657618,6.9824627061604465
249,3.5786656415410856,5.288807494051478,10.449708358863333,6.6494883244447
250,3.4000291981542206,5.294716876993474,9.934784171227241,6.167289540988896
251,3.342446576383265,5.332461781058036,9.4068057292634,5.933858656469738
252,3.5139537157764984,5.350941367729395,8.871354035370615,6.3116990335819745
253,3.7048645238029123,5.300026078261381,8.344639715426347,6.725623344408939
254,3.665189338859204,5.147207880793086,7.842013192849626,6.4796337089606
255,3.5628733052012036,4.885695685243362,7.359513047133512,6.082056883060851
256,-18.940697540675828,-13.22234167332495,-14.391018568369143,-18.288999629828425
257,-19.659092065792912,-13.637309145622604,-14.831845623813525,-18.783311763746834
258,-20.241908502860564,-14.076270480853468,-15.24639186721285,-19.093714402206277
259,-20.7661955815423,-14.528559796010054,-15.595751949964631,-19.549105238453816
260,-21.328300092196745,-14.971796795342824,-15.853271939902019,-20.440115580043006
261,-21.80996470448426,-15.367889180940727,-16.04353066517319,-21.271052646361934
262,-22.09819366357525,-15.691574516151217,-16.21133199747289,-21.526498153267898
263,-22.388995996883768,-15.965898583876891,-16.39387148124353,-21.687742997144976
264,-22.87156405488003,-16.23209835722027,-16.612041580857365,-22.308639722530422
265,-23.400306166403794,-16.52376432069637,-16.844464703397726,-23.138381885605046
266,-23.78964090907373,-16.864642400827933,-17.0694179553822,-23.807267299626012
267,-24.031682332697113,-17.247300382160272,-17.268047444968186,-24.191188420618758
268,-24.173413243138153,-17.65278749749618,-17.465234972648773,-24.27314401352869
269,-24.346350806709896,-18.091649335975973,-17.70607967731678,-24.466784783493207
270,-24.65854373783385,-18.567506252905822,-18.017841288965567,-25.149318732998093
271,-24.92855885109699,-19.034938258731106,-18.362786140295515,-25.79250403225816
272,-24.957965759624784,-19.44803725999014,-18.688411483137713,-25.82076183305457
273,-24.883091445086595,-19.797638450049302,-18.969478903079807,-25.626142990281856
274,-24.873869031405416,-20.093897804745026,-19.257627935610586,-25.69543065973775
275,-24.872142639647485,-20.36954776166601,-19.652456472140397,-25.904828092900296
276,-24.777934665128363,-20.6556417710451,-20.138436078841213,-26.000188213650866
277,-24.50249505916291,-20.93815689110623,-20.548381315567,-25.669152805653027
278,-23.994215262550885,-21.1902715207892,-20.7383636555648,-24.702213546818903
279,-23.42246852094322,-21.40960813600587,-20.704661953464637,-23.596849180854502
280,-22.958144335209226,-21.599170468467207,-20.5457006096526,-22.886375439618092
281,-22.45544099667844,-21.750742031294983,-20.3700132132922,-22.207792476595625
282,-21.742028768331163,-21.859214833007908,-20.225909923717435,-21.09822589804506
283,-20.889074379629925,-21.939457051981382,-20.116444771207053,-19.750621110934674
284,-20.02468760687534,-21.977169928391824,-19.99816590140343,-18.45861543471401
285,-19.277490918661332,-21.98974634888144,-19.83534177743194,-17.369011882511536
286,-18.735984191939835,-21.938318613052683,-19.600623778962802,-16.56047771720846
287,-18.240049247315422,-21.72766224049074,-19.275685957892463,-15.689785801868519
288,-17.623855377279373,-21.367955459653107,-18.865168084490993,-14.458621371890224
289,-17.073222662668222,-20.98881303458434,-18.404292364518785,-13.45348186666386
290,-16.808032643166534,-20.67080205147269,-17.934445456514087,-13.27245372981271
291,-16.760728310396477,-20.41952869955409,-17.47881739783884,-13.505719717633509
292,-16.823497212603126,-20.187208126972187,-17.046756921222652,-13.61632075154471
293,-16.98729590637533,-19.925811386989224,-16.635518252231865,-13.659742847982162
294,-17.268362287793238,-19.582670268207885,-16.23591437319458,-13.819840922060953
295,-17.80958866419912,-19.11791296641107,-15.84047047420219,-14.360515024707684
296,-18.717084452025688,-18.53149849572143,-15.448335281347667,-15.47547694325785
297,-19.729548390058277,-17.787974909888213,-15.075891499240523,-16.653161421608615
298,-20.575804282459263,-16.932817916334265,-14.735272266859598,-17.38620754138916
299,-21.42596217284261,-16.053219656758,-14.431887801812156,-18.210120535547578
300,-22.50174201036055,-15.225812534874358,-14.151128561781952,-19.72345618059139
301,-23.702590284146968,-14.43113474565637,-13.881810229167762,-21.58287061393221
302,-24.893162879680983,-13.607545253248045,-13.628486806961114,-23.311502062111597
303,-26.07530191882256,-12.696482680593977,-13.380734608693253,-24.81942972829983
304,-27.27555682371195,-11.652272855772617,-13.12868034269929,-26.144754936387624
305,-28.59330274991068,-10.47557178982678,-12.860141241934157,-27.660262896724994
306,-30.105184608784647,-9.198050280679514,-12.566614752238765,-29.700891848671173
307,-31.625549135497415,-7.849941843480242,-12.25333840902438,-31.76589907091558
308,-32.96264977057134,-6.462863323568735,-11.931657442795242,-33.30571075475248
309,-34.2489913300394,-5.076718453417102,-11.609959099802689,-34.69963703546929
310,-35.64583582734842,-3.715512684516274,-11.288888167302916,-36.413518952159265
311,-37.07742229181492,-2.353126830625843,-10.963901569877684,-38.27317451648645
312,-38.418644753647605,-0.9623402376970764,-10.609375629803866,-39.98874255235235
313,-39.56920426767247,0.42478101467755836,-10.19124724038966,-41.33501719922381
314,-40.462053800732,1.7791274065211502,-9.665610247254032,-42.173841134325386
315,-41.202664366440146,3.071587077131529,-9.026022053729546,-42.87762574792147
316,-41.90124294801619,4.287232442522155,-8.352531859127577,-43.855880934322926
317,-42.55603325246911,5.368126310235777,-7.775457428909963,-44.67400315087572
318,-43.120687105716996,6.247945168259724,-7.344451355784107,-44.89900619384635
319,-43.73947857171977,6.905736933395589,-7.019867686457731,-45.109116384313054
320,-44.53420265406069,7.365718963779695,-6.721464746831237,-45.95474133484113
321,-45.394865862261234,7.6865544715781775,-6.411629331981979,-47.15858836034898
322,-46.157975156552936,7.944906018108591,-6.073693358473835,-48.23276704514431
323,-46.74114903891536,8.214711772185693,-5.721406881854006,-48.93105662189617
324,-45.59052062570368,8.339899593753,-5.1382380645173,-47.6137682440888
325,-44.40532783621961,8.551935408090113,-4.559790634660698,-46.31151054615938
326,-43.26752730151336,8.828067884399543,-3.975148633454739,-45.49464539478774
327,-42.09772829957296,9.144122313188559,-3.3880102541012573,-44.70884631516002
328,-40.792149377503186,9.4713440440743,-2.8094661237337974,-43.364751931538166
329,-39.41729782880317,9.76044393928739,-2.254905012753502,-41.80965841174669
330,-38.06634494196399,9.97673735383795,-1.7414175657047508,-40.55622116614049
331,-36.74088699280473,10.14485327124366,-1.2871250195934572,-39.596346983815124
332,-35.41548426329528,10.310060233933964,-0.8967444453336859,-38.76347819113527
333,-33.987115489288584,10.492924853229042,-0.5403320261179885,-37.66649430216395
334,-32.372050877308446,10.699741812786433,-0.1761239394401475,-35.951969467184796
335,-30.785866352408245,10.925639637404453,0.21993902555498507,-34.16736436675572
336,-29.465753907421664,11.140002839297827,0.6580741822339258,-32.985024850726944
337,-28.211684517715046,11.352214508301953,1.1394244700298297,-31.920513671339148
338,-26.75708404562924,11.545233134787544,1.650935425918646,-30.302034264411
339,-25.222128370496964,11.661329290645305,2.1595389841679404,-28.42011473265969
340,-23.80735281182553,11.698339473689838,2.63418406690178,-26.753345727230908
341,-22.561344354164753,11.691898940676385,3.0748967281014936,-25.40331837118943
342,-21.474803855697917,11.690246833520312,3.4945871229553593,-24.343627524383542
343,-20.37348094356526,11.677291795300704,3.897832678567219,-23.181029165913003
344,-19.076944729096567,11.622491254586341,4.2849901701516595,-21.50716828084647
345,-17.782566603272834,11.54261206634306,4.650656002384927,-19.788435046432564
346,-16.752888369463843,11.464465939894286,4.984045091261651,-18.63359155259248
347,-15.863480287991282,11.401828806824476,5.273635715558232,-17.722176225040975
348,-14.90670920973107,11.358714858355599,5.513555517658063,-16.551940557544242
349,-13.901995173327425,11.31157169376449,5.709483743625113,-15.188544649674913
350,-12.912418903928017,11.227429140910566,5.874296077009899,-13.828205455325154
351,-11.958010598746428,11.092245583453913,6.029932822381176,-12.658385676136378
352,-11.054385049654538,10.90751234967418,6.193944386574772,-11.827137152392163
353,-10.12153476419495,10.688656707416882,6.3509483462789875,-10.979710871081279
354,-9.072549423647022,10.457521583383645,6.487511471498924,-9.699554191082363
355,-8.004150840489192,10.234256563840113,6.596860271820624,-8.317493087421507
356,-7.045654026904845,10.023502646390071,6.6998739862169865,-7.295438512813275
357,-6.161608243783461,9.794000739727542,6.822540146447826,-6.459945425893109
358,-5.272384700384884,9.50784941219105,6.962191561746909,-5.514109079499608
359,-4.364588267022145,9.147716447788191,7.090464723735952,-4.419759182067147
360,-3.4307762768069345,8.72115518549454,7.188820678380097,-3.215463844685844
361,-2.4584293018766936,8.286136136433266,7.252519863242673,-2.191132047957169
362,-1.4451145721859127,7.9044984239416465,7.289339658892771,-1.6175101000739578
363,-0.35398221476225333,7.574476658076067,7.3024001988575,-1.04251426431149
364,0.8371589485500541,7.262283478223944,7.298365666956903,0.0765901532387665
365,2.0393425281561943,6.928103307691695,7.292868781954846,1.425804182834828
366,3.153383517252859,6.538136092133427,7.301780791367955,2.5243673141514873
367,4.181554851664604,6.100599842826382,7.3384377054081895,3.4416340417819833
368,5.165314352230272,5.645390657623855,7.407958568937931,4.373919091248849
369,6.187407517257247,5.194626298546478,7.495908426314926,5.53286576715758
370,7.314822691112591,4.760380530452661,7.5802475864811365,7.068730246828762
371,8.402345175600562,4.328983210028428,7.649678096796709,8.467636253399665
372,9.29641925407046,3.8758904278063255,7.70038688574764,9.176801025908508
373,10.179213632479033,3.3942237175282624,7.726040254984272,9.733657503469365
374,11.285208998231752,2.8878394962949625,7.734929827846137,10.855933455022566
375,12.561769011952434,2.362494745421382,7.740105639505252,12.290199122308671
376,13.872848159634376,1.830362784922946,7.764872565692551,13.567401601697952
377,15.142736684251918,1.3113453534821058,7.816043957127656,14.612972275715023
378,16.314755494984333,0.8181022914207596,7.856039897590442,15.465746647805828
379,17.45427193425942,0.34588648255636584,7.841567006366015,16.452486876041146
380,18.66001736414025,-0.1241140932399144,7.73550821415012,17.915415651630788
381,19.814428370944192,-0.6313672895207105,7.550909187966675,19.397081276858064
382,20.78516871825149,-1.208133160719246,7.326105338365182,20.335679653118596
383,21.754474839676938,-1.8391500848924665,7.09843466539359,21.15911868045325
384,1.748673592476249,-17.692008068411845,-9.766033562447372,6.714792906673213
385,1.3859935022414294,-18.1253736941308,-10.12539626493422,6.361198362423611
386,1.1511451346566408,-18.530744762120364,-10.454998004105281,6.183232545040455
387,0.8551028913607734,-18.930339142989514,-10.744995941770934,5.770337021952916
388,0.331708359245896,-19.347008066277876,-10.986010989260228,4.780720867271195
389,-0.20405627982067903,-19.803574486981073,-11.188620576687779,3.787545084646054
390,-0.51462166539811,-20.309391616633945,-11.37214314289975,3.401165896275857
391,-0.7861207190675249,-20.843345105808687,-11.555514145155668,3.1594140942095272
392,-1.250563665650464,-21.3761083899592,-11.755978551860009,2.4855697221360087
393,-1.8600304988900298,-21.895633857343622,-11.983810128337904,1.5399525579152185
394,-2.5103231714439405,-22.395986009951706,-12.239866068306203,0.6140992684337577
395,-3.1218973118258977,-22.86943448486562,-12.515216250046452,-0.1011612772519104
396,-3.640418818261537,-23.31244606800686,-12.79611099500024,-0.4962838872399652
397,-4.1843740894550985,-23.725889682168756,-13.070324793416631,-0.9739374975771368
398,-4.890527872953707,-24.112619529058428,-13.329356038657703,-1.9359209242722168
399,-5.67632323995674,-24.474312859228263,-13.569806731363416,-2.9494420993239188
400,-6.4285573825202675,-24.813659939579836,-13.795131590187161,-3.5221138593074883
401,-7.194190529234009,-25.141797555871577,-14.01595432930587,-3.93718885871602
402,-8.03566251381628,-25.46398667548977,-14.244962330610882,-4.575093338223305
403,-8.935119107629674,-25.76184467658074,-14.491859665931601,-5.444988588622855
404,-9.865842780788102,-26.01235374834428,-14.760290854125403,-6.459242143092577
405,-10.795283151118783,-26.206005988513706,-15.044115843232468,-7.327886855258927
406,-11.688940116662728,-26.339959270234313,-15.32855985915459,-7.812299808261471
407,-12.595004785622983,-26.416442716396514,-15.596574892586336,-8.358540321681518
408,-13.545992562168788,-26.44127696053367,-15.827750740154803,-9.422962347493272
409,-14.391285192721838,-26.41705328274156,-15.992084170290083,-10.597613821851004
410,-15.006945558720597,-26.344684176448542,-16.06983803267125,-11.39412267774675
411,-15.502599445706908,-26.227194650754058,-16.073371267160216,-11.942151420409102
412,-16.039485847846425,-26.06801713200909,-16.028527157092924,-12.492107692728295
413,-16.762470527125824,-25.866280222398593,-15.95763632834021,-13.267666046065075
414,-17.729268302378756,-25.624628589802285,-15.880858466129618,-14.400773616168046
415,-18.654297957968655,-25.360853557242958,-15.809524275826432,-15.402341009671018
416,-19.25381173406862,-25.089849824108647,-15.748839179402228,-15.807984998702004
417,-19.73389301125232,-24.805575831054675,-15.70675656402601,-16.184949238186093
418,-20.3682729063702,-24.492064682847037,-15.685808473485363,-17.1624594320023
419,-21.07733971424993,-24.132143211269412,-15.678203985180396,-18.380173407812993
420,-21.725806853394413,-23.710751479647364,-15.668971934752264,-19.353400731296254
421,-22.27690928658342,-23.218321783083596,-15.634772629583322,-20.09151127162725
422,-22.72199158707393,-22.66068835646452,-15.556781118832266,-20.725330772710254
423,-23.210600051034298,-22.04837239371324,-15.432255344784231,-21.60635059028988
424,-23.879151253862087,-21.405452265284136,-15.272057418976425,-23.011100288404737
425,-24.510424374954667,-20.741890387343386,-15.105393883805176,-24.363348592171572
426,-24.878398516969764,-20.047385079535232,-14.960918329590337,-25.068302668083085
427,-25.17474388398345,-19.323660524229236,-14.836084771650246,-25.619904963329496
428,-25.628591807454086,-18.594780252230088,-14.719952071045212,-26.616080853103817
429,-26.15725077844363,-17.877493342179527,-14.625402977065807,-27.829941927477023
430,-26.633610587914436,-17.15577719310822,-14.562085212071821,-28.90520918507223
431,-27.023771017040996,-16.411635884849904,-14.505110038691319,-29.70243920156949
432,-27.32969146694832,-15.622124368350047,-14.430659115433096,-30.18071312926811
433,-27.698858935785438,-14.796490539569177,-14.351043833425663,-30.75069299770918
434,-28.264234372801454,-13.936761436571313,-14.279937145903517,-31.79972513051785
435,-28.85895568583671,-13.020418904895411,-14.209722575069295,-32.837661440781034
436,-29.283226409849483,-12.009953743914975,-14.122769846184072,-33.32069929635721
437,-29.609106300613607,-10.91274118065721,-13.980719633255097,-33.60472446471051
438,-29.950618452169863,-9.780494374907793,-13.755810737296471,-34.1466943977384
439,-30.27777746528082,-8.65229601997949,-13.477354110200956,-34.865962523600736
440,-30.548873213106628,-7.538586568703486,-13.188144654912985,-35.57915863780181
441,-30.760550657227697,-6.446763234738841,-12.90464984448251,-36.07210710707719
442,-30.91345956334894,-5.3650395862128955,-12.626420214198786,-36.19703218338992
443,-31.05225470928569,-4.272703789530602,-12.328299141588515,-36.36320100646771
444,-31.187502149150312,-3.20816810939246,-12.005546092258228,-37.00061241744546
445,-31.19208310700883,-2.27432810951607,-11.678475839265193,-37.43810306272093
446,-30.94119001595456,-1.5091411370533974,-11.390925105459438,-37.026091551347136
447,-30.569897656771392,-0.8777540732798593,-11.136207711204024,-36.27411536694076
448,-30.264901656634358,-0.3275289231671814,-10.89164631503146,-35.90397302858902
449,-29.999081321272406,0.20742668152296223,-10.669991748366463,-35.86159828969217
450,-29.692367201682938,0.7969581702315187,-10.483301259351943,-35.8806951836755
451,-29.301468620259104,1.4499178724775486,-10.30734861366965,-35.7101127317345
452,-28.922078238617967,2.058657786608602,-10.133937975473632,-35.18050084906031
453,-28.583352347968916,2.634528639414707,-9.968761323589579,-34.657294030683325
454,-28.439545588335267,3.1400383565427488,-9.833280109269957,-34.67756638004511
455,-28.240176219607754,3.58402900518834,-9.716030638709906,-34.73220975354696
456,-27.681608617918545,4.001938321117526,-9.596109622901448,-34.14746386247321
457,-26.87013527263477,4.433010676128072,-9.472994399215265,-33.22652025985527
458,-26.016824803536995,4.907522288729268,-9.34967072919218,-32.468342541069916
459,-25.181768415675226,5.4198139485776595,-9.220042811613299,-31.913403907983934
460,-24.377589288281666,5.940580653522023,-9.077205844873529,-31.469349927045297
461,-23.470433511799843,6.43986459979435,-8.911515191704718,-30.773291585746104
462,-22.32466685778459,6.891962496757685,-8.714593653082948,-29.47896162464187
463,-21.193750095936803,7.280097350891472,-8.49415517081257,-28.137387372592023
464,-20.382677340606925,7.60703406456634,-8.260541143358608,-27.413621664749282
465,-19.73478353565342,7.907325107920981,-8.00540205214686,-26.845903462411883
466,-19.00015706595467,8.219476619003764,-7.7188146235712845,-25.776229771240324
467,-18.248888433736912,8.55539798904848,-7.407500432058908,-24.399258953243372
468,-17.6068271881846,8.898818030941646,-7.085701201024948,-23.10113736453275
469,-17.078643746456496,9.229594045527769,-6.768713752968169,-22.05995265133972
470,-16.640737276365662,9.515059871828289,-6.470727555727016,-21.364572400228727
471,-16.168634104733087,9.710342713731844,-6.20432803388026,-20.633238445188255
472,-15.53641449123552,9.829776056398764,-5.972503693075244,-19.435079472697332
473,-14.892517560386603,9.940356364708768,-5.750022242444511,-18.206012629131017
474,-14.422957896045483,10.114279626305702,-5.5117666064431265,-17.52536884545472
475,-13.994006370855502,10.338779382745813,-5.2738353161599,-17.11908314424269
476,-13.42212821540051,10.56116367680785,-5.065257511779669,-16.5482607809878
477,-12.753694718247,10.728948097983626,-4.899789804413056,-15.86141235173871
478,-12.103325894484973,10.801436155957894,-4.783180634538451,-15.215810381742653
479,-11.590817469159967,10.79534802864269,-4.703615888439047,-14.793941138812746
480,-11.311702511400144,10.753999843543768,-4.645267197606792,-14.748719544075215
481,-11.161948894220567,10.694070470644123,-4.618937409206393,-14.74098721266253
482,-10.982535131257041,10.620614898468078,-4.638799493669446,-14.374126091234913
483,-10.813294768393785,10.533847705702279,-4.700478591216796,-13.969128906545613
484,-10.734111022964164,10.42682116194534,-4.788321392072154,-13.959777835299922
485,-10.687226244073848,10.299594940628126,-4.86386105452983,-14.172553887956841
486,-10.602041243351788,10.154908830220153,-4.894363362078478,-14.3003271189863
487,-10.454577284600136,9.988653578508137,-4.89909801988739,-14.191359402586713
488,-10.244389075960067,9.79685991234613,-4.915530707063693,-13.784873160404008
489,-10.09116113778872,9.579909194791025,-4.969091250127771,-13.47313822231153
490,-10.10149001180278,9.341253289042236,-5.068928346797588,-13.667029733010388
491,-10.102989003290853,9.090975273927189,-5.174830460578382,-13.882288312926777
492,-9.881285190807583,8.840976179270053,-5.234258861437904,-13.50353088183168
493,-9.494497488408223,8.592870976775702,-5.252065952316377,-12.844127652130997
494,-9.074571530316273,8.346004386579697,-5.246845972798724,-12.400808279936186
495,-8.665167167383514,8.114207187331916,-5.196134851589278,-12.152619699690524
496,-8.284894304298854,7.908724988227768,-5.073715053595995,-11.948027531981898
497,-7.844501851331364,7.712890405115887,-4.878047773598961,-11.512853743551211
498,-7.246531286055502,7.5047229168771254,-4.619005553899457,-10.612040503330292
499,-6.678526127954625,7.2840667190742545,-4.316365543932888,-9.763228654212913
500,-6.349943025412418,7.055049316228869,-3.997469345565545,-9.562178493384598
501,-6.0586399094490035,6.812927514112555,-3.6886364223601507,-9.520138406221522
502,-5.552935919677098,6.54884183304643,-3.4082199610343906,-8.97326811457125
503,-4.973598011244081,6.245235801767413,-3.158960725353024,-8.200326329251716
504,-4.540633588724358,5.885790420374642,-2.9355411159740794,-7.665684048893958
505,-4.3033150669827895,5.471790443645351,-2.7319964097167713,-7.437380550056167
506,-4.243566600092602,5.017959108988127,-2.5463934531594488,-7.454166825034391
507,-4.182709398019051,4.545622729968726,-2.392863490913985,-7.3070642066545135
508,-3.9348244179231027,4.080623921850641,-2.2870940951090044,-6.590451752544342
509,-3.6975533432880643,3.6530457282877893,-2.225227936091696,-5.828161444868417
510,-3.7288721482395366,3.2829574347590174,-2.1926099819918345,-5.679812769508324
511,-3.8691885903086014,2.9598826423856157,-2.171999499115564,-5.74960063052704
512,-12.749142290805207,-12.777147269610412,-12.429517894096824,-18.64372434031998
513,-13.040266186015637,-13.172709873589902,-12.437963899608619,-19.075417695751153
514,-13.229560213279377,-13.57280421924175,-12.475036288557694,-19.165308809389405
515,-13.417012836268858,-13.978327181719376,-12.52825327345294,-19.311172291403043
516,-13.72091334689915,-14.392592324621614,-12.57706540608441,-19.907998947659944
517,-14.023977737677882,-14.821796487849058,-12.625670390083243,-20.528438701569446
518,-14.195712233770402,-15.268028240707261,-12.704692349583317,-20.68640031338335
519,-14.359639716160274,-15.724376323820099,-12.820394076503197,-20.744939858817826
520,-14.650990077496928,-16.17291269422041,-12.940832578883393,-21.131266491095396
521,-14.996438429225417,-16.58442146155392,-13.03403905269771,-21.694600346836314
522,-15.299619667090795,-16.934476770395168,-13.06419825886186,-22.176261349466728
523,-15.55058801055033,-17.203514877518643,-13.002065988570951,-22.33585105190836
524,-15.76471679244997,-17.400004173394684,-12.851905150821441,-22.035892419534267
525,-16.031379246061515,-17.603818995107652,-12.65542930398743,-21.70455592599918
526,-16.421612321378657,-17.889202246462503,-12.479383092788911,-21.799412948474618
527,-16.796476182159292,-18.244958920119398,-12.366278328248672,-22.02988852773857
528,-17.00743353452451,-18.61931295032106,-12.315849272653773,-22.010610061671844
529,-17.135805316930437,-18.94425556485171,-12.307470773574716,-21.912768435724065
530,-17.294426722538308,-19.164796032826644,-12.304931980549762,-21.96141572461812
531,-17.477047697737206,-19.290416339862286,-12.281237225034557,-22.168181076262865
532,-17.64727756001317,-19.366108307449093,-12.224123316717163,-22.479549394356685
533,-17.712002124930333,-19.444549487678607,-12.141596082917468,-22.565675143298076
534,-17.604750228407998,-19.564934788114808,-12.050574673085789,-22.168409390110853
535,-17.489059664056118,-19.714024512298764,-11.95979500313076,-21.785495867660597
536,-17.5321116798736,-19.85442759313735,-11.868778893221348,-21.931593013444747
537,-17.62645374074752,-19.95962304096532,-11.771409714651057,-22.241540073828947
538,-17.626613146085553,-20.0123613295264,-11.652378556364722,-22.24624301927994
539,-17.528883359658742,-20.013378173279808,-11.477847851083826,-22.019925262160434
540,-17.377986299788628,-19.976611596892628,-11.228881099237018,-21.753398428099782
541,-17.31628140694083,-19.915041785119303,-10.918971770748987,-21.713951953259393
542,-17.45914096263545,-19.83912482479238,-10.58751391312366,-22.0884269791834
543,-17.61393774185456,-19.755945808930356,-10.276868645358043,-22.353115475730096
544,-17.567252678620946,-19.66533122528072,-10.006783246418978,-22.00155652609008
545,-17.470500171373278,-19.555608572946557,-9.774036638738444,-21.608341488142052
546,-17.49909078300458,-19.415342300034652,-9.579109418868443,-21.816804915398848
547,-17.517658165261903,-19.247848471058944,-9.432470920351776,-22.288489127645487
548,-17.368642087216987,-19.061139179951976,-9.32012336940933,-22.541381417467843
549,-17.049190962200086,-18.856989471447747,-9.193402178917449,-22.509588132233166
550,-16.61512886459947,-18.63608296078411,-9.012643337682759,-22.242623253273802
551,-16.257196301569063,-18.402029241098457,-8.77953009236727,-22.075650580652265
552,-16.1406421880436,-18.154952847550497,-8.52911518297617,-22.308629584264025
553,-16.076134566264912,-17.884082450048883,-8.298035978794108,-22.429571650157712
554,-15.844662779012486,-17.577048785903465,-8.099048969661071,-21.91086842073705
555,-15.615643840162518,-17.23551647948524,-7.927219961154322,-21.253627229872183
556,-15.582563930293416,-16.861589355638177,-7.76277813666899,-21.03615092085394
557,-15.623827123091814,-16.43483296026083,-7.597820830169693,-21.016414979080697
558,-15.577423327500261,-15.94127398055647,-7.421394412275642,-20.824026453180558
559,-15.395160874332204,-15.410470009750371,-7.2251651659570015,-20.329667718894306
560,-15.074791527145036,-14.876730238001565,-6.995880403808674,-19.51010787718079
561,-14.746338522248555,-14.337712207030197,-6.72186879004886,-18.753111651448798
562,-14.5364641603416,-13.786751351337687,-6.416969855049549,-18.428868039876342
563,-14.313823839829128,-13.236122535225864,-6.12114977027523,-18.112287014208356
564,-13.920083288007145,-12.700115493495824,-5.860523662413021,-17.31799755937046
565,-13.434130003089415,-12.192628754832738,-5.6313289858505176,-16.332943705236136
566,-12.968123626394322,-11.716576454444793,-5.410546043819828,-15.537530238260967
567,-12.513000517027088,-11.250618192640436,-5.175435680321755,-14.911140059659777
568,-12.037602883297858,-10.760989010068617,-4.901269659994101,-14.331247970869184
569,-11.50003136202788,-10.200013232506219,-4.56022621401293,-13.5088830419586
570,-10.861087031525312,-9.539704542323026,-4.135827442305096,-12.20904998807628
571,-10.18066995936081,-8.817490576216736,-3.640870661596518,-10.847013285707721
572,-9.523495066453814,-8.10751223244765,-3.1495364958461005,-9.913206389579873
573,-8.857754619771157,-7.547083619982799,-2.797230585107375,-8.84646564924885
574,-8.159659934045644,-7.154429930949582,-2.6362373459050046,-7.147129338966234
575,-7.626884104546403,-6.880218166766933,-2.617393727474085,-5.413432544730241
576,-7.447019077432529,-6.631173443785549,-2.693403307770997,-4.3830901844388395
577,-7.558061821672648,-6.4233518378625565,-2.8476472496299765,-3.9977474986196544
578,-7.802350162262375,-6.270341056473969,-3.0581049818957755,-3.946481394125523
579,-7.9864858562319165,-6.154301204370581,-3.2824174522189904,-3.838336229258203
580,-7.5267208294977666,-5.90448857492412,-3.5799236651257855,-3.009319560525041
581,-7.039413889233047,-5.60195059115471,-3.9026085588876636,-2.291956941811118
582,-6.737421978602649,-5.2438800550667874,-4.250734777157635,-2.282171429766758
583,-6.458827938178143,-4.863987531417529,-4.604216683623885,-2.396484712136151
584,-5.97686998078041,-4.508741134705204,-4.935664686212883,-1.8636262710936788
585,-5.3821425683131805,-4.20921219142405,-5.232179144382264,-0.9709782136492003
586,-4.8280188601859955,-3.980156869127021,-5.493518728513647,-0.23484834044381675
587,-4.333051579362945,-3.8106747217177217,-5.713733163148631,0.2636968544400844
588,-3.889245804500932,-3.673170463135999,-5.901239014768208,0.5709168227353653
589,-3.4145959288045793,-3.5511372916688178,-6.079059232126895,1.0464559612498565
590,-2.836621854701229,-3.430195105911535,-6.2606291483494685,2.0564718781624705
591,-2.3689596932978163,-3.2715721029841447,-6.449698928017193,3.094124200208816
592,-2.241049478593668,-3.048178790377684,-6.642884956715104,3.526148331275651
593,-2.2821572942189765,-2.79767167278001,-6.840531578448026,3.7252811814599203
594,-2.2375403295661536,-2.570382485942998,-7.043268851038272,4.254715890270599
595,-2.103465163393177,-2.365758329822314,-7.247019755188462,5.008182643599893
596,-1.9527380329598456,-2.167047161401144,-7.448288665287725,5.72275486874998
597,-1.8824779950154795,-1.9671790792967052,-7.650752740503573,6.203647858489648
598,-1.9661351714940138,-1.7630819043403163,-7.853194879336886,6.3084616497248955
599,-2.0387888474593443,-1.5715939416948272,-8.0528181919829,6.397036669230692
600,-1.8788470600002607,-1.4145852887204757,-8.231922752337061,6.891830366852472
601,-1.4802923749386758,-1.292417660662797,-8.369052410529802,7.411935968868406
602,-0.9234433486927713,-1.1948214041483287,-8.446317283280203,7.454135459519634
603,-0.2656618805601883,-1.1053351643054339,-8.476237459126198,7.278064511214199
604,0.42861487258266845,-1.0096261800184394,-8.476114352622849,7.2889364183937735
605,1.1282075333005417,-0.9194017249374459,-8.45777523475156,7.519214636356672
606,1.8359670500181724,-0.8541458527379364,-8.420532555551498,7.884022813403294
607,2.546467768620345,-0.8111438255283102,-8.379720723863715,8.083728805667691
608,3.2581027172181405,-0.7818340979092328,-8.373391700686899,7.831681143518692
609,3.990712940931988,-0.7705688519841752,-8.417788957413721,7.521154976379756
610,4.7526712215905516,-0.7800429736306541,-8.491606905882826,7.650337401896257
611,5.514350456482228,-0.796662747127045,-8.563693321525223,7.938399570099743
612,6.231155614379656,-0.8016999238088534,-8.598686239753565,7.955515859378997
613,6.845130070287947,-0.7894287510974515,-8.576145381809084,7.781616939906588
614,7.314872722364673,-0.7511030596889189,-8.495980230830263,7.6131370840246495
615,7.699979873265629,-0.6508096786545758,-8.366500363386084,7.6332262882413255
616,8.08481775807818,-0.45950352584501997,-8.184982630905765,7.980306343891797
617,8.413683377423707,-0.18725902673050912,-7.942099181885375,8.266778197552018
618,8.621946009404956,0.1290530294494277,-7.629591098546654,8.065841527300966
619,8.868175250354614,0.4238068013765836,-7.267884538350264,7.855804638564594
620,9.30580354820292,0.6321107774700762,-6.88446688872226,8.225531993770264
621,9.779300447141104,0.7418144462340045,-6.508858041384603,8.821355410204315
622,10.079295503766858,0.7697472879672679,-6.155333999623958,9.108825952246214
623,10.187307474008865,0.7251393217387717,-5.835402927829681,9.042956096746165
624,10.158862343746168,0.6240600754600718,-5.562544615580718,8.743271422986068
625,10.1505027703773,0.5000910854106786,-5.333476719240243,8.612462043679718
626,10.30630086214108,0.38226554147732905,-5.130589139251411,9.035379243449007
627,10.415236902774081,0.2763783833113708,-4.947486696297631,9.469311329960247
628,10.224304738342395,0.17773300354960425,-4.792945886246892,9.246930282441829
629,9.935546806355973,0.08286479185445972,-4.669235271879883,8.858003329723337
630,9.83608217334896,-0.011586810387951701,-4.566219085920501,8.987817523432161
631,9.886345581911485,-0.1032157910447975,-4.474101003516004,9.429500664122967
632,9.959079753866865,-0.1868972371239964,-4.37947796405132,9.774506669999454
633,9.975928543459496,-0.26368583504832377,-4.26308548179728,9.845736405672056
634,9.873672036616265,-0.3347579456738502,-4.116633419763881,9.562352357415419
635,9.743991814985094,-0.3965136803287784,-3.948179470211079,9.29867438488939
636,9.715179356535163,-0.44230858236474735,-3.776312641443904,9.493183871933077
637,9.68095377177574,-0.461476623881634,-3.596105662827699,9.763003658294013
638,9.501272487485735,-0.4463357626903869,-3.3730958169528495,9.590936183742732
639,9.288715785365467,-0.39812922129849226,-3.093628525642261,9.295528877095418
640,-2.2196312114237555,-14.783746253732133,-15.67685491511807,-1.0421250752827453
641,-2.1325406115104544,-15.168749018681586,-16.155557021023608,-0.9265995995850926
642,-1.8653214341867337,-15.55619210520383,-16.57947387736447,-0.42139705568577485
643,-1.5725734968710126,-15.906405165061939,-16.939281507234202,0.053630416184017704
644,-1.417155968576897,-16.184814759745844,-17.23096496765072,0.086336186177557
645,-1.269227102921284,-16.403138546548675,-17.459164458320714,0.11698702883226161
646,-0.9729982164493503,-16.613541746934473,-17.63460694287602,0.6431956794535734
647,-0.6631844354428682,-16.85385875621111,-17.76954695043603,1.3387518793088218
648,-0.4961287541274767,-17.11318202850379,-17.87912229597928,1.778494300357921
649,-0.44018714793721475,-17.351105022143162,-17.98447554766205,1.9711366815072642
650,-0.4190918858715858,-17.5529833781283,-18.10288930724005,2.0322395048425004
651,-0.33442193989047514,-17.723233601827598,-18.237132347034027,2.219081452545065
652,-0.11287423683242082,-17.879885589089398,-18.383177028500423,2.7416238798805526
653,0.12428054472610665,-18.025050654877788,-18.538248348704663,3.2154537065034234
654,0.23814741395728437,-18.154663585395596,-18.698161801430025,3.2296548605982567
655,0.314573316926608,-18.263890081657784,-18.856407670279754,3.1075700908548325
656,0.46423949720395113,-18.34828998466252,-19.008040086417186,3.2420800129918623
657,0.6443201666129292,-18.407420906047413,-19.154205095105674,3.48580299478206
658,0.7859980497808174,-18.45028483569312,-19.29886317022424,3.611158891725459
659,0.8409124902775139,-18.501253223636972,-19.438543739637346,3.492498951542104
660,0.7892671492422774,-18.58424557420438,-19.57447169904458,3.088157915807469
661,0.7272162140195463,-18.707035144032393,-19.732272489165286,2.8089723385480103
662,0.7650288786359793,-18.860752954719157,-19.93207777946189,3.03271475235919
663,0.8907451406269943,-19.020641773372045,-20.158861384994466,3.2794810922368107
664,1.0538769375564172,-19.152349952614077,-20.38552976583804,3.029229972093342
665,1.2348707892539157,-19.215546369688145,-20.585917520807463,2.6723238532602225
666,1.4156321285910756,-19.184830531411766,-20.743056004937277,2.6719045448870236
667,1.5838727132008183,-19.074306821994252,-20.871589824925174,2.8986685744230876
668,1.7402756163276634,-18.91577743563908,-20.995489915524868,3.0942710614277087
669,1.8859740244366525,-18.734339339087747,-21.118630053854233,2.9029806149809465
670,2.023124217212992,-18.54882155015549,-21.239352146622128,2.0958732719349933
671,2.153178264497918,-18.371586095123156,-21.357437426635936,1.3010679610830755
672,2.272471465603159,-18.200888757959703,-21.4692449792261,1.1641992775037109
673,2.3880158850406867,-18.009139126896727,-21.579287317520304,1.1655576624909074
674,2.498303981392481,-17.771005460615118,-21.68448841326352,0.67867166339186
675,2.5398798552869,-17.49958411218912,-21.74691845632797,0.035133538347071336
676,2.470048418311283,-17.206534757788468,-21.72981292543229,-0.31209520235877414
677,2.374301336025406,-16.914162744888433,-21.634179146362012,-0.2985961709370646
678,2.3457619225093986,-16.611366671138256,-21.47740059537492,0.020389206506783025
679,2.3853477584676965,-16.25666605709235,-21.279230228568913,0.24595524352718526
680,2.451235059554943,-15.84404566103883,-21.05866768935371,0.023772294863961
681,2.4439850198931317,-15.38631537147163,-20.822836151377192,-0.12785453482353387
682,2.294050089769494,-14.907912697114336,-20.567509639559486,0.34939851404410893
683,2.1022184238122197,-14.409503949492292,-20.278929437119125,1.0194716793713359
684,2.012020134449102,-13.890065779035075,-19.944213745709334,1.342364541036043
685,2.080849589917821,-13.366328689313256,-19.56725962400538,1.4553820635289527
686,2.310257792659561,-12.855152271197666,-19.162236381448626,1.61106653423422
687,2.652627177935407,-12.369760235070347,-18.740961850934525,1.9650720265491608
688,3.0255042335555506,-11.91211559280915,-18.322832762663047,2.597049344447519
689,3.3153804687670543,-11.45185110672953,-17.941968508878322,3.1145718112912704
690,3.4581463642369217,-10.95572731623934,-17.625124030060128,3.1370340276212794
691,3.5780458616020163,-10.420237782428872,-17.382994750871962,3.070292473098605
692,3.8064733611758386,-9.852867631113094,-17.199440341576516,3.387697106239584
693,4.05913144276577,-9.264501077627703,-17.00728003995132,3.866738555736655
694,4.215350809703131,-8.661060987616406,-16.737701663646305,4.184357724460969
695,4.259150739341102,-8.020085035569817,-16.371807907538088,4.307462098887857
696,4.211601142623998,-7.316373161638006,-15.920136286784723,4.278895126909878
697,4.166475499689103,-6.552241621498952,-15.415653098649054,4.3544373994559695
698,4.209769634550449,-5.742687320437105,-14.88947832147182,4.75283007142286
699,4.233461068933002,-4.907778074893552,-14.333806143506315,5.065313138037295
700,4.100824381381481,-4.12023118241663,-13.756757439463131,4.804696403958422
701,3.9957169008665754,-3.494562869117297,-13.205396820066236,4.624679339865127
702,4.0736795472763,-3.0830896584852905,-12.700311111113843,5.089435372879429
703,4.198560837450683,-2.8644149070144906,-12.250026277946638,5.6775214411187855
704,4.177174871870136,-2.78446086677575,-11.836216788899057,5.694256843768856
705,3.955628692637888,-2.7717306768890597,-11.458712280442736,5.146160459801414
706,3.5600218382991757,-2.7738893323981673,-11.104404590514644,4.296806839137208
707,3.1645850227196215,-2.7713931341754283,-10.769125341590462,3.6196301445302046
708,3.2242150802700342,-2.5448921000794247,-10.065884183606899,3.999548928445472
709,3.3270900677755417,-2.3546501349268127,-9.366230310705207,4.426449696977572
710,3.290351321409118,-2.2105617851471564,-8.65817078607954,4.235779547459736
711,3.2521825406581337,-2.084200412928846,-7.941896354902192,3.892144905443866
712,3.39044505431626,-1.9307101916960776,-7.2195435292250005,4.064392038062511
713,3.578730246590707,-1.7148813345657152,-6.4946042387113465,4.528649491802063
714,3.647433572549443,-1.416401993903572,-5.772487507979004,4.875308291411068
715,3.5945850529040815,-1.044465608874384,-5.047534039238202,4.98547818175885
716,3.4785922436884524,-0.6295961707969722,-4.317673785716427,4.84247060895379
717,3.461768477370768,-0.20115793416655608,-3.6115362435452067,4.838303406719585
718,3.6892582898305237,0.21197881914418257,-2.9608999368966473,5.386780737136072
719,3.976391020393461,0.5720238739964831,-2.3663391100040605,6.016671462979351
720,4.0727399637580115,0.8561294623565942,-1.814977834898054,6.1149536258809665
721,4.063234809562247,1.0899330218810623,-1.2974464284183678,5.982102332541322
722,4.104978901257397,1.311579759303005,-0.8033060417756439,6.101389957412919
723,4.144714296963445,1.5260410403043125,-0.32187841638896375,6.424126281267774
724,4.099719077986086,1.7255664090826917,0.14921897266709488,6.774573558638796
725,3.958319007464495,1.9049235669053004,0.5996686027268215,6.9550794162399585
726,3.7295261964944304,2.0567352181876086,1.0136975464320357,6.78947045450557
727,3.513184260503887,2.1841257850824194,1.3737251984448786,6.587303750977433
728,3.4116453817935533,2.29277986735913,1.6700658565475097,6.720843775221874
729,3.3319310115213803,2.3672395730147704,1.919551938676449,6.852501751188112
730,3.146432245007147,2.3907651858241903,2.1500555508739394,6.54080164979888
731,2.9061747220639518,2.3775557188425456,2.3729832481975,5.976815257585511
732,2.70417618779152,2.3458858447565922,2.597041055298054,5.489075737949091
733,2.5716960937942988,2.2853461937839157,2.8497977413099145,5.197716658166407
734,2.515953797807606,2.1862624864331623,3.152859006347436,5.1329501842634135
735,2.4531874802207905,2.05778588650553,3.4930336798030552,4.970865447191663
736,2.292792506351103,1.9240118410503166,3.8540240911968184,4.370463821403083
737,2.1488978070268634,1.8467855150221033,4.197891647650033,3.7628454280195345
738,2.1550766398261514,1.8795378378488412,4.511476209471018,3.6756136328406273
739,2.1941445537350988,1.9964345333407263,4.8139810277398505,3.755327159546966
740,2.1098318191463643,2.139516459997626,5.100694819161667,3.487807669728362
741,1.903730759770501,2.267222768055212,5.32891873977638,2.914887954805952
742,1.635030017746815,2.351033366677676,5.481036870811197,2.231210583968111
743,1.4550893727034815,2.3982740561240705,5.581703427132934,1.713515552470453
744,1.495541922466662,2.4323899726118925,5.675180961031882,1.602497778400022
745,1.54688756648026,2.4474672782381144,5.78459375681224,1.4480960047608171
746,1.3574692689884533,2.4301260318546456,5.920360093222187,0.7322456325579192
747,1.111166775807311,2.385100067441933,6.0850426529224935,0.0008813774671101449
748,1.0717851235032,2.3196137898286313,6.270132931628123,-0.05358948501826877
749,1.172441160828463,2.2376421908825335,6.453346962096477,0.2340750563147192
750,1.2726774231822284,2.1443829578491975,6.6181859291474865,0.3289176251708078
751,1.3271080860305593,2.0388379183825043,6.784875008214194,0.1969045411049677
752,1.3143357051855096,1.9232022779404523,6.982088047116878,-0.0444024944642295
753,1.3542287620020819,1.819390338560657,7.20851476396277,-0.0010777889632519466
754,1.5789671146688953,1.7523890276051262,7.452908570984995,0.692974329555175
755,1.7855305816591867,1.7335856022143141,7.710113369154657,1.4659659872114739
756,1.7423428340008311,1.7519620241615053,7.975607289954266,1.6086469068324418
757,1.670689324100838,1.8181609159635728,8.251708804842973,1.5182684838416662
758,1.852181975256865,1.9120870416774516,8.542122577873217,1.8051837029570104
759,2.173061574511198,1.9749476735651614,8.83897108405823,2.324125346856119
760,2.4248954106779435,1.9911422435489439,9.128201400096646,2.7604898266587976
761,2.524240037629793,2.0051098388889086,9.396325509819109,2.918515352169005
762,2.440284071797691,2.0411180361491454,9.628597255406799,2.6701327178388237
763,2.3094072182608154,2.0599621247786524,9.809051350300301,2.4020541030469813
764,2.302281789274904,2.0211185335623734,9.925304034668676,2.562784342767611
765,2.3004405965785617,1.927856565938562,9.972974903400107,2.7491406112433965
766,2.135627538709329,1.828729179076836,9.954356290228992,2.422254095300742
767,1.9271890420176252,1.7654902069347445,9.874579048133539,1.8486107099485756
768,1.4760551736839242,-6.618305937145494,-17.107653841568847,2.820955260449046
769,1.58767015488398,-6.719457806104986,-17.70092126532974,2.773524980660171
770,1.7801818134398881,-6.881231222974849,-18.262704663793464,3.027128458146458
771,1.8996891738047932,-7.089530909908075,-18.776613148673633,3.215129278836587
772,1.8101386775839732,-7.319084782803794,-19.265397525269282,2.9728137678936797
773,1.7036309041687248,-7.541754413224919,-19.730458066476046,2.689180613209868
774,1.7986052322941424,-7.73685097514164,-20.17775754103391,2.806669732767044
775,2.0238553212028036,-7.897233787058181,-20.61781720026686,3.0656016214754267
776,2.2434909145136217,-8.029145405011068,-21.059817371129405,3.123495876675568
777,2.408825556742559,-8.150958539228322,-21.516596659514516,2.981425630225317
778,2.4870459086290007,-8.2892209129806,-21.994802202860157,2.7294345333647443
779,2.5002239367006998,-8.44837154397191,-22.48288950696418,2.6502175853349703
780,2.4882243399265263,-8.635870602694752,-22.960556579902473,2.9656134959701737
781,2.386169095062567,-8.868055571615598,-23.40577680084041,3.2177508875736316
782,2.1394747930548856,-9.131221798602743,-23.80090968450814,2.939854975665697
783,1.8438785303639866,-9.392893607269064,-24.14214328418265,2.5249146940529257
784,1.6092074409927286,-9.619778658741717,-24.436018212624386,2.4521272670956527
785,1.4564691810297423,-9.811854503701785,-24.693367571616832,2.5914903979899018
786,1.370754464320628,-9.974304071122047,-24.926594249006918,2.6985598680116603
787,1.2722732552095224,-10.11583849877336,-25.14692549573121,2.574277413388677
788,1.0897711424090737,-10.226931501915907,-25.3583321032047,2.104032764945228
789,0.9437100632328659,-10.277646166643146,-25.551891555073816,1.7436478380402367
790,0.9558840340015056,-10.249414567400295,-25.71412985630903,1.9253868871299713
791,0.965619694315763,-10.138346461886778,-25.835260980590437,2.109034188579693
792,0.8156962638483337,-9.928407723075734,-25.911295298251005,1.7064136833383283
793,0.6637295127519659,-9.612026776667754,-25.945205104659774,1.097362237600794
794,0.6873930526918254,-9.2348821434273,-25.94449222054605,0.7750607926994237
795,0.8675478031025887,-8.871709819778614,-25.923639848979278,0.7234394845608818
796,1.1178391249324837,-8.594684731363069,-25.88785720785677,0.7931883540681106
797,1.2452380837503174,-8.416984032553415,-25.814160330007223,0.6117172752398524
798,1.1005801572551905,-8.314524478502175,-25.676007677038893,-0.11494401540384325
799,0.9175131052658827,-8.246011950161131,-25.458955186293064,-0.8066236935009254
800,0.9558545112574491,-8.165234162278578,-25.16886684384182,-0.860583293173722
801,1.0323835255123641,-8.042352428865097,-24.856270092024715,-0.8018647238796834
802,0.9174577577577324,-7.870204541761467,-24.5754103180628,-1.2532992177540576
803,0.717338698191837,-7.66949550663251,-24.332858947646134,-1.929261846568542
804,0.5745926548887332,-7.467760185893571,-24.114575035900494,-2.4234559006359064
805,0.4858142343533927,-7.275968685116741,-23.909976798849566,-2.673587675863425
806,0.4191194162397376,-7.091892139829065,-23.704244174114947,-2.72124401583361
807,0.27061155149865157,-6.896080968005484,-23.48178091516581,-2.937948754337562
808,-0.04646610508876525,-6.67072885678202,-23.235891500555827,-3.646843700656946
809,-0.36637174100094594,-6.426222988004636,-22.97222313246409,-4.352972619022492
810,-0.5213990746814683,-6.18509766588052,-22.704581309347358,-4.5150155858594205
811,-0.668776205456006,-5.967921458681435,-22.449339186276678,-4.457739530127065
812,-0.9934762870393484,-5.788631933881225,-22.222373490067483,-4.629798473845752
813,-1.4333829389070094,-5.642799904440856,-22.036341272267055,-5.015130252418428
814,-1.871954584426275,-5.511352798590184,-21.89348778490116,-5.492181789555266
815,-2.235626232712686,-5.369390811499608,-21.78053731219413,-5.8468418813041065
816,-2.473139520454739,-5.188777688038558,-21.672786849433127,-5.895985553351788
817,-2.6424869178295034,-4.942915839990833,-21.537874150731113,-5.971831035137657
818,-2.8271263669964144,-4.615301624073711,-21.343823488065023,-6.4181976186675005
819,-2.9871587840420957,-4.203790599042313,-21.07042917110087,-6.875586295573139
820,-3.0713474531466667,-3.7216840120615498,-20.708922870625717,-6.943851383684107
821,-3.1320243912827648,-3.2006567652259434,-20.25619832143842,-6.8206193122670635
822,-3.225981604345043,-2.6771717956043424,-19.72245789718898,-6.802478236429733
823,-3.3595508720073015,-2.1722901482157875,-19.139248334066725,-7.031386058280822
824,-3.5228634311230893,-1.7037175215922356,-18.540099128805892,-7.555017878133462
825,-3.6489408542007418,-1.2654766826508108,-17.94183677550202,-8.019619195507252
826,-3.687153607801573,-0.8499993442827485,-17.346880884598917,-8.084570907784837
827,-3.7653149993483144,-0.4548446053963194,-16.74595015624941,-8.170436477654647
828,-4.039530239915922,-0.0475619285388955,-16.137879122753244,-8.900647262660593
829,-4.21905850970488,0.43217322664071156,-15.535323404047748,-9.422973641107019
830,-4.073535722353403,0.9756504976734033,-14.939593137989055,-9.042627754571356
831,-3.7552715344289083,1.4882799002020892,-14.358032611343173,-8.20298571206786
832,-3.526256605452421,1.8813732728997286,-13.823779310113563,-7.624646112803599
833,-3.527864974076746,2.123679840991893,-13.338523363493517,-7.564877618193777
834,-3.8029918084444487,2.223572996787113,-12.896642877431441,-8.035921546770131
835,-4.164314428818018,2.2038868388865835,-12.48128690716347,-8.567284068094109
836,-4.25631097043022,1.9392444979507069,-12.006042738153429,-8.424837594485373
837,-4.371513605693622,1.6548357922672654,-11.537565058224764,-8.226515103290177
838,-4.713070140460917,1.3888452690322546,-11.074783319005775,-8.614849869041604
839,-5.116391059175246,1.1592161594354284,-10.610022229420313,-9.176877794326364
840,-5.351666374462586,0.9654209218332781,-10.133431327706282,-9.308044612884279
841,-5.460588769658333,0.7870253382174269,-9.630687239013977,-9.16630866223553
842,-5.554530557365444,0.5961365339617637,-9.095522437763702,-9.075696383135703
843,-5.703863791316238,0.37863684458244584,-8.547009551088115,-9.191504307218416
844,-5.96019581668368,0.1323644594027264,-8.017105993774694,-9.594376222358846
845,-6.20870623287221,-0.13755212106359174,-7.54392244056491,-9.91822364204413
846,-6.31691677172379,-0.419952952381465,-7.155584627005876,-9.751744571601616
847,-6.444660265444696,-0.6990152839504211,-6.838674569012029,-9.493841895989867
848,-6.796175061163648,-0.9664633504164885,-6.562817828208538,-9.677883225384884
849,-7.283093501749148,-1.2372577384736367,-6.316767240595827,-10.04179131353947
850,-7.751421032832357,-1.5327510866428407,-6.09371955977097,-10.1764607384898
851,-8.21012407484231,-1.8636253013508342,-5.883416817568551,-10.139854692104695
852,-8.689864028342459,-2.2270455973522645,-5.678039059189043,-10.090164232037326
853,-9.173574426297572,-2.5954298250299783,-5.461460068218103,-10.21458759186736
854,-9.641790286399905,-2.9317349608652314,-5.224029891625708,-10.659829970927431
855,-10.006321512176616,-3.2149693392184933,-4.988278588481645,-11.031187937023056
856,-10.193034691877136,-3.4355450705100545,-4.784938680666995,-10.894510262652213
857,-10.337510055401337,-3.588807308698918,-4.6274301195540195,-10.653046224357801
858,-10.594087499285083,-3.6809540627668715,-4.51459396844511,-10.848946785014231
859,-10.883729910323737,-3.7318349760031886,-4.428384673561711,-11.339874617631157
860,-11.069994196897628,-3.7646332401238864,-4.340984489908526,-11.805259458714861
861,-11.08480258258794,-3.792426738285603,-4.224934909381162,-12.040989684548999
862,-10.916817014048526,-3.8210108643716088,-4.064701395181933,-11.924415550135333
863,-10.758838837461715,-3.862461596678177,-3.874231185255439,-11.834399178189422
864,-10.81891239990658,-3.921480373877684,-3.6795719604960397,-12.211171458165571
865,-10.954347452132517,-3.9657205960382957,-3.4966703003833826,-12.642988633623382
866,-10.950477749360603,-3.9742283804477405,-3.333329271647917,-12.592148510989274
867,-10.879946742957545,-3.950742278302646,-3.1809736139266116,-12.387821227764473
868,-10.876295773153284,-3.9360963847497232,-3.024726100408728,-12.501783515756806
869,-10.9682414230626,-3.966261149063721,-2.871078446455896,-12.8837043917039
870,-11.145953215457126,-4.03374924101466,-2.7261491469750436,-13.337027784375982
871,-11.272666976587395,-4.099726791096141,-2.567702024400759,-13.520281194226573
872,-11.200962985087441,-4.139714772652331,-2.369861191892745,-13.144889714110036
873,-11.05985270118254,-4.14519984589509,-2.116424711724419,-12.720149565818708
874,-11.028133215351433,-4.125946028564914,-1.8069774175221567,-12.859405888041755
875,-10.986643326210219,-4.091283330465686,-1.4889973643642447,-13.111402283464887
876,-10.776375096204852,-4.0551575205925365,-1.2172536355689754,-12.844864886776573
877,-10.487604545776641,-4.032708852500868,-0.9849125319678299,-12.309625965723656
878,-10.24997819891157,-4.036173625277626,-0.7776700869195993,-11.931460387616072
879,-10.093539491528684,-4.0889411486524,-0.5833073382239067,-11.799100673445459
880,-10.007984198239122,-4.196868299014981,-0.42018134386747685,-11.89063484409661
881,-9.841022074613003,-4.33726177685973,-0.312366186947827,-11.84143409300205
882,-9.449449172647054,-4.468067539607668,-0.24788845336978044,-11.275282953812603
883,-9.047040189014984,-4.575943777393175,-0.20713285277538998,-10.649664951338844
884,-8.897631283815624,-4.69552840876318,-0.15973772811486658,-10.547247218465529
885,-8.866624707195228,-4.867440448851941,-0.0956579927715233,-10.627683087477473
886,-8.735774301846094,-5.097200408881316,-0.0146868811578212,-10.37797776666821
887,-8.532038320708983,-5.352287463569256,0.09827472416306275,-9.886844885439956
888,-8.333763100343036,-5.578776524237944,0.2513168768929758,-9.38395551606189
889,-8.194174585995867,-5.7516211336357035,0.41519585157156885,-9.057034622192184
890,-8.151027524143299,-5.865048324741508,0.5633072184580238,-9.047094311581446
891,-8.053616043170873,-5.923398418377051,0.6757158066596248,-9.010774552316597
892,-7.744114636744169,-5.944754319252668,0.7719006633752993,-8.545016551019067
893,-7.395820335886829,-5.954085095586518,0.8518376401613659,-7.999230706332642
894,-7.242434695977239,-5.972885650246465,0.9206158579944765,-7.84513153686071
895,-7.242131814657265,-6.011597453330071,0.9892756160277141,-7.8707378091328755
896,-6.256431538839394,-8.308373374964374,-16.414025325037173,-7.1434018530433185
897,-6.432142928014196,-8.487517315261018,-16.75190817072687,-7.474553440656398
898,-6.5534612050280545,-8.71047223516784,-17.131159629480642,-7.577236131191109
899,-6.729790987269113,-8.957194771683586,-17.541198399208408,-7.7612508339764785
900,-7.066842498079968,-9.193109510700248,-17.927425880299776,-8.329365150989977
901,-7.4604571153937265,-9.391060406730526,-18.253008649566546,-8.905099884272442
902,-7.780721201107525,-9.535985349995425,-18.521788301407387,-9.071177834772715
903,-8.106934716580618,-9.669539452527866,-18.75614644177548,-9.03600706135088
904,-8.52939867153986,-9.836979814604913,-18.970534322655023,-9.104276605644655
905,-8.995897871096426,-10.008558644710975,-19.16307644593172,-9.346821393026694
906,-9.425612664052796,-10.145812839410127,-19.3221037842816,-9.752581613338632
907,-9.711722465447334,-10.26206100352248,-19.441854567972186,-10.03466563997691
908,-9.793719955147349,-10.379199262633614,-19.525182335382,-9.93896516758994
909,-9.846633256068436,-10.516223820856768,-19.593841133361334,-9.89604457909261
910,-10.056910091412703,-10.676293206112128,-19.672014824915983,-10.342463756904447
911,-10.345679924787806,-10.806473724747507,-19.771148715276436,-10.869965301629868
912,-10.585237705812547,-10.851829365587454,-19.887061843238605,-11.010300115375964
913,-10.759683293398338,-10.8086115314468,-20.004308347408344,-10.908376532596252
914,-10.89233115066195,-10.709049062274364,-20.10269750621872,-10.843321425807664
915,-11.113317386992103,-10.627836845354983,-20.180716212055387,-11.13172920072096
916,-11.53911045373086,-10.638599986485342,-20.26544025269151,-11.96874686488105
917,-11.995138884033665,-10.74821292200919,-20.383928433317198,-12.775256635472543
918,-12.296887758998963,-10.927905330115745,-20.536289378125275,-12.973295395360783
919,-12.63740696874043,-11.150909802560909,-20.689140736748364,-13.12257214833354
920,-13.21066584401286,-11.378281113627379,-20.798068358598005,-13.870965780842429
921,-13.834922339267127,-11.557058599256946,-20.845085382515727,-14.868761937662917
922,-14.283548019420085,-11.649655035709216,-20.83043385452064,-15.630224300140489
923,-14.499148654718974,-11.647200682776997,-20.76753672866359,-16.089340121782822
924,-14.506660486772333,-11.569481353810778,-20.678805456828492,-16.300010832878748
925,-14.511409063651582,-11.472674518047356,-20.58749843846013,-16.636930764701766
926,-14.717588896512042,-11.411500430101228,-20.50556109663708,-17.42441403624886
927,-14.973473626922699,-11.403921950283916,-20.41803301795767,-18.09940310386612
928,-15.085330697886869,-11.435690919381091,-20.305409769379388,-18.0759587053651
929,-15.213010173438807,-11.450597138526962,-20.146024836121732,-17.835363541146354
930,-15.526604408076642,-11.393875531618159,-19.936092565405517,-17.97888115441815
931,-15.901666500290023,-11.27050775991646,-19.681793274057632,-18.37195432227344
932,-16.179151588399137,-11.114226555854552,-19.379907607056612,-18.75364097816749
933,-16.2980681064742,-10.95282527631076,-19.030871909310473,-18.99874966300907
934,-16.252987806630482,-10.811012217695138,-18.639968100821452,-19.034939926180204
935,-16.21457903285833,-10.712831415556419,-18.23890419604233,-19.19965389886854
936,-16.346532394987943,-10.652199205049511,-17.851914616861556,-19.796186789531358
937,-16.4926380374418,-10.563507227028929,-17.47918408403121,-20.320042033085805
938,-16.46321324123751,-10.377091245230162,-17.093707323650857,-20.233373277028733
939,-16.354896037740563,-10.064374252861727,-16.67462245726473,-19.82662987950983
940,-16.304894152701944,-9.635976704228819,-16.207764794566735,-19.524134870746348
941,-16.310873136281362,-9.16581540758169,-15.707683111580799,-19.3605524186398
942,-16.343182987805566,-8.733089290606824,-15.196635859247918,-19.280081820838976
943,-16.345265342911112,-8.34056577486268,-14.677695569002744,-19.098608655339124
944,-16.26494570509473,-7.9637536110247815,-14.144786250768119,-18.650153016501086
945,-16.187353074731963,-7.5980201274554355,-13.586730580849824,-18.2679408514995
946,-16.204226468041526,-7.240630840982908,-12.990869143333967,-18.291403836195347
947,-16.229885643052565,-6.892411504925008,-12.358321328579862,-18.393380599718313
948,-16.171392668024446,-6.56219329657487,-11.698534320768909,-18.201939458485118
949,-16.080111290003988,-6.257848532103183,-11.009582973351959,-17.86943985957428
950,-16.030914890792946,-5.984502967187925,-10.304749314537535,-17.638140512572647
951,-16.088890775838873,-5.744253978641823,-9.614258280944135,-17.686631566761957
952,-16.273255172420978,-5.530531586692982,-8.976693872047697,-18.08839133966949
953,-16.40835743329008,-5.32741284010544,-8.38284204627045,-18.367170476854085
954,-16.320811772109053,-5.1111647084616445,-7.777125504585873,-18.074665610848186
955,-16.114285332566784,-4.848946846200956,-7.112670327285358,-17.71114215124403
956,-15.970628427712741,-4.565113755204804,-6.405348129564795,-17.930317170031156
957,-15.744752479277157,-4.33397738042656,-5.733538593425474,-18.018717574483126
958,-15.346445449439026,-4.254155915582407,-5.146056394925736,-17.36790567830418
959,-14.961899758596207,-4.3277022637165965,-4.653722510529517,-16.42798445152812
960,-14.818929221160044,-4.493857361113397,-4.247632345506664,-15.870715839430032
961,-14.984057641517593,-4.684392948670072,-3.898759649024398,-15.932817904262972
962,-15.406999854439837,-4.839039455846799,-3.586430389161369,-16.580498522471345
963,-15.813499613829974,-4.947537005100895,-3.286401880073861,-17.21325813646904
964,-15.85714787938318,-5.058900559607904,-3.020374963751009,-16.60583267999024
965,-15.769406263955435,-5.1360508821234765,-2.708768239746762,-15.869037405923256
966,-15.814861592689102,-5.174879923053182,-2.3640911741404507,-15.68764966423469
967,-15.881944749773169,-5.208179935657632,-1.9973906820971001,-15.715657062483885
968,-15.792310390251659,-5.265247081461582,-1.619712420912078,-15.396768913386795
969,-15.629483319618675,-5.329204725731886,-1.2375913111620611,-14.845711550692222
970,-15.510605239325926,-5.370577620688735,-0.8531031338447789,-14.310845523861989
971,-15.453007208256714,-5.377689955843806,-0.4670771703837003,-13.92869632006118
972,-15.443876693319524,-5.348273992427281,-0.08093991200424591,-13.784982719529562
973,-15.352771980817497,-5.293221299786066,0.2928757295047158,-13.503640725399423
974,-15.060042615443761,-5.2336481207197,0.646521147129074,-12.689255054470896
975,-14.75132605107986,-5.18307077764793,0.9772257814696538,-11.808938083584568
976,-14.659717130753776,-5.155174542142901,1.292462481922531,-11.468720812256889
977,-14.70594522038561,-5.176215476149657,1.5850424502619007,-11.470797235914999
978,-14.733245270603124,-5.267439074040221,1.8214218507671127,-11.426776876581327
979,-14.724845829468675,-5.431678452939367,1.9765002610798996,-11.269883408337272
980,-14.69884860477282,-5.652666640438389,2.056987243543414,-11.018973883153533
981,-14.722876090199232,-5.891959787288021,2.0848920139515705,-10.904471778045373
982,-14.865070525831376,-6.1034779958078555,2.095381554510811,-11.16582790748275
983,-15.000221800006935,-6.243407973712157,2.1130582222295784,-11.420085510538035
984,-14.97498479492403,-6.288795728035364,2.150458298533087,-11.208310457958898
985,-14.8698799381802,-6.272865478807675,2.2074116784782234,-10.841002378658235
986,-14.807347138916887,-6.246536497451807,2.274031804052423,-10.765018541164284
987,-14.755417039096677,-6.217650910067835,2.3385812055697146,-10.888355122793651
988,-14.64570465990179,-6.177231549379362,2.392615093592828,-10.990329166623546
989,-14.393601823189147,-6.137485280853622,2.434737023532374,-10.880697317786778
990,-13.941930000852789,-6.100136767137725,2.466453898786774,-10.427070330474859
991,-13.469647324304743,-6.022673266677597,2.512025666406346,-10.03827076679091
992,-13.18022523602602,-5.862034360159947,2.580519709339437,-10.163580477130292
993,-12.925247931763469,-5.618605908365476,2.6626911765365695,-10.32446190098107
994,-12.496996905524849,-5.317031876331611,2.743404481608936,-9.912407235313188
995,-12.008028694437344,-4.995097841885951,2.8244571834255243,-9.251929541198884
996,-11.621669356084903,-4.697167564765821,2.91308950288643,-8.845888321758158
997,-11.32160073281481,-4.446838884268083,3.019448283008909,-8.696485200799298
998,-11.044420238612268,-4.254621124187018,3.146656612207626,-8.665502207255022
999,-10.652346392325542,-4.145603056019308,3.2687520985912624,-8.425843322824608
1000,-10.02986093010077,-4.132395144841545,3.354697776282197,-7.679565023726967
1001,-9.409618565780004,-4.172630286839628,3.3924791535794103,-6.9502426904294845
1002,-9.060832894639498,-4.213680905665058,3.3906047589658423,-6.853430915191561
1003,-8.774245152359503,-4.255028234644769,3.3914918974080526,-6.887167658928567
1004,-8.263416404710897,-4.307629041732754,3.443222895169014,-6.367605216305385
1005,-7.641898109948292,-4.343606254211953,3.5622984291022437,-5.526772505021029
1006,-7.115674707555425,-4.335984878288006,3.737110631750463,-4.8047418470287715
1007,-6.759552228021824,-4.293503324041743,3.925847179260311,-4.3682470619535145
1008,-6.599846213727315,-4.236600655725576,4.07735855635847,-4.276063442040949
1009,-6.504660527481394,-4.1841977489437046,4.16220831103321,-4.148189646203592
1010,-6.306497870833516,-4.1504179626347035,4.174467652367576,-3.556477627890012
1011,-6.135296642240524,-4.134365252625848,4.13849651474926,-2.9317812031967994
1012,-6.161897466426152,-4.124464625610047,4.089351051200738,-2.8408896379988695
1013,-6.192034738946237,-4.092541563474254,4.044136918736512,-2.961573104986487
1014,-5.994156903267864,-4.016761913811517,4.008200100162578,-2.803067674940784
1015,-5.680308783617407,-3.9363909800447585,3.9661382186784686,-2.4170593901417634
1016,-5.434121008788455,-3.8961659820573473,3.9100475060385924,-1.9807604829038348
1017,-5.289206175533839,-3.8575916823726706,3.8643891365270466,-1.6554641072732186
1018,-5.226788930716532,-3.768946234377533,3.8696552622812823,-1.5778314312738788
1019,-5.139638595955692,-3.643268470631737,3.924420988533879,-1.452146865859552
1020,-4.905623917512327,-3.512259883920299,3.9783756944617554,-0.9376213751088139
1021,-4.610857700520795,-3.40531462345755,3.9913943366856524,-0.375782591463517
1022,-4.38594802425025,-3.3435899446612023,3.9608727972029976,-0.21492885873964607
1023,-4.156711512799744,-3.2897283640421673,3.9044749604038667,-0.29849764060635875
1024,-11.302163970771117,-11.430563053165153,-24.945990143267355,-20.37548334925278
1025,-11.824781860117264,-11.891188146114363,-25.41716671960945,-21.092236109395838
1026,-12.37861237078818,-12.364633193428059,-25.837714257490585,-21.426878073605774
1027,-13.013386491036115,-12.86529287599704,-26.191395269680605,-21.79128696554715
1028,-13.763829949211496,-13.391707281406948,-26.495360963318614,-22.606883415642624
1029,-14.492285675861877,-13.918459065935428,-26.765470404909177,-23.469354930394577
1030,-15.069280408219617,-14.421466055164919,-27.01501085084949,-23.903791640947492
1031,-15.553915267931034,-14.919960859558898,-27.227892476591805,-24.069271853816677
1032,-16.04758131931465,-15.441079291194832,-27.378286601167584,-24.241846331565213
1033,-16.619325135219174,-15.9813990157744,-27.45266102477441,-24.59806953854346
1034,-17.291210126831984,-16.527495141417635,-27.44830035972538,-25.227030568199343
1035,-17.91367780469307,-17.070491032377294,-27.380918104013016,-25.73042683773325
1036,-18.333178367582963,-17.597594157837285,-27.272815654732394,-25.724241353616627
1037,-18.641582740382105,-18.09077480031213,-27.133435570707746,-25.678515094056525
1038,-18.976617833515913,-18.543564376397093,-26.967512232903076,-26.114059732469972
1039,-19.31151774457169,-18.964738677489766,-26.78063547743547,-26.683540480246993
1040,-19.608235913679906,-19.376506785157094,-26.57675783845986,-26.963376062763572
1041,-19.91161051981586,-19.832427466667134,-26.36406256373863,-27.0744999446317
1042,-20.263821320790587,-20.365894913902157,-26.14858396317294,-27.236546797454913
1043,-20.725193275068797,-20.92623545526282,-25.92089106267669,-27.731242120707524
1044,-21.322201235399067,-21.440758827658886,-25.670645999105062,-28.722944212531363
1045,-21.864512772543726,-21.8698358502713,-25.405670715499657,-29.5986761792854
1046,-22.186758773005653,-22.201198803418986,-25.1342194344939,-29.76137716048844
1047,-22.505669515510455,-22.464487837889084,-24.84862440567437,-29.753836625893197
1048,-23.05399948338066,-22.708012556616367,-24.544189582401206,-30.23224067293127
1049,-23.684145500591484,-22.961812460117365,-24.204135279406348,-30.92639759176222
1050,-24.195385634230124,-23.23707335681921,-23.835579086262236,-31.430967124836823
1051,-24.565833314464893,-23.520983240205815,-23.459995964426618,-31.684476058048087
1052,-24.82988826662678,-23.784321435573144,-23.09898333483454,-31.72269347773058
1053,-25.13769444700621,-24.00136132382598,-22.74350492030607,-31.904455599311547
1054,-25.617994352870774,-24.149767801783877,-22.375539531251526,-32.54409539549728
1055,-26.066300376898727,-24.205461770845766,-21.98957505631472,-33.13686754872332
1056,-26.258798828823284,-24.1591121343997,-21.58264613793655,-33.1355998750421
1057,-26.348597292611952,-24.03345237352297,-21.151297490141655,-32.90425829627159
1058,-26.532953782845453,-23.860799764183632,-20.69410256727239,-32.910549300920835
1059,-26.75650385448619,-23.65750624414908,-20.2072956646584,-33.02749474336549
1060,-26.924108971659184,-23.43453771336825,-19.685847915744574,-33.03489093171021
1061,-26.99776327362168,-23.207295403505825,-19.12818714877896,-32.78816919850476
1062,-26.962158487157996,-22.982363403700983,-18.5306257843789,-32.2128569030372
1063,-26.916409049756037,-22.75070971827072,-17.881728557900217,-31.700213318043915
1064,-26.96536991267917,-22.498523320063548,-17.17116063342041,-31.618333676576952
1065,-27.031011151900934,-22.213401530820647,-16.395124260414885,-31.53169363148966
1066,-27.013115676283284,-21.892755572969087,-15.55845677124327,-30.951406989072478
1067,-26.960207722012665,-21.550320407043007,-14.67896091721479,-30.137157942750424
1068,-26.936338623801966,-21.211699032910232,-13.776181459157995,-29.45733228276727
1069,-26.938679337082927,-20.917243097693536,-12.863338013556756,-28.962991180609762
1070,-26.94441800402421,-20.69593234964159,-11.94190440260601,-28.606664344039995
1071,-26.881573084668556,-20.529245299901362,-10.98889822471549,-28.082675357164142
1072,-26.692224125995935,-20.381020148584973,-9.979386180957984,-27.124361450494096
1073,-26.455529929335118,-20.233553594756767,-8.913838078186725,-26.16423396957381
1074,-26.268534581784273,-20.069487410256446,-7.80335485208719,-25.658965634369363
1075,-26.10891303047859,-19.859281380713004,-6.65904397928538,-25.239292594864754
1076,-25.930464896168665,-19.582131947338635,-5.492821614626773,-24.462103022692183
1077,-25.72672331915802,-19.234249784335756,-4.307488520534308,-23.457971424586404
1078,-25.48918599242414,-18.82542065880604,-3.1032793878416647,-22.465543680670425
1079,-25.24439076232436,-18.383666208604673,-1.8920490695537164,-21.72414249396593
1080,-25.007909921388272,-17.932666604740422,-0.6797800612231126,-21.37400009455565
1081,-24.63063746997987,-17.472220213774513,0.5294086305055137,-20.891022622229546
1082,-23.99922364684609,-16.983587285749486,1.7460228151377248,-19.780882429004812
1083,-23.333463419071343,-16.421060458271434,2.984956827000109,-18.62298730692337
1084,-22.882798143928586,-15.791222106841891,4.203042191357783,-18.121730710176575
1085,-22.462419870292283,-15.207206433913589,5.284501502592127,-17.744995798283096
1086,-21.89000812808309,-14.749755526334068,6.171790250191628,-16.9429896606297
1087,-21.33831081203304,-14.425399705234987,6.898537528848868,-15.974669910509432
1088,-21.048714982982233,-14.179174161259187,7.536899202404851,-15.283451249577741
1089,-21.098681891345148,-13.948918891332779,8.11971114675616,-15.141097695738589
1090,-21.45562313008969,-13.68589165495708,8.664991070136752,-15.626849018902726
1091,-21.880400807664863,-13.41147623429437,9.157073480211917,-16.182307110601307
1092,-21.702067757000542,-12.93900626773824,9.705642781503972,-15.49757352432039
1093,-21.536536781111717,-12.487416269236435,10.179926122874594,-14.704614866863949
1094,-21.60863257417908,-12.026330863949678,10.584449478583029,-14.37154413043261
1095,-21.723416950827474,-11.516328331838807,10.929250671722858,-14.227473104229679
1096,-21.61895002513656,-10.974889089669599,11.227888834663075,-13.828396934431169
1097,-21.368990706934728,-10.431608650152862,11.47846931042124,-13.226853841902045
1098,-21.137120979293293,-9.91468053659516,11.678934861139037,-12.584090997005523
1099,-21.030404151834855,-9.376680956800753,11.829429219896758,-12.071624630542749
1100,-21.110057972666663,-8.749803007638182,11.940354309480215,-11.832006930147795
1101,-21.240321331185772,-8.018363563220724,12.01531021102808,-11.521717872517115
1102,-21.22064472282364,-7.194478517468345,12.041335323575534,-10.75490793233857
1103,-21.036563988978003,-6.303803098106253,12.002536010263325,-9.908814171346352
1104,-20.735690361197076,-5.3863048885104075,11.90477661448644,-9.480658697860077
1105,-20.280433975877358,-4.478896757839775,11.774165451012124,-9.298011840986863
1106,-19.643853837726713,-3.606752448175522,11.642939002970458,-9.033190121330371
1107,-18.874301830214723,-2.779587874236543,11.51673942435383,-8.573639425057387
1108,-18.02964393672049,-1.9942302022267335,11.386137125034098,-7.889264364982677
1109,-17.1367650499308,-1.23855430605869,11.2375968372531,-7.280443734809295
1110,-16.210548190212485,-0.502753988464273,11.05472504253138,-7.074467405295638
1111,-15.255668215528432,0.2112646541648628,10.831073829592741,-6.874898056999909
1112,-14.26475447953788,0.9036442661454869,10.568399166276368,-6.2019465755449215
1113,-13.24250436362747,1.516911973566766,10.263187367417844,-5.438176726610665
1114,-12.196028694935487,2.0426223850152074,9.923702379374042,-5.102621687897893
1115,-11.097583013310292,2.5163972472141514,9.570732749252551,-5.116769757265271
1116,-9.943693946647358,2.9906233067829553,9.238042989645246,-5.231982085265735
1117,-8.81656058130828,3.479383577415042,8.945112038235155,-5.126921592095634
1118,-7.822963584163381,3.9713136745026985,8.683288647101008,-4.547379838839733
1119,-7.0865107167342325,4.432608407918693,8.439278239709672,-3.993677430774232
1120,-6.671884099119849,4.819593951013415,8.193237417805312,-4.059818296050696
1121,-6.396544116163795,5.109131843587305,7.93302525396037,-4.26566922460868
1122,-6.037462457715773,5.294992887452291,7.656999322884798,-3.953360222473641
1123,-5.642899569668485,5.379540448024929,7.371519993295523,-3.4029490633294195
1124,-5.329010320836103,5.377892572553685,7.089583927081207,-3.073391537856016
1125,-5.082349106777421,5.313404911467452,6.831294053627679,-3.006507940669655
1126,-4.854257784114808,5.212958749749274,6.610708101953285,-3.1187939544897425
1127,-4.519484838379582,5.109975777224325,6.4202926125382485,-3.0261398799888273
1128,-3.967427385194978,5.032426001929146,6.244221966999922,-2.35596670138053
1129,-3.3894346809505573,4.9815585542901095,6.064957779684387,-1.6286225193129669
1130,-3.0153517653103883,4.950709254396969,5.873640396712173,-1.4886146870933548
1131,-2.676891553826992,4.9539103643843045,5.701305357910929,-1.5170119932656192
1132,-2.1475122875913932,5.004715138649529,5.57548442479365,-1.1059272286437083
1133,-1.5571122811641245,5.095144306602337,5.499563684952552,-0.41442684519155537
1134,-1.1013816981934923,5.207706116864379,5.442419381051936,0.22187021400747176
1135,-0.8089825047376014,5.320755542049216,5.373721999458282,0.6088642144333183
1136,-0.6506310267639227,5.415024558585859,5.291556402788975,0.6267863261028
1137,-0.48981846344416247,5.482856917852556,5.21618009325087,0.6399094826421092
1138,-0.18762770870100187,5.528171417455997,5.1491724106893395,1.0770179172736447
1139,0.11951731286603268,5.573844301509915,5.063674730228748,1.5592426603603395
1140,0.240029538100844,5.638573991181417,4.947461095950996,1.5811849292098576
1141,0.24260404163171656,5.703129464736873,4.813422803007588,1.421016465781138
1142,0.26359076621074073,5.734704247517368,4.687849997839947,1.5024431576133555
1143,0.3270505731760824,5.709227358485913,4.597101774514368,1.8331744532307184
1144,0.43733301285600823,5.61665981507074,4.552326449712759,2.301883311115237
1145,0.5866308226556455,5.481172035764459,4.539229681199804,2.6383872005414606
1146,0.7511067995822727,5.338848643288612,4.523913953495745,2.588621212727122
1147,0.9905407062210225,5.208169886884493,4.486860544326971,2.535729041346317
1148,1.357984275504859,5.093295418892248,4.441690618546005,2.942431669054078
1149,1.7267890391009524,4.972626238354186,4.403257672617507,3.4508365889467383
1150,1.9562489969772465,4.8219689019674625,4.386252896088929,3.5600433895990093
1151,2.087176250759812,4.6600546613480915,4.375830340844399,3.3734423389571324
1152,-20.905897610629122,-10.833886585297138,-9.797410495042291,-17.32844071547189
1153,-21.56754171199095,-11.29085652483991,-10.232986244324165,-18.109357821821547
1154,-22.084411862501028,-11.765422537860351,-10.673459998909598,-18.502707871998318
1155,-22.596126355200656,-12.275617396969299,-11.118336554746772,-18.942243102893105
1156,-23.25271096576535,-12.827995971256898,-11.567289772229897,-19.884289294081203
1157,-23.954042027804462,-13.390814042426596,-12.019572729438226,-20.958377091226815
1158,-24.567405498464318,-13.922526990009263,-12.477043768297936,-21.71735454156672
1159,-25.107910484385368,-14.396149009980341,-12.94201133276148,-22.28755406011514
1160,-25.622668076914596,-14.800082039740493,-13.417978127245023,-22.90024994416014
1161,-26.197398901525503,-15.157781937519463,-13.920783207046172,-23.77308178935705
1162,-26.89099342651078,-15.495266126176213,-14.449308929427433,-25.023199423361397
1163,-27.519309397839056,-15.795734034197327,-14.984901949868643,-26.12866775515571
1164,-27.908660058490337,-16.03732461931582,-15.48569927763674,-26.588734953689194
1165,-28.254791628279346,-16.21761929866927,-15.913186683077258,-26.932295562420133
1166,-28.779717049677473,-16.351667307663554,-16.26943391957334,-27.76170154736183
1167,-29.383231687565246,-16.497765013386452,-16.58792492032405,-28.72460873372573
1168,-29.91232735529617,-16.707623877040938,-16.885714300763723,-29.35856404581049
1169,-30.326263240715036,-16.95941675127905,-17.156943099193946,-29.679258034236813
1170,-30.618750053692725,-17.206061426963668,-17.38552951832021,-29.826573038772555
1171,-30.91394789066915,-17.4212290894962,-17.572362553416923,-30.186001617318617
1172,-31.32328988386817,-17.586591879908017,-17.72596052102899,-31.061649422055446
1173,-31.63303337813308,-17.694916209857382,-17.859950528857553,-31.868856186588342
1174,-31.632080202049195,-17.757124968869476,-17.989038543415482,-31.994653799896394
1175,-31.53406130521796,-17.793754684098307,-18.123053261004078,-31.927603742263486
1176,-31.588052845962665,-17.832230139136268,-18.265721168983614,-32.26523108646524
1177,-31.70520598933669,-17.909737582492504,-18.402867207561883,-32.781173810034744
1178,-31.74456407904524,-18.052226170307016,-18.525804252437865,-33.12523323115832
1179,-31.68306204423865,-18.252482130875123,-18.668941333998294,-33.1799595770669
1180,-31.532220958019167,-18.48582763611519,-18.86679134256484,-32.922309946093506
1181,-31.412822032418724,-18.72652237725004,-19.104328759406503,-32.73567458665413
1182,-31.440674742879374,-18.94908428585796,-19.35183439873167,-32.98366671079931
1183,-31.484547609956934,-19.133231340308903,-19.597338140518485,-33.23116817086168
1184,-31.390897568508958,-19.271641931088926,-19.821796246224736,-32.98691278167269
1185,-31.261920277253488,-19.371283470136976,-20.013280548650577,-32.55938341151023
1186,-31.218996684483034,-19.446910528499938,-20.145425626937215,-32.34965865371954
1187,-31.19694888390777,-19.5195213671739,-20.222496868537792,-32.29894009402486
1188,-31.107354173478814,-19.598220130705965,-20.25561060167913,-32.25730987550562
1189,-30.909359988493524,-19.661542509700933,-20.25658554086361,-32.019876817427246
1190,-30.59527861972702,-19.675534596067582,-20.236969830200145,-31.4411921647333
1191,-30.28265803654529,-19.60717754186243,-20.19619316862697,-30.897850087911717
1192,-30.084227582243564,-19.440681791421902,-20.1324479957071,-30.774780580542956
1193,-29.91116783964238,-19.195187911742334,-20.060862819666674,-30.744518389769606
1194,-29.641017058240482,-18.90925859928842,-19.99532838528835,-30.405368351904933
1195,-29.277867577894806,-18.634663288963562,-19.931256311959153,-29.89854220966983
1196,-28.85573216939944,-18.402687420712645,-19.855743221942607,-29.44494420597331
1197,-28.414360939011676,-18.17820627524066,-19.754500988492943,-29.12126955626179
1198,-27.983253211347126,-17.904300552434368,-19.611123922357972,-28.94020239090777
1199,-27.47666850346601,-17.544128109910066,-19.410177493923122,-28.573082403199084
1200,-26.80688947385314,-17.07939216814497,-19.143206823545118,-27.735772334720604
1201,-26.05897728823203,-16.532145945483887,-18.810594922555907,-26.899167768614554
1202,-25.33149141027375,-15.935680658922625,-18.42118595722982,-26.549840986893027
1203,-24.562287650067404,-15.283688493658685,-17.995497134717798,-26.31073104947376
1204,-23.679599459150474,-14.567091493968606,-17.55223019290203,-25.71679916181486
1205,-22.71281502680627,-13.810149704779924,-17.09195523546103,-24.852148364345137
1206,-21.706711303526014,-13.043438704867768,-16.608916362843665,-23.923192989565635
1207,-20.73249480592852,-12.290986957337182,-16.10133201535782,-23.21693489912428
1208,-19.832179895915647,-11.570595824885132,-15.57053685809823,-22.93034690105609
1209,-18.83063725458446,-10.880217049180477,-15.024432478892162,-22.532722532734773
1210,-17.57377566010687,-10.20850860449327,-14.472964075002714,-21.495279467153278
1211,-16.279348037981244,-9.555964018288265,-13.923445600400807,-20.354454014449637
1212,-15.212265822363866,-8.966848125250223,-13.38658638313554,-19.778911101008138
1213,-14.222907496921545,-8.51380977672956,-12.869368080009389,-19.180883711710596
1214,-13.149096765207087,-8.190287306137511,-12.366899522496652,-17.993974780495634
1215,-12.092415817657098,-7.954894702778536,-11.875803482508491,-16.51024062956486
1216,-11.198444816361924,-7.718643874040668,-11.415184504430991,-15.226755322827971
1217,-10.53913785195798,-7.435640441294609,-11.000989297954503,-14.463715418404076
1218,-10.120030566583566,-7.101774694575847,-10.637776649309947,-14.344952232421022
1219,-9.74180357308702,-6.737161470125448,-10.327831267058167,-14.345475027791494
1220,-8.875333175055033,-6.281583230177302,-10.05565715778956,-13.103822021087579
1221,-8.037967857291305,-5.889006345755991,-9.825100809872731,-11.834199720563927
1222,-7.453885582057449,-5.586599348415324,-9.648409298299983,-11.112685707635595
1223,-7.009420388665677,-5.351187728688648,-9.530724762987878,-10.698933262976139
1224,-6.513709909918087,-5.134840102289596,-9.43888215421002,-10.167898940634288
1225,-5.974473283760571,-4.8926419740762235,-9.312193000838125,-9.494124408436221
1226,-5.450103144108682,-4.591076575166932,-9.122213705579513,-8.76091138158217
1227,-4.998359337205049,-4.228728631758899,-8.88823909007899,-8.205597063797475
1228,-4.671051242574545,-3.825601214404467,-8.645716542366754,-8.06034645800602
1229,-4.382266905255689,-3.397986842517829,-8.40938348049875,-7.964634597871444
1230,-4.016697301018488,-2.962203585272387,-8.171018522659859,-7.476860519568525
1231,-3.618810639864013,-2.5417669359288864,-7.930503897037118,-6.900334708605052
1232,-3.2685074683654896,-2.151374486682605,-7.708155376464244,-6.665046884496342
1233,-2.9560856996864326,-1.7790683642885072,-7.521179396029963,-6.647251787046068
1234,-2.6546815059436732,-1.408169700929915,-7.360330262524271,-6.594882874745081
1235,-2.312207464513837,-1.0376792960895034,-7.219506487392358,-6.332391648460354
1236,-1.887047350084033,-0.676042298739341,-7.077355829996862,-5.752497623311324
1237,-1.523241224192065,-0.3501060574880799,-6.931214869677519,-5.222097036161101
1238,-1.3637684137288235,-0.07980028689761597,-6.769007634115832,-5.153282058396159
1239,-1.2135412576812463,0.16455060886497092,-6.562727548225044,-5.142410322280524
1240,-0.8361140006416126,0.4282225651100471,-6.3178689339651815,-4.663822744523872
1241,-0.33837001056558436,0.7381915009597582,-6.062173234231514,-4.022711723383959
1242,0.09450895046282617,1.1026168955268036,-5.8261381877124565,-3.661580511673902
1243,0.42761092848787385,1.4884852878407686,-5.58221667715876,-3.5068022704823134
1244,0.6769245669654704,1.848239644621158,-5.301066507189119,-3.3610884044910545
1245,0.9692945843604363,2.17284733033552,-4.982163562040809,-2.9401311667438774
1246,1.440015559376905,2.464018783562828,-4.65774346259434,-2.0261078991590513
1247,1.9202475234831664,2.6986571073911088,-4.3427064123899255,-1.1772517468727082
1248,2.2035555639232993,2.8567142545866,-4.015076521104069,-1.0130227751675465
1249,2.480224059945231,2.939257184705707,-3.6630644822151597,-0.9850656831708208
1250,2.9931419323262105,2.9605962076157986,-3.280086529561015,-0.3503687708081932
1251,3.633088010056096,2.9527970362296743,-2.8991809860207964,0.6478385873572997
1252,4.21442646876662,2.9520122148182466,-2.56758013834915,1.5330417909454637
1253,4.6799816241557295,2.9726660868100847,-2.312156568661372,2.1342727462738607
1254,5.017134856990753,3.0141198536833604,-2.140916264253261,2.392068459606606
1255,5.3550893866936775,3.077224161358498,-2.0341313265275094,2.679500084875371
1256,5.833662340694693,3.151561562999797,-1.9583997853833242,3.4144380867852946
1257,6.258393638023379,3.1972316988334297,-1.8948902466541697,4.1353327224452725
1258,6.39551351104775,3.1763628841424785,-1.8348228748935493,4.241517273091651
1259,6.414402474088224,3.0903664667066546,-1.7736240374895387,4.041667405946187
1260,6.556553860066156,2.962331694973642,-1.7142987754607744,4.028935635951027
1261,6.783079069932583,2.8151346991378743,-1.6650825164790861,4.17127843382643
1262,6.981478589315214,2.674993712347001,-1.6332130927842057,4.319133093358178
1263,7.071649825654638,2.575704980029658,-1.6207304800419475,4.32677015906987
1264,6.992596096814372,2.5354364686585766,-1.6243532238822542,4.065525685233071
1265,6.849406628682635,2.5303184326311365,-1.633953111759552,3.8445275949420306
1266,6.786326917024298,2.522259654338126,-1.6388489782351183,4.0151397380092675
1267,6.723977079690198,2.4861310993075376,-1.6369559405201641,4.223091848171531
1268,6.547033274483083,2.410818957252945,-1.6310385759448744,4.012362448572507
1269,6.349710799467546,2.3181941539796656,-1.6253697914510703,3.585486820616226
1270,6.2518959222044685,2.2389330592835943,-1.6241140238995118,3.2843088612023355
1271,6.243912008761684,2.165754825492722,-1.6258124792278548,3.1860751065523205
1272,6.274928675579245,2.084080666014655,-1.6266091333946888,3.2717956030852173
1273,6.241455739418043,2.005444522819824,-1.6259194426680972,3.2413831790976597
1274,6.055368979034701,1.9491187784949775,-1.6239837618554662,2.791589315781332
1275,5.845721456376778,1.9400170941008967,-1.619443701887065,2.3267165624505632
1276,5.776303426093607,1.9943216413372782,-1.6106414540951537,2.348584159542354
1277,5.766342111631472,2.088560134079531,-1.596223059706171,2.5437055013397147
1278,5.683942915773981,2.183793976823366,-1.57191537112996,2.455787619994479
1279,5.534906916299802,2.249894829961293,-1.5323918574934594,2.1733453795371696
1280,-8.266421471849142,-14.788981134214511,-11.989546104588868,-17.873348083691983
1281,-9.004668900907149,-15.192789727049343,-12.434252923570293,-18.5090893672618
1282,-9.551128623755385,-15.582614713534513,-12.875719610153455,-18.700826645821753
1283,-10.06635578790789,-15.928645109291393,-13.294673991461874,-18.936684240737677
1284,-10.729846998562415,-16.208591211703663,-13.688083926577129,-19.72387388349359
1285,-11.465658816356983,-16.42531642560185,-14.070480960323383,-20.673851012009433
1286,-12.153478945546528,-16.598428226570757,-14.454078436963284,-21.29784940373731
1287,-12.784163914689545,-16.74475821195346,-14.843377396173441,-21.65070021574611
1288,-13.374679201438815,-16.882885357684504,-15.232429450246165,-21.914897433319155
1289,-14.019788123816795,-17.044584216311176,-15.613058134579795,-22.382968536023267
1290,-14.795261269234974,-17.24784301000172,-15.97025684304788,-23.269722302381
1291,-15.503987135098162,-17.46399319330619,-16.28659709710458,-24.05588835791619
1292,-15.958651493312795,-17.657293772723808,-16.557637490199266,-24.22309579511346
1293,-16.377615134561342,-17.825796934158202,-16.78635932009872,-24.306731768104267
1294,-16.998341355010126,-17.977936600426013,-16.962824027817742,-24.915840182992017
1295,-17.675791292869455,-18.120831121252483,-17.069745236386844,-25.736043098970068
1296,-18.218969549696165,-18.261675165694907,-17.105345904864095,-26.325033754748553
1297,-18.622531049973986,-18.389774756495225,-17.0858562183127,-26.616271089570173
1298,-18.938460087334036,-18.494960580069417,-17.03414168291934,-26.659408947589803
1299,-19.331989567168012,-18.5986628553558,-16.97919169675424,-26.82834118138831
1300,-19.943986331696237,-18.722427734321755,-16.950129621345457,-27.450831601146888
1301,-20.574988322906563,-18.8562057335513,-16.955564277340738,-28.010183776412457
1302,-21.00089249139929,-18.981528048402406,-16.98349126654587,-27.954352683217444
1303,-21.383994775284492,-19.087370694312327,-17.01782251654864,-27.701683469976512
1304,-21.923524876185645,-19.16726580386449,-17.048435696609374,-27.777302718772102
1305,-22.522481174221035,-19.222253098565293,-17.074113370884728,-28.054280769763107
1306,-23.053569499914694,-19.260788569029124,-17.098702850254462,-28.29204271620116
1307,-23.518198656053976,-19.299598899215706,-17.128265978711614,-28.339620250314844
1308,-23.94393116272917,-19.34876556531326,-17.166530975487863,-28.10993632210772
1309,-24.431978143458064,-19.395040668240796,-17.20055338339029,-27.954679040860082
1310,-25.05723849958473,-19.418976715649233,-17.204603299793522,-28.217697694434875
1311,-25.63738655277921,-19.404475580079467,-17.177177267954402,-28.496493604032903
1312,-25.985242848626246,-19.34750001776058,-17.148326319085236,-28.33790143611056
1313,-26.210446182559103,-19.27756817624185,-17.142668448578075,-28.004716266417248
1314,-26.470751301754373,-19.224432863580763,-17.15763006272742,-27.836924105918193
1315,-26.78780426376566,-19.18331313276401,-17.1718686179024,-27.789277664184752
1316,-27.13591760491235,-19.132238406712936,-17.154794101237314,-27.727215999653332
1317,-27.392991941257026,-19.03565411253903,-17.06578722199415,-27.376355483388913
1318,-27.46520602200994,-18.867320325355944,-16.876736900549602,-26.5386248555725
1319,-27.51898200868928,-18.647254658905663,-16.605534216979688,-25.66404709501751
1320,-27.75877529222397,-18.41368160444114,-16.29951556318953,-25.22425536879938
1321,-28.194955361594225,-18.193493661265233,-15.989811940656255,-24.891668787486363
1322,-28.761254847193158,-18.004068914724805,-15.680074700208776,-24.247613097847513
1323,-29.36826162110855,-17.846558843968097,-15.360854766603168,-23.41933463857821
1324,-29.913514879812894,-17.708450746528964,-15.021628563389012,-22.625692789865866
1325,-30.36242146678084,-17.56984858773222,-14.659048033350498,-22.032558780074066
1326,-30.72122486843967,-17.411820737788236,-14.282951053028459,-21.72466500582777
1327,-30.97832456887444,-17.2316202678392,-13.91147328993345,-21.2712773832179
1328,-31.132216662023144,-17.02737416880811,-13.559009609884356,-20.260013428536382
1329,-31.218697499553123,-16.78435890029402,-13.229152086678399,-19.164344383870073
1330,-31.249481145118466,-16.49014253050977,-12.920613388840577,-18.503181894145165
1331,-31.17069277778101,-16.123246049392268,-12.651843340768984,-17.885571513777695
1332,-30.908398457799755,-15.68308266137777,-12.462389421929922,-16.84691614881882
1333,-30.359524877552804,-15.255859180158659,-12.359786140043472,-15.50289266232433
1334,-29.46373803414927,-14.914352116541105,-12.291832080301594,-14.092663520002326
1335,-28.370959585846,-14.603145226078595,-12.110847427622158,-12.945737678906463
1336,-27.23735288375583,-14.231348411455377,-11.630891568058876,-12.272484531944684
1337,-25.922376312490588,-13.746069469991216,-10.82333043669508,-11.473943507024224
1338,-24.275048329517308,-13.12286330079519,-9.815276986527085,-9.936073552590237
1339,-22.470948800642102,-12.389836068161305,-8.715719219800087,-8.136972484770697
1340,-20.716484813721348,-11.66714547871965,-7.58149634041713,-6.731529345560384
1341,-18.959714288249675,-11.050492361444658,-6.450876728814385,-5.241551923202834
1342,-17.130239362371892,-10.631823133487162,-5.286628864026002,-3.2264953699152654
1343,-15.277677811592635,-10.335579703762026,-3.991739515872146,-0.9192880901643627
1344,-13.476020732508541,-10.013876589798535,-2.5007567119387835,1.245186583288467
1345,-11.838111071072902,-9.59250971925994,-0.7824410726903663,2.7733075987437803
1346,-10.447541794925657,-9.05977967581632,1.1749546306779404,3.360601808670541
1347,-9.241333802244823,-8.46705528498472,3.3129522747270688,3.547366109481505
1348,-9.386615131309437,-7.815885571367309,2.6964859908055425,2.8980314369897977
1349,-9.48721591390344,-7.222992410084286,2.0653311285624536,2.338167184775326
1350,-9.54353865368656,-6.6977965623596205,1.4502035377530405,1.4032440780243074
1351,-9.556208585201567,-6.237724019551574,0.8703883496442255,0.29663182518649467
1352,-9.5239215136173,-5.825433518410269,0.32188496790555643,-0.6476139092231472
1353,-9.447738983277118,-5.425275950989556,-0.21156428826461382,-1.4065539476208777
1354,-9.329295330198228,-4.999439999812526,-0.7515770514001054,-2.0533556345709583
1355,-9.161969461457078,-4.523252666374329,-1.3167818250008052,-2.8869098597863316
1356,-8.953141189531648,-3.9895320881861687,-1.9203347793539522,-4.1875007853747555
1357,-8.73576134855074,-3.4201327940319333,-2.569329270363177,-5.5531543852916325
1358,-8.562756267247988,-2.8493040944877754,-3.244353333502325,-6.47797178616005
1359,-8.532881624702203,-2.2902781763836497,-3.895294263797934,-7.225045299827736
1360,-8.715267935483972,-1.7482097524005258,-4.482336692347933,-8.205083759363184
1361,-9.049256487514915,-1.2486729736459057,-5.00477429029832,-9.338549623933305
1362,-9.424002642546554,-0.805084916166436,-5.4914724847241265,-10.433593674632856
1363,-9.723456127661349,-0.3772682401091491,-5.977799402167773,-11.28059957293522
1364,-9.870823614124049,0.0837886600541901,-6.484328182358256,-11.72134842702838
1365,-9.997349755583928,0.5912594831687065,-7.006648539466518,-12.189465616139135
1366,-10.260412350518978,1.135313305545904,-7.516679884381138,-13.164057345624599
1367,-10.508228297922695,1.6802515598329435,-7.981179887666701,-14.155959927952098
1368,-10.547297050312963,2.183655975474254,-8.38524330843091,-14.540201497693964
1369,-10.489544424446589,2.6385284601982693,-8.734203224900302,-14.638191554643127
1370,-10.50486728693554,3.0552230489361842,-9.041962816643663,-14.957101375850307
1371,-10.62211624574185,3.4333356595664557,-9.325579436290209,-15.538401722598225
1372,-10.822852054487743,3.7760372271884948,-9.607927635445847,-16.279055056932698
1373,-10.95898841985863,4.098865071681435,-9.909725287602368,-16.806740077470344
1374,-10.891609274013929,4.414784571892809,-10.234472364405713,-16.76841799433073
1375,-10.87472554550306,4.730412283256556,-10.572530762331098,-16.704310836835315
1376,-11.197444463761876,5.043767672393515,-10.915470658853792,-17.271742157479522
1377,-11.619823776141065,5.327926720598345,-11.26002499697417,-18.022502199946114
1378,-11.807358026466746,5.559291080932454,-11.591023161172757,-18.30812164390956
1379,-11.838454737570729,5.757090720327277,-11.875498040478773,-18.28891679471034
1380,-11.886804082672924,5.956451311633696,-12.092709529202912,-18.31221104298511
1381,-11.992905018924269,6.185520333580588,-12.25356134258504,-18.550139738457176
1382,-12.167581509071454,6.460514895818953,-12.391042806599067,-19.10125802708411
1383,-12.299545358425238,6.759585989313703,-12.540275526074877,-19.62379894113318
1384,-12.26549190681438,7.046325920296572,-12.719397010214498,-19.713744570162163
1385,-12.242398726715503,7.319073171583469,-12.926211250830212,-19.73213804120388
1386,-12.446051399924082,7.585394897401082,-13.142116640477276,-20.162858073047545
1387,-12.74066077010793,7.81555466956821,-13.340664688036094,-20.722359833516187
1388,-12.925502915811466,7.987136515567228,-13.507134084531996,-20.998479521837897
1389,-13.037881894429413,8.149604935328849,-13.64954150179922,-21.063546468014767
1390,-13.171304741786326,8.358894310593836,-13.797847850823201,-21.104204624464973
1391,-13.384260892376798,8.593935530204035,-13.976045478393491,-21.317653720057045
1392,-13.71381757254187,8.813190792513154,-14.186681394163024,-21.85579483022594
1393,-14.046918485732661,9.014382440159189,-14.422167721979353,-22.380892117483636
1394,-14.241298105455666,9.202048891514515,-14.677914872397896,-22.49423516590944
1395,-14.369407293822233,9.371378629176764,-14.953654144110837,-22.496562909265926
1396,-14.544180268922045,9.52134287253751,-15.235298315275873,-22.81171639454633
1397,-14.693115882852078,9.643357415793941,-15.48709522023505,-23.299223927234785
1398,-14.722926187791693,9.733702357826747,-15.672395491782696,-23.696789821958625
1399,-14.646660670861442,9.825741393989784,-15.787355637150261,-23.89069639108191
1400,-14.51538274651252,9.953820273999444,-15.845315866162519,-23.837724833008316
1401,-14.459204293781573,10.108645213845136,-15.860105582671803,-23.877422551347937
1402,-14.588939565520663,10.26067320929225,-15.845514956802475,-24.35958003987256
1403,-14.762510717404341,10.378215668858287,-15.819954210066397,-24.830200241715776
1404,-14.790864454993397,10.432423456827731,-15.787454501085428,-24.73252835792961
1405,-14.730486858238258,10.417361299301579,-15.733566401409089,-24.390893749278355
1406,-14.697558835640088,10.345058510843788,-15.643836848735802,-24.30056218480554
1407,-14.707950374090098,10.227320206972072,-15.509876523372883,-24.45151616749362
1408,-11.269624858794009,-21.759760800327665,-91.92141525466182,-4.677242642717818
1409,-10.883251321495877,-22.33130213446212,-91.3258713400535,-4.106205466985009
1410,-10.357934594704815,-22.90946115379245,-90.58116909689417,-3.0350086745512193
1411,-9.900260807079071,-23.508415567390013,-89.71674811525757,-2.0603270352234753
1412,-9.710281565452002,-24.133639229352653,-88.74677275523229,-1.7973436809329364
1413,-9.636749480580635,-24.77328592280962,-87.66209667067746,-1.8217394511279918
1414,-9.478642768595751,-25.408342558230363,-86.44425242739743,-1.5773166794924645
1415,-9.205863253712172,-26.034446498719404,-85.08126330249657,-1.0900724422205554
1416,-8.85118715502371,-26.644595763825038,-83.56631326941788,-0.528418948752334
1417,-8.58270362503613,-27.20654687421732,-81.88671542904683,-0.21981980518996846
1418,-8.545979440771191,-27.70150063336173,-80.02953019636644,-0.41700496831005673
1419,-8.505733468393073,-28.110407331547588,-77.99422145756705,-0.5599268736518982
1420,-8.211819548462651,-28.46180696687838,-75.79650358534978,-0.07909940200916671
1421,-7.890852793638836,-28.786356029547527,-73.46569688967163,0.49819321363874125
1422,-7.795037616575157,-29.11122054708165,-71.03288211230475,0.5527213598997052
1423,-7.756009063239445,-29.42649053945666,-68.51129984895611,0.34007535460254446
1424,-7.556036897291325,-29.70636707865774,-65.88613265362838,0.26436252856785436
1425,-7.170046745444879,-29.933256981975326,-63.12367807410702,0.49126210008411675
1426,-6.633670331201214,-30.096325392373227,-60.20299079991783,1.0755227014022024
1427,-6.109529180302178,-30.19446981190424,-57.14652863046195,1.6255189015530824
1428,-5.747757143506391,-30.23472836727171,-54.00359697345938,1.7415673080877032
1429,-5.36318723299492,-30.233841840168147,-50.80315564793792,1.8302314712307868
1430,-4.755318317198005,-30.200736137639495,-47.54475751151358,2.349050124021797
1431,-4.111923047634084,-30.111327172652185,-44.227129196835584,2.91357464468228
1432,-3.657496318112512,-29.944783570093264,-40.863116217464565,3.07867428470898
1433,-3.34585251357658,-29.711346350890178,-37.480456053698326,2.9838961020023937
1434,-3.0720729125714623,-29.444397995874116,-34.105451200434764,2.8787130255734867
1435,-2.7563458465158073,-29.21617386988306,-30.732049433909836,2.9811081363670717
1436,-2.3418793787317203,-29.085621873910252,-27.32679631000368,3.4195013013819153
1437,-1.929545770525593,-29.026059703469965,-23.861920107584243,3.795233920646341
1438,-1.6401463928362348,-28.98466567306482,-20.328756488693433,3.7015577772580954
1439,-1.3973314445702163,-28.902173653156503,-16.721949489862652,3.4889397871128875
1440,-1.101952928998403,-28.747063510162185,-13.032246631436003,3.5931306609722298
1441,-0.8070511784368968,-28.50220884989096,-9.267020146725963,3.863266483726611
1442,-0.5813625661869659,-28.148354575942427,-5.451739840296283,4.059361351475999
1443,-0.42673526747696333,-27.707573951046246,-1.6103746253627687,4.118253719029596
1444,-0.3306863501667683,-27.241891200676296,2.239424963854992,4.030871960859639
1445,-0.23972861621759323,-26.781339562647254,6.087206176417367,4.07080800153375
1446,-0.10473196074792346,-26.30428707263028,9.937716166420726,4.4715688884870435
1447,-0.009598802751158042,-25.794274491762934,13.810292483016495,4.782648125197362
1448,-0.027459813262798366,-25.22838644647563,17.725134506901156,4.552049409835471
1449,-0.026028347091163695,-24.612809038411754,21.692951724400203,4.158830438202576
1450,0.12904868854782303,-23.96100539954076,25.717871951553235,4.065533400466943
1451,0.3951970838022001,-23.25914181026772,29.803340342959956,4.1814651341435525
1452,0.6805140583234396,-22.493261552320323,33.94795724460354,4.298959607673568
1453,0.8587495901393836,-21.66483931418338,38.15197968282029,4.173760350851677
1454,0.8478845179841616,-20.782934297957013,42.41288309075742,3.6482760435581962
1455,0.8508955981515313,-19.880209695290404,46.71037145929581,3.2280939328308897
1456,1.0711678702362213,-18.971810425664795,51.01161540977605,3.4034489751165764
1457,1.3033549058800606,-18.044861283492054,55.29386992967576,3.631024578505345
1458,1.3157557845063501,-17.059227303508308,59.555081690363096,3.2994055000706446
1459,1.2406386690212043,-15.978233611599782,63.80131774430813,2.758546940308186
1460,1.262693789634912,-14.82659444164654,68.02834013522583,2.473622176525658
1461,1.4237747490664112,-13.676969684306453,72.2265542612888,2.4309832029270178
1462,1.7137497844358383,-12.570459177067992,76.41661822526595,2.5011296092708224
1463,1.9788113126986544,-11.495819810249092,80.64673480787017,2.3351930721085856
1464,2.0740356289946638,-10.417015202753845,84.94116534585606,1.660264797685071
1465,2.179432488068057,-9.31849062051583,89.28234262933871,1.0503249283014613
1466,2.4931754777108943,-8.192972260476477,93.6385787660548,1.0926501036883305
1467,2.853625224439915,-7.05382879992391,97.98775491325183,1.2859194407108672
1468,2.8547512171673617,-5.9639119470996,101.94878824392536,0.8798691321883592
1469,2.3790821540679605,-4.993172303202556,104.71363654121922,0.033796730363757174
1470,1.272812611214037,-4.138133242655219,105.87606229548781,-1.0579750742215113
1471,-0.3609899438642373,-3.348825608814071,105.64262721209118,-2.3617730103854164
1472,-2.2552157630518352,-2.589399671698196,104.37085581695399,-3.8490059896421056
1473,-4.280192468066918,-1.8455411070730376,102.37724906888317,-5.795380669317424
1474,-6.339954133108382,-1.1335029932795821,99.9107209954133,-8.402952026091967
1475,-8.213966120916115,-0.45683924769043427,97.15284913936507,-11.075879697304638
1476,-9.645942088269003,0.3845892437076517,94.29074353154047,-12.90688668845458
1477,-10.894881139777896,1.1424881204145096,91.34634534743894,-14.454542832067144
