timestamps,TP9,AF7,AF8,TP10,Right AUX
1727539837.274,-118.652,-22.949,-39.062,-99.121,0.000
1727539837.278,-20.508,-20.508,-41.016,-23.438,0.000
1727539837.281,77.637,-20.020,-38.086,62.500,0.000
1727539837.285,71.777,-24.414,-30.762,64.941,0.000
1727539837.289,-15.625,-22.461,-41.992,-14.160,0.000
1727539837.293,-125.977,-19.043,-51.758,-112.305,0.000
1727539837.297,-55.176,-18.555,-48.828,-40.527,0.000
1727539837.301,54.688,-16.602,-50.293,48.828,0.000
1727539837.305,48.340,-15.625,-49.805,46.387,0.000
1727539837.309,-12.207,-13.184,-50.781,-11.230,0.000
1727539837.313,-102.051,-16.602,-50.781,-103.516,0.000
1727539837.317,-32.227,-18.555,-51.758,-41.992,0.000
1727539837.320,75.684,-15.625,-59.570,52.246,0.000
1727539837.324,69.336,-14.648,-61.035,49.805,0.000
1727539837.328,12.695,-12.695,-53.711,-0.977,0.000
1727539837.332,-94.727,-8.301,-54.199,-94.238,0.000
1727539837.336,-56.641,-13.672,-55.664,-61.035,0.000
1727539837.340,61.523,-13.184,-52.734,44.922,0.000
1727539837.344,70.801,-11.719,-57.617,48.828,0.000
1727539837.348,15.625,-14.160,-58.105,12.207,0.000
1727539837.352,-89.355,-15.137,-56.641,-85.449,0.000
1727539837.356,-51.270,-16.113,-60.059,-73.242,0.000
1727539837.360,78.125,-13.672,-58.594,53.223,0.000
1727539837.363,81.543,-15.137,-51.270,69.336,0.000
1727539837.367,23.926,-14.648,-50.781,12.695,0.000
1727539837.371,-89.844,-16.113,-54.199,-86.914,0.000
1727539837.375,-84.961,-22.949,-49.805,-87.891,0.000
1727539837.379,52.734,-20.996,-44.434,37.109,0.000
1727539837.383,89.844,-15.625,-41.016,73.730,0.000
1727539837.387,37.109,-14.648,-40.527,29.297,0.000
1727539837.391,-76.172,-15.137,-44.434,-63.965,0.000
1727539837.395,-85.938,-18.066,-50.781,-73.242,0.000
1727539837.399,56.152,-15.625,-48.828,42.969,0.000
1727539837.402,97.168,-18.555,-51.270,76.172,0.000
1727539837.406,46.875,-25.391,-61.035,36.621,0.000
1727539837.410,-58.594,-25.391,-58.105,-51.758,0.000
1727539837.414,-91.797,-20.508,-46.875,-90.820,0.000
1727539837.418,37.109,-17.090,-41.992,31.738,0.000
1727539837.422,92.285,-18.066,-40.527,83.008,0.000
1727539837.426,53.711,-19.043,-46.387,42.969,0.000
1727539837.430,-43.457,-21.973,-48.828,-37.109,0.000
1727539837.434,-96.191,-26.367,-40.039,-92.773,0.000
1727539837.438,29.785,-24.414,-36.133,10.254,0.000
1727539837.442,96.191,-19.043,-39.551,79.102,0.000
1727539837.445,48.828,-23.926,-41.504,55.664,0.000
1727539837.449,-36.133,-20.508,-40.039,-27.832,0.000
1727539837.453,-94.727,-14.648,-47.852,-95.215,0.000
1727539837.457,11.230,-16.113,-51.270,-4.883,0.000
1727539837.461,91.309,-17.090,-42.969,68.848,0.000
1727539837.465,61.523,-19.043,-34.668,58.105,0.000
1727539837.469,-19.043,-21.484,-29.785,-6.836,0.000
1727539837.473,-100.098,-25.879,-33.203,-88.379,0.000
1727539837.477,-10.254,-24.414,-36.621,-21.973,0.000
1727539837.481,90.332,-19.531,-35.156,69.336,0.000
1727539837.485,74.707,-20.020,-37.109,51.270,0.000
1727539837.488,-6.348,-17.578,-40.527,-19.043,0.000
1727539837.492,-112.793,-20.020,-41.504,-101.562,0.000
1727539837.496,-32.715,-21.973,-39.551,-32.715,0.000
1727539837.500,88.379,-16.113,-34.668,68.359,0.000
1727539837.504,79.102,-15.625,-32.715,56.152,0.000
1727539837.508,16.602,-19.531,-30.273,7.324,0.000
1727539837.512,-96.680,-20.508,-28.320,-80.566,0.000
1727539837.516,-55.664,-22.461,-31.738,-47.363,0.000
1727539837.520,68.848,-22.949,-41.992,63.965,0.000
1727539837.524,88.867,-19.043,-45.898,88.867,0.000
1727539837.528,37.598,-28.320,-28.320,43.945,0.000
1727539837.531,-82.031,-35.156,-14.160,-56.641,0.000
1727539837.535,-58.594,-28.320,-20.996,-50.781,0.000
1727539837.539,66.895,-26.855,-14.160,65.918,0.000
1727539837.543,73.242,-32.227,-7.812,85.938,0.000
1727539837.547,8.301,-42.969,-10.254,29.297,0.000
1727539837.551,-113.281,-54.199,-10.742,-83.496,0.000
1727539837.555,-108.398,-53.711,-16.113,-102.051,0.000
1727539837.559,30.273,-54.688,-14.160,20.020,0.000
1727539837.563,53.223,-58.105,-4.883,52.246,0.000
1727539837.567,-6.348,-62.012,-4.395,9.277,0.000
1727539837.570,-113.770,-61.035,0.000,-86.426,0.000
1727539837.574,-121.582,-58.105,1.953,-106.445,0.000
1727539837.578,20.508,-54.199,-15.625,20.020,0.000
1727539837.582,67.871,-45.410,-17.578,60.547,0.000
1727539837.586,21.484,-46.387,-2.930,29.297,0.000
1727539837.590,-87.891,-48.340,-0.488,-56.641,0.000
1727539837.594,-117.676,-45.898,-4.883,-98.145,0.000
1727539837.598,18.555,-44.922,-2.441,16.113,0.000
1727539837.602,75.195,-47.363,0.977,67.871,0.000
1727539837.606,29.785,-50.781,-9.766,34.668,0.000
1727539837.610,-71.289,-47.852,-12.695,-49.805,0.000
1727539837.613,-110.840,-41.504,-6.836,-95.703,0.000
1727539837.617,19.531,-41.504,-15.137,7.324,0.000
1727539837.621,79.102,-38.574,-24.414,58.594,0.000
1727539837.625,42.969,-36.133,-20.020,30.762,0.000
1727539837.629,-34.668,-33.203,-27.832,-28.809,0.000
1727539837.633,-102.051,-30.273,-40.527,-84.961,0.000
1727539837.637,3.906,-30.762,-34.668,10.254,0.000
1727539837.641,99.609,-30.273,-26.855,97.168,0.000
1727539837.645,65.918,-30.762,-27.832,73.730,0.000
1727539837.649,-21.973,-34.180,-19.043,-2.930,0.000
1727539837.653,-95.703,-37.598,0.000,-83.008,0.000
1727539837.656,-1.465,-36.621,-8.789,-8.301,0.000
1727539837.660,94.238,-34.668,-20.508,91.797,0.000
1727539837.664,79.590,-33.691,-18.555,80.566,0.000
1727539837.668,-4.395,-30.273,-19.531,5.859,0.000
1727539837.672,-101.562,-33.203,-20.996,-77.148,0.000
1727539837.676,-12.207,-34.180,-22.461,-14.160,0.000
1727539837.680,104.492,-27.832,-18.555,86.914,0.000
1727539837.684,98.145,-29.785,-18.066,82.031,0.000
1727539837.688,36.133,-30.273,-37.598,28.809,0.000
1727539837.692,-58.105,-30.762,-42.480,-53.223,0.000
1727539837.696,-6.348,-29.297,-29.297,-3.906,0.000
1727539837.699,117.188,-27.344,-20.996,104.492,0.000
1727539837.703,121.582,-26.367,-25.391,101.074,0.000
1727539837.707,45.410,-21.484,-35.645,44.922,0.000
1727539837.711,-67.383,-23.926,-17.578,-51.270,0.000
1727539837.715,-28.809,-24.902,-9.277,-22.461,0.000
1727539837.719,102.051,-23.438,-22.949,93.750,0.000
1727539837.723,117.676,-22.461,-15.137,112.305,0.000
1727539837.727,66.406,-21.973,-2.441,62.500,0.000
1727539837.731,-42.480,-22.461,-27.832,-36.133,0.000
1727539837.735,-31.738,-17.090,-37.598,-24.414,0.000
1727539837.738,103.516,-14.648,-12.695,101.562,0.000
1727539837.742,132.812,-12.207,-39.551,131.348,0.000
1727539837.746,80.566,-9.277,-39.551,88.379,0.000
1727539837.750,-41.016,-13.672,-3.906,-18.066,0.000
1727539837.754,-51.270,-21.484,10.742,-40.039,0.000
1727539837.758,89.844,-22.949,13.184,79.590,0.000
1727539837.762,128.418,-19.531,2.441,118.164,0.000
1727539837.766,80.078,-16.602,-12.207,73.730,0.000
1727539837.770,-21.484,-14.648,-16.113,-14.648,0.000
1727539837.774,-50.781,-19.531,-11.230,-50.293,0.000
1727539837.778,64.453,-20.996,-6.348,61.523,0.000
1727539837.781,118.164,-12.207,-10.742,112.305,0.000
1727539837.785,108.398,-10.254,-9.766,90.332,0.000
1727539837.789,1.465,-15.137,-4.395,-0.488,0.000
1727539837.793,-81.055,-14.648,-7.324,-75.684,0.000
1727539837.797,43.945,-8.301,-12.207,30.273,0.000
1727539837.801,125.488,-8.301,-13.184,99.121,0.000
1727539837.805,69.824,-16.113,-13.184,60.059,0.000
1727539837.809,-39.062,-22.461,-6.348,-24.414,0.000
1727539837.813,-111.816,-33.203,2.441,-83.008,0.000
1727539837.817,-4.395,-37.598,3.906,4.395,0.000
1727539837.820,83.984,-34.180,1.953,72.266,0.000
1727539837.824,62.012,-33.691,-0.977,50.293,0.000
1727539837.828,-28.809,-28.809,-4.395,-24.902,0.000
1727539837.832,-105.469,-21.973,-5.371,-93.262,0.000
1727539837.836,-1.953,-19.531,-15.625,-6.348,0.000
1727539837.840,86.426,-12.695,-31.738,79.590,0.000
1727539837.844,65.918,-10.742,-30.273,61.035,0.000
1727539837.848,-11.230,-15.137,-11.230,-14.160,0.000
1727539837.852,-98.145,-22.949,1.465,-94.238,0.000
1727539837.856,-14.648,-22.949,1.953,-23.438,0.000
1727539837.860,89.355,-17.090,-0.977,73.242,0.000
1727539837.863,83.496,-17.578,-2.441,70.312,0.000
1727539837.867,18.555,-20.508,-5.859,15.625,0.000
1727539837.871,-87.891,-18.066,-7.324,-74.219,0.000
1727539837.875,-40.527,-17.578,-5.371,-31.250,0.000
1727539837.879,74.707,-19.043,-1.953,71.289,0.000
1727539837.883,85.449,-12.207,0.000,78.125,0.000
1727539837.887,25.391,-9.277,-2.930,26.367,0.000
1727539837.891,-87.402,-13.184,-7.812,-75.195,0.000
1727539837.895,-47.852,-9.277,-8.789,-49.316,0.000
1727539837.899,74.219,-11.719,-8.789,65.430,0.000
1727539837.903,83.984,-15.625,-10.254,71.289,0.000
1727539837.906,31.250,-12.695,-12.695,23.926,0.000
1727539837.910,-75.195,-15.137,-16.602,-75.684,0.000
1727539837.914,-54.199,-14.648,-24.414,-64.453,0.000
1727539837.918,81.055,-9.766,-22.461,68.359,0.000
1727539837.922,98.633,-1.953,-19.531,91.797,0.000
1727539837.926,40.039,-2.930,-13.672,43.457,0.000
1727539837.930,-74.219,-8.301,-2.441,-55.176,0.000
1727539837.934,-72.754,-8.301,-3.418,-66.406,0.000
1727539837.938,69.336,-8.301,-8.789,55.176,0.000
1727539837.942,108.398,-9.277,-7.324,92.773,0.000
1727539837.945,60.547,-5.859,-3.418,55.176,0.000
1727539837.949,-48.340,-8.301,-14.648,-42.969,0.000
1727539837.953,-66.406,-7.812,-23.438,-62.988,0.000
1727539837.957,70.312,0.000,-13.184,59.082,0.000
1727539837.961,111.816,-1.953,-1.465,98.145,0.000
1727539837.965,61.035,-5.371,0.488,67.383,0.000
1727539837.969,-34.668,-3.418,3.906,-18.066,0.000
1727539837.973,-72.754,-5.859,2.441,-68.359,0.000
1727539837.977,53.711,-7.812,0.488,42.480,0.000
1727539837.981,115.234,-9.277,1.953,100.586,0.000
1727539837.985,69.336,-11.230,0.488,68.359,0.000
1727539837.988,-28.809,-10.254,-0.977,-14.648,0.000
1727539837.992,-98.633,-4.883,-9.766,-83.496,0.000
1727539837.996,14.648,-3.418,-12.207,22.949,0.000
1727539838.000,89.844,-7.812,-5.859,89.844,0.000
1727539838.004,54.688,-7.324,-4.395,52.246,0.000
1727539838.008,-24.902,-3.418,-9.277,-10.254,0.000
1727539838.012,-96.191,1.465,-10.254,-86.426,0.000
1727539838.016,6.836,-0.977,-7.324,-4.395,0.000
1727539838.020,98.145,-1.953,4.395,83.496,0.000
1727539838.024,71.289,2.441,7.324,63.965,0.000
1727539838.028,-2.930,8.301,3.906,-1.953,0.000
1727539838.031,-89.355,3.906,-0.977,-84.473,0.000
1727539838.035,-9.277,-0.488,-7.812,-17.090,0.000
1727539838.039,100.586,0.488,-6.348,73.730,0.000
1727539838.043,90.820,2.930,-1.465,73.730,0.000
1727539838.047,20.508,5.859,-10.742,18.066,0.000
1727539838.051,-69.824,-0.977,-15.137,-56.641,0.000
1727539838.055,-24.414,-10.742,-2.930,-7.324,0.000
1727539838.059,64.453,-11.230,2.441,58.105,0.000
1727539838.063,62.012,-11.719,1.953,59.082,0.000
1727539838.067,2.441,-15.137,9.277,13.672,0.000
1727539838.071,-103.027,-18.555,16.113,-88.379,0.000
1727539838.074,-61.035,-20.020,13.672,-51.758,0.000
1727539838.078,49.316,-25.391,16.602,56.641,0.000
1727539838.082,52.734,-27.832,19.531,63.965,0.000
1727539838.086,0.488,-30.273,17.090,13.672,0.000
1727539838.090,-103.027,-26.855,12.695,-83.008,0.000
1727539838.094,-73.730,-19.043,10.254,-62.012,0.000
1727539838.098,54.199,-16.113,13.184,59.570,0.000
1727539838.102,67.871,-17.090,16.113,73.242,0.000
1727539838.106,14.648,-14.648,14.648,22.949,0.000
1727539838.110,-95.215,-9.766,12.695,-82.520,0.000
1727539838.113,-96.191,-10.254,11.719,-86.914,0.000
1727539838.117,38.574,-11.230,10.742,41.504,0.000
1727539838.121,72.266,-9.766,10.742,69.824,0.000
1727539838.125,24.414,-8.789,9.277,18.555,0.000
1727539838.129,-78.613,-10.254,8.789,-71.289,0.000
1727539838.133,-99.609,-12.207,6.836,-84.473,0.000
1727539838.137,30.762,-8.301,1.465,24.902,0.000
1727539838.141,74.707,-8.301,1.953,67.871,0.000
1727539838.145,20.020,-16.113,5.371,31.250,0.000
1727539838.149,-78.125,-8.789,4.395,-55.664,0.000
1727539838.153,-114.258,-7.324,-6.348,-96.680,0.000
1727539838.156,3.906,-11.230,-16.113,7.324,0.000
1727539838.160,60.547,-12.695,-7.324,65.430,0.000
1727539838.164,17.578,-10.254,-0.977,21.973,0.000
1727539838.168,-71.289,-8.301,-4.395,-57.129,0.000
1727539838.172,-119.629,-8.789,-7.324,-100.098,0.000
1727539838.176,0.488,-1.953,-5.859,1.953,0.000
1727539838.180,80.566,0.977,-0.488,59.570,0.000
1727539838.184,52.246,2.930,5.371,30.762,0.000
1727539838.188,-44.922,4.395,2.930,-40.039,0.000
1727539838.192,-126.465,2.441,-2.441,-122.559,0.000
1727539838.195,-19.531,6.836,-4.395,-34.668,0.000
1727539838.199,72.266,7.324,1.953,55.176,0.000
1727539838.203,42.480,4.395,-0.977,34.668,0.000
1727539838.207,-38.574,2.441,-4.883,-28.809,0.000
1727539838.211,-121.582,-4.395,2.441,-110.840,0.000
1727539838.215,-41.016,-1.953,6.836,-45.410,0.000
1727539838.219,57.617,9.277,0.488,57.129,0.000
1727539838.223,44.922,4.883,1.465,47.363,0.000
1727539838.227,-36.621,-4.395,9.277,-23.926,0.000
1727539838.231,-142.578,-6.348,5.859,-115.723,0.000
1727539838.235,-74.219,-0.488,0.977,-70.312,0.000
1727539838.238,42.969,0.000,2.441,32.227,0.000
1727539838.242,36.133,1.465,0.488,41.504,0.000
1727539838.246,-29.785,3.906,-4.395,-4.883,0.000
1727539838.250,-130.371,-1.953,-7.812,-107.422,0.000
1727539838.254,-80.566,-1.953,-9.277,-83.008,0.000
1727539838.258,30.273,2.441,-5.859,30.762,0.000
1727539838.262,27.832,-1.465,-6.348,42.480,0.000
1727539838.266,-21.484,-2.930,-10.254,-3.418,0.000
1727539838.270,-123.535,0.488,-11.230,-97.656,0.000
1727539838.274,-92.285,2.441,-10.742,-76.660,0.000
1727539838.278,39.062,0.000,-16.113,38.086,0.000
1727539838.281,57.129,-2.930,-16.602,44.434,0.000
1727539838.285,5.859,-1.465,-10.742,0.977,0.000
1727539838.289,-96.191,1.465,-10.254,-91.797,0.000
1727539838.293,-87.402,7.812,-12.207,-85.938,0.000
1727539838.297,28.320,7.324,-13.672,29.785,0.000
1727539838.301,46.387,9.277,-14.648,48.828,0.000
1727539838.305,-3.418,12.207,-18.066,4.395,0.000
1727539838.309,-97.168,10.254,-7.812,-89.355,0.000
1727539838.313,-106.934,10.742,0.000,-105.957,0.000
1727539838.317,22.949,8.789,-19.043,12.207,0.000
1727539838.321,65.918,9.277,-26.855,48.828,0.000
1727539838.324,8.301,15.137,-21.484,5.371,0.000
1727539838.328,-100.098,13.672,-13.672,-86.914,0.000
1727539838.332,-125.977,15.137,-1.953,-115.723,0.000
1727539838.336,4.883,19.043,-4.883,2.441,0.000
1727539838.340,72.266,20.508,-7.812,61.035,0.000
1727539838.344,46.875,17.578,-5.371,40.527,0.000
1727539838.348,-52.734,9.766,0.000,-41.992,0.000
1727539838.352,-117.188,0.488,3.418,-100.098,0.000
1727539838.356,-20.508,-0.488,-4.395,-8.789,0.000
1727539838.360,45.410,2.930,-2.441,54.688,0.000
1727539838.363,16.113,0.488,1.465,21.973,0.000
1727539838.367,-85.449,-9.277,-0.488,-71.777,0.000
1727539838.371,-145.996,-14.160,6.836,-127.930,0.000
1727539838.375,-40.039,-9.277,7.324,-39.551,0.000
1727539838.379,37.109,-4.883,-0.488,33.203,0.000
1727539838.383,13.184,-4.883,-4.883,19.531,0.000
1727539838.387,-82.520,-4.883,-8.789,-55.176,0.000
1727539838.391,-165.527,-4.395,-10.254,-134.766,0.000
1727539838.395,-71.777,-10.254,-13.672,-52.734,0.000
1727539838.399,16.602,-16.113,-4.883,39.062,0.000
1727539838.403,7.812,-11.719,-2.930,22.949,0.000
1727539838.406,-53.223,-14.648,-21.484,-30.273,0.000
1727539838.410,-140.625,-16.602,-27.832,-117.188,0.000
1727539838.414,-63.477,-12.207,-14.160,-65.918,0.000
1727539838.418,41.992,-10.742,1.953,34.668,0.000
1727539838.422,39.062,-10.254,8.301,35.645,0.000
1727539838.426,-28.320,-6.836,6.348,-17.578,0.000
1727539838.430,-135.742,-8.301,3.906,-120.117,0.000
1727539838.434,-84.961,-7.324,0.000,-89.355,0.000
1727539838.438,31.738,-2.930,-3.906,22.949,0.000
1727539838.442,32.715,-16.602,-16.602,18.555,0.000
1727539838.446,-26.855,-21.484,-26.367,-36.621,0.000
1727539838.449,-136.230,-9.277,-21.973,-127.441,0.000
1727539838.453,-104.004,-2.441,-17.090,-107.910,0.000
1727539838.457,37.109,2.930,-20.996,12.695,0.000
1727539838.461,57.617,3.906,-21.973,37.109,0.000
1727539838.465,0.000,2.441,-15.137,-6.348,0.000
1727539838.469,-122.559,-4.883,-5.859,-114.746,0.000
1727539838.473,-109.375,0.977,-11.230,-98.633,0.000
1727539838.477,36.621,9.766,-15.625,26.367,0.000
1727539838.481,65.430,5.371,-8.301,46.387,0.000
1727539838.485,0.977,3.418,-6.836,8.789,0.000
1727539838.488,-116.699,1.953,-7.324,-83.496,0.000
1727539838.492,-118.652,4.395,-7.812,-103.516,0.000
1727539838.496,11.230,-5.371,-6.348,15.625,0.000
1727539838.500,53.711,-30.762,-0.488,51.270,0.000
1727539838.504,18.555,-29.785,0.000,11.230,0.000
1727539838.508,-92.285,-23.438,-6.836,-82.031,0.000
1727539838.512,-122.070,-24.414,-8.301,-115.723,0.000
1727539838.516,23.926,-15.137,2.930,17.090,0.000
1727539838.520,82.031,-54.688,13.184,70.801,0.000
1727539838.524,50.293,-64.941,24.414,31.738,0.000
1727539838.528,-65.430,13.184,8.301,-79.102,0.000
1727539838.531,-166.504,47.852,-26.855,-166.016,0.000
1727539838.535,-68.848,28.809,-29.785,-72.266,0.000
1727539838.539,5.371,18.066,-21.973,-0.488,0.000
1727539838.543,-17.090,17.578,-18.066,-0.977,0.000
1727539838.547,-101.562,8.301,-10.742,-74.219,0.000
1727539838.551,-162.109,-5.371,-5.371,-162.598,0.000
1727539838.555,-47.852,9.766,-2.441,-79.102,0.000
1727539838.559,29.785,18.555,-3.906,4.395,0.000
1727539838.563,30.273,8.301,-4.883,28.320,0.000
1727539838.567,-46.387,4.883,-15.625,-32.715,0.000
1727539838.571,-145.996,21.973,-24.902,-126.953,0.000
1727539838.574,-54.199,30.762,-20.996,-50.781,0.000
1727539838.578,33.691,22.949,-8.301,20.996,0.000
1727539838.582,9.277,23.926,4.395,4.883,0.000
1727539838.586,-80.566,10.742,23.438,-87.402,0.000
1727539838.590,-163.574,-6.348,32.715,-174.805,0.000
1727539838.594,-41.016,15.625,-17.090,-38.574,0.000
1727539838.598,80.566,38.574,-39.062,76.172,0.000
1727539838.602,34.668,31.250,-9.277,22.461,0.000
1727539838.606,-48.340,26.367,-11.230,-36.133,0.000
1727539838.610,-170.410,23.438,-12.207,-154.297,0.000
1727539838.613,-110.352,23.926,4.395,-112.793,0.000
1727539838.617,42.480,20.508,-17.090,48.828,0.000
1727539838.621,47.363,12.695,-13.184,47.852,0.000
1727539838.625,-10.742,11.719,-13.184,-12.207,0.000
1727539838.629,-112.793,10.742,-28.320,-104.980,0.000
1727539838.633,-81.543,16.113,-9.277,-92.773,0.000
1727539838.637,5.859,3.418,10.742,-26.855,0.000
1727539838.641,-3.418,-13.672,26.367,-30.762,0.000
1727539838.645,-8.789,9.277,-4.883,-24.414,0.000
1727539838.649,-119.629,25.879,-22.949,-133.301,0.000
1727539838.653,-137.207,5.371,0.000,-155.762,0.000
1727539838.656,13.184,-2.441,-10.742,-11.230,0.000
1727539838.660,23.438,11.719,-13.184,-20.508,0.000
1727539838.664,-15.137,15.625,18.555,-76.172,0.000
1727539838.668,-116.211,-24.414,42.480,-149.414,0.000
1727539838.672,-126.953,-12.695,-9.277,-145.508,0.000
1727539838.676,-4.883,14.648,-43.457,-19.531,0.000
1727539838.680,-11.230,-2.930,-6.836,-26.367,0.000
1727539838.684,-62.012,-4.883,-14.160,-79.102,0.000
1727539838.688,-137.207,1.953,-37.109,-149.902,0.000
1727539838.692,-188.965,-24.414,-6.348,-212.402,0.000
1727539838.696,-96.191,-48.340,13.184,-117.188,0.000
1727539838.699,-25.391,-15.625,-11.719,-39.062,0.000
1727539838.703,-23.926,0.000,-39.062,-34.668,0.000
1727539838.707,-116.211,-17.090,-54.199,-113.770,0.000
1727539838.711,-203.613,-34.668,-38.574,-201.660,0.000
1727539838.715,-111.816,-72.266,-10.254,-132.324,0.000
1727539838.719,-75.684,-78.125,-1.465,-135.254,0.000
1727539838.723,-94.727,-64.453,-32.715,-158.203,0.000
1727539838.727,-144.531,-47.363,-52.734,-148.926,0.000
1727539838.731,-202.637,-37.598,-30.762,-190.918,0.000
1727539838.735,-94.238,-49.316,-50.293,-108.887,0.000
1727539838.738,-21.484,-52.734,-70.312,-45.410,0.000
1727539838.742,-78.613,-62.500,-14.648,-97.656,0.000
1727539838.746,-163.574,-39.062,-14.648,-176.270,0.000
1727539838.750,-234.375,-29.785,-36.621,-246.094,0.000
1727539838.754,-172.852,-68.359,-15.625,-187.012,0.000
1727539838.758,-54.199,-74.219,-51.270,-61.523,0.000
1727539838.762,-8.301,-72.754,-64.941,-17.578,0.000
1727539838.766,-81.543,-89.355,-42.480,-62.988,0.000
1727539838.770,-222.656,-83.008,4.883,-210.938,0.000
1727539838.774,-188.965,-94.238,45.898,-196.777,0.000
1727539838.778,-71.289,-73.730,-47.852,-64.941,0.000
1727539838.781,-62.500,-46.875,-146.973,-49.316,0.000
1727539838.785,-102.051,-42.969,-185.547,-96.680,0.000
1727539838.789,-183.594,-30.273,-189.941,-187.500,0.000
1727539838.793,-133.789,-33.203,-254.395,-154.785,0.000
1727539838.797,-43.945,-45.898,-346.191,-63.477,0.000
1727539838.801,-60.059,-37.109,-439.453,-67.383,0.000
1727539838.805,-115.723,-22.949,-600.586,-133.789,0.000
1727539838.809,-203.125,-32.227,-859.863,-238.281,0.000
1727539838.813,-179.199,-50.781,-1000.000,-179.688,0.000
1727539838.817,-63.477,-49.316,-994.629,-26.367,0.000
1727539838.821,-78.125,-55.664,-999.512,-51.270,0.000
1727539838.824,-120.117,-50.781,-1000.000,-110.352,0.000
1727539838.828,-188.965,-34.668,-1000.000,-212.891,0.000
1727539838.832,-155.762,-31.250,-1000.000,-182.617,0.000
1727539838.836,-16.602,-28.809,-1000.000,9.277,0.000
1727539838.840,-17.090,-52.734,-1000.000,36.133,0.000
1727539838.844,-54.199,-69.336,-1000.000,-7.812,0.000
1727539838.848,-158.691,-95.215,-1000.000,-145.996,0.000
1727539838.852,-205.078,-91.309,-1000.000,-241.211,0.000
1727539838.856,-58.594,-42.480,-1000.000,-72.266,0.000
1727539838.860,-19.043,-33.203,-1000.000,-34.668,0.000
1727539838.863,-99.609,-31.250,-1000.000,-126.953,0.000
1727539838.867,-198.730,-43.457,-1000.000,-196.777,0.000
1727539838.871,-181.641,-34.180,-1000.000,-188.477,0.000
1727539838.875,-41.016,-23.926,-1000.000,-60.547,0.000
1727539838.879,-4.883,-35.645,-1000.000,-6.348,0.000
1727539838.883,-73.730,-51.270,-1000.000,-59.570,0.000
1727539838.887,-204.102,-59.570,-1000.000,-196.777,0.000
1727539838.891,-216.797,-47.363,-1000.000,-211.914,0.000
1727539838.895,-42.480,-46.387,-1000.000,-26.367,0.000
1727539838.899,32.227,-40.039,-1000.000,79.102,0.000
1727539838.903,-34.668,-46.875,-1000.000,23.926,0.000
1727539838.906,-125.977,-46.387,-1000.000,-92.285,0.000
1727539838.910,-186.035,-46.387,-1000.000,-174.805,0.000
1727539838.914,-68.359,-53.223,-1000.000,-55.176,0.000
1727539838.918,28.809,-68.359,-1000.000,53.711,0.000
1727539838.922,-14.648,-81.055,-1000.000,3.418,0.000
1727539838.926,-123.535,-66.406,-1000.000,-106.934,0.000
1727539838.930,-199.707,-55.664,-1000.000,-183.105,0.000
1727539838.934,-93.750,-40.527,-1000.000,-84.961,0.000
1727539838.938,-17.090,-35.645,-1000.000,22.949,0.000
1727539838.942,-38.086,-36.621,-998.047,18.066,0.000
1727539838.946,-103.516,-41.504,-1000.000,-61.523,0.000
1727539838.949,-184.082,-39.551,-960.938,-162.109,0.000
1727539838.953,-91.797,-38.086,-848.633,-63.965,0.000
1727539838.957,6.348,-44.434,-747.070,53.711,0.000
1727539838.961,-9.277,-47.363,-598.633,44.922,0.000
1727539838.965,-81.055,-49.805,-324.219,-12.695,0.000
1727539838.969,-187.500,-56.641,-128.906,-118.164,0.000
1727539838.973,-116.699,-53.711,61.523,-57.129,0.000
1727539838.977,1.953,-45.410,326.172,57.617,0.000
1727539838.981,-5.859,-46.875,594.238,61.035,0.000
1727539838.985,-72.754,-44.922,890.625,2.441,0.000
1727539838.988,-164.551,-48.340,979.492,-118.652,0.000
1727539838.992,-110.840,-61.523,958.496,-74.219,0.000
1727539838.996,25.879,-44.434,969.727,66.406,0.000
1727539839.000,46.875,-13.184,968.262,81.055,0.000
1727539839.004,-43.945,-17.090,968.262,0.977,0.000
1727539839.008,-188.477,-40.527,968.262,-137.207,0.000
1727539839.012,-168.457,-47.363,968.262,-117.188,0.000
1727539839.016,-36.621,-41.992,968.262,14.648,0.000
1727539839.020,-11.719,-31.738,968.262,38.086,0.000
1727539839.024,-59.570,-28.320,968.262,-2.930,0.000
1727539839.028,-169.922,-25.391,968.262,-113.281,0.000
1727539839.031,-142.578,-17.578,968.262,-127.441,0.000
1727539839.035,3.418,-12.207,968.262,-5.859,0.000
1727539839.039,35.156,-5.859,968.262,30.762,0.000
1727539839.043,-11.719,-0.488,968.262,-6.348,0.000
1727539839.047,-114.258,1.465,968.262,-104.492,0.000
1727539839.051,-111.328,-0.977,968.262,-135.254,0.000
1727539839.055,23.926,3.418,968.262,-20.996,0.000
1727539839.059,46.387,0.488,968.262,16.113,0.000
1727539839.063,8.789,-1.953,968.262,-21.484,0.000
1727539839.067,-90.820,-2.441,968.262,-114.746,0.000
1727539839.071,-145.020,-14.648,968.262,-169.434,0.000
1727539839.074,-20.508,-11.230,968.262,-58.594,0.000
1727539839.078,22.461,-8.301,968.262,7.812,0.000
1727539839.082,-25.879,-13.184,968.262,-24.902,0.000
1727539839.086,-118.652,-2.441,968.262,-105.469,0.000
1727539839.090,-167.969,8.789,968.262,-149.902,0.000
1727539839.094,-29.785,13.672,968.262,-38.574,0.000
1727539839.098,39.062,7.324,968.262,25.391,0.000
1727539839.102,-15.137,5.371,968.262,-22.461,0.000
1727539839.106,-97.656,5.859,967.773,-99.121,0.000
1727539839.110,-156.250,4.883,968.262,-154.297,0.000
1727539839.114,-53.223,11.230,968.262,-64.453,0.000
1727539839.117,27.344,11.719,968.262,15.625,0.000
1727539839.121,0.000,15.625,968.262,-6.348,0.000
1727539839.125,-70.312,16.602,968.262,-79.102,0.000
1727539839.129,-160.645,8.789,968.262,-174.805,0.000
1727539839.133,-85.938,4.883,967.773,-104.980,0.000
1727539839.137,7.812,4.883,966.797,-10.742,0.000
1727539839.141,-2.930,4.395,969.238,-20.020,0.000
1727539839.145,-68.848,0.977,940.430,-77.637,0.000
1727539839.149,-162.598,-1.953,882.812,-165.039,0.000
1727539839.153,-86.426,-4.395,835.938,-112.305,0.000
1727539839.156,35.156,-7.812,798.340,-4.883,0.000
1727539839.160,25.879,-4.883,758.789,-1.953,0.000
1727539839.164,-48.828,-3.418,732.422,-64.941,0.000
1727539839.168,-157.227,-6.836,708.008,-165.527,0.000
1727539839.172,-97.168,-5.859,667.969,-130.859,0.000
1727539839.176,32.227,-2.930,636.230,-7.812,0.000
1727539839.180,35.156,0.488,607.422,17.090,0.000
1727539839.184,-22.461,9.766,533.203,-32.715,0.000
1727539839.188,-122.559,11.719,479.004,-128.906,0.000
1727539839.192,-94.238,-1.465,498.535,-110.352,0.000
1727539839.196,22.949,-9.766,523.438,-9.766,0.000
1727539839.199,36.621,-6.348,512.695,0.000,0.000
1727539839.203,-16.602,-8.789,477.051,-43.457,0.000
1727539839.207,-131.836,-10.254,453.125,-134.277,0.000
1727539839.211,-102.051,-11.719,435.059,-126.953,0.000
1727539839.215,43.945,-11.719,412.109,-1.465,0.000
1727539839.219,67.871,2.441,394.043,37.109,0.000
1727539839.223,21.484,11.719,372.070,11.230,0.000
1727539839.227,-87.891,13.672,353.516,-88.379,0.000
1727539839.231,-97.168,8.789,335.938,-116.699,0.000
1727539839.235,31.738,2.441,332.520,6.836,0.000
1727539839.238,69.336,3.418,329.102,55.176,0.000
1727539839.242,14.160,1.953,310.059,-2.930,0.000
1727539839.246,-104.980,-3.906,290.527,-103.027,0.000
1727539839.250,-132.324,-0.488,273.926,-118.652,0.000
1727539839.254,2.441,3.418,260.254,-0.488,0.000
1727539839.258,58.594,-8.301,219.238,49.805,0.000
1727539839.262,25.879,-33.691,197.754,16.602,0.000
1727539839.266,-75.195,-32.715,204.102,-65.430,0.000
1727539839.270,-139.160,-12.207,212.402,-126.465,0.000
1727539839.274,-20.996,0.000,205.078,-34.180,0.000
1727539839.278,48.828,1.953,188.477,35.156,0.000
1727539839.281,12.695,1.465,178.223,7.324,0.000
1727539839.285,-87.891,2.930,157.227,-84.961,0.000
1727539839.289,-153.809,-1.953,146.484,-150.391,0.000
1727539839.293,-39.551,-18.066,142.090,-57.129,0.000
1727539839.297,41.992,-16.602,129.883,25.879,0.000
1727539839.301,15.625,-4.883,114.746,13.184,0.000
1727539839.305,-66.406,-5.859,110.840,-62.988,0.000
1727539839.309,-154.297,-13.184,135.254,-148.438,0.000
1727539839.313,-73.242,-10.742,135.742,-67.871,0.000
1727539839.317,20.996,-11.719,129.883,16.602,0.000
1727539839.321,14.648,-17.090,131.836,2.930,0.000
1727539839.324,-52.246,-24.414,121.094,-41.992,0.000
1727539839.328,-140.625,-40.527,119.629,-113.770,0.000
1727539839.332,-66.895,-37.598,114.258,-49.805,0.000
1727539839.336,43.945,-16.602,101.074,43.945,0.000
1727539839.340,41.016,-4.395,95.215,34.180,0.000
1727539839.344,-35.156,0.000,85.938,-26.855,0.000
1727539839.348,-146.484,0.488,84.961,-120.605,0.000
1727539839.352,-78.125,-4.395,89.355,-68.359,0.000
1727539839.356,40.039,-5.859,77.637,27.832,0.000
1727539839.360,35.156,-8.301,71.289,26.855,0.000
1727539839.363,-25.879,-9.277,64.941,-15.137,0.000
1727539839.367,-126.953,-10.742,56.152,-110.352,0.000
1727539839.371,-92.773,-13.672,44.922,-78.613,0.000
1727539839.375,38.574,-6.836,36.133,31.738,0.000
1727539839.379,56.152,-4.395,38.574,50.781,0.000
1727539839.383,-15.137,-8.301,48.828,-0.977,0.000
1727539839.387,-125.488,-10.742,65.918,-96.191,0.000
1727539839.391,-108.398,-14.648,72.754,-92.773,0.000
1727539839.395,27.832,-14.648,58.594,15.625,0.000
1727539839.399,50.781,-13.672,53.711,36.621,0.000
1727539839.403,-16.602,-9.766,37.109,-5.859,0.000
1727539839.406,-113.770,-8.789,23.438,-89.355,0.000
1727539839.410,-113.281,-13.184,36.133,-110.352,0.000
1727539839.414,24.414,-14.648,38.574,7.812,0.000
1727539839.418,68.848,-15.137,33.691,56.641,0.000
1727539839.422,15.625,-20.508,38.574,8.789,0.000
1727539839.426,-95.703,-24.902,41.016,-89.355,0.000
1727539839.430,-123.535,-16.602,26.367,-124.512,0.000
1727539839.434,5.859,-15.137,12.695,-10.254,0.000
1727539839.438,66.406,-14.160,12.207,45.898,0.000
1727539839.442,24.902,-7.324,28.320,5.371,0.000
1727539839.446,-86.914,-11.719,39.062,-87.402,0.000
1727539839.449,-134.766,-13.184,13.672,-119.141,0.000
1727539839.453,4.883,-9.277,1.953,1.465,0.000
1727539839.457,69.336,-16.602,13.672,50.781,0.000
1727539839.461,21.484,-18.555,26.855,28.809,0.000
1727539839.465,-74.219,-13.672,30.273,-52.734,0.000
1727539839.469,-138.672,-20.508,20.508,-121.094,0.000
1727539839.473,-23.438,-22.461,13.672,-17.578,0.000
1727539839.477,61.523,-13.184,5.371,49.316,0.000
1727539839.481,32.227,-9.277,1.953,31.738,0.000
1727539839.485,-55.176,-9.766,21.973,-37.598,0.000
1727539839.489,-131.836,-17.578,30.273,-120.117,0.000
1727539839.492,-23.926,-20.020,30.273,-33.691,0.000
1727539839.496,52.734,-10.742,31.738,43.457,0.000
1727539839.500,15.625,-10.742,20.508,15.137,0.000
1727539839.504,-51.270,-15.137,10.742,-42.480,0.000
1727539839.508,-139.160,-10.254,7.812,-118.164,0.000
1727539839.512,-69.336,-7.812,-2.441,-72.754,0.000
1727539839.516,40.527,-9.277,-6.348,19.531,0.000
1727539839.520,38.574,-4.395,-3.906,19.531,0.000
1727539839.524,-43.945,-5.859,-14.160,-39.062,0.000
1727539839.528,-151.855,-10.254,-36.621,-128.906,0.000
1727539839.531,-85.449,-9.766,-23.438,-75.684,0.000
1727539839.535,35.156,-13.184,7.324,29.785,0.000
1727539839.539,30.273,-14.160,10.254,27.344,0.000
1727539839.543,-29.297,-16.602,7.812,-15.137,0.000
1727539839.547,-124.512,-19.043,2.930,-118.164,0.000
1727539839.551,-81.055,-16.602,-0.977,-94.727,0.000
1727539839.555,51.270,-13.672,0.977,27.344,0.000
1727539839.559,63.965,-14.160,-6.348,42.480,0.000
1727539839.563,-10.254,-26.367,-16.113,-10.254,0.000
1727539839.567,-131.836,-26.855,-17.578,-112.305,0.000
1727539839.571,-99.609,-15.625,-17.578,-92.773,0.000
1727539839.574,29.785,-12.207,-19.043,18.555,0.000
1727539839.578,40.039,-16.602,-18.555,37.109,0.000
1727539839.582,-18.555,-16.113,-19.531,-12.695,0.000
1727539839.586,-115.234,-14.160,-18.555,-106.445,0.000
1727539839.590,-109.863,-17.090,-11.230,-103.516,0.000
1727539839.594,7.324,-20.020,-4.883,14.648,0.000
1727539839.598,40.039,-18.555,-9.277,50.293,0.000
1727539839.602,-10.742,-18.066,-14.160,2.930,0.000
1727539839.606,-125.488,-22.461,-13.672,-106.445,0.000
1727539839.610,-132.324,-18.066,-16.113,-126.953,0.000
1727539839.613,-1.953,-12.207,-20.508,-6.348,0.000
1727539839.617,34.180,-12.695,-30.273,27.832,0.000
1727539839.621,-2.930,-18.066,-39.551,1.465,0.000
1727539839.625,-91.309,-21.484,-29.297,-73.242,0.000
1727539839.629,-127.930,-25.879,-5.859,-120.605,0.000
1727539839.633,0.488,-29.785,6.348,-9.277,0.000
1727539839.637,64.941,-22.949,5.371,47.363,0.000
1727539839.641,24.414,-17.578,2.930,19.531,0.000
1727539839.645,-72.266,-14.648,-5.371,-50.781,0.000
1727539839.649,-129.395,-9.766,-13.672,-113.770,0.000
1727539839.653,-9.766,-12.695,-21.484,-12.207,0.000
1727539839.656,69.336,-13.184,-34.668,56.152,0.000
1727539839.660,41.992,-11.230,-36.133,20.508,0.000
1727539839.664,-48.828,-10.742,-27.344,-50.781,0.000
1727539839.668,-121.582,-14.648,-31.250,-110.840,0.000
1727539839.672,-20.020,-20.508,-40.039,-27.344,0.000
1727539839.676,62.988,-21.484,-38.574,55.664,0.000
1727539839.680,42.969,-21.973,-31.738,51.270,0.000
1727539839.684,-32.227,-34.180,-19.043,-27.832,0.000
1727539839.688,-111.816,-37.598,-20.020,-101.074,0.000
1727539839.692,-29.785,-25.879,-30.273,-21.973,0.000
1727539839.696,61.523,-21.484,-24.414,60.059,0.000
1727539839.699,51.758,-19.043,-22.461,48.340,0.000
1727539839.703,-12.207,-17.090,-22.461,-2.930,0.000
1727539839.707,-115.234,-16.113,-22.461,-94.727,0.000
1727539839.711,-56.641,-16.113,-17.578,-50.781,0.000
1727539839.715,59.082,-18.555,-11.230,46.875,0.000
1727539839.719,51.270,-23.438,-13.672,49.805,0.000
1727539839.723,-18.555,-27.832,-16.113,-0.488,0.000
1727539839.727,-120.117,-24.902,-23.438,-92.285,0.000
1727539839.731,-74.219,-26.367,-35.156,-56.152,0.000
1727539839.735,48.828,-27.832,-48.828,48.340,0.000
1727539839.738,62.988,-30.273,-40.039,49.316,0.000
1727539839.742,5.371,-35.645,-23.926,-1.953,0.000
1727539839.746,-107.422,-29.297,-24.414,-89.355,0.000
1727539839.750,-74.707,-19.531,-28.809,-73.730,0.000
1727539839.754,55.664,-16.113,-48.340,32.227,0.000
1727539839.758,48.340,-24.414,-51.270,43.457,0.000
1727539839.762,-15.625,-27.344,-36.621,-4.395,0.000
1727539839.766,-119.629,-24.902,-35.156,-106.445,0.000
1727539839.770,-115.234,-30.762,-33.691,-121.094,0.000
1727539839.774,19.531,-31.250,-35.645,4.883,0.000
1727539839.778,48.828,-23.926,-38.086,46.387,0.000
1727539839.781,-5.371,-35.156,-40.039,4.395,0.000
1727539839.785,-106.934,-36.621,-39.551,-83.984,0.000
1727539839.789,-122.070,-26.855,-47.852,-90.332,0.000
1727539839.793,11.719,-25.879,-74.707,36.133,0.000
1727539839.797,68.359,-23.438,-62.500,70.312,0.000
1727539839.801,21.973,-25.391,-39.551,12.695,0.000
1727539839.805,-95.703,-30.762,-41.016,-91.309,0.000
1727539839.809,-126.465,-22.949,-65.918,-125.000,0.000
1727539839.813,17.090,-16.602,-71.289,-8.301,0.000
1727539839.817,57.129,-22.461,-29.785,43.945,0.000
1727539839.821,-3.418,-28.809,-10.254,8.301,0.000
1727539839.824,-91.797,-31.250,-20.996,-62.988,0.000
1727539839.828,-136.719,-28.320,-24.414,-106.445,0.000
1727539839.832,-9.277,-23.926,-40.527,-2.930,0.000
1727539839.836,66.895,-21.484,-57.617,65.430,0.000
1727539839.840,23.926,-31.738,-34.668,38.086,0.000
1727539839.844,-69.336,-42.969,-3.418,-57.129,0.000
1727539839.848,-134.766,-41.016,-9.766,-122.559,0.000
1727539839.852,-26.855,-34.180,-29.785,-26.855,0.000
1727539839.856,59.570,-28.320,-28.809,50.293,0.000
1727539839.860,39.551,-24.902,-19.043,32.715,0.000
1727539839.864,-38.574,-33.203,-20.508,-40.527,0.000
1727539839.867,-123.535,-40.039,-47.363,-115.723,0.000
1727539839.871,-40.527,-30.273,-60.059,-35.645,0.000
1727539839.875,64.941,-20.508,-39.062,58.105,0.000
1727539839.879,49.316,-24.414,-19.531,46.875,0.000
1727539839.883,-38.086,-30.273,-10.742,-10.254,0.000
1727539839.887,-134.766,-26.855,-12.695,-97.656,0.000
1727539839.891,-52.734,-29.297,-20.020,-36.621,0.000
1727539839.895,60.059,-33.691,-18.066,67.871,0.000
1727539839.899,65.430,-28.809,-27.832,63.965,0.000
1727539839.903,-5.371,-22.461,-53.711,-1.953,0.000
1727539839.906,-115.234,-20.508,-55.176,-104.004,0.000
1727539839.910,-49.805,-16.602,-34.180,-52.734,0.000
1727539839.914,69.336,-16.113,-47.363,59.082,0.000
1727539839.918,66.895,-24.902,-56.152,61.523,0.000
1727539839.922,-0.488,-29.785,-42.480,6.836,0.000
1727539839.926,-113.770,-27.344,-35.645,-96.680,0.000
1727539839.930,-79.102,-28.809,-29.297,-68.359,0.000
1727539839.934,56.152,-28.809,-32.715,44.434,0.000
1727539839.938,66.406,-29.297,-39.062,55.176,0.000
1727539839.942,8.301,-28.809,-44.434,19.043,0.000
1727539839.946,-93.262,-22.949,-51.758,-76.660,0.000
1727539839.949,-86.914,-25.391,-54.199,-83.984,0.000
1727539839.953,46.387,-28.809,-50.293,37.109,0.000
1727539839.957,78.613,-25.879,-61.035,61.035,0.000
1727539839.961,27.832,-28.320,-77.148,6.836,0.000
1727539839.965,-79.102,-28.809,-68.848,-79.590,0.000
1727539839.969,-99.609,-30.762,-48.828,-94.727,0.000
1727539839.973,29.297,-32.227,-40.527,23.926,0.000
1727539839.977,77.637,-31.738,-54.688,62.012,0.000
1727539839.981,28.809,-33.691,-60.547,17.090,0.000
1727539839.985,-75.684,-33.691,-53.711,-71.289,0.000
1727539839.988,-95.215,-31.250,-38.086,-107.910,0.000
1727539839.992,32.227,-25.879,-29.297,0.977,0.000
1727539839.996,68.848,-24.414,-33.203,63.477,0.000
1727539840.000,27.832,-24.414,-46.387,39.062,0.000
1727539840.004,-72.754,-26.367,-58.594,-47.852,0.000
1727539840.008,-122.070,-27.344,-74.219,-91.309,0.000
1727539840.012,-5.371,-24.902,-75.195,16.113,0.000
1727539840.016,57.129,-27.344,-39.551,71.289,0.000
1727539840.020,30.762,-29.297,-18.555,47.363,0.000
1727539840.024,-57.129,-26.855,-15.625,-31.738,0.000
1727539840.028,-121.582,-27.832,-20.020,-103.516,0.000
1727539840.031,-12.207,-30.762,-25.391,-15.137,0.000
1727539840.035,79.590,-30.762,-24.414,69.336,0.000
1727539840.039,57.129,-30.762,-32.715,42.969,0.000
1727539840.043,-32.227,-29.297,-37.598,-30.273,0.000
1727539840.047,-113.281,-29.785,-35.645,-100.586,0.000
1727539840.051,-14.160,-30.273,-39.551,-18.555,0.000
1727539840.055,81.543,-25.879,-41.992,72.754,0.000
1727539840.059,62.500,-24.902,-41.992,62.012,0.000
1727539840.063,-10.254,-23.926,-41.016,-0.488,0.000
1727539840.067,-100.098,-20.996,-49.316,-93.262,0.000
1727539840.071,-23.438,-21.484,-64.453,-35.645,0.000
1727539840.074,80.078,-22.461,-59.082,58.594,0.000
1727539840.078,64.941,-21.484,-50.781,49.805,0.000
1727539840.082,10.742,-19.043,-53.711,-8.301,0.000
1727539840.086,-102.539,-20.996,-56.641,-96.680,0.000
1727539840.090,-61.523,-24.902,-52.246,-54.688,0.000
1727539840.094,65.918,-27.832,-48.340,52.734,0.000
1727539840.098,66.406,-37.109,-55.176,59.082,0.000
1727539840.102,6.348,-39.551,-57.617,-2.930,0.000
1727539840.106,-97.168,-38.574,-55.664,-100.586,0.000
1727539840.110,-76.172,-30.273,-56.152,-83.496,0.000
1727539840.114,48.828,-21.484,-61.035,29.297,0.000
1727539840.117,72.266,-19.043,-63.965,57.617,0.000
1727539840.121,15.625,-19.531,-64.453,11.719,0.000
1727539840.125,-90.820,-20.508,-64.941,-84.473,0.000
1727539840.129,-68.848,-25.391,-62.500,-78.125,0.000
1727539840.133,46.875,-32.715,-55.664,38.086,0.000
1727539840.137,60.547,-31.738,-45.898,58.105,0.000
1727539840.141,24.414,-23.926,-41.992,28.320,0.000
1727539840.145,-78.613,-24.902,-41.016,-58.105,0.000
1727539840.149,-81.543,-25.391,-45.410,-65.918,0.000
1727539840.153,50.293,-29.297,-46.387,46.387,0.000
1727539840.156,87.891,-22.461,-40.039,70.801,0.000
1727539840.160,38.574,-20.508,-35.645,33.691,0.000
1727539840.164,-74.219,-34.180,-35.156,-54.199,0.000
1727539840.168,-90.332,-28.320,-36.133,-73.242,0.000
1727539840.172,38.086,-31.250,-39.551,47.363,0.000
1727539840.176,89.355,-36.133,-42.969,91.797,0.000
1727539840.180,51.758,-23.926,-40.039,57.129,0.000
1727539840.184,-47.852,-22.461,-36.621,-18.066,0.000
1727539840.188,-90.332,-20.996,-29.785,-65.430,0.000
1727539840.192,25.879,-17.090,-29.297,21.484,0.000
1727539840.196,81.543,-20.020,-54.688,76.660,0.000
1727539840.199,39.551,-24.414,-61.035,50.293,0.000
1727539840.203,-49.316,-22.949,-36.621,-34.180,0.000
1727539840.207,-101.562,-20.508,-28.809,-89.355,0.000
1727539840.211,3.906,-21.484,-29.297,17.578,0.000
1727539840.215,83.008,-22.461,-32.715,82.520,0.000
1727539840.219,58.105,-18.555,-36.621,46.387,0.000
1727539840.223,-41.016,-20.508,-35.645,-22.461,0.000
1727539840.227,-124.023,-20.508,-34.668,-91.797,0.000
1727539840.231,-18.555,-13.184,-40.527,-13.184,0.000
1727539840.235,77.148,-18.066,-41.992,60.547,0.000
1727539840.239,66.895,-19.531,-45.410,45.898,0.000
1727539840.242,-0.977,-15.137,-49.316,-12.207,0.000
1727539840.246,-101.074,-17.578,-53.711,-98.633,0.000
1727539840.250,-30.762,-17.578,-67.383,-20.508,0.000
1727539840.254,63.965,-20.996,-80.078,69.336,0.000
1727539840.258,60.059,-19.043,-73.242,66.406,0.000
1727539840.262,2.930,-6.348,-56.152,6.348,0.000
1727539840.266,-97.168,-3.418,-44.922,-93.750,0.000
1727539840.270,-32.227,-7.324,-40.527,-42.969,0.000
1727539840.274,77.148,-8.301,-37.598,62.500,0.000
1727539840.278,67.871,-13.672,-47.852,62.988,0.000
1727539840.282,4.395,-16.113,-50.293,19.043,0.000
1727539840.285,-103.516,-14.160,-41.016,-71.777,0.000
1727539840.289,-62.012,-15.137,-39.551,-48.828,0.000
1727539840.293,73.242,-15.625,-46.875,64.453,0.000
1727539840.297,73.730,-18.555,-52.734,65.918,0.000
1727539840.301,10.254,-17.090,-41.016,19.043,0.000
1727539840.305,-85.449,-11.719,-53.223,-66.406,0.000
1727539840.309,-49.316,-2.441,-78.613,-57.617,0.000
1727539840.313,82.520,-5.371,-59.570,63.965,0.000
1727539840.317,95.215,-9.277,-34.180,75.684,0.000
1727539840.321,28.809,-7.812,-15.625,18.555,0.000
1727539840.324,-78.125,-10.254,-9.277,-68.848,0.000
1727539840.328,-74.707,-16.602,-21.973,-72.266,0.000
1727539840.332,53.223,-20.996,-22.949,51.758,0.000
1727539840.336,89.844,-13.672,-25.879,84.961,0.000
1727539840.340,41.504,-5.859,-51.758,35.645,0.000
1727539840.344,-61.523,-4.395,-73.730,-45.410,0.000
1727539840.348,-81.055,-5.859,-61.523,-54.688,0.000
1727539840.352,51.270,-9.277,-35.156,54.688,0.000
1727539840.356,100.586,-8.789,-32.227,90.820,0.000
1727539840.360,58.105,-8.301,-34.180,48.340,0.000
1727539840.364,-48.340,-7.324,-21.484,-42.969,0.000
1727539840.367,-91.309,-4.883,-20.996,-88.379,0.000
1727539840.371,35.645,-0.977,-20.996,20.996,0.000
1727539840.375,94.727,-3.418,-18.555,77.637,0.000
1727539840.379,60.059,-7.812,-24.902,40.527,0.000
1727539840.383,-39.551,-7.812,-23.926,-43.945,0.000
1727539840.387,-97.168,-7.324,-21.484,-106.934,0.000
1727539840.391,20.020,-6.836,-34.668,0.977,0.000
1727539840.395,86.426,-7.812,-45.898,74.707,0.000
1727539840.399,57.129,-5.859,-29.785,39.551,0.000
1727539840.403,-31.738,-10.254,-19.531,-39.062,0.000
1727539840.406,-102.051,-14.648,-30.273,-99.609,0.000
1727539840.410,0.977,-3.418,-47.852,-7.812,0.000
1727539840.414,82.520,1.465,-39.062,70.801,0.000
1727539840.418,59.570,-4.883,-16.113,61.035,0.000
1727539840.422,-25.391,-7.812,-13.672,-4.395,0.000
1727539840.426,-118.164,-7.324,-12.695,-89.355,0.000
1727539840.430,-26.855,-5.859,-26.367,-20.020,0.000
1727539840.434,89.844,-0.488,-37.109,68.848,0.000
1727539840.438,81.055,-0.488,-23.926,68.359,0.000
1727539840.442,1.953,-5.371,-12.207,1.465,0.000
1727539840.446,-94.238,-10.254,-13.184,-102.051,0.000
1727539840.449,-23.926,-8.301,-25.391,-46.387,0.000
1727539840.453,84.961,0.000,-32.715,71.289,0.000
1727539840.457,79.590,5.371,-33.203,83.496,0.000
1727539840.461,20.020,6.348,-28.320,24.414,0.000
1727539840.465,-86.426,-0.977,-34.180,-73.730,0.000
1727539840.469,-41.504,-4.883,-42.480,-40.039,0.000
1727539840.473,79.590,-6.348,-32.715,62.500,0.000
1727539840.477,89.844,-7.324,-19.531,67.871,0.000
1727539840.481,34.668,-3.418,-32.227,18.555,0.000
1727539840.485,-80.566,-7.324,-47.852,-76.660,0.000
1727539840.489,-62.988,-7.812,-36.133,-62.500,0.000
1727539840.492,65.430,-4.883,-24.902,44.922,0.000
1727539840.496,79.102,-6.836,-22.949,62.988,0.000
1727539840.500,18.066,-5.371,-19.531,15.625,0.000
1727539840.504,-92.773,-1.465,-15.625,-86.426,0.000
1727539840.508,-68.359,-5.859,-18.066,-68.359,0.000
1727539840.512,59.570,-7.324,-21.484,50.781,0.000
1727539840.516,67.871,-4.883,-24.902,56.641,0.000
1727539840.520,18.555,-7.812,-28.320,7.324,0.000
1727539840.524,-85.449,-7.324,-26.855,-78.125,0.000
1727539840.528,-95.215,-9.766,-31.738,-96.680,0.000
1727539840.531,46.387,-9.277,-34.668,12.695,0.000
1727539840.535,88.379,-5.859,-21.484,55.664,0.000
1727539840.539,35.645,-7.324,-15.137,27.832,0.000
1727539840.543,-68.359,-7.324,-20.508,-44.434,0.000
1727539840.547,-91.797,-8.789,-19.043,-76.172,0.000
1727539840.551,37.109,-7.812,-14.648,11.230,0.000
1727539840.555,89.844,-5.371,-16.113,60.059,0.000
1727539840.559,45.410,-7.324,-20.508,37.598,0.000
1727539840.563,-58.105,-8.789,-30.273,-52.734,0.000
1727539840.567,-109.375,-9.277,-35.645,-106.445,0.000
1727539840.571,9.766,-10.254,-27.832,-3.418,0.000
1727539840.574,75.195,-8.301,-25.391,59.570,0.000
1727539840.578,45.410,-10.742,-23.438,34.668,0.000
1727539840.582,-45.898,-14.160,-14.648,-45.898,0.000
1727539840.586,-111.816,-8.301,-16.113,-101.074,0.000
1727539840.590,0.488,-2.930,-21.484,-0.977,0.000
1727539840.594,78.613,-2.930,-15.137,65.430,0.000
1727539840.598,54.688,-4.395,-5.371,42.969,0.000
1727539840.602,-30.273,-3.906,-3.418,-24.414,0.000
1727539840.606,-116.211,-1.953,-14.160,-93.262,0.000
1727539840.610,-26.367,-3.906,-22.949,-22.949,0.000
1727539840.614,61.035,-9.766,-18.066,53.223,0.000
1727539840.617,45.898,-6.348,-13.672,44.434,0.000
1727539840.621,-33.691,-4.395,-29.785,-21.484,0.000
1727539840.625,-126.465,-1.465,-27.832,-102.539,0.000
1727539840.629,-50.293,-0.488,-15.625,-39.062,0.000
1727539840.633,60.059,0.488,-11.719,62.500,0.000
1727539840.637,54.199,-0.977,-18.066,59.082,0.000
1727539840.641,-13.184,-5.371,-33.691,0.000,0.000
1727539840.645,-110.840,-10.742,-32.715,-96.680,0.000
1727539840.649,-57.129,-13.184,-21.973,-62.012,0.000
1727539840.653,55.664,-11.230,-16.113,55.664,0.000
1727539840.657,64.453,-8.789,-21.973,68.848,0.000
1727539840.660,14.160,-12.207,-35.156,16.113,0.000
1727539840.664,-106.445,-21.973,-34.180,-83.496,0.000
1727539840.668,-82.031,-17.090,-18.555,-68.359,0.000
1727539840.672,53.711,-8.301,-12.207,29.297,0.000
1727539840.676,69.336,-14.160,-12.207,49.316,0.000
1727539840.680,10.742,-13.672,-11.719,15.625,0.000
1727539840.684,-97.168,-8.789,-12.207,-83.984,0.000
1727539840.688,-89.844,-2.930,-11.719,-86.426,0.000
1727539840.692,25.391,-6.836,-18.555,29.785,0.000
1727539840.696,40.527,-11.719,-42.480,44.922,0.000
1727539840.699,-6.348,-10.742,-43.945,-1.465,0.000
1727539840.703,-118.164,-16.602,-26.367,-97.168,0.000
1727539840.707,-127.441,-16.113,-22.949,-109.375,0.000
1727539840.711,12.695,-16.602,-24.902,11.719,0.000
1727539840.715,55.664,-14.648,-25.391,54.199,0.000
1727539840.719,22.461,-11.719,-31.250,20.508,0.000
1727539840.723,-70.801,-15.137,-20.996,-63.477,0.000
1727539840.727,-109.375,-11.230,-11.719,-102.539,0.000
1727539840.731,11.719,-7.324,-14.160,-4.395,0.000
1727539840.735,69.824,-10.254,-2.441,54.688,0.000
1727539840.739,34.180,-7.324,4.395,23.926,0.000
1727539840.742,-62.012,-3.418,-0.488,-46.875,0.000
1727539840.746,-113.770,-12.207,-16.113,-93.262,0.000
1727539840.750,4.883,-12.207,-24.902,2.441,0.000
1727539840.754,68.359,-8.789,-17.578,58.105,0.000
1727539840.758,31.250,-8.301,-17.090,25.879,0.000
1727539840.762,-49.805,0.000,-13.184,-44.434,0.000
1727539840.766,-117.676,0.488,2.930,-111.816,0.000
1727539840.770,-18.555,-5.371,-4.883,-27.344,0.000
1727539840.774,59.570,-6.348,-17.578,44.922,0.000
1727539840.778,31.738,-13.672,-23.438,21.484,0.000
1727539840.781,-57.129,-14.160,-26.367,-47.852,0.000
1727539840.785,-129.395,-7.324,-24.414,-122.559,0.000
1727539840.789,-35.645,-7.812,-18.066,-46.387,0.000
1727539840.793,48.828,-4.883,-7.812,50.781,0.000
1727539840.797,44.434,2.441,-6.348,43.457,0.000
1727539840.801,-25.391,4.883,-9.766,-16.602,0.000
1727539840.805,-117.188,1.465,-9.766,-97.656,0.000
1727539840.809,-40.527,-2.930,-21.484,-39.551,0.000
1727539840.813,65.430,-0.488,-28.809,62.012,0.000
1727539840.817,54.199,1.465,-17.090,47.363,0.000
1727539840.821,-16.602,0.488,-11.719,-17.090,0.000
1727539840.824,-131.348,-7.812,-8.301,-106.445,0.000
1727539840.828,-81.055,-17.578,-10.742,-73.730,0.000
1727539840.832,42.969,-19.531,-14.160,30.273,0.000
1727539840.836,48.340,-11.719,-10.254,30.762,0.000
1727539840.840,-8.789,-4.883,-9.277,-15.625,0.000
1727539840.844,-122.070,-3.906,-14.648,-106.445,0.000
1727539840.848,-91.309,-3.906,-17.578,-71.289,0.000
1727539840.852,31.738,-4.883,-12.207,50.781,0.000
1727539840.856,37.109,-2.441,-2.930,51.758,0.000
1727539840.860,-13.184,-5.371,-2.930,6.836,0.000
1727539840.864,-104.492,-6.348,-7.812,-88.867,0.000
1727539840.867,-85.938,-3.906,-5.859,-82.520,0.000
1727539840.871,37.598,-7.324,-5.371,40.527,0.000
1727539840.875,63.477,-4.883,-3.906,63.965,0.000
1727539840.879,7.324,-1.953,-6.348,9.766,0.000
1727539840.883,-103.027,-6.348,-17.090,-89.844,0.000
1727539840.887,-105.957,-6.836,-18.066,-102.051,0.000
1727539840.891,20.996,-10.742,-17.090,12.695,0.000
1727539840.895,54.199,-15.625,-18.066,42.969,0.000
1727539840.899,3.906,-19.043,-19.531,3.906,0.000
1727539840.903,-104.492,-20.508,-15.625,-86.426,0.000
1727539840.906,-122.559,-13.672,-9.766,-115.234,0.000
1727539840.910,7.324,-10.742,-7.324,-0.977,0.000
1727539840.914,57.617,-12.207,-7.812,42.969,0.000
1727539840.918,25.391,-9.766,-13.184,14.160,0.000
1727539840.922,-71.777,-2.930,-17.090,-70.312,0.000
1727539840.926,-116.699,-3.906,-16.602,-114.258,0.000
1727539840.930,-0.977,-7.812,-15.625,-3.418,0.000
1727539840.934,58.105,-5.859,-15.137,43.945,0.000
1727539840.938,25.391,-3.906,-10.254,16.113,0.000
1727539840.942,-76.172,-11.230,-7.812,-51.758,0.000
1727539840.946,-133.789,-10.254,-9.766,-104.980,0.000
1727539840.949,-9.277,0.000,-13.184,-7.324,0.000
1727539840.953,68.359,-0.977,-12.695,58.594,0.000
1727539840.957,36.133,-5.371,-6.836,36.133,0.000
1727539840.961,-52.734,-5.859,-7.324,-29.785,0.000
1727539840.965,-127.441,-9.277,-14.160,-104.980,0.000
1727539840.969,-33.691,-9.277,-9.766,-30.762,0.000
1727539840.973,56.641,-4.883,-3.906,57.617,0.000
1727539840.977,40.039,-6.836,-8.301,32.715,0.000
1727539840.981,-43.945,-10.254,-12.207,-39.551,0.000
1727539840.985,-139.648,-8.789,-10.742,-117.188,0.000
1727539840.989,-66.406,-8.789,1.465,-46.875,0.000
1727539840.992,38.086,-9.277,7.812,50.293,0.000
1727539840.996,39.062,-7.324,9.766,45.410,0.000
1727539841.000,-32.715,-9.766,11.719,-21.973,0.000
1727539841.004,-131.348,-8.301,13.672,-118.164,0.000
1727539841.008,-71.777,-8.301,19.043,-67.871,0.000
1727539841.012,33.691,-9.277,19.043,23.926,0.000
1727539841.016,28.809,-11.230,19.531,28.320,0.000
1727539841.020,-36.133,-15.625,20.020,-18.066,0.000
1727539841.024,-141.602,-17.578,21.484,-116.699,0.000
1727539841.028,-108.887,-20.996,25.391,-91.309,0.000
1727539841.032,17.578,-22.461,24.414,18.066,0.000
1727539841.035,32.715,-16.113,17.090,29.297,0.000
1727539841.039,-33.203,-16.113,14.648,-14.648,0.000
1727539841.043,-142.578,-19.531,13.184,-100.586,0.000
1727539841.047,-114.746,-15.625,17.090,-84.473,0.000
1727539841.051,19.531,-10.254,22.461,31.738,0.000
1727539841.055,41.504,-10.254,18.555,46.387,0.000
1727539841.059,-2.930,-15.137,17.578,-4.883,0.000
1727539841.063,-116.699,-14.160,11.230,-102.539,0.000
1727539841.067,-116.699,-15.137,10.742,-100.098,0.000
1727539841.071,20.996,-14.160,14.648,12.695,0.000
1727539841.074,50.293,-5.371,20.508,44.434,0.000
1727539841.078,4.395,-6.348,24.414,4.883,0.000
1727539841.082,-98.633,-13.672,20.020,-93.750,0.000
1727539841.086,-125.488,-15.137,23.438,-115.234,0.000
1727539841.090,8.789,-11.230,17.578,-0.488,0.000
1727539841.094,57.617,-6.348,10.742,41.016,0.000
1727539841.098,-11.230,-15.137,11.230,-18.066,0.000
1727539841.102,-111.816,-19.043,7.324,-105.469,0.000
1727539841.106,-135.254,-15.625,10.254,-132.324,0.000
1727539841.110,-13.672,-19.043,20.996,-29.297,0.000
1727539841.114,56.641,-18.555,12.207,36.621,0.000
1727539841.117,28.809,-15.137,-14.648,15.137,0.000
1727539841.121,-77.148,-20.996,4.395,-75.195,0.000
1727539841.125,-148.438,-38.086,20.508,-155.762,0.000
1727539841.129,-50.293,-39.551,5.371,-68.359,0.000
1727539841.133,15.137,-30.762,18.066,-1.465,0.000
1727539841.137,-9.277,-23.438,27.344,-23.438,0.000
1727539841.141,-120.117,-24.414,5.859,-107.910,0.000
1727539841.145,-180.664,-26.367,-9.277,-166.016,0.000
1727539841.149,-61.523,-35.645,16.113,-81.543,0.000
1727539841.153,27.344,-31.738,2.441,8.789,0.000
1727539841.156,13.184,-19.043,-13.184,11.719,0.000
1727539841.160,-122.070,-60.059,13.672,-122.070,0.000
1727539841.164,-211.426,-64.941,8.301,-211.914,0.000
1727539841.168,-57.129,-24.414,-13.672,-55.176,0.000
1727539841.172,-34.180,-64.941,33.203,-56.641,0.000
1727539841.176,-89.844,-78.613,66.406,-122.070,0.000
1727539841.180,-102.539,-50.293,-25.879,-105.469,0.000
1727539841.184,-227.051,-78.613,-59.082,-232.422,0.000
1727539841.188,-189.453,-84.473,-5.371,-206.543,0.000
1727539841.192,-35.645,-76.172,-13.672,-48.340,0.000
1727539841.196,-44.434,-111.328,-44.922,-56.152,0.000
1727539841.199,-121.094,-84.961,4.883,-132.812,0.000
1727539841.203,-153.320,-40.039,32.715,-164.062,0.000
1727539841.207,-81.543,-51.270,-31.738,-114.258,0.000
1727539841.211,-41.504,-108.887,-59.570,-106.934,0.000
1727539841.215,-69.336,-145.020,-90.332,-143.555,0.000
1727539841.219,-66.895,-99.609,-60.059,-119.141,0.000
1727539841.223,-176.758,-101.074,-39.062,-223.633,0.000
1727539841.227,-184.570,-140.625,-152.832,-231.934,0.000
1727539841.231,-93.262,-207.031,-280.762,-141.113,0.000
1727539841.235,-52.246,-170.410,-260.742,-104.004,0.000
1727539841.239,-59.570,-99.121,-297.363,-93.262,0.000
1727539841.242,-157.715,-122.559,-563.477,-172.363,0.000
1727539841.246,-172.852,-161.133,-904.297,-172.852,0.000
1727539841.250,-67.871,-172.852,-1000.000,-66.406,0.000
1727539841.254,-58.105,-191.406,-990.234,-56.152,0.000
1727539841.258,-56.152,-195.801,-1000.000,-65.918,0.000
1727539841.262,-156.250,-212.402,-1000.000,-177.246,0.000
1727539841.266,-247.559,-254.883,-1000.000,-267.578,0.000
1727539841.270,-117.676,-246.582,-1000.000,-135.742,0.000
1727539841.274,-73.730,-232.910,-1000.000,-80.566,0.000
1727539841.278,-104.980,-206.055,-1000.000,-87.891,0.000
1727539841.282,-156.738,-184.570,-1000.000,-148.438,0.000
1727539841.285,-118.164,-144.043,-1000.000,-133.301,0.000
1727539841.289,-6.348,-145.508,-1000.000,-26.855,0.000
1727539841.293,-16.113,-195.312,-1000.000,-28.320,0.000
1727539841.297,-44.922,-212.402,-1000.000,-52.734,0.000
1727539841.301,-121.094,-190.918,-1000.000,-103.516,0.000
1727539841.305,-208.984,-201.660,-1000.000,-166.992,0.000
1727539841.309,-108.887,-213.379,-1000.000,-57.129,0.000
1727539841.313,-48.340,-230.469,-1000.000,-10.254,0.000
1727539841.317,-102.051,-245.117,-1000.000,-91.309,0.000
1727539841.321,-189.941,-235.840,-1000.000,-182.617,0.000
1727539841.324,-257.812,-236.816,-1000.000,-250.000,0.000
1727539841.328,-141.113,-227.539,-1000.000,-119.141,0.000
1727539841.332,-13.672,-203.613,-1000.000,40.527,0.000
1727539841.336,-67.383,-232.422,-1000.000,-3.418,0.000
1727539841.340,-178.223,-258.301,-1000.000,-125.977,0.000
1727539841.344,-287.109,-270.020,-1000.000,-246.582,0.000
1727539841.348,-202.637,-273.438,-1000.000,-169.434,0.000
1727539841.352,-94.238,-318.359,-1000.000,-53.711,0.000
1727539841.356,-141.602,-376.465,-1000.000,-99.609,0.000
1727539841.360,-194.336,-328.125,-1000.000,-140.137,0.000
1727539841.364,-281.738,-302.734,-997.070,-220.703,0.000
1727539841.367,-211.426,-345.215,-1000.000,-186.035,0.000
1727539841.371,-115.723,-378.418,-965.820,-108.887,0.000
1727539841.375,-137.207,-370.117,-794.434,-82.520,0.000
1727539841.379,-215.332,-349.121,-581.543,-135.742,0.000
1727539841.383,-286.133,-339.355,-462.402,-225.098,0.000
1727539841.387,-249.023,-344.238,-332.520,-182.617,0.000
1727539841.391,-151.367,-357.422,-202.148,-81.055,0.000
1727539841.395,-110.840,-358.398,-122.070,-31.738,0.000
1727539841.399,-163.574,-336.426,-19.531,-82.031,0.000
1727539841.403,-319.336,-342.773,87.402,-273.438,0.000
1727539841.407,-273.926,-313.477,113.281,-248.047,0.000
1727539841.410,-83.496,-252.441,165.039,-48.340,0.000
1727539841.414,-93.750,-258.789,263.184,-46.387,0.000
1727539841.418,-154.297,-251.465,282.227,-114.746,0.000
1727539841.422,-243.164,-228.516,313.477,-192.383,0.000
1727539841.426,-233.398,-229.492,365.723,-189.941,0.000
1727539841.430,-96.680,-220.703,401.855,-48.340,0.000
1727539841.434,-52.734,-208.008,431.152,-19.043,0.000
1727539841.438,-102.539,-195.312,479.492,-92.773,0.000
1727539841.442,-250.488,-187.988,542.969,-206.543,0.000
1727539841.446,-256.836,-169.434,568.359,-205.078,0.000
1727539841.449,-82.520,-139.648,578.125,-22.949,0.000
1727539841.453,-15.625,-115.234,640.137,57.617,0.000
1727539841.457,-49.316,-104.004,674.805,31.250,0.000
1727539841.461,-149.902,-90.820,678.711,-83.984,0.000
1727539841.465,-174.316,-80.566,689.453,-144.043,0.000
1727539841.469,-41.992,-69.824,712.891,-4.395,0.000
1727539841.473,10.742,-43.945,759.766,69.824,0.000
1727539841.477,-14.648,-24.902,795.410,25.879,0.000
1727539841.481,-108.398,-22.461,842.285,-90.820,0.000
1727539841.485,-145.508,-16.602,862.793,-137.695,0.000
1727539841.489,-15.625,-10.254,898.438,1.465,0.000
1727539841.492,45.898,-10.742,943.848,80.566,0.000
1727539841.496,9.766,-10.254,961.426,56.641,0.000
1727539841.500,-88.867,-12.207,968.262,-31.250,0.000
1727539841.504,-150.879,-17.090,967.773,-105.469,0.000
1727539841.508,-26.367,-16.602,966.797,3.906,0.000
1727539841.512,67.871,-7.812,969.727,95.215,0.000
1727539841.516,43.945,-6.836,963.379,77.148,0.000
1727539841.520,-64.941,-17.090,936.035,-12.207,0.000
1727539841.524,-151.367,-20.020,950.684,-122.070,0.000
1727539841.528,-39.551,-14.160,971.680,-18.066,0.000
1727539841.532,55.176,-13.184,966.797,87.891,0.000
1727539841.535,32.715,-8.789,968.262,62.988,0.000
1727539841.539,-49.316,-6.836,968.262,-18.066,0.000
1727539841.543,-142.090,-4.883,968.262,-111.328,0.000
1727539841.547,-56.641,-1.465,968.262,-34.180,0.000
1727539841.551,60.547,2.441,968.262,67.383,0.000
1727539841.555,50.293,2.930,968.262,61.523,0.000
1727539841.559,-37.109,35.156,967.773,-2.930,0.000
1727539841.563,-141.602,60.547,968.262,-95.703,0.000
1727539841.567,-83.496,61.035,968.262,-51.270,0.000
1727539841.571,22.461,51.758,968.262,40.527,0.000
1727539841.574,22.461,37.598,968.262,41.016,0.000
1727539841.578,-37.109,41.016,968.262,-16.113,0.000
1727539841.582,-145.020,40.039,968.262,-113.770,0.000
1727539841.586,-102.539,39.062,968.262,-87.402,0.000
1727539841.590,35.156,60.547,968.262,36.133,0.000
1727539841.594,35.645,55.664,968.262,39.062,0.000
1727539841.598,-26.367,43.457,968.262,-31.250,0.000
1727539841.602,-124.512,39.062,968.262,-117.676,0.000
1727539841.606,-104.004,28.809,968.262,-113.281,0.000
1727539841.610,21.973,31.250,968.262,0.977,0.000
1727539841.614,33.203,41.504,968.262,38.086,0.000
1727539841.617,-19.043,45.410,968.262,-7.812,0.000
1727539841.621,-111.328,47.363,968.262,-94.727,0.000
1727539841.625,-102.051,51.270,968.262,-102.539,0.000
1727539841.629,22.461,41.992,968.262,-1.465,0.000
1727539841.633,42.480,28.809,968.262,20.996,0.000
1727539841.637,-8.301,27.344,968.262,-26.855,0.000
1727539841.641,-102.051,29.297,968.262,-116.211,0.000
1727539841.645,-123.535,24.414,968.262,-150.879,0.000
1727539841.649,9.277,20.508,968.262,-27.832,0.000
1727539841.653,51.758,23.926,968.262,24.902,0.000
1727539841.657,-8.301,21.973,967.773,-16.113,0.000
1727539841.660,-104.980,31.250,967.773,-98.145,0.000
1727539841.664,-135.742,42.480,968.262,-143.555,0.000
1727539841.668,-7.324,39.062,968.262,-26.855,0.000
1727539841.672,53.711,33.203,968.262,30.273,0.000
1727539841.676,10.742,29.297,968.262,-9.277,0.000
1727539841.680,-85.938,27.344,968.262,-94.727,0.000
1727539841.684,-154.297,22.949,967.773,-153.809,0.000
1727539841.688,-40.039,24.414,968.262,-50.293,0.000
1727539841.692,46.875,27.832,968.262,22.461,0.000
1727539841.696,14.160,27.832,968.750,-3.418,0.000
1727539841.699,-73.242,26.367,966.309,-80.566,0.000
1727539841.703,-133.789,31.738,969.238,-144.531,0.000
1727539841.707,-30.273,32.715,966.797,-62.012,0.000
1727539841.711,43.457,27.344,907.227,12.695,0.000
1727539841.715,22.949,30.762,885.742,2.441,0.000
1727539841.719,-51.270,27.832,907.715,-67.871,0.000
1727539841.723,-142.090,24.902,885.254,-145.996,0.000
1727539841.727,-58.105,24.902,843.262,-65.918,0.000
1727539841.731,44.434,20.020,812.988,18.066,0.000
1727539841.735,28.320,10.254,815.430,-5.371,0.000
1727539841.739,-44.922,20.508,820.312,-61.035,0.000
1727539841.742,-135.254,97.656,790.039,-153.809,0.000
1727539841.746,-65.430,136.230,769.043,-93.750,0.000
1727539841.750,44.434,125.977,757.324,15.137,0.000
1727539841.754,39.062,122.559,763.184,2.930,0.000
1727539841.758,-26.367,117.188,794.922,-47.852,0.000
1727539841.762,-119.141,116.211,794.922,-143.555,0.000
1727539841.766,-66.895,112.305,771.484,-111.328,0.000
1727539841.770,53.223,111.328,718.262,19.043,0.000
1727539841.774,70.801,113.770,684.570,42.969,0.000
1727539841.778,4.883,98.145,723.145,-20.508,0.000
1727539841.782,-123.535,81.543,743.164,-125.488,0.000
1727539841.785,-104.492,85.449,725.586,-112.305,0.000
1727539841.789,26.367,86.426,699.707,5.859,0.000
1727539841.793,52.246,81.543,687.500,28.809,0.000
1727539841.797,2.930,85.449,662.109,-17.578,0.000
1727539841.801,-116.699,75.195,640.625,-121.094,0.000
1727539841.805,-119.629,75.195,600.098,-116.211,0.000
1727539841.809,33.203,99.121,547.852,19.043,0.000
1727539841.813,72.266,100.586,556.152,52.246,0.000
1727539841.817,20.020,92.773,583.008,5.859,0.000
1727539841.821,-87.891,91.309,569.336,-94.727,0.000
1727539841.824,-121.094,88.379,530.762,-138.184,0.000
1727539841.828,-7.812,79.102,500.488,-26.367,0.000
1727539841.832,25.879,73.242,476.562,20.020,0.000
1727539841.836,-12.207,76.172,460.449,-24.414,0.000
1727539841.840,-111.328,74.707,441.895,-111.816,0.000
1727539841.844,-154.785,74.219,420.410,-145.996,0.000
1727539841.848,-23.926,73.730,383.301,-20.996,0.000
1727539841.852,46.387,79.590,375.488,36.133,0.000
1727539841.856,5.859,70.312,395.996,3.418,0.000
1727539841.860,-86.914,55.176,384.766,-68.848,0.000
1727539841.864,-125.977,54.199,346.191,-123.047,0.000
1727539841.867,-13.672,55.176,319.336,-25.391,0.000
1727539841.871,48.828,59.082,312.500,41.992,0.000
1727539841.875,20.020,59.082,316.895,22.949,0.000
1727539841.879,-73.730,56.641,311.035,-68.359,0.000
1727539841.883,-150.879,57.617,303.223,-134.766,0.000
1727539841.887,-38.574,62.988,296.875,-29.785,0.000
1727539841.891,47.852,59.570,281.250,46.875,0.000
1727539841.895,23.926,53.223,269.531,26.367,0.000
1727539841.899,-55.176,54.688,257.324,-44.922,0.000
1727539841.903,-134.766,55.664,243.652,-127.441,0.000
1727539841.907,-50.781,53.223,217.773,-57.129,0.000
1727539841.910,48.828,55.176,192.383,33.691,0.000
1727539841.914,41.504,47.363,182.617,27.344,0.000
1727539841.918,-29.785,44.434,192.383,-20.996,0.000
1727539841.922,-120.117,56.641,219.238,-101.562,0.000
1727539841.926,-48.340,54.199,212.402,-47.363,0.000
1727539841.930,52.246,38.574,175.293,45.410,0.000
1727539841.934,30.273,37.598,182.617,33.203,0.000
1727539841.938,-28.320,61.035,195.801,-6.836,0.000
1727539841.942,-126.465,79.590,181.152,-106.445,0.000
1727539841.946,-83.984,79.590,171.387,-67.383,0.000
1727539841.949,36.133,82.520,164.551,54.688,0.000
1727539841.953,31.250,82.520,142.090,51.270,0.000
1727539841.957,-21.484,81.055,137.207,8.301,0.000
1727539841.961,-108.398,78.125,127.441,-71.777,0.000
1727539841.965,-80.566,74.219,105.957,-62.988,0.000
1727539841.969,57.129,68.848,111.816,55.176,0.000
1727539841.973,87.402,59.082,125.488,81.543,0.000
1727539841.977,16.602,55.176,114.746,13.672,0.000
1727539841.981,-99.121,56.641,109.375,-96.680,0.000
1727539841.985,-95.703,66.406,113.281,-82.031,0.000
1727539841.989,42.969,74.707,107.422,36.621,0.000
1727539841.992,73.242,67.871,104.004,54.688,0.000
1727539841.996,24.902,68.359,106.934,24.902,0.000
1727539842.000,-75.684,66.895,96.680,-66.895,0.000
1727539842.004,-85.938,60.547,78.125,-91.797,0.000
1727539842.008,46.387,62.988,58.594,22.461,0.000
1727539842.012,88.867,53.711,59.082,56.641,0.000
1727539842.016,40.527,44.922,73.242,11.719,0.000
1727539842.020,-75.195,43.945,85.449,-82.031,0.000
1727539842.024,-114.746,36.133,84.473,-117.188,0.000
1727539842.028,15.625,29.785,73.242,0.000,0.000
1727539842.032,59.082,31.250,66.895,38.086,0.000
1727539842.035,16.602,36.621,57.129,1.953,0.000
1727539842.039,-67.871,32.227,50.781,-65.430,0.000
1727539842.043,-131.836,25.879,50.293,-113.770,0.000
1727539842.047,-20.508,31.738,15.137,-11.230,0.000
1727539842.051,57.129,26.367,-5.859,65.430,0.000
1727539842.055,27.832,19.043,26.367,34.668,0.000
1727539842.059,-62.012,23.926,47.363,-61.523,0.000
1727539842.063,-131.836,20.508,37.598,-124.023,0.000
1727539842.067,-14.160,17.578,35.645,-30.273,0.000
1727539842.071,70.801,17.090,46.387,45.410,0.000
1727539842.074,41.504,16.113,48.828,24.902,0.000
1727539842.078,-49.316,14.160,34.668,-49.805,0.000
1727539842.082,-128.906,11.719,24.902,-131.348,0.000
1727539842.086,-27.832,18.555,25.391,-44.434,0.000
1727539842.090,61.523,20.020,19.043,50.781,0.000
1727539842.094,45.410,17.090,5.371,33.203,0.000
1727539842.098,-33.203,14.648,16.602,-38.086,0.000
1727539842.102,-136.719,9.277,34.180,-122.070,0.000
1727539842.106,-54.199,12.207,27.344,-49.316,0.000
1727539842.110,67.871,19.531,19.043,49.805,0.000
1727539842.114,53.223,17.578,28.320,42.480,0.000
1727539842.117,-19.043,20.020,24.414,-7.812,0.000
1727539842.121,-101.562,28.809,19.531,-89.844,0.000
1727539842.125,-46.387,32.227,15.137,-53.711,0.000
1727539842.129,64.453,35.156,-3.906,44.922,0.000
1727539842.133,67.383,33.691,14.160,62.500,0.000
1727539842.137,0.488,21.484,37.598,-0.977,0.000
1727539842.141,-125.000,9.766,36.133,-114.258,0.000
1727539842.145,-94.727,11.230,34.668,-90.332,0.000
1727539842.149,36.133,7.812,25.879,22.461,0.000
1727539842.153,44.922,-0.977,22.949,47.363,0.000
1727539842.157,2.441,0.000,18.555,4.883,0.000
1727539842.160,-104.980,4.883,9.766,-96.680,0.000
1727539842.164,-92.285,2.930,6.836,-92.285,0.000
1727539842.168,38.086,0.000,4.395,33.203,0.000
1727539842.172,49.805,0.488,1.465,57.617,0.000
1727539842.176,0.000,1.465,11.230,7.812,0.000
1727539842.180,-106.934,3.906,17.090,-84.961,0.000
1727539842.184,-120.605,1.953,4.395,-104.980,0.000
1727539842.188,21.484,0.000,4.883,17.578,0.000
1727539842.192,78.125,11.719,27.344,78.125,0.000
1727539842.196,39.551,19.531,22.461,49.316,0.000
1727539842.200,-64.941,25.391,20.020,-41.504,0.000
1727539842.203,-93.750,26.367,41.504,-74.219,0.000
1727539842.207,32.715,21.484,39.551,34.668,0.000
1727539842.211,80.078,16.602,28.320,70.801,0.000
1727539842.215,42.969,19.043,36.621,28.809,0.000
1727539842.219,-54.688,22.461,40.039,-54.688,0.000
1727539842.223,-104.980,18.066,30.762,-100.586,0.000
1727539842.227,12.695,15.625,13.184,7.812,0.000
1727539842.231,81.543,17.090,11.719,73.242,0.000
1727539842.235,49.805,21.484,37.109,45.410,0.000
1727539842.239,-47.852,21.484,37.109,-37.598,0.000
1727539842.242,-113.281,8.789,13.184,-108.887,0.000
1727539842.246,-9.277,4.883,10.742,-20.508,0.000
1727539842.250,68.359,8.301,7.324,53.223,0.000
1727539842.254,43.945,10.742,-4.395,28.320,0.000
1727539842.258,-54.199,8.301,-10.254,-41.992,0.000
1727539842.262,-136.230,5.859,-6.836,-125.000,0.000
1727539842.266,-30.762,10.254,3.418,-39.062,0.000
1727539842.270,67.383,8.789,6.348,56.641,0.000
1727539842.274,50.293,6.348,4.883,32.715,0.000
1727539842.278,-28.320,4.883,0.488,-38.574,0.000
1727539842.282,-126.465,-0.977,-7.324,-124.512,0.000
1727539842.285,-34.668,6.836,-8.789,-53.223,0.000
1727539842.289,67.383,13.184,-6.836,45.898,0.000
1727539842.293,47.363,8.789,-30.762,44.922,0.000
1727539842.297,-16.602,4.883,-47.363,-11.719,0.000
1727539842.301,-121.582,-1.465,-29.785,-111.816,0.000
1727539842.305,-64.941,-7.812,-15.137,-74.707,0.000
1727539842.309,54.688,-5.859,-2.441,26.855,0.000
1727539842.313,56.641,-2.441,-0.977,39.551,0.000
1727539842.317,0.000,0.488,-18.555,-5.859,0.000
1727539842.321,-106.445,4.883,-22.949,-95.703,0.000
1727539842.324,-82.520,-3.906,-16.113,-70.801,0.000
1727539842.328,39.062,-7.324,-30.273,30.762,0.000
1727539842.332,52.246,-5.859,-39.062,47.363,0.000
1727539842.336,-1.465,-5.859,-31.250,-1.953,0.000
1727539842.340,-100.586,-5.859,-24.902,-108.398,0.000
1727539842.344,-83.008,-6.348,-22.949,-94.727,0.000
1727539842.348,41.016,-5.859,-24.414,30.273,0.000
1727539842.352,61.035,-2.930,-25.879,46.875,0.000
1727539842.356,10.742,-4.883,-27.832,8.301,0.000
1727539842.360,-102.539,3.906,-32.715,-83.008,0.000
1727539842.364,-103.516,-5.371,-35.156,-98.633,0.000
1727539842.367,34.668,32.715,-32.715,28.320,0.000
1727539842.371,67.871,151.367,-31.738,66.895,0.000
1727539842.375,22.949,163.574,-35.645,17.090,0.000
1727539842.379,-78.613,134.766,-27.832,-76.172,0.000
1727539842.383,-108.398,127.441,-23.438,-98.145,0.000
1727539842.387,5.859,112.305,-25.879,16.113,0.000
1727539842.391,52.734,102.051,-26.367,63.965,0.000
1727539842.395,22.949,90.820,-32.227,24.414,0.000
1727539842.399,-76.172,79.102,-37.598,-64.941,0.000
1727539842.403,-109.863,71.289,-38.086,-104.980,0.000
1727539842.407,15.137,64.453,-47.363,-8.789,0.000
1727539842.410,67.871,55.664,-63.965,48.340,0.000
1727539842.414,32.715,50.781,-63.477,31.738,0.000
1727539842.418,-78.125,42.969,-60.547,-51.758,0.000
1727539842.422,-156.250,30.273,-59.570,-125.977,0.000
1727539842.426,-34.668,25.391,-45.410,-32.715,0.000
1727539842.430,42.480,25.879,-27.832,46.387,0.000
1727539842.434,20.020,17.578,-23.926,35.156,0.000
1727539842.438,-53.711,10.254,-38.086,-46.387,0.000
1727539842.442,-126.953,5.859,-52.734,-138.184,0.000
1727539842.446,-38.086,2.930,-63.477,-43.457,0.000
1727539842.449,40.527,2.441,-69.336,49.805,0.000
1727539842.453,17.090,-0.977,-68.359,24.414,0.000
1727539842.457,-65.430,-0.488,-63.477,-50.293,0.000
1727539842.461,-143.066,-2.441,-58.105,-125.488,0.000
1727539842.465,-57.617,-5.859,-58.594,-50.781,0.000
1727539842.469,49.316,-0.488,-56.152,42.969,0.000
1727539842.473,51.758,-3.418,-48.828,32.227,0.000
1727539842.477,-22.949,-10.742,-44.434,-33.691,0.000
1727539842.481,-123.535,-11.230,-61.523,-116.211,0.000
1727539842.485,-48.340,-7.812,-78.613,-60.547,0.000
1727539842.489,63.965,-5.371,-72.754,39.551,0.000
1727539842.492,56.641,-4.883,-57.129,42.480,0.000
1727539842.496,-12.207,-1.465,-56.152,-24.414,0.000
1727539842.500,-116.699,-2.930,-64.941,-124.512,0.000
1727539842.504,-68.359,-11.230,-46.875,-79.102,0.000
1727539842.508,46.387,-17.578,-33.691,33.691,0.000
1727539842.512,46.875,-19.531,-37.109,34.180,0.000
1727539842.516,-14.160,-19.043,-31.738,-10.254,0.000
1727539842.520,-131.348,-21.484,-25.879,-104.492,0.000
1727539842.524,-101.074,-21.484,-31.738,-91.797,0.000
1727539842.528,29.785,-22.949,-36.621,29.785,0.000
1727539842.532,42.480,-24.414,-39.062,51.270,0.000
1727539842.535,-1.465,-20.020,-44.922,-6.836,0.000
1727539842.539,-106.445,-19.531,-37.598,-99.121,0.000
1727539842.543,-110.352,-18.555,-28.809,-102.539,0.000
1727539842.547,20.508,-20.508,-33.203,9.766,0.000
1727539842.551,52.246,-26.855,-43.457,50.781,0.000
1727539842.555,-2.930,-25.391,-37.598,19.531,0.000
1727539842.559,-105.957,-22.949,-32.715,-87.402,0.000
1727539842.563,-114.746,-21.484,-45.410,-108.398,0.000
1727539842.567,15.625,-21.484,-54.199,11.230,0.000
1727539842.571,61.523,-20.020,-65.430,47.852,0.000
1727539842.575,19.043,-17.090,-83.984,15.625,0.000
1727539842.578,-99.121,-19.043,-73.242,-80.566,0.000
1727539842.582,-145.020,-22.461,-57.617,-126.953,0.000
1727539842.586,-4.883,-21.973,-42.480,-13.184,0.000
1727539842.590,57.129,-25.391,-30.273,44.434,0.000
1727539842.594,24.902,-27.832,-28.320,20.996,0.000
1727539842.598,-68.848,-28.320,-33.691,-55.664,0.000
1727539842.602,-134.277,-28.809,-41.016,-119.629,0.000
1727539842.606,-14.648,-25.879,-40.527,-13.672,0.000
1727539842.610,67.871,-20.508,-48.828,67.871,0.000
1727539842.614,37.598,-13.672,-53.711,40.039,0.000
1727539842.617,-56.641,-13.672,-51.270,-46.387,0.000
1727539842.621,-126.465,-14.648,-53.223,-119.629,0.000
1727539842.625,-23.926,-13.184,-50.293,-27.344,0.000
1727539842.629,55.664,-13.672,-49.805,55.176,0.000
1727539842.633,34.180,-17.090,-47.852,31.738,0.000
1727539842.637,-36.133,-16.602,-39.062,-33.203,0.000
1727539842.641,-118.164,-19.531,-43.457,-111.816,0.000
1727539842.645,-40.527,-25.391,-62.012,-37.598,0.000
1727539842.649,62.988,-19.043,-73.242,62.988,0.000
1727539842.653,46.387,-18.555,-69.824,52.246,0.000
1727539842.657,-38.086,-20.508,-66.406,-17.090,0.000
1727539842.660,-131.836,-18.066,-57.129,-101.562,0.000
1727539842.664,-45.898,-20.508,-51.270,-33.691,0.000
1727539842.668,54.199,-21.484,-48.340,61.523,0.000
1727539842.672,39.551,-22.949,-42.480,51.758,0.000
1727539842.676,-16.113,-26.855,-41.016,10.742,0.000
1727539842.680,-109.375,-31.250,-40.039,-86.426,0.000
1727539842.684,-60.059,-24.902,-51.758,-59.570,0.000
1727539842.688,55.664,-19.043,-62.012,48.828,0.000
1727539842.692,50.293,-21.973,-56.641,40.039,0.000
1727539842.696,-2.441,-22.949,-54.199,-20.020,0.000
1727539842.699,-105.957,-20.996,-52.734,-113.281,0.000
1727539842.703,-84.473,-20.508,-52.246,-91.309,0.000
1727539842.707,39.551,-25.391,-50.781,26.855,0.000
1727539842.711,58.594,-24.414,-51.270,44.922,0.000
1727539842.715,9.766,-26.855,-52.734,6.836,0.000
1727539842.719,-100.586,-30.762,-52.246,-90.332,0.000
1727539842.723,-104.492,-34.180,-57.617,-100.586,0.000
1727539842.727,31.250,-33.691,-57.617,27.344,0.000
1727539842.731,70.312,-27.832,-51.758,63.477,0.000
1727539842.735,20.996,-26.855,-43.457,22.461,0.000
1727539842.739,-86.426,-27.832,-46.875,-71.289,0.000
1727539842.742,-97.656,-24.902,-59.082,-87.402,0.000
1727539842.746,39.551,-27.344,-62.012,42.480,0.000
1727539842.750,76.172,-26.855,-58.594,86.426,0.000
1727539842.754,22.949,-18.555,-52.734,40.527,0.000
1727539842.758,-78.613,-20.508,-43.457,-51.758,0.000
1727539842.762,-116.211,-25.391,-42.969,-93.750,0.000
1727539842.766,16.602,-21.484,-43.457,17.090,0.000
1727539842.770,88.379,-17.090,-42.480,74.707,0.000
1727539842.774,48.340,-18.066,-48.340,41.016,0.000
1727539842.778,-57.617,-21.484,-62.500,-46.387,0.000
1727539842.782,-107.910,-20.020,-65.918,-90.332,0.000
1727539842.785,18.066,-23.438,-57.617,19.531,0.000
1727539842.789,89.844,-26.855,-55.176,87.891,0.000
1727539842.793,56.152,-26.855,-58.594,68.359,0.000
1727539842.797,-35.156,-22.461,-67.871,-17.090,0.000
1727539842.801,-98.633,-20.020,-78.125,-92.285,0.000
1727539842.805,12.695,-22.461,-67.383,-6.348,0.000
1727539842.809,92.285,-21.973,-46.387,76.660,0.000
1727539842.813,62.500,-24.414,-44.434,58.105,0.000
1727539842.817,-22.461,-26.855,-46.875,-18.066,0.000
1727539842.821,-97.168,-24.902,-45.410,-86.914,0.000
1727539842.825,-4.883,-24.414,-45.898,-1.465,0.000
1727539842.828,78.613,-29.297,-49.316,80.566,0.000
1727539842.832,59.082,-34.180,-50.781,64.453,0.000
1727539842.836,-14.160,-38.086,-50.781,5.371,0.000
1727539842.840,-101.562,-38.574,-62.012,-88.379,0.000
1727539842.844,-22.949,-33.203,-74.219,-41.992,0.000
1727539842.848,72.754,-31.738,-76.660,54.199,0.000
1727539842.852,59.570,-30.762,-85.449,54.199,0.000
1727539842.856,-5.371,-26.855,-85.938,-0.488,0.000
1727539842.860,-98.145,-29.785,-74.707,-90.332,0.000
1727539842.864,-44.922,-30.273,-60.059,-50.781,0.000
1727539842.867,71.777,-24.414,-51.270,63.965,0.000
1727539842.871,78.125,-31.738,-53.711,76.660,0.000
1727539842.875,12.207,-33.691,-49.316,4.395,0.000
1727539842.879,-98.633,-30.273,-59.570,-96.680,0.000
1727539842.883,-67.383,-35.156,-78.125,-54.688,0.000
1727539842.887,64.453,-39.062,-84.473,54.688,0.000
1727539842.891,78.125,-40.039,-74.219,57.617,0.000
1727539842.895,28.320,-39.551,-57.129,11.719,0.000
1727539842.899,-71.289,-31.738,-53.223,-82.520,0.000
1727539842.903,-60.547,-28.809,-49.316,-77.148,0.000
1727539842.907,61.035,-35.156,-50.781,41.992,0.000
1727539842.910,98.633,-31.738,-66.895,81.543,0.000
1727539842.914,49.805,-27.832,-73.242,47.852,0.000
1727539842.918,-76.172,-34.180,-69.336,-53.711,0.000
1727539842.922,-87.891,-34.668,-69.824,-74.219,0.000
1727539842.926,42.969,-33.691,-64.453,32.715,0.000
1727539842.930,84.961,-33.203,-58.594,73.242,0.000
1727539842.934,41.504,-30.273,-72.754,32.227,0.000
1727539842.938,-61.035,-28.320,-81.055,-51.758,0.000
1727539842.942,-89.844,-29.785,-58.594,-91.797,0.000
1727539842.946,42.969,-31.738,-44.922,17.578,0.000
1727539842.950,96.680,-28.320,-59.570,71.289,0.000
1727539842.953,56.641,-24.902,-68.848,36.621,0.000
1727539842.957,-29.785,-27.344,-56.641,-36.133,0.000
1727539842.961,-85.938,-31.738,-50.293,-83.984,0.000
1727539842.965,24.414,-28.809,-56.152,18.066,0.000
1727539842.969,90.332,-27.344,-53.711,81.055,0.000
1727539842.973,56.641,-30.762,-54.199,55.176,0.000
1727539842.977,-37.598,-37.109,-63.477,-29.785,0.000
1727539842.981,-99.121,-38.574,-73.242,-105.957,0.000
1727539842.985,19.043,-31.250,-68.359,0.488,0.000
1727539842.989,96.191,-26.855,-62.988,75.195,0.000
1727539842.992,67.383,-30.273,-55.664,43.945,0.000
1727539842.996,-10.254,-27.344,-45.898,-26.855,0.000
1727539843.000,-95.703,-31.738,-51.758,-110.840,0.000
1727539843.004,3.906,-36.133,-56.152,-25.391,0.000
1727539843.008,95.703,-36.133,-49.316,66.406,0.000
1727539843.012,64.941,-40.039,-49.316,47.363,0.000
1727539843.016,-4.395,-39.551,-51.270,-9.277,0.000
1727539843.020,-100.098,-38.086,-51.270,-89.844,0.000
1727539843.024,-22.461,-34.668,-60.059,-32.715,0.000
1727539843.028,93.750,-27.832,-79.102,66.895,0.000
1727539843.032,78.613,-25.391,-72.266,54.688,0.000
1727539843.035,1.953,-35.645,-42.969,0.000,0.000
1727539843.039,-90.332,-38.086,-40.527,-81.055,0.000
1727539843.043,-30.762,-29.785,-45.410,-38.574,0.000
1727539843.047,73.730,-24.414,-33.691,70.801,0.000
1727539843.051,70.801,-24.902,-34.668,73.242,0.000
1727539843.055,12.207,-31.738,-47.363,7.324,0.000
1727539843.059,-89.844,-34.180,-48.828,-88.867,0.000
1727539843.063,-54.199,-31.738,-52.734,-52.734,0.000
1727539843.067,59.082,-31.738,-61.035,66.895,0.000
1727539843.071,76.172,-33.203,-57.617,84.961,0.000
1727539843.074,22.949,-32.227,-54.688,37.598,0.000
1727539843.078,-85.938,-29.297,-53.711,-59.082,0.000
1727539843.082,-63.965,-28.320,-56.152,-46.387,0.000
1727539843.086,66.895,-27.832,-61.523,75.195,0.000
1727539843.090,97.168,-22.461,-57.129,99.609,0.000
1727539843.094,41.504,-18.555,-42.480,53.711,0.000
1727539843.098,-69.824,-21.973,-40.039,-39.062,0.000
1727539843.102,-73.730,-26.855,-43.945,-51.270,0.000
1727539843.106,62.500,-26.367,-48.828,71.289,0.000
1727539843.110,110.352,-26.855,-52.246,113.770,0.000
1727539843.114,59.570,-25.879,-52.246,66.406,0.000
1727539843.117,-62.500,-28.320,-48.828,-42.480,0.000
1727539843.121,-90.332,-31.738,-43.945,-66.895,0.000
1727539843.125,53.711,-27.832,-43.457,58.105,0.000
1727539843.129,110.352,-24.414,-52.246,102.051,0.000
1727539843.133,61.523,-23.926,-65.918,65.918,0.000
1727539843.137,-38.086,-23.438,-67.871,-22.949,0.000
1727539843.141,-84.961,-24.902,-58.594,-73.242,0.000
1727539843.145,36.621,-25.391,-51.758,27.344,0.000
1727539843.149,101.562,-22.949,-26.855,97.168,0.000
1727539843.153,60.547,-23.438,-13.672,64.941,0.000
1727539843.157,-29.297,-24.902,-11.230,-14.648,0.000
1727539843.160,-85.449,-21.973,-11.230,-70.312,0.000
1727539843.164,34.180,-21.484,-25.879,25.391,0.000
1727539843.168,109.375,-23.438,-31.250,108.887,0.000
1727539843.172,73.242,-19.043,-28.809,74.219,0.000
1727539843.176,-12.207,-20.508,-25.879,-13.672,0.000
1727539843.180,-80.078,-24.414,-30.762,-77.637,0.000
1727539843.184,26.367,-20.996,-44.434,10.742,0.000
1727539843.188,112.305,-21.484,-38.086,90.820,0.000
1727539843.192,90.332,-23.438,-17.578,73.730,0.000
1727539843.196,11.719,-20.508,-16.113,3.906,0.000
1727539843.200,-83.984,-21.973,-13.672,-71.777,0.000
1727539843.203,-0.488,-26.367,-2.441,-0.977,0.000
1727539843.207,100.586,-25.879,-7.812,79.102,0.000
1727539843.211,83.008,-24.414,-19.043,68.359,0.000
1727539843.215,11.230,-24.414,-15.625,15.137,0.000
1727539843.219,-82.520,-24.414,-11.230,-74.707,0.000
1727539843.223,-15.625,-18.555,-17.090,-27.344,0.000
1727539843.227,95.215,-14.160,-20.508,71.777,0.000
1727539843.231,88.867,-21.973,-18.555,59.570,0.000
1727539843.235,21.484,-28.809,-27.344,1.465,0.000
1727539843.239,-76.172,-26.367,-35.645,-87.402,0.000
1727539843.242,-20.996,-14.160,-27.344,-47.852,0.000
1727539843.246,99.609,-9.766,-16.113,62.988,0.000
1727539843.250,104.492,-16.113,-22.461,72.754,0.000
1727539843.254,46.875,-16.113,-31.738,20.996,0.000
1727539843.258,-64.941,-11.719,-27.344,-60.059,0.000
1727539843.262,-46.875,-11.719,-34.180,-42.480,0.000
1727539843.266,73.730,-13.184,-42.480,65.918,0.000
1727539843.270,97.168,-10.742,-40.527,94.727,0.000
1727539843.274,53.711,-10.742,-46.875,48.828,0.000
1727539843.278,-55.664,-9.766,-48.340,-46.387,0.000
1727539843.282,-55.664,-5.859,-32.715,-59.082,0.000
1727539843.285,61.523,-7.812,-17.090,57.617,0.000
1727539843.289,89.355,-8.301,-24.414,91.797,0.000
1727539843.293,40.527,-8.789,-32.715,41.504,0.000
1727539843.297,-58.105,-11.719,-23.926,-43.457,0.000
1727539843.301,-62.500,-9.766,-26.855,-47.852,0.000
1727539843.305,67.383,-6.836,-44.922,72.754,0.000
1727539843.309,106.445,-8.301,-44.922,95.703,0.000
1727539843.313,60.547,-7.812,-31.250,48.828,0.000
1727539843.317,-41.992,-10.254,-24.902,-34.668,0.000
1727539843.321,-91.309,-12.207,-24.414,-75.195,0.000
1727539843.325,30.273,-7.324,-34.180,26.855,0.000
1727539843.328,93.750,-6.348,-46.387,84.473,0.000
1727539843.332,53.711,-9.766,-49.805,53.711,0.000
1727539843.336,-38.574,-12.695,-44.434,-31.250,0.000
1727539843.340,-100.098,-12.695,-38.574,-83.496,0.000
1727539843.344,8.789,-13.672,-32.715,14.160,0.000
1727539843.348,83.496,-16.602,-26.855,84.473,0.000
1727539843.352,60.059,-15.625,-18.555,57.129,0.000
1727539843.356,-26.855,-13.184,-16.113,-30.762,0.000
1727539843.360,-106.934,-10.742,-20.996,-100.098,0.000
1727539843.364,-2.930,-5.859,-21.973,-7.324,0.000
1727539843.367,86.426,-6.836,-22.949,66.406,0.000
1727539843.371,65.430,-4.883,-22.949,47.852,0.000
1727539843.375,-15.137,-1.465,-22.949,-15.625,0.000
1727539843.379,-100.586,-3.906,-32.227,-94.238,0.000
1727539843.383,-18.555,-5.371,-41.016,-24.414,0.000
1727539843.387,77.148,-3.906,-39.551,66.895,0.000
1727539843.391,76.172,4.883,-33.691,60.059,0.000
1727539843.395,5.371,4.883,-44.434,6.348,0.000
1727539843.399,-98.633,-1.953,-47.852,-87.891,0.000
1727539843.403,-25.391,3.906,-33.203,-33.691,0.000
1727539843.407,87.402,6.836,-22.461,70.312,0.000
1727539843.410,84.473,3.418,-14.160,66.406,0.000
1727539843.414,6.836,-3.418,-8.301,8.301,0.000
1727539843.418,-103.516,-10.254,-15.625,-85.449,0.000
1727539843.422,-51.270,-8.301,-30.273,-44.922,0.000
1727539843.426,76.660,-5.859,-26.855,74.707,0.000
1727539843.430,85.938,-4.883,-16.602,78.125,0.000
1727539843.434,26.367,-2.441,-13.672,24.414,0.000
1727539843.438,-78.613,-9.277,-18.066,-63.477,0.000
1727539843.442,-56.641,-11.230,-27.832,-53.223,0.000
1727539843.446,75.195,-4.883,-23.926,51.270,0.000
1727539843.450,89.844,1.465,-19.043,74.707,0.000
1727539843.453,23.438,3.418,-18.066,34.180,0.000
1727539843.457,-86.426,-3.906,-16.602,-73.730,0.000
1727539843.461,-76.660,-7.812,-19.531,-82.031,0.000
1727539843.465,50.781,-5.371,-15.137,39.551,0.000
1727539843.469,69.824,-7.324,-15.137,72.266,0.000
1727539843.473,22.461,-2.441,-16.113,27.344,0.000
1727539843.477,-76.172,4.395,-24.902,-75.195,0.000
1727539843.481,-89.844,-4.395,-38.574,-96.191,0.000
1727539843.485,32.227,-6.836,-36.621,18.555,0.000
1727539843.489,75.195,-3.418,-24.902,67.383,0.000
1727539843.492,33.203,-3.418,-22.949,33.203,0.000
1727539843.496,-73.242,-4.883,-29.297,-71.777,0.000
1727539843.500,-108.887,-9.277,-21.484,-111.328,0.000
1727539843.504,16.602,-4.883,-17.090,13.672,0.000
1727539843.508,71.289,-0.977,-19.043,74.707,0.000
1727539843.512,34.180,-0.977,-17.578,46.875,0.000
1727539843.516,-59.570,2.441,-18.555,-38.086,0.000
1727539843.520,-116.699,-2.441,-24.902,-98.633,0.000
1727539843.524,-7.812,-6.836,-28.320,0.000,0.000
1727539843.528,62.500,-1.953,-36.133,61.035,0.000
1727539843.532,42.480,-3.906,-48.340,33.203,0.000
1727539843.535,-38.574,-6.348,-45.898,-40.527,0.000
1727539843.539,-108.887,-2.441,-49.316,-100.586,0.000
1727539843.543,-3.906,-5.859,-47.363,-11.719,0.000
1727539843.547,78.613,-8.789,-27.344,59.082,0.000
1727539843.551,51.758,-6.836,-25.391,48.828,0.000
1727539843.555,-31.738,-10.254,-37.598,-19.043,0.000
1727539843.559,-107.910,-9.766,-34.180,-104.004,0.000
1727539843.563,-22.461,-2.930,-31.738,-33.203,0.000
1727539843.567,68.848,-0.977,-37.598,62.988,0.000
1727539843.571,58.105,1.465,-33.691,53.711,0.000
1727539843.575,-17.090,-0.488,-33.203,-8.789,0.000
1727539843.578,-110.352,-3.418,-30.762,-98.633,0.000
1727539843.582,-32.715,-3.418,-23.438,-40.039,0.000
1727539843.586,70.801,1.465,-25.879,53.223,0.000
1727539843.590,50.781,4.395,-30.762,36.133,0.000
1727539843.594,-13.184,-1.465,-27.832,-15.625,0.000
1727539843.598,-113.770,-5.371,-28.320,-98.633,0.000
1727539843.602,-50.781,-2.930,-33.691,-50.781,0.000
1727539843.606,59.570,-2.441,-35.156,51.758,0.000
1727539843.610,58.105,-6.348,-35.645,57.617,0.000
1727539843.614,9.766,-5.859,-43.457,5.371,0.000
1727539843.617,-104.492,-4.883,-36.133,-104.004,0.000
1727539843.621,-70.312,-5.371,-18.066,-75.684,0.000
1727539843.625,46.875,-5.859,-15.625,35.645,0.000
1727539843.629,45.898,-6.348,-15.625,48.828,0.000
1727539843.633,-2.930,-4.395,-17.090,20.508,0.000
1727539843.637,-109.863,-1.953,-30.273,-80.078,0.000
1727539843.641,-93.262,-2.441,-23.926,-80.566,0.000
1727539843.645,39.551,-2.441,-17.090,46.875,0.000
1727539843.649,60.059,-4.883,-23.438,61.035,0.000
1727539843.653,10.742,-4.395,-25.879,5.859,0.000
1727539843.657,-98.633,-6.348,-29.297,-83.496,0.000
1727539843.660,-104.980,-6.348,-33.203,-91.797,0.000
1727539843.664,29.297,-0.977,-35.645,31.738,0.000
1727539843.668,66.406,0.977,-33.691,75.684,0.000
1727539843.672,24.902,-1.465,-33.203,31.738,0.000
1727539843.676,-76.172,-1.953,-31.738,-63.965,0.000
1727539843.680,-110.840,-7.324,-26.367,-92.773,0.000
1727539843.684,22.949,-6.348,-27.344,11.230,0.000
1727539843.688,74.707,0.000,-34.180,50.293,0.000
1727539843.692,31.250,-1.465,-41.504,10.254,0.000
1727539843.696,-55.664,-2.441,-38.086,-71.289,0.000
1727539843.700,-102.539,-2.930,-31.250,-117.676,0.000
1727539843.703,5.371,-3.906,-34.668,-22.461,0.000
1727539843.707,65.430,0.000,-36.133,42.969,0.000
1727539843.711,26.855,-5.859,-36.621,20.020,0.000
1727539843.715,-71.289,-10.254,-39.551,-61.035,0.000
1727539843.719,-126.953,-1.953,-32.227,-120.117,0.000
1727539843.723,-11.719,-0.488,-31.738,-19.531,0.000
1727539843.727,65.430,-0.488,-41.504,45.410,0.000
1727539843.731,36.621,-3.418,-47.363,20.508,0.000
1727539843.735,-46.875,-1.465,-51.758,-48.340,0.000
1727539843.739,-127.930,0.000,-45.410,-121.094,0.000
1727539843.742,-33.203,-5.859,-40.527,-40.527,0.000
1727539843.746,57.129,-6.348,-39.551,41.504,0.000
1727539843.750,32.227,-5.371,-34.668,28.809,0.000
1727539843.754,-44.922,0.977,-37.109,-41.016,0.000
1727539843.758,-132.812,-0.488,-40.039,-133.789,0.000
1727539843.762,-59.570,-8.301,-39.062,-66.895,0.000
1727539843.766,43.945,-5.371,-35.645,41.504,0.000
1727539843.770,40.527,0.000,-35.156,34.180,0.000
1727539843.774,-33.691,0.488,-35.645,-35.156,0.000
1727539843.778,-135.742,4.395,-33.203,-120.605,0.000
1727539843.782,-68.359,6.836,-29.297,-61.035,0.000
1727539843.785,39.551,6.836,-27.344,30.273,0.000
1727539843.789,27.832,2.930,-28.809,20.508,0.000
1727539843.793,-20.996,-1.953,-27.344,-25.879,0.000
1727539843.797,-116.699,-5.859,-25.879,-118.652,0.000
1727539843.801,-87.891,-3.418,-33.691,-87.402,0.000
1727539843.805,37.598,3.906,-30.273,32.715,0.000
1727539843.809,58.105,8.301,-30.762,33.691,0.000
1727539843.813,0.000,6.348,-47.363,-16.113,0.000
1727539843.817,-112.793,5.859,-45.410,-113.770,0.000
1727539843.821,-106.934,3.418,-33.203,-113.281,0.000
1727539843.825,12.695,1.465,-28.320,9.766,0.000
1727539843.828,34.180,6.836,-28.809,43.945,0.000
1727539843.832,-6.836,3.906,-30.273,-1.465,0.000
1727539843.836,-98.145,3.906,-33.691,-106.445,0.000
1727539843.840,-104.004,8.301,-36.621,-109.375,0.000
1727539843.844,20.508,2.930,-29.785,9.766,0.000
1727539843.848,47.363,5.371,-29.785,42.969,0.000
1727539843.852,-8.301,4.395,-34.668,6.836,0.000
1727539843.856,-114.746,-3.906,-37.598,-93.750,0.000
1727539843.860,-129.883,-3.418,-35.645,-117.188,0.000
1727539843.864,7.324,-2.930,-31.250,3.418,0.000
1727539843.867,52.246,-3.906,-34.180,41.504,0.000
1727539843.871,15.137,-1.465,-38.086,8.301,0.000
1727539843.875,-79.590,-1.953,-32.227,-71.289,0.000
1727539843.879,-119.141,-1.465,-25.879,-119.629,0.000
1727539843.883,6.836,0.000,-24.902,-14.648,0.000
1727539843.887,67.871,-2.930,-33.691,48.340,0.000
1727539843.891,28.320,-0.977,-39.551,19.531,0.000
1727539843.895,-78.613,0.488,-38.086,-66.406,0.000
1727539843.899,-147.949,-0.977,-39.551,-127.441,0.000
1727539843.903,-28.809,0.000,-39.062,-20.020,0.000
1727539843.907,49.316,-0.488,-41.504,54.688,0.000
1727539843.910,19.043,-0.488,-37.109,25.879,0.000
1727539843.914,-64.453,-0.977,-31.738,-60.059,0.000
1727539843.918,-129.883,-7.324,-33.203,-123.047,0.000
1727539843.922,-36.133,-15.137,-34.180,-36.621,0.000
1727539843.926,37.109,-11.230,-32.227,34.180,0.000
1727539843.930,20.020,-3.906,-35.645,19.043,0.000
1727539843.934,-42.969,-0.977,-47.363,-39.062,0.000
1727539843.938,-130.371,-1.465,-44.434,-129.883,0.000
1727539843.942,-54.688,-3.906,-35.645,-72.754,0.000
1727539843.946,45.898,-7.812,-32.715,29.785,0.000
1727539843.950,21.484,-6.348,-37.109,27.344,0.000
1727539843.953,-51.270,-1.953,-46.387,-30.273,0.000
1727539843.957,-137.695,-1.953,-46.875,-118.164,0.000
1727539843.961,-65.430,0.488,-38.574,-60.059,0.000
1727539843.965,53.711,2.930,-36.133,51.270,0.000
1727539843.969,49.805,2.441,-29.785,47.363,0.000
1727539843.973,-11.230,0.000,-22.949,-7.812,0.000
1727539843.977,-116.211,-1.465,-20.020,-103.027,0.000
1727539843.981,-83.008,-5.371,-24.414,-77.637,0.000
1727539843.985,32.227,-4.883,-32.715,31.250,0.000
1727539843.989,40.527,-1.953,-30.273,44.922,0.000
1727539843.992,-19.043,-2.441,-28.809,-6.348,0.000
1727539843.996,-115.234,-5.371,-31.250,-100.098,0.000
1727539844.000,-92.285,-4.883,-35.156,-91.797,0.000
1727539844.004,31.250,-7.324,-35.645,17.090,0.000
1727539844.008,51.270,-6.348,-26.855,51.270,0.000
1727539844.012,-3.418,-3.906,-34.180,3.906,0.000
1727539844.016,-110.352,-7.324,-40.039,-95.215,0.000
1727539844.020,-112.305,-6.836,-32.715,-102.051,0.000
1727539844.024,19.531,-6.836,-30.273,16.113,0.000
1727539844.028,41.504,-12.695,-25.879,38.574,0.000
1727539844.032,-10.254,-15.625,-28.320,-12.695,0.000
1727539844.035,-106.445,-13.672,-34.180,-96.680,0.000
1727539844.039,-117.188,-10.742,-30.273,-98.633,0.000
1727539844.043,20.020,-12.207,-24.902,16.602,0.000
1727539844.047,52.246,-10.742,-23.926,48.340,0.000
1727539844.051,4.883,-9.766,-30.762,17.090,0.000
1727539844.055,-82.520,-14.648,-27.344,-64.941,0.000
1727539844.059,-121.094,-14.160,-17.090,-111.816,0.000
1727539844.063,-11.719,-13.184,-15.625,-13.184,0.000
1727539844.067,47.852,-10.742,-20.508,36.621,0.000
1727539844.071,11.719,-9.766,-27.344,-0.977,0.000
1727539844.075,-92.285,-12.695,-25.391,-86.914,0.000
1727539844.078,-158.203,-11.230,-21.484,-146.973,0.000
1727539844.082,-33.203,-9.766,-22.949,-37.598,0.000
1727539844.086,40.039,-9.766,-23.438,34.180,0.000
1727539844.090,-0.977,-11.719,-23.926,7.324,0.000
1727539844.094,-75.684,-8.301,-21.973,-53.711,0.000
1727539844.098,-141.602,-4.395,-20.996,-115.234,0.000
1727539844.102,-43.945,-6.836,-23.438,-35.645,0.000
1727539844.106,36.133,-7.324,-25.879,30.273,0.000
1727539844.110,15.137,-5.859,-27.832,12.695,0.000
1727539844.114,-60.547,-8.301,-27.832,-48.340,0.000
1727539844.118,-154.297,-13.672,-25.879,-141.113,0.000
1727539844.121,-66.895,-9.766,-22.949,-66.406,0.000
1727539844.125,28.809,-9.766,-17.578,30.273,0.000
1727539844.129,4.395,-15.137,-20.020,7.812,0.000
1727539844.133,-59.570,-10.742,-30.273,-51.270,0.000
1727539844.137,-150.391,-9.766,-27.344,-144.531,0.000
1727539844.141,-84.473,-12.207,-17.090,-96.680,0.000
1727539844.145,29.297,-10.742,-25.879,9.277,0.000
1727539844.149,4.883,-18.555,-23.438,-15.625,0.000
1727539844.153,-48.828,-16.113,-20.020,-62.012,0.000
1727539844.157,-126.465,-14.648,-29.297,-131.348,0.000
1727539844.160,-82.031,-13.184,-32.227,-99.609,0.000
1727539844.164,10.742,-17.578,-25.391,-12.695,0.000
1727539844.168,-26.855,-35.156,-7.324,-49.805,0.000
1727539844.172,-79.590,-28.320,3.418,-74.219,0.000
1727539844.176,-149.902,-18.066,-7.812,-125.000,0.000
1727539844.180,-89.844,-11.719,-30.273,-89.355,0.000
1727539844.184,41.992,-8.789,-29.785,35.156,0.000
1727539844.188,9.766,-20.996,-25.391,9.766,0.000
1727539844.192,-56.641,-16.113,-39.062,-48.828,0.000
1727539844.196,-157.227,-20.508,-27.344,-151.855,0.000
1727539844.200,-166.016,-41.504,-16.602,-168.457,0.000
1727539844.203,-0.488,-14.160,-42.480,0.977,0.000
1727539844.207,25.879,-9.766,-28.809,21.973,0.000
1727539844.211,-87.402,-40.039,1.465,-85.449,0.000
1727539844.215,-177.246,-32.227,2.441,-168.945,0.000
1727539844.219,-141.602,-16.602,-27.832,-140.625,0.000
1727539844.223,-67.383,-51.758,-3.906,-83.984,0.000
1727539844.227,-75.195,-85.449,62.988,-95.703,0.000
1727539844.231,-60.059,-42.480,-38.086,-76.660,0.000
1727539844.235,-147.949,-26.367,-77.637,-160.156,0.000
1727539844.239,-233.887,-63.965,-16.602,-244.141,0.000
1727539844.242,-89.844,-58.105,-18.555,-91.797,0.000
1727539844.246,0.977,-44.922,-40.039,0.000,0.000
1727539844.250,-31.738,-40.527,-43.457,-33.203,0.000
1727539844.254,-105.957,-47.852,-23.438,-86.914,0.000
1727539844.258,-176.758,-95.215,-36.621,-168.945,0.000
1727539844.262,-89.844,-119.629,-38.086,-116.699,0.000
1727539844.266,-46.387,-108.887,-30.273,-62.500,0.000
1727539844.270,-50.293,-88.379,-78.125,-65.918,0.000
1727539844.274,-109.375,-87.402,-83.984,-130.371,0.000
1727539844.278,-186.523,-107.910,-86.914,-204.590,0.000
1727539844.282,-103.027,-116.211,-125.488,-117.188,0.000
1727539844.285,-38.574,-135.254,-111.816,-69.824,0.000
1727539844.289,5.371,-123.535,-141.113,-17.578,0.000
1727539844.293,-63.477,-126.465,-160.645,-46.387,0.000
1727539844.297,-204.102,-147.949,-169.434,-202.148,0.000
1727539844.301,-116.211,-145.020,-242.676,-144.043,0.000
1727539844.305,1.465,-129.883,-307.129,-28.809,0.000
1727539844.309,-4.395,-109.375,-408.203,-45.410,0.000
1727539844.313,-70.312,-115.234,-598.633,-92.773,0.000
1727539844.317,-165.039,-119.629,-763.672,-180.664,0.000
1727539844.321,-105.469,-123.047,-890.625,-114.746,0.000
1727539844.325,12.207,-125.977,-991.699,24.414,0.000
1727539844.328,-3.906,-125.000,-1000.000,-3.418,0.000
1727539844.332,-89.355,-132.812,-998.047,-88.867,0.000
1727539844.336,-146.973,-118.652,-1000.000,-155.273,0.000
1727539844.340,-97.168,-121.582,-1000.000,-110.840,0.000
1727539844.344,7.324,-94.727,-1000.000,35.156,0.000
1727539844.348,-3.418,-77.148,-1000.000,31.738,0.000
1727539844.352,-72.754,-116.211,-1000.000,-44.922,0.000
1727539844.356,-162.598,-116.699,-1000.000,-176.758,0.000
1727539844.360,-158.691,-110.352,-1000.000,-175.293,0.000
1727539844.364,-9.766,-110.840,-1000.000,21.973,0.000
1727539844.367,56.641,-77.637,-1000.000,62.988,0.000
1727539844.371,-33.203,-65.918,-1000.000,-18.555,0.000
1727539844.375,-138.184,-77.148,-1000.000,-121.094,0.000
1727539844.379,-106.934,-104.492,-1000.000,-114.258,0.000
1727539844.383,-7.324,-116.699,-1000.000,11.230,0.000
1727539844.387,16.113,-101.562,-1000.000,52.734,0.000
1727539844.391,-6.836,-78.125,-1000.000,34.180,0.000
1727539844.395,-142.090,-89.355,-1000.000,-99.121,0.000
1727539844.399,-158.203,-90.332,-1000.000,-119.141,0.000
1727539844.403,2.930,-77.637,-1000.000,51.270,0.000
1727539844.407,39.062,-76.172,-1000.000,90.332,0.000
1727539844.410,-4.395,-69.336,-1000.000,26.855,0.000
1727539844.414,-115.723,-78.125,-1000.000,-100.098,0.000
1727539844.418,-121.582,-72.754,-1000.000,-92.773,0.000
1727539844.422,15.137,-68.848,-1000.000,62.012,0.000
1727539844.426,41.504,-81.543,-1000.000,83.984,0.000
1727539844.430,-2.930,-79.590,-1000.000,34.668,0.000
1727539844.434,-102.051,-69.336,-1000.000,-65.430,0.000
1727539844.438,-151.855,-74.219,-1000.000,-138.672,0.000
1727539844.442,-24.414,-77.637,-1000.000,-8.301,0.000
1727539844.446,47.852,-69.824,-1000.000,76.660,0.000
1727539844.450,20.508,-59.570,-1000.000,45.410,0.000
1727539844.453,-68.359,-58.105,-1000.000,-54.199,0.000
1727539844.457,-162.109,-70.312,-1000.000,-162.598,0.000
1727539844.461,-83.496,-79.102,-1000.000,-65.918,0.000
1727539844.465,30.273,-60.547,-1000.000,81.055,0.000
1727539844.469,19.043,-52.246,-998.535,72.754,0.000
1727539844.473,-84.473,-58.105,-1000.000,-41.016,0.000
1727539844.477,-165.039,-59.082,-998.047,-132.324,0.000
1727539844.481,-70.312,-62.500,-918.945,-35.156,0.000
1727539844.485,18.066,-59.570,-821.777,67.383,0.000
1727539844.489,0.488,-57.617,-751.953,41.504,0.000
1727539844.493,-68.848,-57.129,-682.129,-36.621,0.000
1727539844.496,-151.367,-52.734,-613.770,-133.301,0.000
1727539844.500,-70.312,-48.340,-560.059,-57.617,0.000
1727539844.504,41.504,-41.016,-511.719,64.941,0.000
1727539844.508,39.062,-40.039,-451.660,58.105,0.000
1727539844.512,-23.926,-34.180,-394.531,5.371,0.000
1727539844.516,-123.047,-26.367,-302.246,-85.449,0.000
1727539844.520,-69.336,-28.809,-108.398,-36.133,0.000
1727539844.524,41.992,-37.109,85.938,76.660,0.000
1727539844.528,44.434,-41.992,190.430,71.777,0.000
1727539844.532,-8.789,-37.598,288.086,20.020,0.000
1727539844.535,-112.793,-31.738,492.188,-81.543,0.000
1727539844.539,-80.078,-34.180,797.363,-57.617,0.000
1727539844.543,41.504,-32.715,960.449,70.312,0.000
1727539844.547,46.875,-28.320,964.355,71.777,0.000
1727539844.551,-9.766,-32.715,965.820,12.207,0.000
1727539844.555,-111.816,-34.180,969.238,-80.078,0.000
1727539844.559,-96.680,-31.738,968.262,-72.754,0.000
1727539844.563,24.414,-28.809,968.262,40.039,0.000
1727539844.567,47.363,-24.902,968.262,69.824,0.000
1727539844.571,8.301,-18.066,968.262,30.762,0.000
1727539844.575,-103.027,-17.578,968.262,-72.754,0.000
1727539844.578,-123.535,-20.508,968.262,-88.867,0.000
1727539844.582,17.090,-19.043,968.262,38.574,0.000
1727539844.586,61.523,-15.625,968.262,66.406,0.000
1727539844.590,8.789,-19.043,968.262,15.625,0.000
1727539844.594,-99.609,-21.484,967.773,-82.520,0.000
1727539844.598,-123.047,-19.043,968.262,-104.492,0.000
1727539844.602,14.648,-20.508,968.262,18.066,0.000
1727539844.606,71.289,-20.996,968.262,54.199,0.000
1727539844.610,32.715,-16.113,968.262,20.996,0.000
1727539844.614,-67.871,-13.184,967.773,-71.777,0.000
1727539844.617,-116.211,-17.578,968.262,-128.906,0.000
1727539844.621,-3.906,-20.020,968.262,-16.113,0.000
1727539844.625,50.781,-20.508,968.262,41.016,0.000
1727539844.629,20.508,-17.090,968.262,4.395,0.000
1727539844.633,-69.824,-12.695,968.262,-75.195,0.000
1727539844.637,-135.254,-14.648,968.262,-136.719,0.000
1727539844.641,-11.719,-13.672,968.262,-33.691,0.000
1727539844.645,81.055,-8.789,968.262,48.828,0.000
1727539844.649,51.758,-10.254,968.262,31.738,0.000
1727539844.653,-49.316,-14.648,968.262,-64.453,0.000
1727539844.657,-138.672,-17.578,968.262,-149.414,0.000
1727539844.660,-41.016,-18.066,968.262,-66.406,0.000
1727539844.664,56.152,-13.672,968.262,14.648,0.000
1727539844.668,36.621,-10.254,968.262,11.719,0.000
1727539844.672,-34.668,-8.789,968.262,-51.270,0.000
1727539844.676,-125.488,-5.859,968.262,-133.301,0.000
1727539844.680,-50.781,-1.465,968.262,-65.430,0.000
1727539844.684,57.617,0.000,968.262,36.621,0.000
1727539844.688,48.828,3.418,968.262,26.367,0.000
1727539844.692,-29.785,-0.977,968.262,-44.922,0.000
1727539844.696,-138.184,-9.766,968.262,-140.137,0.000
1727539844.700,-78.125,-10.742,968.262,-104.004,0.000
1727539844.703,33.691,-8.301,968.262,-4.395,0.000
1727539844.707,35.156,-4.883,968.262,0.000,0.000
1727539844.711,-21.973,2.441,968.262,-53.711,0.000
1727539844.715,-135.254,0.488,968.262,-139.648,0.000
1727539844.719,-95.703,-1.953,967.285,-112.305,0.000
1727539844.723,35.156,-5.859,968.750,0.488,0.000
1727539844.727,47.852,-10.254,965.332,14.648,0.000
1727539844.731,-8.789,-3.418,928.711,-38.086,0.000
1727539844.735,-107.910,0.000,891.602,-124.023,0.000
1727539844.739,-84.961,2.441,871.582,-102.051,0.000
1727539844.743,33.691,3.418,854.004,3.906,0.000
1727539844.746,49.316,0.488,843.262,22.461,0.000
1727539844.750,-3.418,-4.395,817.383,-21.973,0.000
1727539844.754,-98.145,0.000,788.574,-104.492,0.000
1727539844.758,-92.285,6.836,774.414,-97.656,0.000
1727539844.762,31.738,6.836,749.512,15.137,0.000
1727539844.766,68.359,8.789,728.516,45.410,0.000
1727539844.770,19.531,8.301,727.051,-1.465,0.000
1727539844.774,-94.238,-0.977,726.562,-103.027,0.000
1727539844.778,-116.211,-0.977,721.680,-134.277,0.000
1727539844.782,19.531,2.930,693.359,-8.789,0.000
1727539844.785,71.777,3.418,657.715,55.664,0.000
1727539844.789,26.855,2.930,615.234,14.160,0.000
1727539844.793,-74.707,1.953,593.750,-78.613,0.000
1727539844.797,-109.375,-5.371,596.191,-109.863,0.000
1727539844.801,16.602,-7.812,586.914,-1.953,0.000
1727539844.805,72.754,-6.348,564.941,46.875,0.000
1727539844.809,26.367,-13.184,554.688,11.719,0.000
1727539844.813,-76.172,-17.578,558.105,-72.266,0.000
1727539844.817,-129.395,-17.578,537.598,-134.277,0.000
1727539844.821,-2.930,-13.672,507.324,-30.762,0.000
1727539844.825,70.312,-8.789,478.027,39.062,0.000
1727539844.828,35.645,-5.371,436.035,16.113,0.000
1727539844.832,-52.246,-4.395,417.969,-50.293,0.000
1727539844.836,-124.512,-5.859,408.203,-131.836,0.000
1727539844.840,-10.742,-3.906,391.113,-41.504,0.000
1727539844.844,74.707,-5.371,374.023,50.781,0.000
1727539844.848,52.246,-3.906,347.168,41.992,0.000
1727539844.852,-29.297,-0.977,324.219,-26.855,0.000
1727539844.856,-123.535,-5.859,322.266,-118.652,0.000
1727539844.860,-41.504,-8.301,322.754,-40.527,0.000
1727539844.864,55.664,-5.859,298.828,69.824,0.000
1727539844.868,50.781,-1.953,279.785,62.012,0.000
1727539844.871,-10.742,0.977,270.020,-6.348,0.000
1727539844.875,-113.281,-3.906,261.230,-96.191,0.000
1727539844.879,-54.688,-6.836,260.742,-42.969,0.000
1727539844.883,57.129,-7.812,252.441,49.316,0.000
1727539844.887,60.059,-0.977,238.770,45.410,0.000
1727539844.891,-0.488,6.836,226.562,-9.766,0.000
1727539844.895,-112.305,3.418,213.867,-98.145,0.000
1727539844.899,-77.637,1.953,198.242,-73.730,0.000
1727539844.903,40.527,1.953,183.594,28.809,0.000
1727539844.907,50.293,-7.324,199.707,36.621,0.000
1727539844.910,-12.695,-12.207,208.984,-14.648,0.000
1727539844.914,-125.488,-11.230,193.359,-112.305,0.000
1727539844.918,-95.215,-7.812,183.105,-99.609,0.000
1727539844.922,38.574,-8.789,179.688,13.184,0.000
1727539844.926,57.617,-11.719,185.059,37.109,0.000
1727539844.930,12.207,-6.348,169.434,1.465,0.000
1727539844.934,-89.355,-5.859,143.555,-94.727,0.000
1727539844.938,-96.191,-8.301,135.254,-104.004,0.000
1727539844.942,20.508,-7.812,142.578,16.113,0.000
1727539844.946,45.410,-11.719,148.438,42.480,0.000
1727539844.950,-1.465,-13.672,136.230,-10.742,0.000
1727539844.953,-100.586,-10.254,120.605,-106.934,0.000
1727539844.957,-116.699,-6.348,115.723,-127.441,0.000
1727539844.961,18.555,-2.441,116.211,-5.859,0.000
1727539844.965,70.801,6.348,112.305,43.457,0.000
1727539844.969,41.016,8.789,104.980,12.695,0.000
1727539844.973,-59.570,3.418,92.285,-77.148,0.000
1727539844.977,-100.098,-1.953,77.148,-118.164,0.000
1727539844.981,20.020,-7.812,80.566,-0.488,0.000
1727539844.985,71.777,-11.230,81.543,58.105,0.000
1727539844.989,37.109,-8.301,84.961,26.855,0.000
1727539844.992,-61.523,-4.883,86.914,-49.316,0.000
1727539844.996,-127.441,-6.836,71.289,-101.074,0.000
1727539845.000,-6.836,-10.742,44.922,-5.371,0.000
1727539845.004,67.871,-11.230,30.762,52.246,0.000
1727539845.008,35.645,-9.277,31.250,29.785,0.000
1727539845.012,-53.711,-9.277,18.066,-35.645,0.000
1727539845.016,-131.836,-13.672,7.812,-104.980,0.000
1727539845.020,-24.902,-8.301,14.160,-15.625,0.000
1727539845.024,65.430,-4.395,14.648,72.754,0.000
1727539845.028,36.133,-11.230,10.742,51.270,0.000
1727539845.032,-38.574,-9.766,10.254,-17.578,0.000
1727539845.035,-115.723,-4.883,7.812,-94.727,0.000
1727539845.039,-28.809,-4.395,-4.883,-25.391,0.000
1727539845.043,76.660,-2.930,-18.066,83.984,0.000
1727539845.047,61.035,-1.465,4.883,76.172,0.000
1727539845.051,-22.949,0.488,23.438,-9.766,0.000
1727539845.055,-127.930,-4.395,15.625,-110.840,0.000
1727539845.059,-57.129,-5.859,12.207,-53.223,0.000
1727539845.063,55.176,-1.465,4.395,48.828,0.000
1727539845.067,46.875,-5.859,-6.348,37.598,0.000
1727539845.071,-9.277,-10.254,-5.859,-16.602,0.000
1727539845.075,-111.328,-8.789,-14.648,-104.980,0.000
1727539845.078,-60.547,-1.465,-23.926,-68.359,0.000
1727539845.082,55.664,1.953,-12.207,36.621,0.000
1727539845.086,54.688,-0.977,-6.836,42.480,0.000
1727539845.090,-6.836,-8.789,-10.742,0.488,0.000
1727539845.094,-112.305,-12.695,-2.930,-105.469,0.000
1727539845.098,-79.590,-7.324,2.930,-92.285,0.000
1727539845.102,48.340,-2.930,12.207,28.809,0.000
1727539845.106,53.223,-4.395,18.555,47.363,0.000
1727539845.110,-5.371,-4.395,2.441,6.348,0.000
1727539845.114,-105.469,-7.324,-12.207,-95.703,0.000
1727539845.118,-97.656,-10.742,-2.930,-99.121,0.000
1727539845.121,30.273,-9.766,-7.812,25.879,0.000
1727539845.125,62.012,-4.883,-21.973,57.129,0.000
1727539845.129,3.418,-10.742,-3.906,2.441,0.000
1727539845.133,-117.188,-19.531,3.906,-93.262,0.000
1727539845.137,-123.047,-13.672,4.395,-111.328,0.000
1727539845.141,20.996,-11.719,6.348,8.789,0.000
1727539845.145,59.082,-15.625,3.906,54.688,0.000
1727539845.149,12.695,-9.766,-8.789,16.602,0.000
1727539845.153,-87.402,-6.836,-16.602,-69.336,0.000
1727539845.157,-112.793,-12.695,-1.465,-97.656,0.000
1727539845.160,13.184,-12.695,5.859,2.441,0.000
1727539845.164,56.641,-13.184,2.930,42.480,0.000
1727539845.168,11.230,-17.090,11.230,14.160,0.000
1727539845.172,-93.262,-22.461,9.766,-70.801,0.000
1727539845.176,-137.207,-18.066,2.441,-117.188,0.000
1727539845.180,-7.812,-9.766,-0.488,-12.207,0.000
1727539845.184,59.082,-11.719,2.441,59.570,0.000
1727539845.188,23.926,-11.230,1.465,32.227,0.000
1727539845.192,-59.082,-9.277,-19.531,-53.223,0.000
1727539845.196,-118.652,-13.184,-21.484,-108.398,0.000
1727539845.200,-17.090,-13.184,-6.348,-31.250,0.000
1727539845.203,61.523,-14.160,0.977,30.762,0.000
1727539845.207,38.086,-16.113,-1.953,22.461,0.000
1727539845.211,-38.574,-13.672,-7.812,-41.504,0.000
1727539845.215,-117.676,-12.695,-7.812,-131.836,0.000
1727539845.219,-39.551,-17.090,-13.672,-65.918,0.000
1727539845.223,50.293,-16.602,-14.648,33.691,0.000
1727539845.227,40.527,-13.184,-20.508,32.227,0.000
1727539845.231,-35.156,-11.719,-23.926,-42.480,0.000
1727539845.235,-135.254,-11.719,-22.949,-137.207,0.000
1727539845.239,-68.359,-12.695,-29.297,-67.871,0.000
1727539845.243,44.434,-15.625,-32.715,30.762,0.000
1727539845.246,47.363,-14.648,-28.320,19.531,0.000
1727539845.250,-19.531,-14.160,-20.996,-27.344,0.000
1727539845.254,-122.070,-20.508,-11.230,-112.793,0.000
1727539845.258,-70.801,-20.020,-16.113,-75.195,0.000
1727539845.262,47.852,-15.625,-26.367,27.832,0.000
1727539845.266,53.711,-18.066,-26.367,45.898,0.000
1727539845.270,-8.301,-19.531,-28.320,-3.418,0.000
1727539845.274,-110.352,-18.555,-32.715,-106.934,0.000
1727539845.278,-70.801,-20.020,-25.391,-80.566,0.000
1727539845.282,58.594,-14.160,-21.484,41.504,0.000
1727539845.285,67.383,-9.277,-28.320,55.664,0.000
1727539845.289,-0.488,-14.160,-33.203,3.906,0.000
1727539845.293,-113.770,-18.555,-36.621,-97.656,0.000
1727539845.297,-107.422,-22.949,-34.668,-94.238,0.000
1727539845.301,20.020,-21.973,-36.133,20.996,0.000
1727539845.305,56.152,-16.113,-27.832,43.945,0.000
1727539845.309,5.859,-14.160,-27.832,-7.324,0.000
1727539845.313,-101.074,-21.484,-40.527,-97.168,0.000
1727539845.317,-109.863,-25.879,-30.273,-98.145,0.000
1727539845.321,18.555,-23.438,-28.320,6.348,0.000
1727539845.325,63.965,-26.855,-38.086,38.574,0.000
1727539845.328,16.113,-31.738,-35.156,14.160,0.000
1727539845.332,-90.332,-27.344,-34.180,-67.871,0.000
1727539845.336,-115.723,-22.949,-30.762,-110.840,0.000
1727539845.340,3.906,-23.438,-34.180,-5.859,0.000
1727539845.344,52.734,-22.461,-35.645,43.945,0.000
1727539845.348,15.625,-19.043,-33.691,0.488,0.000
1727539845.352,-78.613,-21.484,-41.016,-77.637,0.000
1727539845.356,-116.699,-23.926,-48.340,-119.629,0.000
1727539845.360,-4.395,-22.461,-44.434,-9.766,0.000
1727539845.364,52.246,-22.949,-39.551,61.035,0.000
1727539845.368,18.555,-20.020,-43.457,26.855,0.000
1727539845.371,-72.754,-21.484,-44.922,-65.918,0.000
1727539845.375,-134.277,-23.926,-47.363,-133.789,0.000
1727539845.379,-20.020,-24.414,-49.316,-44.434,0.000
1727539845.383,61.035,-21.973,-56.641,42.969,0.000
1727539845.387,34.180,-15.625,-63.965,38.086,0.000
1727539845.391,-48.828,-19.531,-57.617,-32.227,0.000
1727539845.395,-120.117,-20.996,-42.969,-111.816,0.000
1727539845.399,-27.832,-18.555,-27.344,-35.645,0.000
1727539845.403,56.152,-19.531,-22.461,54.199,0.000
1727539845.407,38.574,-22.949,-30.762,39.062,0.000
1727539845.410,-41.016,-23.438,-32.715,-32.715,0.000
1727539845.414,-135.254,-23.438,-33.203,-113.770,0.000
1727539845.418,-57.617,-24.902,-41.504,-43.945,0.000
1727539845.422,50.293,-23.438,-38.086,50.781,0.000
1727539845.426,40.527,-18.066,-39.551,45.410,0.000
1727539845.430,-23.438,-18.066,-48.828,-20.508,0.000
1727539845.434,-119.141,-26.855,-51.758,-124.023,0.000
1727539845.438,-62.988,-25.879,-56.641,-71.289,0.000
1727539845.442,50.293,-23.438,-56.641,40.527,0.000
1727539845.446,44.922,-24.902,-49.805,34.180,0.000
1727539845.450,-14.648,-26.855,-45.410,-8.789,0.000
1727539845.453,-120.117,-27.344,-39.551,-101.074,0.000
1727539845.457,-85.449,-25.879,-38.574,-80.078,0.000
1727539845.461,46.875,-20.996,-42.480,38.574,0.000
1727539845.465,61.523,-17.578,-47.363,55.664,0.000
1727539845.469,5.859,-20.020,-44.922,-2.441,0.000
1727539845.473,-98.633,-24.902,-38.086,-105.469,0.000
1727539845.477,-90.332,-24.902,-44.922,-97.168,0.000
1727539845.481,37.109,-20.020,-49.316,26.855,0.000
1727539845.485,72.266,-12.695,-46.387,40.039,0.000
1727539845.489,15.625,-16.602,-52.246,-16.113,0.000
1727539845.493,-105.469,-22.949,-60.547,-112.793,0.000
1727539845.496,-107.422,-20.996,-46.875,-118.652,0.000
1727539845.500,19.531,-23.438,-38.086,1.465,0.000
1727539845.504,43.457,-26.855,-37.109,33.691,0.000
1727539845.508,8.301,-25.879,-32.227,10.742,0.000
1727539845.512,-94.727,-23.926,-32.715,-74.219,0.000
1727539845.516,-119.141,-21.973,-38.574,-115.234,0.000
1727539845.520,20.020,-28.320,-41.016,13.184,0.000
1727539845.524,58.594,-33.203,-52.246,67.383,0.000
1727539845.528,12.695,-27.344,-56.641,22.949,0.000
1727539845.532,-80.078,-18.066,-49.316,-73.242,0.000
1727539845.536,-119.141,-11.230,-51.758,-104.980,0.000
1727539845.539,-1.953,-9.277,-51.270,3.418,0.000
1727539845.543,57.617,-13.184,-43.457,52.734,0.000
1727539845.547,26.855,-14.160,-56.641,36.621,0.000
1727539845.551,-57.129,-10.742,-56.641,-41.504,0.000
1727539845.555,-114.258,-14.648,-41.992,-94.238,0.000
1727539845.559,-6.836,-13.672,-38.086,3.418,0.000
1727539845.563,65.918,-15.625,-33.203,64.941,0.000
1727539845.567,40.039,-21.484,-38.086,37.109,0.000
1727539845.571,-51.758,-21.484,-47.363,-41.016,0.000
1727539845.575,-128.906,-21.484,-49.805,-103.516,0.000
1727539845.578,-19.531,-15.625,-51.270,-27.344,0.000
1727539845.582,81.543,-11.719,-47.852,58.105,0.000
1727539845.586,67.383,-15.625,-44.434,57.617,0.000
1727539845.590,-31.738,-19.531,-48.828,-16.113,0.000
1727539845.594,-124.512,-21.484,-48.828,-100.586,0.000
1727539845.598,-41.992,-21.484,-48.340,-29.297,0.000
1727539845.602,46.875,-20.508,-57.617,59.082,0.000
1727539845.606,34.668,-19.043,-60.059,49.805,0.000
1727539845.610,-28.809,-20.508,-50.293,-14.648,0.000
1727539845.614,-127.441,-24.414,-47.363,-112.305,0.000
1727539845.618,-60.059,-23.438,-60.547,-66.895,0.000
1727539845.621,66.406,-21.484,-59.570,40.039,0.000
1727539845.625,62.500,-21.484,-43.945,50.293,0.000
1727539845.629,1.465,-20.020,-37.598,5.371,0.000
1727539845.633,-97.656,-18.555,-44.434,-102.051,0.000
1727539845.637,-67.383,-19.043,-59.570,-82.031,0.000
1727539845.641,45.898,-18.555,-80.078,34.180,0.000
1727539845.645,44.434,-20.508,-66.406,52.734,0.000
1727539845.649,-12.207,-24.902,-39.062,4.395,0.000
1727539845.653,-112.305,-21.973,-46.875,-95.703,0.000
1727539845.657,-93.750,-21.973,-50.293,-79.590,0.000
1727539845.660,30.273,-22.461,-34.668,31.250,0.000
1727539845.664,54.199,-17.578,-27.832,48.828,0.000
1727539845.668,11.719,-20.996,-30.762,12.207,0.000
1727539845.672,-92.285,-19.043,-40.039,-80.566,0.000
1727539845.676,-95.703,-14.160,-50.293,-87.402,0.000
1727539845.680,45.898,-10.742,-56.152,32.715,0.000
1727539845.684,84.473,-8.301,-37.598,74.707,0.000
1727539845.688,25.391,-11.719,-29.297,26.855,0.000
1727539845.692,-88.867,-13.184,-44.434,-86.426,0.000
1727539845.696,-101.562,-11.230,-49.805,-105.957,0.000
1727539845.700,36.621,-11.719,-47.363,18.555,0.000
1727539845.703,88.867,-8.301,-36.133,56.641,0.000
1727539845.707,43.945,-10.254,-36.133,20.996,0.000
1727539845.711,-68.359,-19.531,-41.992,-58.594,0.000
1727539845.715,-112.793,-18.555,-42.969,-102.051,0.000
1727539845.719,5.859,-18.066,-48.828,6.836,0.000
1727539845.723,59.570,-19.043,-58.105,58.594,0.000
1727539845.727,30.762,-19.531,-66.895,23.438,0.000
1727539845.731,-61.523,-21.973,-67.871,-53.223,0.000
1727539845.735,-128.418,-18.555,-63.965,-104.492,0.000
1727539845.739,-12.695,-17.090,-60.547,-5.859,0.000
1727539845.743,67.871,-20.508,-61.523,55.176,0.000
1727539845.746,39.062,-20.996,-67.871,26.855,0.000
1727539845.750,-48.340,-22.949,-78.613,-45.898,0.000
1727539845.754,-125.488,-26.367,-72.266,-114.258,0.000
1727539845.758,-26.855,-22.949,-55.664,-27.344,0.000
1727539845.762,57.617,-19.531,-58.105,48.828,0.000
1727539845.766,41.992,-18.555,-61.523,38.086,0.000
1727539845.770,-34.668,-14.648,-55.176,-28.809,0.000
1727539845.774,-128.418,-15.625,-48.828,-122.559,0.000
1727539845.778,-36.621,-18.555,-51.758,-41.016,0.000
1727539845.782,62.012,-19.043,-62.500,52.734,0.000
1727539845.785,41.504,-18.066,-57.129,30.273,0.000
1727539845.789,-35.645,-24.902,-46.387,-24.902,0.000
1727539845.793,-129.883,-21.484,-55.176,-101.074,0.000
1727539845.797,-62.012,-16.602,-61.523,-49.316,0.000
1727539845.801,54.688,-16.602,-49.316,42.480,0.000
1727539845.805,55.664,-13.672,-44.434,46.387,0.000
1727539845.809,-8.301,-13.672,-48.340,-3.418,0.000
1727539845.813,-112.793,-15.625,-60.547,-101.074,0.000
1727539845.817,-74.707,-13.184,-60.059,-70.801,0.000
1727539845.821,41.016,-13.184,-45.898,38.086,0.000
1727539845.825,43.457,-12.695,-39.062,45.410,0.000
1727539845.828,-9.277,-12.207,-37.109,-5.859,0.000
1727539845.832,-113.770,-14.160,-33.203,-98.633,0.000
1727539845.836,-86.426,-8.301,-37.598,-76.660,0.000
1727539845.840,50.293,-6.348,-46.875,49.316,0.000
1727539845.844,67.383,-10.742,-41.992,64.941,0.000
1727539845.848,15.625,-6.836,-45.898,12.695,0.000
1727539845.852,-94.727,-8.789,-56.152,-85.449,0.000
1727539845.856,-95.703,-9.277,-54.688,-91.797,0.000
1727539845.860,43.945,-4.395,-64.941,29.785,0.000
1727539845.864,82.031,-3.418,-83.984,64.941,0.000
1727539845.868,15.625,-3.906,-68.359,19.043,0.000
1727539845.871,-103.027,-12.695,-35.156,-78.125,0.000
1727539845.875,-113.770,-22.461,-25.879,-101.074,0.000
1727539845.879,28.809,-21.484,-29.297,17.090,0.000
1727539845.883,72.754,-20.020,-37.109,65.918,0.000
1727539845.887,23.438,-22.949,-41.504,26.855,0.000
1727539845.891,-83.984,-25.391,-41.992,-73.242,0.000
1727539845.895,-125.000,-28.809,-47.852,-119.629,0.000
1727539845.899,0.000,-27.344,-55.664,-7.812,0.000
1727539845.903,58.105,-19.043,-55.176,53.711,0.000
1727539845.907,25.879,-18.066,-52.734,25.879,0.000
1727539845.911,-65.918,-20.020,-53.223,-58.594,0.000
1727539845.914,-126.953,-18.555,-59.082,-110.840,0.000
1727539845.918,-3.418,-14.648,-48.340,-6.836,0.000
1727539845.922,80.566,-8.789,-35.645,59.570,0.000
1727539845.926,49.805,-12.695,-39.551,39.551,0.000
1727539845.930,-37.598,-15.625,-50.293,-22.949,0.000
1727539845.934,-111.816,-15.137,-53.223,-98.145,0.000
1727539845.938,-17.578,-21.973,-45.898,-22.461,0.000
1727539845.942,61.523,-23.438,-50.293,53.223,0.000
1727539845.946,41.016,-19.043,-47.852,34.180,0.000
1727539845.950,-39.551,-17.578,-42.480,-29.785,0.000
1727539845.953,-129.395,-15.137,-41.504,-106.445,0.000
1727539845.957,-41.992,-12.207,-37.598,-36.133,0.000
1727539845.961,56.152,-17.578,-44.434,51.270,0.000
1727539845.965,45.410,-19.531,-46.875,35.645,0.000
1727539845.969,-24.902,-21.973,-45.898,-24.414,0.000
1727539845.973,-109.863,-16.113,-58.105,-104.004,0.000
1727539845.977,-42.969,-19.043,-59.570,-48.340,0.000
1727539845.981,63.477,-23.438,-52.246,49.805,0.000
1727539845.985,60.547,-20.996,-59.082,46.875,0.000
1727539845.989,-15.137,-24.414,-66.895,-9.277,0.000
1727539845.993,-116.699,-24.414,-69.824,-100.586,0.000
1727539845.996,-70.801,-22.949,-55.176,-67.871,0.000
1727539846.000,43.457,-23.438,-37.109,33.203,0.000
1727539846.004,46.387,-25.879,-38.086,37.598,0.000
1727539846.008,-4.883,-24.902,-39.551,-9.277,0.000
1727539846.012,-107.422,-18.555,-38.574,-102.051,0.000
1727539846.016,-90.332,-20.020,-41.504,-85.449,0.000
1727539846.020,45.898,-17.578,-45.898,34.668,0.000
1727539846.024,65.918,-13.672,-44.434,46.387,0.000
1727539846.028,10.254,-16.113,-44.922,-0.488,0.000
1727539846.032,-93.750,-15.625,-54.688,-94.238,0.000
1727539846.035,-84.473,-15.137,-58.105,-100.098,0.000
1727539846.039,39.062,-13.672,-60.059,14.648,0.000
1727539846.043,59.082,-12.695,-59.570,44.922,0.000
1727539846.047,10.742,-14.648,-53.711,-6.348,0.000
1727539846.051,-99.121,-17.578,-57.617,-97.168,0.000
1727539846.055,-109.863,-20.020,-51.270,-97.168,0.000
1727539846.059,20.996,-17.578,-49.805,24.902,0.000
1727539846.063,54.688,-14.160,-60.059,61.523,0.000
1727539846.067,11.230,-13.184,-51.758,20.508,0.000
1727539846.071,-84.473,-17.090,-46.875,-70.801,0.000
1727539846.075,-120.605,-18.066,-47.852,-104.492,0.000
1727539846.078,4.395,-12.207,-41.992,5.859,0.000
1727539846.082,57.129,-12.207,-41.016,60.059,0.000
1727539846.086,14.648,-16.602,-46.875,22.949,0.000
1727539846.090,-79.590,-16.602,-46.387,-61.035,0.000
1727539846.094,-125.000,-20.508,-41.992,-112.793,0.000
1727539846.098,-4.883,-26.367,-38.086,-9.277,0.000
1727539846.102,63.965,-25.391,-26.855,61.035,0.000
1727539846.106,34.180,-22.461,-23.926,34.668,0.000
1727539846.110,-55.664,-26.367,-38.086,-34.668,0.000
1727539846.114,-124.512,-25.879,-42.969,-107.910,0.000
1727539846.118,-22.461,-24.902,-40.039,-23.926,0.000
1727539846.121,64.941,-23.926,-41.016,58.105,0.000
1727539846.125,47.363,-27.344,-39.062,46.387,0.000
1727539846.129,-42.969,-25.391,-38.086,-21.973,0.000
1727539846.133,-136.719,-18.066,-43.457,-109.375,0.000
1727539846.137,-43.457,-22.461,-42.969,-33.691,0.000
1727539846.141,59.082,-30.762,-42.480,56.641,0.000
1727539846.145,33.203,-33.691,-36.621,38.086,0.000
1727539846.149,-39.551,-24.902,-38.574,-19.531,0.000
1727539846.153,-106.934,-15.625,-42.480,-97.656,0.000
1727539846.157,-33.691,-12.207,-41.016,-41.992,0.000
1727539846.160,63.965,-10.742,-44.922,59.570,0.000
1727539846.164,47.852,-17.578,-42.480,43.457,0.000
1727539846.168,-21.484,-20.020,-36.133,-18.555,0.000
1727539846.172,-117.188,-17.090,-32.227,-112.793,0.000
1727539846.176,-72.266,-18.066,-39.062,-83.984,0.000
1727539846.180,38.574,-19.531,-44.434,28.809,0.000
1727539846.184,39.062,-23.438,-43.945,41.504,0.000
1727539846.188,-21.973,-25.879,-42.480,-14.160,0.000
1727539846.192,-123.047,-27.832,-41.504,-115.723,0.000
1727539846.196,-87.402,-26.367,-54.199,-102.051,0.000
1727539846.200,36.621,-18.555,-62.988,12.695,0.000
1727539846.203,47.363,-12.695,-53.711,29.297,0.000
1727539846.207,-12.207,-17.578,-45.898,-19.043,0.000
1727539846.211,-112.305,-18.555,-47.852,-108.398,0.000
1727539846.215,-97.656,-18.066,-51.758,-107.422,0.000
1727539846.219,26.855,-20.996,-58.594,10.254,0.000
1727539846.223,52.734,-14.160,-51.270,45.898,0.000
1727539846.227,7.812,-15.137,-41.992,3.418,0.000
1727539846.231,-95.703,-18.066,-41.504,-88.867,0.000
1727539846.235,-105.469,-18.066,-37.109,-99.121,0.000
1727539846.239,27.344,-18.555,-38.574,28.320,0.000
1727539846.243,64.453,-13.672,-52.246,61.523,0.000
1727539846.246,15.625,-13.184,-49.316,18.066,0.000
1727539846.250,-82.031,-14.648,-40.039,-65.918,0.000
1727539846.254,-110.352,-15.625,-40.527,-103.027,0.000
1727539846.258,25.391,-15.137,-41.016,9.766,0.000
1727539846.262,84.473,-13.184,-46.875,51.270,0.000
1727539846.266,41.016,-13.672,-56.641,10.742,0.000
1727539846.270,-57.129,-19.531,-62.500,-70.312,0.000
1727539846.274,-110.840,-21.973,-51.758,-117.188,0.000
1727539846.278,0.977,-18.555,-37.109,-12.207,0.000
1727539846.282,69.336,-15.137,-40.527,47.363,0.000
1727539846.286,40.527,-13.184,-44.434,27.344,0.000
1727539846.289,-52.734,-13.672,-56.641,-43.457,0.000
1727539846.293,-118.164,-18.555,-65.918,-109.375,0.000
1727539846.297,-8.301,-21.484,-53.223,-23.438,0.000
1727539846.301,71.289,-14.648,-49.316,48.828,0.000
1727539846.305,33.203,-18.066,-46.875,31.738,0.000
1727539846.309,-49.316,-24.902,-35.156,-46.387,0.000
1727539846.313,-131.348,-24.414,-34.180,-128.418,0.000
1727539846.317,-50.781,-23.926,-32.715,-40.527,0.000
1727539846.321,41.992,-24.414,-40.527,53.223,0.000
