timestamps,TP9,AF7,AF8,TP10,Right AUX
1727539785.845,23.438,-15.137,-28.809,10.254,0.000
1727539785.849,110.840,-9.277,-27.344,80.566,0.000
1727539785.853,83.496,-4.883,-32.227,54.199,0.000
1727539785.857,-31.738,-7.812,-34.668,-36.133,0.000
1727539785.861,-120.605,-10.254,-25.879,-107.910,0.000
1727539785.865,13.672,-8.301,-18.066,-5.859,0.000
1727539785.869,111.816,-5.371,-20.508,79.590,0.000
1727539785.873,67.871,-9.277,-22.949,61.523,0.000
1727539785.877,-25.879,-7.812,-28.320,-9.766,0.000
1727539785.880,-111.816,-5.859,-35.156,-95.703,0.000
1727539785.884,-14.160,-11.719,-39.062,-17.578,0.000
1727539785.888,94.727,-2.441,-46.387,81.055,0.000
1727539785.892,83.008,-3.418,-29.785,74.219,0.000
1727539785.896,-10.742,-14.648,-17.578,1.465,0.000
1727539785.900,-123.535,-12.695,-7.324,-102.539,0.000
1727539785.904,-35.645,-8.789,-0.488,-50.293,0.000
1727539785.908,98.145,-6.836,-5.371,64.941,0.000
1727539785.912,100.586,-8.301,-16.602,74.707,0.000
1727539785.916,12.207,-11.719,-17.578,1.465,0.000
1727539785.920,-119.629,-12.695,-8.301,-119.141,0.000
1727539785.923,-62.012,-17.578,-13.184,-66.406,0.000
1727539785.927,78.613,-20.508,-12.695,57.617,0.000
1727539785.931,90.820,-17.578,-8.789,64.941,0.000
1727539785.935,19.043,-14.160,-13.184,15.137,0.000
1727539785.939,-124.512,-17.090,-20.996,-103.027,0.000
1727539785.943,-91.797,-19.043,-31.250,-87.891,0.000
1727539785.947,69.336,-12.207,-38.086,39.551,0.000
1727539785.951,87.402,-14.160,-20.508,63.965,0.000
1727539785.955,20.508,-12.207,-16.113,21.973,0.000
1727539785.959,-110.840,-7.812,-23.926,-89.844,0.000
1727539785.962,-101.074,-15.625,-17.090,-89.844,0.000
1727539785.966,56.152,-13.672,-13.184,50.293,0.000
1727539785.970,80.078,-9.766,-20.508,79.590,0.000
1727539785.974,18.066,-7.812,-21.484,34.180,0.000
1727539785.978,-108.398,-7.812,-23.926,-71.289,0.000
1727539785.982,-123.535,-7.324,-32.715,-101.562,0.000
1727539785.986,39.551,-5.371,-30.273,30.273,0.000
1727539785.990,91.309,-6.348,-29.785,83.496,0.000
1727539785.994,37.109,-5.859,-26.367,42.480,0.000
1727539785.998,-85.938,-5.371,-18.555,-61.523,0.000
1727539786.002,-120.605,-5.371,-15.137,-108.398,0.000
1727539786.005,32.715,-8.789,-16.602,13.184,0.000
1727539786.009,91.797,-10.254,-19.043,78.613,0.000
1727539786.013,42.480,-12.207,-24.902,46.387,0.000
1727539786.017,-79.102,-15.625,-35.645,-60.059,0.000
1727539786.021,-136.719,-18.555,-33.691,-112.305,0.000
1727539786.025,8.789,-20.508,-32.715,7.324,0.000
1727539786.029,93.750,-19.043,-28.809,74.707,0.000
1727539786.033,60.547,-17.578,-19.043,44.434,0.000
1727539786.037,-47.363,-16.602,-17.090,-42.480,0.000
1727539786.041,-128.418,-12.695,-20.996,-110.352,0.000
1727539786.045,-2.441,-14.648,-23.926,-17.578,0.000
1727539786.048,83.984,-20.996,-26.367,58.594,0.000
1727539786.052,58.105,-17.090,-42.969,39.551,0.000
1727539786.056,-38.086,-17.090,-47.852,-33.691,0.000
1727539786.060,-137.207,-18.555,-30.762,-124.512,0.000
1727539786.064,-20.508,-15.137,-19.043,-39.062,0.000
1727539786.068,87.891,-18.555,-18.066,64.941,0.000
1727539786.072,71.777,-12.695,-20.020,46.387,0.000
1727539786.076,-10.254,-16.602,-17.090,-14.160,0.000
1727539786.080,-139.648,-20.508,-19.531,-113.281,0.000
1727539786.084,-59.570,-13.672,-25.879,-56.152,0.000
1727539786.088,84.473,-12.207,-30.273,56.641,0.000
1727539786.091,80.078,-14.648,-29.297,53.223,0.000
1727539786.095,-11.230,-13.672,-22.461,-20.508,0.000
1727539786.099,-137.207,-17.090,-15.137,-122.070,0.000
1727539786.103,-67.871,-14.160,-13.184,-75.684,0.000
1727539786.107,79.102,-8.301,-15.625,46.387,0.000
1727539786.111,86.426,-13.184,-22.461,57.129,0.000
1727539786.115,9.766,-14.648,-24.414,-0.977,0.000
1727539786.119,-119.141,-9.766,-20.996,-94.727,0.000
1727539786.123,-73.242,-7.324,-29.785,-77.637,0.000
1727539786.127,90.820,-3.418,-29.785,55.664,0.000
1727539786.130,113.770,-8.789,-20.020,82.520,0.000
1727539786.134,21.973,-18.555,-19.531,16.602,0.000
1727539786.138,-119.141,-22.461,-19.531,-90.820,0.000
1727539786.142,-112.305,-23.438,-23.438,-103.027,0.000
1727539786.146,41.016,-19.531,-30.762,23.926,0.000
1727539786.150,97.168,-20.508,-20.996,68.359,0.000
1727539786.154,44.922,-22.461,-17.090,24.902,0.000
1727539786.158,-89.355,-19.531,-22.949,-68.848,0.000
1727539786.162,-113.770,-23.438,-22.461,-77.148,0.000
1727539786.166,37.598,-28.809,-22.949,44.922,0.000
1727539786.170,83.984,-31.250,-22.461,83.008,0.000
1727539786.173,25.391,-29.785,-24.902,37.598,0.000
1727539786.177,-91.309,-28.809,-31.738,-65.430,0.000
1727539786.181,-115.234,-32.227,-28.809,-105.469,0.000
1727539786.185,41.016,-29.297,-27.344,18.066,0.000
1727539786.189,103.027,-23.438,-27.832,81.055,0.000
1727539786.193,56.641,-19.043,-24.414,47.852,0.000
1727539786.197,-51.270,-19.043,-25.391,-39.062,0.000
1727539786.201,-104.004,-24.902,-25.391,-99.609,0.000
1727539786.205,32.227,-28.320,-24.414,7.812,0.000
1727539786.209,114.258,-30.762,-21.484,84.473,0.000
1727539786.212,79.590,-26.855,-29.297,47.363,0.000
1727539786.216,-32.227,-23.438,-30.762,-47.363,0.000
1727539786.220,-115.723,-21.484,-25.879,-119.141,0.000
1727539786.224,17.578,-11.719,-23.438,-8.301,0.000
1727539786.228,117.188,-13.184,-17.090,81.055,0.000
1727539786.232,85.938,-22.949,-10.742,61.035,0.000
1727539786.236,-20.996,-20.508,-17.578,-14.160,0.000
1727539786.240,-125.488,-16.113,-36.133,-96.191,0.000
1727539786.244,-13.184,-15.137,-38.574,-5.859,0.000
1727539786.248,107.422,-14.648,-34.180,85.938,0.000
1727539786.252,79.590,-18.555,-22.949,75.195,0.000
1727539786.255,-17.090,-18.555,-18.555,7.812,0.000
1727539786.259,-130.371,-15.137,-22.949,-101.074,0.000
1727539786.263,-41.992,-9.766,-34.180,-44.922,0.000
1727539786.267,92.773,-3.418,-31.738,62.012,0.000
1727539786.271,83.008,-8.789,-11.719,63.477,0.000
1727539786.275,2.930,-5.371,-10.742,6.348,0.000
1727539786.279,-108.398,-7.812,-19.531,-101.074,0.000
1727539786.283,-40.527,-8.789,-20.996,-56.641,0.000
1727539786.287,94.238,-5.371,-20.996,72.266,0.000
1727539786.291,86.914,-13.672,-26.367,72.266,0.000
1727539786.295,-0.488,-19.043,-40.527,11.230,0.000
1727539786.298,-131.836,-20.508,-42.480,-87.891,0.000
1727539786.302,-78.613,-21.484,-31.250,-69.824,0.000
1727539786.306,77.148,-18.555,-26.855,54.199,0.000
1727539786.310,91.309,-14.160,-22.949,75.195,0.000
1727539786.314,21.973,-12.207,-18.066,28.320,0.000
1727539786.318,-99.609,-10.742,-26.855,-74.219,0.000
1727539786.322,-62.500,-12.207,-26.855,-56.641,0.000
1727539786.326,101.562,-20.508,-11.230,79.590,0.000
1727539786.330,106.934,-24.414,-10.254,90.820,0.000
1727539786.334,23.926,-25.391,-12.207,20.996,0.000
1727539786.338,-117.676,-30.762,-5.371,-89.844,0.000
1727539786.341,-149.414,-38.086,-3.418,-110.840,0.000
1727539786.345,4.883,-42.480,-7.812,-1.953,0.000
1727539786.349,43.945,-49.316,-0.977,27.832,0.000
1727539786.353,-43.457,-56.641,3.418,-21.973,0.000
1727539786.357,-184.570,-54.199,-1.953,-125.977,0.000
1727539786.361,-210.938,-58.594,4.395,-163.086,0.000
1727539786.365,-50.293,-61.523,7.812,-45.410,0.000
1727539786.369,6.348,-61.035,7.812,2.441,0.000
1727539786.373,-40.527,-59.570,5.371,-29.785,0.000
1727539786.377,-154.785,-64.453,4.395,-127.441,0.000
1727539786.380,-227.051,-71.289,11.719,-182.617,0.000
1727539786.384,-87.402,-72.266,15.625,-58.105,0.000
1727539786.388,0.000,-70.312,26.367,26.367,0.000
1727539786.392,-36.621,-65.918,25.879,-3.418,0.000
1727539786.396,-129.883,-64.453,18.066,-77.148,0.000
1727539786.400,-198.242,-64.941,20.508,-133.789,0.000
1727539786.404,-65.430,-58.594,18.066,-27.832,0.000
1727539786.408,35.645,-55.176,9.277,50.293,0.000
1727539786.412,16.602,-52.734,6.836,29.785,0.000
1727539786.416,-81.543,-51.270,6.836,-39.551,0.000
1727539786.420,-182.617,-52.246,3.906,-130.371,0.000
1727539786.423,-69.824,-45.898,7.324,-47.852,0.000
1727539786.427,41.992,-47.363,11.230,46.875,0.000
1727539786.431,31.738,-45.410,8.301,42.969,0.000
1727539786.435,-48.828,-39.062,-1.465,-33.203,0.000
1727539786.439,-156.250,-32.227,-2.441,-132.812,0.000
1727539786.443,-59.082,-30.273,0.000,-50.781,0.000
1727539786.447,72.266,-34.180,-1.465,56.641,0.000
1727539786.451,61.523,-36.133,4.395,47.852,0.000
1727539786.455,-21.484,-34.180,2.441,-10.254,0.000
1727539786.459,-141.602,-37.109,-3.418,-107.422,0.000
1727539786.463,-62.012,-37.109,-2.441,-56.152,0.000
1727539786.466,88.867,-33.203,-1.953,66.895,0.000
1727539786.470,87.402,-35.156,-8.301,64.453,0.000
1727539786.474,6.836,-36.133,-11.719,10.742,0.000
1727539786.478,-126.465,-31.738,-12.207,-94.238,0.000
1727539786.482,-80.078,-25.391,-20.508,-82.031,0.000
1727539786.486,74.219,-23.926,-20.020,52.734,0.000
1727539786.490,85.449,-20.508,-9.277,71.289,0.000
1727539786.494,28.809,-20.020,-5.371,16.602,0.000
1727539786.498,-94.238,-27.344,-3.418,-84.473,0.000
1727539786.502,-84.473,-20.996,-3.418,-71.289,0.000
1727539786.506,70.312,-17.090,-5.859,67.383,0.000
1727539786.509,100.586,-24.414,-8.301,88.379,0.000
1727539786.513,29.785,-26.367,-9.766,30.273,0.000
1727539786.517,-100.098,-25.879,-11.719,-80.078,0.000
1727539786.521,-101.562,-20.508,-11.719,-86.426,0.000
1727539786.525,58.594,-14.648,-16.602,52.246,0.000
1727539786.529,109.863,-13.184,-20.508,88.867,0.000
1727539786.533,47.852,-21.484,-6.836,45.898,0.000
1727539786.537,-86.426,-29.785,-4.395,-50.781,0.000
1727539786.541,-123.047,-26.855,-12.695,-97.168,0.000
1727539786.545,28.320,-18.555,-13.184,21.484,0.000
1727539786.548,95.703,-17.090,-12.207,82.031,0.000
1727539786.552,56.152,-18.555,-13.184,43.945,0.000
1727539786.556,-64.941,-19.043,-11.719,-51.270,0.000
1727539786.560,-135.254,-19.531,-13.184,-110.352,0.000
1727539786.564,11.230,-19.531,-17.578,7.324,0.000
1727539786.568,94.727,-20.996,-20.508,73.242,0.000
1727539786.572,58.594,-21.484,-16.602,50.293,0.000
1727539786.576,-49.316,-21.973,-13.184,-28.809,0.000
1727539786.580,-136.719,-25.879,-12.695,-104.004,0.000
1727539786.584,-1.465,-27.344,-13.672,3.906,0.000
1727539786.588,101.074,-23.926,-18.066,81.543,0.000
1727539786.591,65.918,-22.461,-25.879,53.223,0.000
1727539786.595,-36.133,-20.508,-20.508,-29.297,0.000
1727539786.599,-135.742,-15.625,-19.043,-119.629,0.000
1727539786.603,-24.902,-14.160,-23.438,-38.086,0.000
1727539786.607,76.172,-18.555,-25.391,55.664,0.000
1727539786.611,45.898,-21.484,-23.926,39.551,0.000
1727539786.615,-42.969,-24.414,-23.926,-22.949,0.000
1727539786.619,-149.902,-25.879,-23.438,-120.117,0.000
1727539786.623,-53.711,-20.508,-15.625,-51.758,0.000
1727539786.627,77.148,-16.602,-22.461,66.895,0.000
1727539786.631,65.918,-15.625,-26.855,61.035,0.000
1727539786.634,-17.578,-18.066,-19.043,-8.301,0.000
1727539786.638,-135.742,-15.137,-23.438,-108.398,0.000
1727539786.642,-66.895,-12.207,-22.461,-56.152,0.000
1727539786.646,72.754,-14.648,-14.648,61.035,0.000
1727539786.650,77.637,-22.461,-6.836,72.754,0.000
1727539786.654,-3.418,-25.879,-6.836,18.555,0.000
1727539786.658,-128.906,-11.230,-10.742,-89.355,0.000
1727539786.662,-81.055,-4.395,-11.719,-59.570,0.000
1727539786.666,62.500,-10.254,-17.090,54.688,0.000
1727539786.670,77.637,-13.184,-17.578,69.824,0.000
1727539786.673,5.859,-12.695,-17.090,13.184,0.000
1727539786.677,-120.117,-14.648,-21.973,-98.145,0.000
1727539786.681,-98.145,-20.996,-20.996,-93.262,0.000
1727539786.685,62.012,-17.090,-15.137,39.062,0.000
1727539786.689,82.031,-15.137,-9.277,63.965,0.000
1727539786.693,3.418,-23.926,1.465,-6.348,0.000
1727539786.697,-116.699,-17.578,-10.254,-95.215,0.000
1727539786.701,-112.793,-12.695,-34.180,-101.562,0.000
1727539786.705,53.223,-15.137,-36.133,28.809,0.000
1727539786.709,105.957,-13.184,-23.926,79.590,0.000
1727539786.713,45.410,-21.484,-19.043,32.227,0.000
1727539786.716,-85.449,-21.484,-23.438,-71.777,0.000
1727539786.720,-134.277,-25.879,-17.090,-120.117,0.000
1727539786.724,0.000,-36.621,-3.906,-13.672,0.000
1727539786.728,69.336,-20.996,-0.977,43.945,0.000
1727539786.732,17.578,-10.742,-13.184,0.977,0.000
1727539786.736,-77.637,-16.113,-19.043,-58.105,0.000
1727539786.740,-110.840,-13.184,-21.484,-95.215,0.000
1727539786.744,18.555,-19.531,-22.461,-11.719,0.000
1727539786.748,98.633,-19.043,-9.277,62.500,0.000
1727539786.752,38.574,-20.996,10.254,17.578,0.000
1727539786.756,-78.613,-23.438,-16.602,-73.242,0.000
1727539786.759,-136.230,-17.090,-46.875,-112.793,0.000
1727539786.763,-30.762,-29.297,-21.484,-31.738,0.000
1727539786.767,46.387,-37.598,-7.812,23.926,0.000
1727539786.771,12.207,-40.527,-11.230,3.906,0.000
1727539786.775,-106.445,-33.203,9.766,-102.051,0.000
1727539786.779,-176.270,-43.945,16.602,-178.711,0.000
1727539786.783,-44.922,-53.223,13.184,-64.941,0.000
1727539786.787,54.199,-22.461,-4.395,18.555,0.000
1727539786.791,86.426,-15.625,-12.695,44.922,0.000
1727539786.795,24.902,-22.461,-27.344,15.137,0.000
1727539786.798,-120.605,-32.715,-21.973,-124.023,0.000
1727539786.802,-84.473,-65.918,-2.441,-119.141,0.000
1727539786.806,60.059,-64.941,6.348,25.879,0.000
1727539786.810,35.156,-72.754,19.531,-8.301,0.000
1727539786.814,-81.543,-96.680,2.930,-125.977,0.000
1727539786.818,-125.000,-57.617,-26.367,-143.066,0.000
1727539786.822,-26.855,-31.738,-37.598,-60.547,0.000
1727539786.826,83.496,-55.176,-16.113,34.668,0.000
1727539786.830,73.242,-49.316,-13.184,30.273,0.000
1727539786.834,-5.371,-53.711,-10.742,-38.574,0.000
1727539786.838,-132.812,-94.727,-10.254,-170.898,0.000
1727539786.841,-66.895,-92.773,-74.219,-115.723,0.000
1727539786.845,68.359,-80.566,-82.031,27.832,0.000
1727539786.849,33.691,-83.496,-36.133,0.977,0.000
1727539786.853,-43.457,-77.637,-36.133,-72.754,0.000
1727539786.857,-158.691,-83.496,-53.223,-186.035,0.000
1727539786.861,-113.281,-75.195,-46.875,-173.340,0.000
1727539786.865,64.453,-80.566,-57.617,-13.672,0.000
1727539786.869,57.617,-93.262,-54.199,9.277,0.000
1727539786.873,-7.812,-84.473,-77.148,-31.738,0.000
1727539786.877,-137.207,-83.984,-112.793,-181.152,0.000
1727539786.881,-131.836,-66.406,-166.504,-196.777,0.000
1727539786.884,43.945,-72.266,-229.004,-4.395,0.000
1727539786.888,14.160,-118.652,-239.258,-30.762,0.000
1727539786.892,-35.645,-100.098,-315.430,-73.242,0.000
1727539786.896,-79.590,-58.105,-430.176,-94.238,0.000
1727539786.900,-108.398,-82.520,-427.734,-135.742,0.000
1727539786.904,39.551,-86.914,-488.770,15.137,0.000
1727539786.908,106.445,-53.711,-606.934,105.957,0.000
1727539786.912,2.441,-65.918,-639.160,22.461,0.000
1727539786.916,-146.484,-76.660,-735.840,-133.301,0.000
1727539786.920,-165.039,-70.801,-947.266,-196.289,0.000
1727539786.924,-16.113,-79.102,-1000.000,-67.383,0.000
1727539786.927,81.543,-80.078,-992.188,53.223,0.000
1727539786.931,54.688,-83.008,-1000.000,40.527,0.000
1727539786.935,-71.289,-54.199,-1000.000,-62.988,0.000
1727539786.939,-191.406,-64.453,-1000.000,-170.898,0.000
1727539786.943,-58.594,-70.312,-1000.000,-39.062,0.000
1727539786.947,99.609,-23.926,-1000.000,107.910,0.000
1727539786.951,70.801,-34.668,-1000.000,59.082,0.000
1727539786.955,-36.133,-42.969,-1000.000,-26.367,0.000
1727539786.959,-142.090,-32.227,-1000.000,-115.723,0.000
1727539786.963,-16.113,-32.715,-1000.000,-9.766,0.000
1727539786.966,67.871,-70.312,-1000.000,57.129,0.000
1727539786.970,31.250,-74.219,-1000.000,48.828,0.000
1727539786.974,-46.875,-80.078,-1000.000,-18.066,0.000
1727539786.978,-140.137,-107.910,-1000.000,-111.328,0.000
1727539786.982,-22.949,-97.168,-1000.000,4.395,0.000
1727539786.986,76.660,-81.543,-1000.000,106.934,0.000
1727539786.990,19.531,-79.102,-1000.000,55.176,0.000
1727539786.994,-36.621,-63.477,-1000.000,-17.578,0.000
1727539786.998,-103.027,-31.738,-1000.000,-83.984,0.000
1727539787.002,-62.500,-37.109,-1000.000,-13.672,0.000
1727539787.006,47.363,-54.199,-1000.000,97.656,0.000
1727539787.009,90.820,-37.598,-1000.000,128.418,0.000
1727539787.013,21.484,-37.109,-1000.000,67.871,0.000
1727539787.017,-145.508,-62.012,-1000.000,-80.566,0.000
1727539787.021,-156.250,-81.055,-1000.000,-102.539,0.000
1727539787.025,32.715,-44.922,-997.070,64.941,0.000
1727539787.029,117.676,-22.949,-1000.000,160.156,0.000
1727539787.033,41.504,-34.668,-988.770,94.238,0.000
1727539787.037,-127.441,-37.598,-883.789,-71.777,0.000
1727539787.041,-117.676,-31.250,-782.715,-79.102,0.000
1727539787.045,44.434,-37.109,-688.965,81.055,0.000
1727539787.049,75.195,-41.016,-619.629,113.281,0.000
1727539787.052,25.391,-28.320,-580.566,65.918,0.000
1727539787.056,-100.586,-27.344,-558.105,-53.223,0.000
1727539787.060,-114.258,-36.133,-538.086,-71.777,0.000
1727539787.064,47.363,-36.621,-492.188,94.238,0.000
1727539787.068,104.980,-29.785,-453.613,149.902,0.000
1727539787.072,30.273,-27.832,-411.621,72.754,0.000
1727539787.076,-106.445,-27.832,-347.168,-65.918,0.000
1727539787.080,-126.953,-31.250,-299.805,-119.629,0.000
1727539787.084,26.367,-36.621,-278.809,61.035,0.000
1727539787.088,87.402,-36.133,-231.445,155.273,0.000
1727539787.091,40.527,-28.809,-179.688,94.727,0.000
1727539787.095,-83.008,-23.438,-133.301,-34.180,0.000
1727539787.099,-130.371,-17.578,-94.238,-91.797,0.000
1727539787.103,20.020,-19.043,-44.434,53.223,0.000
1727539787.107,93.262,-30.762,7.324,120.117,0.000
1727539787.111,77.637,-24.414,2.441,101.562,0.000
1727539787.115,-32.715,-15.625,57.129,5.859,0.000
1727539787.119,-137.207,-21.484,171.875,-80.078,0.000
1727539787.123,-17.090,-24.414,248.535,49.316,0.000
1727539787.127,83.496,-23.438,306.641,152.832,0.000
1727539787.131,52.734,-25.879,354.004,115.723,0.000
1727539787.134,-36.621,-26.367,380.371,24.414,0.000
1727539787.138,-116.211,-26.367,409.668,-53.711,0.000
1727539787.142,0.000,-23.926,452.148,39.062,0.000
1727539787.146,119.141,-20.996,492.676,147.949,0.000
1727539787.150,100.098,-13.184,561.035,138.672,0.000
1727539787.154,4.883,-13.672,627.930,48.828,0.000
1727539787.158,-108.887,-17.578,697.266,-61.523,0.000
1727539787.162,-26.855,-10.254,857.910,17.090,0.000
1727539787.166,107.422,-9.766,966.309,139.160,0.000
1727539787.170,118.164,-5.371,965.820,137.207,0.000
1727539787.174,22.461,0.488,966.309,66.406,0.000
1727539787.177,-109.375,-5.859,968.750,-52.246,0.000
1727539787.181,-20.996,-1.953,968.262,14.648,0.000
1727539787.185,118.164,3.418,968.262,135.254,0.000
1727539787.189,103.516,-7.812,968.262,114.258,0.000
1727539787.193,20.020,-15.137,968.262,49.316,0.000
1727539787.197,-110.840,-9.766,968.262,-68.359,0.000
1727539787.201,-60.547,-0.977,968.262,-35.156,0.000
1727539787.205,101.074,4.883,968.262,91.309,0.000
1727539787.209,109.863,1.465,968.262,104.004,0.000
1727539787.213,36.133,-2.441,968.262,41.992,0.000
1727539787.216,-99.609,4.395,968.262,-74.219,0.000
1727539787.220,-86.914,21.973,968.262,-56.152,0.000
1727539787.224,67.871,32.715,968.262,75.195,0.000
1727539787.228,99.121,33.691,968.262,96.680,0.000
1727539787.232,23.926,20.996,968.262,34.180,0.000
1727539787.236,-118.164,15.625,968.262,-91.797,0.000
1727539787.240,-110.352,17.090,968.262,-104.980,0.000
1727539787.244,51.758,18.555,968.262,39.062,0.000
1727539787.248,83.984,21.973,968.262,73.242,0.000
1727539787.252,22.949,19.043,968.262,15.625,0.000
1727539787.256,-93.750,20.508,968.262,-80.566,0.000
1727539787.259,-129.395,19.043,968.262,-111.328,0.000
1727539787.263,20.508,16.113,968.262,13.184,0.000
1727539787.267,84.961,17.090,968.262,66.895,0.000
1727539787.271,38.574,16.113,968.262,34.668,0.000
1727539787.275,-79.590,17.090,968.262,-64.453,0.000
1727539787.279,-134.277,13.672,968.262,-124.512,0.000
1727539787.283,16.602,9.277,968.262,-13.672,0.000
1727539787.287,86.914,8.301,968.262,55.664,0.000
1727539787.291,32.715,7.324,968.262,27.344,0.000
1727539787.295,-85.938,-0.488,968.262,-66.895,0.000
1727539787.299,-154.297,0.977,968.262,-133.301,0.000
1727539787.302,-8.301,8.301,968.262,-17.578,0.000
1727539787.306,85.938,8.789,968.262,68.848,0.000
1727539787.310,61.523,8.301,968.262,35.645,0.000
1727539787.314,-33.203,0.977,968.262,-58.105,0.000
1727539787.318,-144.043,-0.488,968.262,-146.973,0.000
1727539787.322,-25.391,4.883,968.262,-40.527,0.000
1727539787.326,87.891,-4.395,968.750,60.059,0.000
1727539787.330,51.758,-8.301,966.797,40.039,0.000
1727539787.334,-41.992,-3.418,968.750,-23.438,0.000
1727539787.338,-136.230,1.953,964.844,-119.141,0.000
1727539787.341,-28.809,6.836,922.852,-47.852,0.000
1727539787.345,100.586,-0.488,880.859,61.035,0.000
1727539787.349,80.566,-6.348,845.703,47.363,0.000
1727539787.353,-8.789,-3.418,805.176,-19.531,0.000
1727539787.357,-127.930,-6.836,800.293,-127.441,0.000
1727539787.361,-65.430,-3.906,810.547,-81.055,0.000
1727539787.365,66.406,-4.395,787.598,37.109,0.000
1727539787.369,65.430,-10.742,768.066,49.316,0.000
1727539787.373,-1.953,-8.301,735.352,-10.742,0.000
1727539787.377,-128.906,-4.883,688.965,-108.887,0.000
1727539787.381,-81.543,-6.836,683.105,-74.707,0.000
1727539787.384,73.242,-5.371,691.406,43.945,0.000
1727539787.388,81.543,-4.883,685.547,58.105,0.000
1727539787.392,5.371,-6.348,632.812,1.465,0.000
1727539787.396,-128.906,-4.883,599.121,-111.328,0.000
1727539787.400,-113.770,-4.883,593.262,-107.422,0.000
1727539787.404,39.551,-2.441,580.078,23.926,0.000
1727539787.408,73.242,-5.859,562.500,52.734,0.000
1727539787.412,4.395,-9.766,546.875,0.000,0.000
1727539787.416,-126.953,-10.742,518.555,-113.281,0.000
1727539787.420,-128.906,-15.137,498.047,-129.883,0.000
1727539787.424,37.109,-13.672,479.492,21.484,0.000
1727539787.427,93.262,-10.742,465.820,72.266,0.000
1727539787.431,36.133,-7.812,456.055,15.625,0.000
1727539787.435,-91.309,-7.812,437.500,-86.914,0.000
1727539787.439,-114.258,-8.301,441.895,-104.980,0.000
1727539787.443,37.598,-9.277,447.754,17.578,0.000
1727539787.447,93.750,-11.230,465.332,66.895,0.000
1727539787.451,39.062,-15.137,499.512,34.668,0.000
1727539787.455,-84.961,-15.625,498.535,-61.523,0.000
1727539787.459,-126.953,-10.742,489.258,-106.934,0.000
1727539787.463,27.832,-7.812,514.160,14.648,0.000
1727539787.467,92.773,-6.348,526.367,80.566,0.000
1727539787.470,44.434,-7.324,507.324,41.504,0.000
1727539787.474,-63.477,-6.348,484.375,-63.477,0.000
1727539787.478,-131.348,-5.859,461.426,-129.883,0.000
1727539787.482,1.465,-8.301,463.379,-5.859,0.000
1727539787.486,92.773,-10.254,463.379,72.266,0.000
1727539787.490,58.594,-10.742,437.500,38.086,0.000
1727539787.494,-44.434,-11.230,422.363,-44.434,0.000
1727539787.498,-137.695,-12.207,413.574,-125.000,0.000
1727539787.502,-21.973,-10.742,388.672,-29.785,0.000
1727539787.506,95.215,-2.930,369.629,61.035,0.000
1727539787.509,71.777,-0.977,358.398,48.340,0.000
1727539787.513,-31.250,-1.465,333.008,-19.531,0.000
1727539787.517,-140.625,-4.883,307.617,-119.629,0.000
1727539787.521,-46.387,-10.742,299.805,-49.805,0.000
1727539787.525,81.055,-9.766,304.199,63.965,0.000
1727539787.529,75.195,-7.812,294.434,51.270,0.000
1727539787.533,-21.484,-12.695,270.996,-22.949,0.000
1727539787.537,-144.043,-12.695,240.234,-120.117,0.000
1727539787.541,-60.059,-4.395,211.914,-56.152,0.000
1727539787.545,82.031,0.977,203.613,58.105,0.000
1727539787.549,86.914,6.836,199.219,55.176,0.000
1727539787.552,19.043,2.930,182.129,-10.742,0.000
1727539787.556,-103.516,-1.953,170.410,-115.723,0.000
1727539787.560,-58.105,-0.488,176.270,-82.520,0.000
1727539787.564,90.332,-9.766,166.016,43.457,0.000
1727539787.568,96.680,-16.602,149.902,70.312,0.000
1727539787.572,22.949,-16.113,143.066,25.391,0.000
1727539787.576,-93.262,-14.160,129.395,-86.426,0.000
1727539787.580,-76.172,-11.719,118.652,-85.938,0.000
1727539787.584,62.988,-15.137,117.188,35.156,0.000
1727539787.588,89.355,-6.836,122.559,65.430,0.000
1727539787.592,18.555,-2.441,120.605,8.301,0.000
1727539787.595,-102.539,-6.348,125.977,-100.586,0.000
1727539787.599,-84.961,-3.906,118.652,-90.332,0.000
1727539787.603,67.383,-8.301,100.586,47.363,0.000
1727539787.607,110.352,-11.719,106.934,86.914,0.000
1727539787.611,56.641,-11.230,105.957,48.828,0.000
1727539787.615,-67.383,-5.859,85.449,-52.246,0.000
1727539787.619,-98.633,-6.348,81.055,-83.008,0.000
1727539787.623,46.875,-8.789,61.035,41.504,0.000
1727539787.627,102.539,-8.789,37.109,88.867,0.000
1727539787.631,45.898,-10.254,69.824,44.434,0.000
1727539787.635,-78.125,-19.531,90.820,-50.781,0.000
1727539787.638,-125.977,-21.484,74.707,-98.633,0.000
1727539787.642,24.414,-13.672,72.754,11.230,0.000
1727539787.646,94.727,-12.207,72.266,76.172,0.000
1727539787.650,51.758,-14.648,58.594,47.363,0.000
1727539787.654,-54.199,-13.672,53.223,-47.852,0.000
1727539787.658,-126.465,-15.625,63.965,-115.234,0.000
1727539787.662,8.301,-21.484,65.430,-1.465,0.000
1727539787.666,110.352,-16.113,61.523,74.707,0.000
1727539787.670,75.195,-13.672,58.594,46.387,0.000
1727539787.674,-30.762,-12.207,52.734,-23.438,0.000
1727539787.677,-121.582,-11.230,44.434,-105.469,0.000
1727539787.681,2.930,-11.719,33.691,-13.672,0.000
1727539787.685,104.980,-11.719,31.250,75.195,0.000
1727539787.689,62.012,-15.625,41.016,48.340,0.000
1727539787.693,-26.855,-18.555,41.504,-21.973,0.000
1727539787.697,-120.117,-15.625,25.879,-105.469,0.000
1727539787.701,-33.203,-7.324,22.949,-30.273,0.000
1727539787.705,79.590,-5.371,36.133,74.219,0.000
1727539787.709,74.219,-7.324,17.090,77.637,0.000
1727539787.713,-8.301,-9.766,16.113,-0.977,0.000
1727539787.717,-132.324,-18.066,46.875,-116.211,0.000
1727539787.720,-54.688,-18.555,57.129,-54.199,0.000
1727539787.724,73.242,-16.113,48.828,65.918,0.000
1727539787.728,67.383,-14.648,41.992,62.988,0.000
1727539787.732,3.906,-12.695,33.203,-1.953,0.000
1727539787.736,-116.211,-7.324,22.949,-108.887,0.000
1727539787.740,-68.359,-8.789,30.273,-71.777,0.000
1727539787.744,71.289,-18.555,30.762,55.664,0.000
1727539787.748,90.820,-11.230,4.883,74.219,0.000
1727539787.752,26.367,-11.719,13.672,26.367,0.000
1727539787.756,-111.816,-27.832,24.414,-101.562,0.000
1727539787.760,-81.543,-24.414,7.324,-91.797,0.000
1727539787.763,61.035,-20.020,10.254,48.340,0.000
1727539787.767,76.172,-23.926,13.672,65.918,0.000
1727539787.771,25.879,-22.461,6.836,13.672,0.000
1727539787.775,-95.215,-19.043,17.578,-105.957,0.000
1727539787.779,-98.633,-16.602,17.578,-117.188,0.000
1727539787.783,50.781,-19.043,-6.348,27.344,0.000
1727539787.787,86.914,-17.578,-6.836,65.430,0.000
1727539787.791,32.227,-21.973,19.043,24.902,0.000
1727539787.795,-95.215,-25.879,23.926,-83.984,0.000
1727539787.799,-107.422,-23.438,-2.930,-102.051,0.000
1727539787.802,40.039,-24.414,-15.137,24.902,0.000
1727539787.806,88.379,-23.438,12.695,64.453,0.000
1727539787.810,42.480,-20.996,26.855,34.180,0.000
1727539787.814,-83.008,-17.090,15.625,-62.988,0.000
1727539787.818,-124.023,-16.113,22.461,-112.305,0.000
1727539787.822,28.809,-15.137,40.039,4.395,0.000
1727539787.826,85.449,-16.602,33.203,62.500,0.000
1727539787.830,44.922,-17.090,12.695,31.250,0.000
1727539787.834,-52.246,-11.719,19.043,-51.758,0.000
1727539787.838,-122.070,-7.324,28.809,-109.863,0.000
1727539787.842,8.301,-11.719,27.832,2.441,0.000
1727539787.845,91.797,-23.438,41.016,79.590,0.000
1727539787.849,53.223,-27.832,40.039,54.688,0.000
1727539787.853,-49.805,-22.461,33.691,-32.715,0.000
1727539787.857,-129.883,-24.902,46.387,-120.605,0.000
1727539787.861,-6.348,-24.414,41.504,-20.996,0.000
1727539787.865,79.590,-17.578,28.809,70.801,0.000
1727539787.869,53.223,-14.160,25.879,42.969,0.000
1727539787.873,-34.180,-17.090,25.391,-30.762,0.000
1727539787.877,-136.719,-20.508,11.719,-112.793,0.000
1727539787.881,-27.832,-17.578,7.812,-41.992,0.000
1727539787.885,95.703,-18.555,24.902,65.430,0.000
1727539787.888,75.195,-23.926,14.160,68.848,0.000
1727539787.892,-19.531,-21.973,6.348,-3.418,0.000
1727539787.896,-129.395,-23.926,27.344,-107.422,0.000
1727539787.900,-40.527,-24.414,41.016,-41.992,0.000
1727539787.904,83.008,-20.996,33.691,68.359,0.000
1727539787.908,72.266,-22.461,25.391,61.035,0.000
1727539787.912,-2.930,-23.926,19.531,-0.488,0.000
1727539787.916,-130.859,-25.879,1.465,-114.258,0.000
1727539787.920,-74.707,-24.414,-15.625,-72.266,0.000
1727539787.924,70.801,-26.855,-9.766,57.129,0.000
1727539787.927,75.195,-26.855,3.906,62.012,0.000
1727539787.931,11.719,-18.555,2.930,15.137,0.000
1727539787.935,-107.422,-12.695,4.883,-80.078,0.000
1727539787.939,-81.055,-15.625,14.648,-68.359,0.000
1727539787.943,71.289,-19.531,12.207,53.223,0.000
1727539787.947,91.797,-21.973,6.836,79.590,0.000
1727539787.951,25.879,-20.996,-9.766,25.391,0.000
1727539787.955,-98.145,-21.973,-3.906,-90.820,0.000
1727539787.959,-101.074,-26.367,21.484,-93.262,0.000
1727539787.963,59.082,-20.996,13.672,45.898,0.000
1727539787.967,100.098,-20.996,-0.488,82.520,0.000
1727539787.970,37.598,-24.902,-4.883,34.180,0.000
1727539787.974,-84.961,-17.578,0.000,-67.383,0.000
1727539787.978,-106.445,-15.625,-4.883,-95.215,0.000
1727539787.982,45.898,-16.602,-15.625,29.785,0.000
1727539787.986,104.492,-19.531,-6.348,78.125,0.000
1727539787.990,51.270,-27.344,-11.230,35.156,0.000
1727539787.994,-73.730,-32.715,-16.113,-65.918,0.000
1727539787.998,-120.117,-25.391,-6.836,-114.746,0.000
1727539788.002,21.484,-23.438,3.906,6.836,0.000
1727539788.006,89.355,-22.949,-7.324,75.195,0.000
1727539788.010,49.805,-16.113,-15.137,49.805,0.000
1727539788.013,-54.199,-19.531,-8.789,-41.992,0.000
1727539788.017,-113.770,-21.484,-8.301,-104.004,0.000
1727539788.021,9.277,-21.973,-19.531,5.371,0.000
1727539788.025,90.332,-23.438,-25.391,69.824,0.000
1727539788.029,67.383,-20.508,-12.695,51.270,0.000
1727539788.033,-41.504,-20.508,-10.254,-29.785,0.000
1727539788.037,-120.605,-18.066,-24.414,-105.469,0.000
1727539788.041,4.883,-23.438,-26.855,-7.812,0.000
1727539788.045,98.145,-25.879,-9.766,80.566,0.000
1727539788.049,71.777,-22.949,-0.488,65.918,0.000
1727539788.053,-25.391,-23.926,-3.906,-12.207,0.000
1727539788.056,-132.812,-22.461,-15.137,-112.305,0.000
1727539788.060,-34.668,-24.902,-23.438,-24.902,0.000
1727539788.064,88.867,-21.973,-19.043,94.727,0.000
1727539788.068,77.637,-20.020,-20.020,82.520,0.000
1727539788.072,-1.953,-20.996,-35.645,17.090,0.000
1727539788.076,-112.793,-17.578,-45.898,-88.379,0.000
1727539788.080,-35.156,-15.137,-37.109,-37.598,0.000
1727539788.084,90.332,-11.719,-27.832,81.055,0.000
1727539788.088,81.055,-10.742,-21.973,83.496,0.000
1727539788.092,18.555,-7.324,-13.184,24.414,0.000
1727539788.095,-94.727,-11.719,-17.578,-85.938,0.000
1727539788.099,-41.504,-20.508,-31.250,-55.664,0.000
1727539788.103,100.586,-20.996,-30.273,63.965,0.000
1727539788.107,110.840,-19.043,-25.391,79.102,0.000
1727539788.111,38.086,-11.719,-25.391,30.273,0.000
1727539788.115,-98.633,-9.766,-27.832,-72.754,0.000
1727539788.119,-76.172,-16.113,-29.785,-59.082,0.000
1727539788.123,83.496,-9.766,-28.320,69.824,0.000
1727539788.127,119.141,-6.348,-29.785,106.934,0.000
1727539788.131,64.941,-7.324,-36.621,56.641,0.000
1727539788.135,-64.941,-7.812,-41.016,-66.406,0.000
1727539788.138,-63.477,-13.184,-26.855,-71.777,0.000
1727539788.142,80.566,-16.602,-34.180,62.988,0.000
1727539788.146,102.539,-23.438,-45.410,87.891,0.000
1727539788.150,38.086,-28.320,-34.668,40.527,0.000
1727539788.154,-94.727,-22.949,-18.066,-72.754,0.000
1727539788.158,-114.258,-20.020,-16.113,-110.840,0.000
1727539788.162,55.664,-24.414,-19.043,25.391,0.000
1727539788.166,109.375,-22.461,-25.879,78.125,0.000
1727539788.170,47.363,-24.902,-31.250,41.504,0.000
1727539788.174,-71.777,-29.785,-22.461,-55.176,0.000
1727539788.178,-101.562,-28.809,-31.738,-106.934,0.000
1727539788.181,56.641,-27.344,-39.551,20.996,0.000
1727539788.185,129.883,-26.367,-21.973,95.215,0.000
1727539788.189,84.473,-29.297,-16.602,66.406,0.000
1727539788.193,-30.273,-28.809,-35.645,-24.902,0.000
1727539788.197,-97.656,-23.438,-39.551,-81.543,0.000
1727539788.201,30.762,-21.973,-33.691,29.297,0.000
1727539788.205,116.211,-26.367,-46.387,107.910,0.000
1727539788.209,78.125,-29.785,-40.527,77.148,0.000
1727539788.213,-28.320,-30.762,-15.137,-20.996,0.000
1727539788.217,-100.586,-28.320,2.930,-91.309,0.000
1727539788.220,23.438,-26.855,4.883,1.465,0.000
1727539788.224,117.676,-26.855,-10.742,87.891,0.000
1727539788.228,95.215,-24.414,-21.484,79.102,0.000
1727539788.232,5.371,-22.461,-18.555,-1.465,0.000
1727539788.236,-85.938,-21.973,-21.973,-96.680,0.000
1727539788.240,28.320,-18.066,-23.926,-5.371,0.000
1727539788.244,142.578,-16.602,-19.043,101.562,0.000
1727539788.248,114.258,-21.973,-16.113,99.609,0.000
1727539788.252,25.879,-26.367,-21.484,45.898,0.000
1727539788.256,-92.285,-22.949,-29.297,-62.012,0.000
1727539788.260,-7.812,-26.367,-37.598,-10.742,0.000
1727539788.263,133.789,-27.344,-44.434,113.281,0.000
1727539788.267,129.395,-20.508,-43.457,104.980,0.000
1727539788.271,45.898,-23.438,-32.715,34.668,0.000
1727539788.275,-82.031,-30.762,-25.879,-70.312,0.000
1727539788.279,-27.344,-30.762,-27.832,-23.926,0.000
1727539788.283,109.863,-29.297,-28.809,98.633,0.000
1727539788.287,126.465,-30.762,-36.621,108.398,0.000
1727539788.291,72.266,-30.762,-28.320,60.059,0.000
1727539788.295,-56.152,-27.832,-22.949,-48.828,0.000
1727539788.299,-34.668,-29.297,-39.062,-28.809,0.000
1727539788.303,109.375,-34.180,-42.480,96.191,0.000
1727539788.306,123.535,-32.715,-33.203,114.746,0.000
1727539788.310,61.523,-27.344,-25.391,59.082,0.000
1727539788.314,-53.711,-25.391,-22.949,-50.293,0.000
1727539788.318,-42.480,-22.461,-28.320,-47.363,0.000
1727539788.322,105.957,-22.461,-33.691,79.590,0.000
1727539788.326,142.578,-24.902,-27.832,117.676,0.000
1727539788.330,85.449,-28.809,-22.949,72.266,0.000
1727539788.334,-44.434,-27.344,-26.367,-36.133,0.000
1727539788.338,-59.082,-23.926,-31.250,-53.223,0.000
1727539788.342,85.938,-28.320,-31.250,74.219,0.000
1727539788.345,134.766,-26.367,-24.902,125.000,0.000
1727539788.349,91.797,-20.996,-20.508,92.285,0.000
1727539788.353,-35.645,-28.809,-30.273,-6.348,0.000
1727539788.357,-74.219,-30.762,-33.691,-51.758,0.000
1727539788.361,83.496,-23.926,-31.738,62.988,0.000
1727539788.365,147.949,-25.879,-39.551,126.465,0.000
1727539788.369,93.750,-27.344,-37.598,88.867,0.000
1727539788.373,-14.160,-25.879,-40.039,-13.184,0.000
1727539788.377,-65.918,-23.926,-42.969,-67.383,0.000
1727539788.381,74.707,-24.414,-46.875,57.617,0.000
1727539788.385,151.855,-25.391,-48.828,125.488,0.000
1727539788.388,113.770,-32.715,-29.785,90.332,0.000
1727539788.392,7.324,-40.039,-21.973,0.977,0.000
1727539788.396,-77.637,-43.945,-27.832,-74.707,0.000
1727539788.400,39.551,-41.016,-22.461,30.273,0.000
1727539788.404,138.672,-31.250,-13.184,118.652,0.000
1727539788.408,118.652,-23.438,-14.160,94.238,0.000
1727539788.412,23.438,-20.996,-12.695,19.531,0.000
1727539788.416,-88.867,-22.949,-20.020,-79.102,0.000
1727539788.420,19.531,-24.902,-35.645,9.277,0.000
1727539788.424,140.625,-26.367,-42.969,122.559,0.000
1727539788.428,110.840,-28.320,-51.758,100.098,0.000
1727539788.431,15.625,-34.180,-61.035,28.809,0.000
1727539788.435,-103.516,-31.250,-53.223,-64.941,0.000
1727539788.439,-25.391,-33.691,-27.832,-13.672,0.000
1727539788.443,108.887,-38.086,-25.391,87.891,0.000
1727539788.447,105.957,-36.621,-41.016,93.750,0.000
1727539788.451,24.414,-35.156,-35.645,35.156,0.000
1727539788.455,-99.609,-33.203,-34.180,-66.406,0.000
1727539788.459,-36.133,-35.645,-35.156,-23.438,0.000
1727539788.463,105.469,-37.598,-27.344,92.773,0.000
1727539788.467,111.328,-37.598,-25.879,101.562,0.000
1727539788.471,45.898,-38.086,-21.973,45.898,0.000
1727539788.474,-78.125,-32.715,-14.648,-63.477,0.000
1727539788.478,-41.992,-28.320,-32.227,-42.969,0.000
1727539788.482,118.164,-29.785,-37.109,100.586,0.000
1727539788.486,136.230,-25.879,-29.297,123.535,0.000
1727539788.490,75.684,-22.949,-33.691,82.520,0.000
1727539788.494,-39.551,-24.414,-32.227,-18.066,0.000
1727539788.498,-43.457,-27.832,-27.832,-32.715,0.000
1727539788.502,115.723,-31.738,-26.367,98.633,0.000
1727539788.506,164.551,-26.367,-15.137,131.348,0.000
1727539788.510,103.027,-27.344,-13.184,79.590,0.000
1727539788.513,-32.227,-23.438,-20.508,-35.645,0.000
1727539788.517,-57.129,-20.020,-29.297,-63.965,0.000
1727539788.521,84.473,-22.949,-42.480,73.730,0.000
1727539788.525,130.371,-18.066,-47.852,129.883,0.000
1727539788.529,84.961,-16.113,-32.715,85.938,0.000
1727539788.533,-27.344,-19.043,-17.090,-11.230,0.000
1727539788.537,-64.941,-20.020,-10.254,-51.270,0.000
1727539788.541,76.660,-21.484,-14.648,68.359,0.000
1727539788.545,140.625,-22.949,-17.578,131.836,0.000
1727539788.549,101.562,-24.414,-22.461,102.051,0.000
1727539788.553,-8.301,-22.949,-24.902,0.977,0.000
1727539788.556,-73.242,-21.484,-25.879,-59.082,0.000
1727539788.560,74.219,-20.508,-22.949,56.152,0.000
1727539788.564,149.414,-25.391,-23.438,116.699,0.000
1727539788.568,96.191,-28.809,-29.297,78.613,0.000
1727539788.572,-0.977,-23.926,-27.344,-5.371,0.000
1727539788.576,-89.355,-29.785,-23.438,-76.172,0.000
1727539788.580,30.273,-25.391,-14.648,29.297,0.000
1727539788.584,130.371,-17.578,-20.020,122.559,0.000
1727539788.588,105.957,-19.043,-23.926,102.539,0.000
1727539788.592,7.324,-24.902,-14.160,20.020,0.000
1727539788.596,-86.914,-28.320,-7.324,-72.266,0.000
1727539788.599,27.344,-18.066,-13.184,12.207,0.000
1727539788.603,134.277,-17.578,-18.066,109.863,0.000
1727539788.607,117.188,-21.973,-15.625,94.238,0.000
1727539788.611,38.086,-20.020,-15.137,23.926,0.000
1727539788.615,-82.031,-21.973,-17.578,-72.754,0.000
1727539788.619,-3.418,-23.926,-15.137,-4.883,0.000
1727539788.623,127.930,-22.949,-14.160,114.258,0.000
1727539788.627,122.559,-23.438,-20.020,97.656,0.000
1727539788.631,43.457,-22.461,-22.949,23.438,0.000
1727539788.635,-79.102,-21.484,-18.066,-77.637,0.000
1727539788.638,-26.367,-29.297,-11.230,-35.156,0.000
1727539788.642,110.840,-24.902,-11.230,82.520,0.000
1727539788.646,118.164,-16.113,-13.672,102.051,0.000
1727539788.650,41.992,-17.578,-6.836,48.340,0.000
1727539788.654,-83.984,-19.531,-5.371,-69.824,0.000
1727539788.658,-39.551,-18.066,-17.090,-47.852,0.000
1727539788.662,105.957,-20.996,-17.578,79.590,0.000
1727539788.666,116.211,-20.508,-13.184,98.145,0.000
1727539788.670,56.641,-12.695,-13.184,66.895,0.000
1727539788.674,-45.410,-12.207,-0.488,-9.766,0.000
1727539788.678,-37.598,-24.414,-4.883,-26.855,0.000
1727539788.681,89.844,-32.227,-17.578,83.496,0.000
1727539788.685,118.164,-35.645,-21.484,138.184,0.000
1727539788.689,44.434,-34.668,-16.113,87.891,0.000
1727539788.693,-98.633,-40.039,0.977,-42.969,0.000
1727539788.697,-90.820,-37.109,-10.742,-54.199,0.000
1727539788.701,76.660,-19.531,-36.621,85.449,0.000
1727539788.705,124.023,-26.367,-33.203,115.234,0.000
1727539788.709,70.312,-33.203,-16.602,62.500,0.000
1727539788.713,-85.938,-36.621,-14.160,-62.500,0.000
1727539788.717,-122.559,-32.715,-10.254,-93.262,0.000
1727539788.721,64.453,-22.461,2.441,60.059,0.000
1727539788.724,129.395,-23.438,-11.719,122.559,0.000
1727539788.728,65.430,-20.508,-28.809,82.520,0.000
1727539788.732,-62.500,-33.203,-19.043,-37.109,0.000
1727539788.736,-124.023,-37.598,-14.648,-96.680,0.000
1727539788.740,60.059,-4.395,-32.227,62.988,0.000
1727539788.744,139.648,-11.230,-20.020,121.094,0.000
1727539788.748,81.055,-24.414,-7.812,79.102,0.000
1727539788.752,-34.668,-29.785,2.930,-20.020,0.000
1727539788.756,-135.742,-41.992,9.277,-137.695,0.000
1727539788.760,9.766,-35.156,-9.277,-9.766,0.000
1727539788.764,104.492,-36.133,-22.949,94.238,0.000
1727539788.767,34.668,-51.270,-0.488,24.902,0.000
1727539788.771,-76.172,-47.363,10.254,-68.359,0.000
1727539788.775,-113.281,-33.691,-15.137,-108.398,0.000
1727539788.779,17.578,-48.828,-18.555,-8.301,0.000
1727539788.783,86.914,-59.082,-18.066,64.941,0.000
1727539788.787,88.379,-46.387,-35.645,73.242,0.000
1727539788.791,-3.418,-54.688,-27.832,-7.812,0.000
1727539788.795,-146.973,-61.523,-20.996,-151.367,0.000
1727539788.799,-69.824,-59.082,-21.973,-96.680,0.000
1727539788.803,27.344,-101.074,18.555,-25.879,0.000
1727539788.806,7.324,-115.723,26.855,-51.270,0.000
1727539788.810,-20.020,-79.590,-39.062,-41.504,0.000
1727539788.814,-124.023,-83.984,-45.898,-128.418,0.000
1727539788.818,-92.773,-108.398,-5.859,-113.770,0.000
1727539788.822,36.621,-116.211,-11.719,12.695,0.000
1727539788.826,34.180,-98.145,-38.574,11.230,0.000
1727539788.830,-48.340,-128.906,-29.297,-65.918,0.000
1727539788.834,-159.180,-145.020,-53.711,-160.645,0.000
1727539788.838,-87.402,-127.441,-66.406,-98.633,0.000
1727539788.842,55.176,-128.906,-34.180,43.945,0.000
1727539788.846,33.203,-134.277,-20.996,32.227,0.000
1727539788.849,-35.645,-135.254,-37.598,-46.387,0.000
1727539788.853,-123.047,-131.836,-65.430,-137.207,0.000
1727539788.857,-104.004,-154.297,-30.273,-115.723,0.000
1727539788.861,3.906,-176.270,-20.508,-20.508,0.000
1727539788.865,47.852,-132.812,-100.098,28.320,0.000
1727539788.869,33.691,-83.496,-117.188,17.578,0.000
1727539788.873,-86.914,-84.961,-115.723,-116.211,0.000
1727539788.877,-110.352,-95.703,-143.066,-150.879,0.000
1727539788.881,59.570,-84.961,-179.199,33.203,0.000
1727539788.885,125.488,-76.660,-228.516,110.352,0.000
1727539788.888,25.879,-90.820,-269.531,24.414,0.000
1727539788.892,-114.258,-82.031,-330.078,-107.910,0.000
1727539788.896,-146.973,-77.637,-350.098,-156.738,0.000
1727539788.900,11.230,-76.172,-402.344,-13.672,0.000
1727539788.904,122.559,-52.246,-492.188,101.562,0.000
1727539788.908,90.820,-44.922,-537.109,76.660,0.000
1727539788.912,-41.016,-40.527,-578.125,-30.762,0.000
1727539788.916,-117.676,-38.574,-630.859,-116.699,0.000
1727539788.920,-4.883,-54.688,-700.684,-27.344,0.000
1727539788.924,89.355,-45.898,-818.848,76.660,0.000
1727539788.928,94.238,-14.648,-967.285,100.586,0.000
1727539788.931,-51.758,-21.484,-1000.000,-36.621,0.000
1727539788.935,-151.367,-34.180,-995.117,-128.418,0.000
1727539788.939,21.973,-12.695,-1000.000,59.082,0.000
1727539788.943,124.023,-10.742,-1000.000,142.578,0.000
1727539788.947,55.176,-37.598,-1000.000,51.758,0.000
1727539788.951,-56.152,-33.691,-1000.000,-39.551,0.000
1727539788.955,-121.582,-29.785,-1000.000,-106.934,0.000
1727539788.959,-0.977,-39.062,-1000.000,0.977,0.000
1727539788.963,139.648,-1.465,-1000.000,155.273,0.000
1727539788.967,110.840,13.184,-1000.000,157.227,0.000
1727539788.971,-13.184,3.418,-1000.000,48.340,0.000
1727539788.974,-128.906,0.977,-1000.000,-95.703,0.000
1727539788.978,-69.336,-20.020,-1000.000,-69.336,0.000
1727539788.982,61.523,-22.461,-1000.000,92.773,0.000
1727539788.986,107.910,11.230,-1000.000,136.719,0.000
1727539788.990,38.086,16.602,-1000.000,43.945,0.000
1727539788.994,-78.125,8.301,-1000.000,-52.246,0.000
1727539788.998,-28.320,-0.488,-1000.000,-8.301,0.000
1727539789.002,109.375,-3.906,-1000.000,112.305,0.000
1727539789.006,137.207,5.371,-1000.000,138.184,0.000
1727539789.010,50.293,-3.906,-1000.000,51.270,0.000
1727539789.014,-92.773,-3.418,-1000.000,-86.426,0.000
1727539789.017,-41.016,17.090,-1000.000,-35.645,0.000
1727539789.021,90.820,9.277,-1000.000,112.305,0.000
1727539789.025,102.539,0.488,-1000.000,113.281,0.000
1727539789.029,43.457,1.465,-1000.000,50.293,0.000
1727539789.033,-119.629,-17.578,-1000.000,-101.074,0.000
1727539789.037,-70.312,7.324,-1000.000,-42.480,0.000
1727539789.041,108.398,31.738,-1000.000,144.043,0.000
1727539789.045,97.168,15.137,-1000.000,136.230,0.000
1727539789.049,13.672,-0.977,-1000.000,61.523,0.000
1727539789.053,-121.582,1.465,-1000.000,-80.078,0.000
1727539789.056,-125.977,16.113,-1000.000,-98.145,0.000
1727539789.060,44.434,18.066,-998.047,59.570,0.000
1727539789.064,117.676,21.484,-1000.000,135.254,0.000
1727539789.068,67.383,11.230,-993.652,94.727,0.000
1727539789.072,-103.516,-21.484,-932.617,-78.613,0.000
1727539789.076,-107.910,1.953,-918.457,-83.496,0.000
1727539789.080,54.688,10.254,-900.879,79.102,0.000
1727539789.084,104.004,11.230,-870.117,124.512,0.000
1727539789.088,57.129,27.344,-857.422,75.684,0.000
1727539789.092,-88.867,9.766,-827.148,-66.406,0.000
1727539789.096,-145.996,1.953,-809.082,-121.582,0.000
1727539789.099,9.277,6.348,-793.945,33.203,0.000
1727539789.103,96.680,5.859,-758.301,121.094,0.000
1727539789.107,54.688,0.000,-701.660,73.242,0.000
1727539789.111,-64.941,-0.977,-649.414,-48.340,0.000
1727539789.115,-140.137,4.395,-607.910,-127.930,0.000
1727539789.119,-19.043,7.324,-554.199,7.324,0.000
1727539789.123,60.059,4.395,-495.117,86.914,0.000
1727539789.127,30.273,0.000,-441.406,47.363,0.000
1727539789.131,-72.266,0.977,-389.648,-27.344,0.000
1727539789.135,-187.500,-6.836,-339.355,-143.066,0.000
1727539789.139,-35.156,10.742,-324.707,-19.043,0.000
1727539789.142,92.285,13.672,-296.875,108.398,0.000
1727539789.146,60.547,12.695,-278.320,85.938,0.000
1727539789.150,-32.715,17.090,-266.113,0.977,0.000
1727539789.154,-150.879,9.766,-240.723,-129.883,0.000
1727539789.158,-58.594,11.230,-224.609,-62.500,0.000
1727539789.162,68.848,12.695,-214.355,75.195,0.000
1727539789.166,62.500,12.207,-193.848,64.941,0.000
1727539789.170,-20.508,16.113,-178.223,-13.184,0.000
1727539789.174,-141.602,15.625,-165.527,-126.465,0.000
1727539789.178,-58.105,16.602,-136.719,-73.242,0.000
1727539789.182,75.684,20.020,-113.281,72.266,0.000
1727539789.185,76.660,24.414,-75.684,85.449,0.000
1727539789.189,1.465,21.484,-5.371,16.602,0.000
1727539789.193,-127.930,16.602,18.066,-117.188,0.000
1727539789.197,-63.965,18.066,17.090,-81.055,0.000
1727539789.201,84.473,12.207,53.711,70.312,0.000
1727539789.205,79.590,4.883,133.789,83.984,0.000
1727539789.209,-3.418,6.348,235.352,22.461,0.000
1727539789.213,-130.371,10.254,369.141,-103.516,0.000
1727539789.217,-102.539,11.719,687.012,-87.402,0.000
1727539789.221,54.688,13.672,954.590,77.148,0.000
1727539789.225,88.379,19.531,967.773,123.047,0.000
1727539789.228,20.996,15.137,961.914,60.547,0.000
1727539789.232,-104.980,8.789,970.215,-59.570,0.000
1727539789.236,-89.844,16.113,968.262,-60.059,0.000
1727539789.240,59.570,17.578,968.262,75.684,0.000
1727539789.244,99.609,13.672,968.262,105.469,0.000
1727539789.248,40.527,6.836,968.262,54.688,0.000
1727539789.252,-104.492,3.418,968.262,-57.617,0.000
1727539789.256,-139.648,10.742,968.262,-98.145,0.000
1727539789.260,26.367,23.438,968.262,41.992,0.000
1727539789.264,86.426,30.762,968.262,105.957,0.000
1727539789.267,24.414,20.508,968.262,53.711,0.000
1727539789.271,-89.844,14.648,968.262,-63.477,0.000
1727539789.275,-137.695,19.043,968.262,-128.418,0.000
1727539789.279,1.953,22.461,968.262,-2.930,0.000
1727539789.283,70.312,25.879,968.262,70.312,0.000
1727539789.287,37.109,27.832,968.262,40.527,0.000
1727539789.291,-66.406,29.785,968.262,-41.504,0.000
1727539789.295,-141.113,26.855,968.262,-122.559,0.000
1727539789.299,-14.648,20.996,968.262,-20.020,0.000
1727539789.303,83.008,21.484,968.262,61.523,0.000
1727539789.307,45.898,14.648,968.262,30.762,0.000
1727539789.310,-59.570,12.695,968.262,-48.828,0.000
1727539789.314,-149.902,20.020,968.262,-132.812,0.000
1727539789.318,-40.527,24.414,968.262,-52.246,0.000
1727539789.322,62.012,28.809,968.262,48.340,0.000
1727539789.326,41.016,31.250,968.262,34.668,0.000
1727539789.330,-57.129,28.320,968.262,-48.828,0.000
1727539789.334,-167.480,23.926,967.773,-145.996,0.000
1727539789.338,-67.383,26.367,968.262,-69.336,0.000
1727539789.342,58.105,24.414,968.262,48.828,0.000
1727539789.346,47.852,20.996,968.262,37.109,0.000
1727539789.350,-30.273,24.414,968.262,-40.527,0.000
1727539789.353,-141.113,27.344,967.773,-135.254,0.000
1727539789.357,-71.777,28.809,968.262,-79.590,0.000
1727539789.361,59.570,30.273,968.262,34.180,0.000
1727539789.365,59.082,29.297,968.262,43.945,0.000
1727539789.369,-14.648,31.250,968.262,-18.555,0.000
1727539789.373,-139.160,30.762,968.262,-124.512,0.000
1727539789.377,-91.309,31.738,966.309,-95.215,0.000
1727539789.381,61.035,31.250,970.215,33.691,0.000
1727539789.385,68.359,26.855,944.336,60.547,0.000
1727539789.389,-2.441,29.785,882.324,4.395,0.000
1727539789.392,-129.883,33.203,816.895,-109.863,0.000
1727539789.396,-97.168,32.227,757.324,-95.215,0.000
1727539789.400,70.312,31.250,741.699,36.133,0.000
1727539789.404,88.379,28.320,739.258,55.664,0.000
1727539789.408,9.277,21.973,742.188,-6.836,0.000
1727539789.412,-132.812,23.438,740.723,-122.559,0.000
1727539789.416,-144.043,23.926,723.633,-131.348,0.000
1727539789.420,20.508,23.438,689.453,11.230,0.000
1727539789.424,68.359,19.043,656.738,53.711,0.000
1727539789.428,9.277,17.090,692.383,-0.977,0.000
1727539789.432,-111.328,20.508,705.566,-100.098,0.000
1727539789.435,-109.375,28.320,672.363,-115.723,0.000
1727539789.439,56.152,28.320,682.617,10.254,0.000
1727539789.443,77.148,17.578,700.684,41.016,0.000
1727539789.447,9.277,12.207,691.895,-1.465,0.000
1727539789.451,-99.609,13.184,651.855,-109.375,0.000
1727539789.455,-157.227,13.184,614.746,-173.340,0.000
1727539789.459,-16.602,12.207,580.566,-47.363,0.000
1727539789.463,65.918,21.484,543.945,24.414,0.000
1727539789.467,24.414,19.531,521.973,-12.207,0.000
1727539789.471,-85.449,11.719,499.023,-111.816,0.000
1727539789.475,-147.461,16.113,460.938,-166.992,0.000
1727539789.478,-15.137,16.113,443.848,-38.574,0.000
1727539789.482,65.918,10.254,447.266,39.062,0.000
1727539789.486,20.508,12.695,435.547,2.930,0.000
1727539789.490,-80.078,12.695,406.250,-75.684,0.000
1727539789.494,-149.902,11.230,378.418,-158.203,0.000
1727539789.498,-27.344,14.160,353.027,-64.453,0.000
1727539789.502,62.012,14.160,343.262,35.156,0.000
1727539789.506,27.832,12.695,345.703,10.254,0.000
1727539789.510,-66.406,15.137,330.566,-70.801,0.000
1727539789.514,-174.316,9.277,308.594,-155.273,0.000
1727539789.518,-82.031,3.418,300.293,-81.543,0.000
1727539789.521,55.176,6.348,290.527,31.738,0.000
1727539789.525,59.570,9.766,283.691,41.016,0.000
1727539789.529,-19.043,10.742,297.852,-33.203,0.000
1727539789.533,-143.555,10.254,309.570,-146.484,0.000
1727539789.537,-82.520,12.695,291.992,-84.961,0.000
1727539789.541,46.387,11.719,266.113,32.227,0.000
1727539789.545,38.086,7.812,251.953,28.809,0.000
1727539789.549,-41.016,2.930,235.840,-28.809,0.000
1727539789.553,-154.297,-4.883,240.723,-137.695,0.000
1727539789.557,-91.797,-1.465,242.676,-102.051,0.000
1727539789.560,56.152,6.836,225.586,27.832,0.000
1727539789.564,70.312,12.695,207.520,40.527,0.000
1727539789.568,6.836,15.625,184.082,-9.766,0.000
1727539789.572,-129.395,15.137,153.809,-115.234,0.000
1727539789.576,-109.863,11.230,135.254,-107.422,0.000
1727539789.580,38.574,5.371,156.250,23.438,0.000
1727539789.584,51.758,2.930,178.711,55.176,0.000
1727539789.588,-8.301,8.789,175.781,1.953,0.000
1727539789.592,-126.953,8.301,164.062,-108.398,0.000
1727539789.596,-123.047,1.953,154.297,-114.258,0.000
1727539789.600,32.715,6.348,144.531,19.531,0.000
1727539789.603,56.641,2.930,129.883,43.945,0.000
1727539789.607,-21.973,-4.883,122.070,-2.930,0.000
1727539789.611,-143.555,3.906,115.723,-100.586,0.000
1727539789.615,-156.250,13.184,108.887,-131.836,0.000
1727539789.619,-5.371,12.695,98.633,-5.371,0.000
1727539789.623,65.430,18.066,95.215,50.781,0.000
1727539789.627,15.625,16.602,104.004,13.672,0.000
1727539789.631,-126.953,4.395,99.609,-99.609,0.000
1727539789.635,-173.340,-0.488,95.703,-157.715,0.000
1727539789.639,-16.113,-3.906,85.938,-19.531,0.000
1727539789.643,58.594,1.953,40.527,57.617,0.000
1727539789.646,21.484,4.395,51.270,15.625,0.000
1727539789.650,-86.426,-0.488,83.984,-77.637,0.000
1727539789.654,-147.949,3.418,78.125,-139.648,0.000
1727539789.658,-20.508,3.418,76.172,-32.715,0.000
1727539789.662,61.523,3.906,71.777,60.547,0.000
1727539789.666,25.391,10.254,53.223,30.762,0.000
1727539789.670,-83.008,12.695,58.105,-61.035,0.000
1727539789.674,-163.574,7.324,67.383,-133.301,0.000
1727539789.678,-41.016,2.441,54.688,-42.969,0.000
1727539789.682,61.523,10.742,49.316,54.688,0.000
1727539789.685,32.715,16.113,54.688,42.480,0.000
1727539789.689,-64.941,6.836,45.410,-32.715,0.000
1727539789.693,-171.387,-0.488,32.715,-134.766,0.000
1727539789.697,-69.336,-2.441,33.203,-63.477,0.000
1727539789.701,51.270,-2.930,29.785,49.805,0.000
1727539789.705,35.645,-0.488,31.250,38.574,0.000
1727539789.709,-49.316,1.953,39.062,-37.109,0.000
1727539789.713,-157.715,6.836,28.320,-136.230,0.000
1727539789.717,-85.449,4.395,22.461,-66.406,0.000
1727539789.721,36.133,4.883,19.531,53.223,0.000
1727539789.725,35.645,8.789,12.207,51.758,0.000
1727539789.728,-36.621,2.441,17.090,-13.672,0.000
1727539789.732,-154.785,0.488,15.625,-129.883,0.000
1727539789.736,-102.051,4.883,18.555,-92.773,0.000
1727539789.740,36.133,4.883,10.742,39.551,0.000
1727539789.744,56.152,2.441,2.441,58.594,0.000
1727539789.748,-7.812,0.977,5.371,-0.488,0.000
1727539789.752,-136.230,0.488,-6.836,-117.188,0.000
1727539789.756,-97.168,4.883,-18.066,-91.797,0.000
1727539789.760,56.641,7.812,-8.301,45.410,0.000
1727539789.764,78.125,10.742,-3.418,65.430,0.000
1727539789.768,3.906,12.695,-5.371,1.465,0.000
1727539789.771,-134.277,11.719,0.000,-111.816,0.000
1727539789.775,-121.094,12.695,16.113,-111.816,0.000
1727539789.779,32.715,11.719,20.996,20.020,0.000
1727539789.783,67.871,11.230,-6.348,55.664,0.000
1727539789.787,17.090,4.883,-22.461,13.184,0.000
1727539789.791,-115.723,-2.930,6.348,-95.215,0.000
1727539789.795,-139.160,-0.977,18.555,-133.301,0.000
1727539789.799,18.555,-3.418,3.418,-7.812,0.000
1727539789.803,68.848,-6.348,-13.184,40.527,0.000
1727539789.807,17.578,0.488,-13.184,1.953,0.000
1727539789.810,-109.863,-4.883,-8.301,-104.492,0.000
1727539789.814,-155.273,-11.230,-8.789,-147.461,0.000
1727539789.818,-1.953,-5.371,-13.672,-3.906,0.000
1727539789.822,68.848,-0.488,-14.648,69.336,0.000
1727539789.826,22.461,-2.441,-9.277,18.555,0.000
1727539789.830,-89.355,-4.395,-9.766,-86.914,0.000
1727539789.834,-149.902,-0.488,-16.113,-146.973,0.000
1727539789.838,-12.695,0.000,-12.207,-30.762,0.000
1727539789.842,73.730,5.371,-7.324,47.363,0.000
1727539789.846,40.527,10.742,-10.254,24.902,0.000
1727539789.850,-62.988,7.812,-7.812,-44.434,0.000
1727539789.853,-140.625,7.812,-11.719,-116.699,0.000
1727539789.857,-11.719,7.812,-11.719,-24.414,0.000
1727539789.861,91.309,2.930,-16.113,66.406,0.000
1727539789.865,58.594,-1.953,-49.805,47.852,0.000
1727539789.869,-41.504,-2.930,-51.758,-36.133,0.000
1727539789.873,-143.555,1.465,-16.602,-138.184,0.000
1727539789.877,-49.316,-3.906,5.371,-59.082,0.000
1727539789.881,65.430,-7.812,13.672,45.410,0.000
1727539789.885,49.805,-3.418,20.996,35.645,0.000
1727539789.889,-45.898,-3.418,22.461,-30.273,0.000
1727539789.893,-158.203,-1.953,24.902,-136.230,0.000
1727539789.896,-68.359,-3.418,19.531,-68.359,0.000
1727539789.900,67.383,-1.465,6.348,57.129,0.000
1727539789.904,57.617,0.488,0.000,47.852,0.000
1727539789.908,-24.902,2.441,10.254,-21.484,0.000
1727539789.912,-145.508,-1.465,17.578,-120.605,0.000
1727539789.916,-91.797,-1.465,7.812,-84.473,0.000
1727539789.920,50.293,7.324,2.441,41.016,0.000
1727539789.924,62.500,6.836,0.488,56.641,0.000
1727539789.928,-26.367,0.977,16.113,-15.625,0.000
1727539789.932,-161.133,-1.953,25.391,-135.742,0.000
1727539789.936,-101.562,-1.465,19.531,-105.469,0.000
1727539789.939,44.434,-3.906,12.695,24.414,0.000
1727539789.943,56.641,-1.465,5.859,44.922,0.000
1727539789.947,-1.953,7.324,8.789,-2.930,0.000
1727539789.951,-134.277,1.465,24.902,-120.117,0.000
1727539789.955,-122.559,-0.977,24.414,-120.605,0.000
1727539789.959,35.156,13.184,17.090,24.414,0.000
1727539789.963,60.547,14.648,17.578,46.387,0.000
1727539789.967,1.465,13.672,9.766,-4.395,0.000
1727539789.971,-119.629,19.531,7.324,-93.750,0.000
1727539789.975,-140.137,20.508,1.953,-115.723,0.000
1727539789.978,11.719,16.602,1.953,12.695,0.000
1727539789.982,65.918,13.184,0.977,60.059,0.000
1727539789.986,8.789,13.184,-8.301,12.207,0.000
1727539789.990,-120.605,9.277,-0.977,-99.609,0.000
1727539789.994,-158.203,2.441,13.184,-141.602,0.000
1727539789.998,-1.953,6.836,11.719,-6.348,0.000
1727539790.002,71.777,14.160,1.953,58.105,0.000
1727539790.006,26.367,10.742,-1.953,3.906,0.000
1727539790.010,-91.309,7.324,3.906,-97.168,0.000
1727539790.014,-150.879,5.859,4.883,-148.438,0.000
1727539790.018,-9.277,5.371,0.000,-29.785,0.000
1727539790.021,67.871,10.742,-11.230,56.641,0.000
1727539790.025,33.691,12.695,-23.438,31.738,0.000
1727539790.029,-72.266,8.789,-16.113,-62.500,0.000
1727539790.033,-151.367,7.812,0.977,-126.953,0.000
1727539790.037,-25.391,6.348,1.953,-21.973,0.000
1727539790.041,77.148,2.930,-6.348,63.477,0.000
1727539790.045,55.176,4.883,4.395,49.316,0.000
1727539790.049,-46.875,4.395,20.996,-26.367,0.000
1727539790.053,-154.785,1.465,18.555,-121.582,0.000
1727539790.057,-46.875,0.488,7.812,-44.922,0.000
1727539790.060,77.637,0.000,-2.930,61.523,0.000
1727539790.064,65.430,0.977,-3.418,54.688,0.000
1727539790.068,-29.785,4.395,-3.906,-20.020,0.000
1727539790.072,-144.043,7.812,-35.156,-115.234,0.000
1727539790.076,-55.664,10.254,-48.828,-47.852,0.000
1727539790.080,66.406,7.812,-18.555,63.965,0.000
1727539790.084,56.641,8.789,0.977,47.852,0.000
1727539790.088,-22.949,5.859,1.465,-24.902,0.000
1727539790.092,-151.855,-3.906,7.324,-121.582,0.000
1727539790.096,-95.215,-2.930,0.000,-76.660,0.000
1727539790.100,47.363,-2.930,-5.371,42.969,0.000
1727539790.103,55.664,5.859,-0.977,46.387,0.000
1727539790.107,-17.578,9.766,-10.742,-16.113,0.000
1727539790.111,-145.020,6.836,-18.066,-128.906,0.000
1727539790.115,-102.051,6.836,-18.066,-104.004,0.000
1727539790.119,53.711,8.789,-28.320,33.203,0.000
1727539790.123,69.824,6.348,-25.879,53.711,0.000
1727539790.127,3.906,3.418,-12.207,6.348,0.000
1727539790.131,-125.488,7.324,-16.113,-101.074,0.000
1727539790.135,-119.141,8.789,-31.250,-97.168,0.000
1727539790.139,36.621,6.348,-32.715,31.738,0.000
1727539790.143,71.777,11.230,-25.391,53.711,0.000
1727539790.146,7.324,9.277,-24.414,3.418,0.000
1727539790.150,-139.160,-6.348,-12.207,-110.840,0.000
1727539790.154,-156.250,-8.301,-9.277,-137.695,0.000
1727539790.158,1.465,-7.324,-15.625,-5.371,0.000
1727539790.162,51.758,-6.836,-24.414,52.246,0.000
1727539790.166,13.184,-6.348,-32.715,14.160,0.000
1727539790.170,-112.793,-8.301,-35.645,-91.797,0.000
1727539790.174,-150.391,-2.441,-42.480,-125.977,0.000
1727539790.178,6.348,-2.441,-41.016,-3.418,0.000
1727539790.182,65.430,-9.277,-26.855,50.781,0.000
1727539790.186,14.648,-11.719,-3.418,12.207,0.000
1727539790.189,-102.539,-13.672,2.930,-84.473,0.000
1727539790.193,-160.156,-15.625,-2.441,-125.977,0.000
1727539790.197,-19.043,-11.230,-8.301,-8.301,0.000
1727539790.201,65.430,-6.836,-17.578,58.105,0.000
1727539790.205,33.691,-5.859,-24.902,32.227,0.000
1727539790.209,-71.289,-6.836,-37.109,-60.059,0.000
1727539790.213,-145.020,-7.324,-35.156,-132.324,0.000
1727539790.217,-9.277,-1.465,-18.555,-18.066,0.000
1727539790.221,88.379,-2.930,-11.230,70.801,0.000
1727539790.225,56.641,-7.324,-5.859,54.688,0.000
1727539790.228,-46.875,-5.371,-0.488,-21.973,0.000
1727539790.232,-142.090,-4.883,0.000,-120.605,0.000
1727539790.236,-23.926,-3.418,-8.789,-33.203,0.000
1727539790.240,74.707,3.906,-16.602,64.453,0.000
1727539790.244,51.758,7.812,-19.043,54.688,0.000
1727539790.248,-35.156,-1.465,-25.391,-25.391,0.000
1727539790.252,-145.020,-4.395,-19.043,-130.859,0.000
1727539790.256,-48.340,0.000,-11.230,-53.223,0.000
1727539790.260,79.102,-1.465,-15.625,58.105,0.000
1727539790.264,73.730,-2.930,-11.230,45.898,0.000
1727539790.268,-3.418,-4.883,-16.602,-20.996,0.000
1727539790.271,-129.883,-6.836,-23.926,-121.094,0.000
1727539790.275,-71.777,-7.324,-29.297,-69.336,0.000
1727539790.279,75.684,-5.859,-33.691,43.457,0.000
1727539790.283,79.102,-8.301,-27.832,41.992,0.000
1727539790.287,-0.488,-6.836,-22.949,-5.859,0.000
1727539790.291,-127.930,-11.719,-21.484,-119.141,0.000
1727539790.295,-85.938,-12.695,-19.531,-98.633,0.000
1727539790.299,56.641,-9.277,-21.973,27.832,0.000
1727539790.303,68.359,-14.160,-25.391,39.062,0.000
1727539790.307,-9.277,-13.184,-29.297,-19.531,0.000
1727539790.311,-141.602,-6.348,-30.762,-125.977,0.000
1727539790.314,-121.582,-5.859,-25.879,-104.980,0.000
1727539790.318,37.109,-6.836,-14.648,34.180,0.000
1727539790.322,71.289,-9.277,-17.090,61.523,0.000
1727539790.326,19.531,-12.207,-21.973,7.324,0.000
1727539790.330,-110.840,-13.184,-12.207,-103.516,0.000
1727539790.334,-129.883,-15.625,-11.230,-114.746,0.000
1727539790.338,30.273,-9.766,-13.184,20.020,0.000
1727539790.342,70.801,-5.371,-10.742,62.500,0.000
1727539790.346,12.207,-5.859,-17.578,21.973,0.000
1727539790.350,-104.492,-6.348,-30.762,-78.125,0.000
1727539790.354,-132.324,-3.906,-29.785,-122.070,0.000
1727539790.357,19.043,0.977,-23.926,4.395,0.000
1727539790.361,76.172,1.465,-22.461,60.547,0.000
1727539790.365,25.879,-4.395,-14.648,24.414,0.000
1727539790.369,-95.703,-7.324,-12.695,-76.660,0.000
1727539790.373,-141.113,2.930,-15.137,-126.953,0.000
1727539790.377,14.160,7.812,-11.719,15.137,0.000
1727539790.381,75.195,1.465,-9.766,80.566,0.000
1727539790.385,15.625,-4.395,-15.625,29.785,0.000
1727539790.389,-94.727,-9.766,-15.137,-64.941,0.000
1727539790.393,-152.832,-11.719,-15.137,-125.000,0.000
1727539790.397,-13.672,-5.859,-16.602,-7.324,0.000
1727539790.400,84.961,-2.441,-23.438,68.359,0.000
1727539790.404,54.688,-3.906,-29.297,39.062,0.000
1727539790.408,-52.734,-4.883,-34.668,-39.551,0.000
1727539790.412,-147.949,-5.371,-38.574,-121.582,0.000
1727539790.416,-21.973,-4.883,-21.973,-34.668,0.000
1727539790.420,91.309,-4.395,-17.578,70.801,0.000
1727539790.424,63.477,-4.883,-24.902,67.871,0.000
1727539790.428,-37.109,-11.230,-28.809,-19.043,0.000
1727539790.432,-150.391,-16.113,-31.738,-124.023,0.000
1727539790.436,-57.129,-14.160,-23.926,-49.805,0.000
1727539790.439,67.871,-12.207,-20.996,51.270,0.000
1727539790.443,57.617,-10.742,-23.926,41.992,0.000
1727539790.447,-16.602,-13.184,-20.508,-11.230,0.000
1727539790.451,-128.906,-13.672,-20.996,-113.770,0.000
1727539790.455,-61.035,-15.137,-24.414,-56.152,0.000
1727539790.459,76.172,-21.484,-23.926,68.359,0.000
1727539790.463,73.242,-19.531,-20.996,66.895,0.000
1727539790.467,-6.836,-21.973,-28.320,10.742,0.000
1727539790.471,-135.254,-21.973,-37.598,-110.840,0.000
1727539790.475,-86.426,-15.137,-37.598,-85.449,0.000
1727539790.479,61.523,-14.648,-40.527,56.641,0.000
1727539790.482,76.660,-11.719,-31.738,70.801,0.000
1727539790.486,12.207,-11.719,-22.949,4.395,0.000
1727539790.490,-124.023,-15.625,-21.484,-99.609,0.000
1727539790.494,-111.328,-14.648,-28.809,-80.566,0.000
1727539790.498,41.016,-11.719,-28.809,45.898,0.000
1727539790.502,70.801,-12.695,-26.855,68.359,0.000
1727539790.506,6.348,-13.672,-35.156,9.277,0.000
1727539790.510,-113.770,-13.184,-33.203,-94.238,0.000
1727539790.514,-107.910,-12.207,-27.832,-92.773,0.000
1727539790.518,43.945,-11.719,-33.203,34.668,0.000
1727539790.521,78.125,-11.719,-37.598,71.777,0.000
1727539790.525,25.391,-13.184,-41.016,29.785,0.000
1727539790.529,-98.633,-13.672,-43.945,-78.613,0.000
1727539790.533,-132.324,-21.484,-44.434,-118.164,0.000
1727539790.537,23.926,-19.531,-44.922,13.672,0.000
1727539790.541,87.402,-13.672,-38.086,78.613,0.000
1727539790.545,34.180,-20.020,-31.738,42.480,0.000
1727539790.549,-96.191,-27.832,-35.156,-79.590,0.000
1727539790.553,-149.902,-28.809,-36.621,-135.742,0.000
1727539790.557,6.836,-19.531,-33.691,8.789,0.000
1727539790.561,83.984,-16.602,-37.109,74.219,0.000
1727539790.564,41.992,-23.926,-39.551,24.414,0.000
1727539790.568,-70.801,-20.996,-39.062,-63.965,0.000
1727539790.572,-148.438,-14.648,-46.387,-121.582,0.000
1727539790.576,-18.066,-16.602,-37.598,-9.766,0.000
1727539790.580,66.406,-22.461,-30.762,66.895,0.000
1727539790.584,49.805,-15.137,-42.480,55.664,0.000
1727539790.588,-38.086,-9.766,-47.852,-22.949,0.000
1727539790.592,-131.836,-13.672,-52.734,-121.094,0.000
1727539790.596,-21.973,-17.090,-52.734,-36.133,0.000
1727539790.600,81.055,-20.508,-41.016,66.895,0.000
1727539790.604,59.570,-23.926,-25.391,51.758,0.000
1727539790.607,-56.641,-31.250,-13.672,-53.223,0.000
1727539790.611,-155.762,-30.762,-32.715,-143.066,0.000
1727539790.615,-8.301,-19.043,-38.574,-34.180,0.000
1727539790.619,125.000,-12.695,-33.203,81.543,0.000
1727539790.623,90.820,-23.438,-46.387,61.523,0.000
1727539790.627,-43.457,-35.156,-15.137,-42.480,0.000
1727539790.631,-154.785,-21.484,-7.324,-132.324,0.000
1727539790.635,-24.902,-9.277,-47.852,-18.555,0.000
1727539790.639,92.773,-25.879,-40.039,66.406,0.000
1727539790.643,73.242,-37.598,-17.090,41.992,0.000
1727539790.647,27.344,-16.113,-45.898,20.996,0.000
1727539790.650,-90.332,-8.301,-56.152,-81.055,0.000
1727539790.654,-74.707,-26.855,-41.992,-86.914,0.000
1727539790.658,68.848,-23.926,-38.086,27.344,0.000
1727539790.662,98.633,-9.766,-44.922,59.082,0.000
1727539790.666,-0.977,-14.160,-58.594,-29.297,0.000
1727539790.670,-126.465,-20.020,-47.363,-147.949,0.000
1727539790.674,-106.934,-28.809,-15.137,-137.207,0.000
1727539790.678,12.695,-42.969,-25.879,-30.762,0.000
1727539790.682,53.711,-25.879,-29.297,14.648,0.000
1727539790.686,26.367,-19.531,-51.270,-0.488,0.000
1727539790.689,-121.582,-39.551,-86.914,-115.723,0.000
1727539790.693,-125.977,-44.434,-69.824,-134.277,0.000
1727539790.697,69.824,-26.367,-63.477,29.785,0.000
1727539790.701,70.312,-47.852,-43.945,12.695,0.000
1727539790.705,-7.324,-56.641,-23.438,-57.617,0.000
1727539790.709,-155.762,-57.129,-11.719,-178.711,0.000
1727539790.713,-185.547,-74.707,-57.617,-230.957,0.000
1727539790.717,0.977,-78.125,-111.816,-50.781,0.000
1727539790.721,84.473,-58.594,-100.098,21.973,0.000
1727539790.725,-5.859,-64.453,-72.266,-55.176,0.000
1727539790.729,-160.645,-93.750,-73.730,-176.758,0.000
1727539790.732,-174.316,-93.262,-78.613,-205.566,0.000
1727539790.736,3.906,-76.660,-83.984,-55.176,0.000
1727539790.740,51.270,-80.566,-115.234,-6.348,0.000
1727539790.744,-35.156,-94.727,-133.301,-70.801,0.000
1727539790.748,-161.133,-105.469,-117.188,-204.590,0.000
1727539790.752,-212.891,-88.379,-131.836,-229.980,0.000
1727539790.756,-77.637,-85.938,-193.359,-58.594,0.000
1727539790.760,20.996,-89.355,-242.676,28.320,0.000
1727539790.764,2.930,-79.102,-315.918,-6.836,0.000
1727539790.768,-133.789,-96.191,-382.812,-139.160,0.000
1727539790.772,-244.629,-108.398,-409.180,-252.441,0.000
1727539790.775,-82.520,-87.402,-500.000,-92.285,0.000
1727539790.779,47.363,-91.309,-611.328,37.598,0.000
1727539790.783,7.324,-102.539,-678.711,-0.977,0.000
1727539790.787,-70.801,-66.895,-759.277,-79.590,0.000
1727539790.791,-149.414,-64.453,-850.586,-170.898,0.000
1727539790.795,-38.086,-64.941,-965.820,-63.477,0.000
1727539790.799,57.129,-62.500,-1000.000,63.477,0.000
1727539790.803,34.180,-73.730,-996.094,63.965,0.000
1727539790.807,-34.668,-69.824,-1000.000,-1.953,0.000
1727539790.811,-171.875,-80.078,-1000.000,-164.062,0.000
1727539790.815,-80.078,-72.754,-1000.000,-91.797,0.000
1727539790.818,77.148,-58.105,-1000.000,72.266,0.000
1727539790.822,54.199,-61.035,-1000.000,61.523,0.000
1727539790.826,2.930,-51.758,-1000.000,18.066,0.000
1727539790.830,-111.816,-50.293,-1000.000,-82.031,0.000
1727539790.834,-62.988,-43.945,-1000.000,-40.039,0.000
1727539790.838,70.312,-48.828,-1000.000,84.961,0.000
1727539790.842,77.637,-47.363,-1000.000,84.961,0.000
1727539790.846,24.902,-41.504,-1000.000,21.973,0.000
1727539790.850,-110.352,-38.086,-1000.000,-89.844,0.000
1727539790.854,-83.496,-31.250,-1000.000,-60.547,0.000
1727539790.857,66.895,-35.645,-1000.000,96.191,0.000
1727539790.861,72.266,-46.875,-1000.000,119.141,0.000
1727539790.865,24.902,-28.320,-1000.000,45.898,0.000
1727539790.869,-88.379,-23.438,-1000.000,-76.172,0.000
1727539790.873,-140.625,-56.641,-1000.000,-94.727,0.000
1727539790.877,23.926,-50.293,-1000.000,85.938,0.000
1727539790.881,117.676,-24.902,-1000.000,160.156,0.000
1727539790.885,48.340,-25.391,-1000.000,79.102,0.000
1727539790.889,-95.703,-29.785,-1000.000,-71.289,0.000
1727539790.893,-98.145,-23.926,-1000.000,-83.496,0.000
1727539790.897,58.594,-29.297,-1000.000,70.801,0.000
1727539790.900,85.449,-43.945,-1000.000,78.125,0.000
1727539790.904,35.156,-42.969,-1000.000,35.156,0.000
1727539790.908,-61.523,-23.438,-1000.000,-43.945,0.000
1727539790.912,-126.465,-18.555,-1000.000,-96.680,0.000
1727539790.916,23.438,-27.344,-1000.000,79.590,0.000
1727539790.920,81.055,-38.086,-1000.000,155.762,0.000
1727539790.924,33.203,-35.645,-1000.000,93.262,0.000
1727539790.928,-61.035,-35.156,-1000.000,-27.344,0.000
1727539790.932,-119.141,-29.297,-1000.000,-73.242,0.000
1727539790.936,-1.953,-30.762,-1000.000,70.312,0.000
1727539790.939,75.684,-42.480,-1000.000,125.488,0.000
1727539790.943,79.102,-21.484,-1000.000,112.793,0.000
1727539790.947,-20.020,-18.555,-1000.000,33.203,0.000
1727539790.951,-132.324,-29.785,-1000.000,-87.402,0.000
1727539790.955,-18.066,-35.156,-999.512,6.348,0.000
1727539790.959,102.539,-36.621,-1000.000,135.254,0.000
1727539790.963,84.961,-30.273,-988.281,125.000,0.000
1727539790.967,-12.207,-27.344,-937.012,31.250,0.000
1727539790.971,-127.930,-38.086,-865.234,-94.238,0.000
1727539790.975,-31.250,-41.016,-820.312,-10.742,0.000
1727539790.979,110.352,-28.809,-777.832,135.742,0.000
1727539790.982,93.750,-25.879,-718.262,132.812,0.000
1727539790.986,-1.465,-28.320,-666.992,43.457,0.000
1727539790.990,-118.164,-28.809,-622.559,-85.938,0.000
1727539790.994,-36.621,-24.414,-590.332,-15.137,0.000
1727539790.998,85.449,-25.391,-536.133,109.863,0.000
1727539791.002,77.637,-28.320,-486.816,99.609,0.000
1727539791.006,25.391,-14.648,-478.516,38.086,0.000
1727539791.010,-88.379,-2.930,-462.402,-73.730,0.000
1727539791.014,-32.227,-16.602,-420.898,-18.555,0.000
1727539791.018,107.422,-29.785,-356.934,131.836,0.000
1727539791.022,108.887,-22.461,-314.941,136.719,0.000
1727539791.025,29.297,-25.879,-284.668,57.617,0.000
1727539791.029,-99.121,-30.273,-244.629,-78.613,0.000
1727539791.033,-59.082,-25.879,-211.426,-52.734,0.000
1727539791.037,95.215,-20.020,-192.383,115.723,0.000
1727539791.041,115.234,-11.719,-173.340,149.414,0.000
1727539791.045,57.129,-4.395,-122.070,82.520,0.000
1727539791.049,-73.242,-7.812,-64.453,-56.641,0.000
1727539791.053,-68.359,-14.160,3.418,-49.316,0.000
1727539791.057,85.449,-17.090,99.121,114.258,0.000
1727539791.061,108.887,-21.973,192.871,152.832,0.000
1727539791.065,55.664,-24.414,288.086,107.422,0.000
1727539791.068,-67.383,-27.344,405.273,-5.859,0.000
1727539791.072,-84.961,-35.156,588.379,-37.109,0.000
1727539791.076,68.848,-40.527,797.363,107.910,0.000
1727539791.080,122.070,-35.645,947.754,159.668,0.000
1727539791.084,77.148,-28.809,971.680,124.023,0.000
1727539791.088,-42.480,-26.367,963.379,22.949,0.000
1727539791.092,-86.914,-30.762,969.727,-35.645,0.000
1727539791.096,60.547,-30.273,968.262,88.379,0.000
1727539791.100,125.488,-23.926,968.262,145.508,0.000
1727539791.104,73.242,-28.320,968.262,104.492,0.000
1727539791.107,-51.758,-30.273,968.262,4.883,0.000
1727539791.111,-104.492,-23.926,968.262,-74.219,0.000
1727539791.115,41.504,-16.113,968.262,47.852,0.000
1727539791.119,121.094,-18.555,968.262,132.324,0.000
1727539791.123,83.008,-15.625,968.262,92.773,0.000
1727539791.127,-25.879,-10.254,968.262,3.418,0.000
1727539791.131,-109.863,-13.184,967.773,-80.566,0.000
1727539791.135,20.508,-10.254,968.262,29.785,0.000
1727539791.139,128.906,-8.301,968.262,116.211,0.000
1727539791.143,90.332,-18.066,968.262,80.078,0.000
1727539791.147,-22.461,-22.461,968.262,-10.254,0.000
1727539791.150,-113.281,-18.555,968.262,-105.957,0.000
1727539791.154,8.301,-12.695,968.262,-15.625,0.000
1727539791.158,129.395,-10.254,968.262,85.938,0.000
1727539791.162,101.074,-14.648,968.262,65.430,0.000
1727539791.166,-7.324,-18.555,968.262,-20.508,0.000
1727539791.170,-125.000,-19.043,968.262,-119.629,0.000
1727539791.174,-36.133,-13.672,968.262,-38.086,0.000
1727539791.178,93.750,-6.348,968.262,77.637,0.000
1727539791.182,98.145,-4.883,968.262,73.242,0.000
1727539791.186,21.484,-2.441,968.262,1.465,0.000
1727539791.190,-119.141,-5.371,968.262,-123.047,0.000
1727539791.193,-58.594,-7.324,967.773,-72.754,0.000
1727539791.197,88.379,-1.465,968.262,60.547,0.000
1727539791.201,94.727,1.465,968.262,65.430,0.000
1727539791.205,30.273,8.301,968.262,4.883,0.000
1727539791.209,-106.934,12.207,968.262,-119.141,0.000
1727539791.213,-83.496,5.859,968.262,-103.516,0.000
1727539791.217,67.871,3.906,968.262,34.668,0.000
1727539791.221,90.332,8.789,968.262,61.523,0.000
1727539791.225,31.738,11.230,968.262,5.371,0.000
1727539791.229,-88.379,10.742,968.262,-120.605,0.000
1727539791.232,-70.801,12.695,968.262,-115.723,0.000
1727539791.236,83.008,12.207,968.262,29.297,0.000
1727539791.240,112.793,12.695,968.262,65.430,0.000
1727539791.244,42.969,7.324,968.262,21.973,0.000
1727539791.248,-92.285,2.441,966.797,-94.238,0.000
1727539791.252,-95.703,4.883,969.238,-106.445,0.000
1727539791.256,58.105,5.371,955.078,23.926,0.000
1727539791.260,104.492,2.930,919.434,51.758,0.000
1727539791.264,58.594,3.906,888.184,19.531,0.000
1727539791.268,-78.125,3.418,853.516,-84.473,0.000
1727539791.272,-121.582,10.742,814.941,-120.605,0.000
1727539791.275,27.344,14.160,784.180,13.184,0.000
1727539791.279,88.867,13.672,749.023,66.406,0.000
1727539791.283,42.969,9.766,702.148,24.902,0.000
1727539791.287,-67.871,8.789,686.035,-74.219,0.000
1727539791.291,-113.770,14.160,653.320,-130.859,0.000
1727539791.295,19.531,7.812,610.840,-11.230,0.000
1727539791.299,79.590,5.371,599.609,60.059,0.000
1727539791.303,52.734,1.465,584.961,28.809,0.000
1727539791.307,-32.227,-1.465,563.477,-48.828,0.000
1727539791.311,-114.746,6.348,556.641,-128.418,0.000
1727539791.315,-0.488,13.672,545.898,-35.645,0.000
1727539791.318,89.844,11.230,517.578,63.965,0.000
1727539791.322,61.523,12.695,495.117,43.945,0.000
1727539791.326,-38.574,14.160,443.359,-45.410,0.000
1727539791.330,-122.559,9.766,413.086,-124.512,0.000
1727539791.334,-4.883,8.789,420.898,-40.039,0.000
1727539791.338,89.355,1.953,409.180,49.316,0.000
1727539791.342,62.012,0.000,394.531,32.227,0.000
1727539791.346,-22.949,-2.441,375.977,-36.621,0.000
1727539791.350,-123.047,-1.953,349.609,-126.953,0.000
1727539791.354,-38.574,1.953,326.660,-50.293,0.000
1727539791.357,81.543,-1.465,336.914,62.988,0.000
1727539791.361,75.195,-7.324,338.867,53.711,0.000
1727539791.365,-16.602,-6.836,309.082,-20.508,0.000
1727539791.369,-127.441,-1.465,284.180,-130.371,0.000
1727539791.373,-49.316,0.000,270.020,-77.637,0.000
1727539791.377,85.449,-4.395,278.809,53.711,0.000
1727539791.381,77.148,-5.859,288.086,58.594,0.000
1727539791.385,-1.953,-10.254,275.879,-6.836,0.000
1727539791.389,-122.070,-15.137,267.090,-110.352,0.000
1727539791.393,-72.754,-7.812,270.508,-79.590,0.000
1727539791.397,72.754,-2.441,262.695,58.594,0.000
1727539791.400,96.191,0.977,233.887,78.125,0.000
1727539791.404,27.344,-3.418,236.328,20.996,0.000
1727539791.408,-111.816,-9.766,272.949,-96.680,0.000
1727539791.412,-98.633,-12.207,300.781,-87.891,0.000
1727539791.416,54.688,-11.719,310.547,42.480,0.000
1727539791.420,84.961,-12.207,315.430,70.312,0.000
1727539791.424,16.113,-14.648,311.523,26.367,0.000
1727539791.428,-104.492,-12.695,291.992,-91.309,0.000
1727539791.432,-104.980,-7.812,270.020,-101.562,0.000
1727539791.436,48.828,-6.836,254.395,31.738,0.000
1727539791.440,95.215,-4.395,245.117,67.871,0.000
1727539791.443,41.504,0.977,243.652,19.531,0.000
1727539791.447,-82.520,0.488,233.887,-82.031,0.000
1727539791.451,-116.699,-3.418,215.820,-119.629,0.000
1727539791.455,29.785,-7.812,209.473,20.020,0.000
1727539791.459,80.078,-7.324,198.730,79.102,0.000
1727539791.463,31.250,-10.742,178.223,25.391,0.000
1727539791.467,-77.637,-12.695,173.340,-73.730,0.000
1727539791.471,-126.953,-9.277,166.016,-124.023,0.000
1727539791.475,21.484,-7.812,154.297,-4.395,0.000
1727539791.479,104.492,-8.301,150.879,62.988,0.000
1727539791.483,49.805,-10.742,150.879,38.086,0.000
1727539791.486,-77.148,-18.066,152.832,-55.176,0.000
1727539791.490,-135.742,-20.508,159.180,-123.535,0.000
1727539791.494,5.371,-13.672,158.203,-7.812,0.000
1727539791.498,89.355,-7.324,149.902,71.777,0.000
1727539791.502,61.035,-9.277,146.484,53.223,0.000
1727539791.506,-32.715,-10.254,122.559,-35.156,0.000
1727539791.510,-141.113,-10.254,87.891,-128.418,0.000
1727539791.514,-26.855,-16.113,86.914,-34.180,0.000
1727539791.518,83.984,-14.160,98.145,57.617,0.000
1727539791.522,61.523,-4.395,118.652,45.898,0.000
1727539791.526,-23.438,-3.418,142.578,-27.344,0.000
1727539791.529,-129.883,-8.301,148.926,-119.141,0.000
1727539791.533,-40.527,-9.766,137.695,-42.969,0.000
1727539791.537,87.891,-7.812,125.488,61.035,0.000
1727539791.541,73.730,-7.812,108.887,53.711,0.000
1727539791.545,-11.719,-5.371,92.285,-15.625,0.000
1727539791.549,-131.836,-1.465,74.219,-128.418,0.000
1727539791.553,-61.523,3.418,53.223,-79.590,0.000
1727539791.557,71.777,1.465,67.871,40.039,0.000
1727539791.561,58.105,-9.277,87.402,46.387,0.000
1727539791.565,-28.320,-12.695,87.891,-15.625,0.000
1727539791.568,-135.742,-7.324,83.008,-118.652,0.000
1727539791.572,-70.801,-2.930,67.871,-81.055,0.000
1727539791.576,82.520,-0.977,55.664,58.594,0.000
1727539791.580,99.609,0.000,51.758,83.008,0.000
1727539791.584,27.344,8.789,43.945,28.320,0.000
1727539791.588,-102.051,7.324,33.691,-82.520,0.000
1727539791.592,-79.102,0.977,29.785,-76.172,0.000
1727539791.596,70.801,-2.930,44.922,49.805,0.000
1727539791.600,94.238,-5.371,48.828,71.777,0.000
1727539791.604,32.715,-4.883,41.016,18.066,0.000
1727539791.608,-101.074,-2.441,41.016,-85.938,0.000
1727539791.611,-97.168,3.906,7.324,-90.820,0.000
1727539791.615,63.477,1.953,-3.906,44.922,0.000
1727539791.619,100.586,-3.418,21.973,86.914,0.000
1727539791.623,41.992,-3.418,35.645,36.133,0.000
1727539791.627,-87.402,0.000,42.480,-72.266,0.000
1727539791.631,-120.117,-3.418,43.457,-109.375,0.000
1727539791.635,35.156,-7.324,51.270,17.090,0.000
1727539791.639,92.773,-8.301,52.734,83.984,0.000
1727539791.643,47.363,-3.906,51.758,51.270,0.000
1727539791.647,-61.523,2.441,49.316,-56.152,0.000
1727539791.650,-112.305,2.930,41.504,-107.422,0.000
1727539791.654,20.020,-2.930,30.273,14.160,0.000
1727539791.658,94.727,1.953,38.574,81.055,0.000
1727539791.662,62.500,12.695,58.105,53.223,0.000
1727539791.666,-50.293,8.301,56.641,-52.734,0.000
1727539791.670,-137.207,0.000,50.293,-129.883,0.000
1727539791.674,-9.277,0.488,50.781,-13.672,0.000
1727539791.678,86.914,4.395,43.457,59.082,0.000
1727539791.682,53.223,0.000,38.086,44.434,0.000
1727539791.686,-58.105,-6.348,25.391,-31.738,0.000
1727539791.690,-142.090,2.441,-5.859,-121.094,0.000
1727539791.693,-23.926,7.812,3.906,-26.367,0.000
1727539791.697,74.219,3.418,43.457,65.918,0.000
1727539791.701,52.246,-1.465,55.664,54.688,0.000
1727539791.705,-55.176,-8.789,55.176,-20.508,0.000
1727539791.709,-158.691,-10.254,48.340,-125.977,0.000
1727539791.713,-42.480,-2.930,55.664,-57.129,0.000
1727539791.717,82.031,0.977,61.523,41.992,0.000
1727539791.721,77.148,2.930,59.570,52.246,0.000
1727539791.725,8.301,5.859,72.266,5.371,0.000
1727539791.729,-117.676,4.883,64.453,-108.398,0.000
1727539791.733,-61.035,1.465,53.223,-67.871,0.000
1727539791.736,72.754,2.441,55.176,57.617,0.000
1727539791.740,75.684,2.930,57.129,80.078,0.000
1727539791.744,-5.859,0.977,43.457,28.809,0.000
1727539791.748,-117.676,-0.488,32.715,-82.031,0.000
1727539791.752,-55.664,2.441,37.598,-62.012,0.000
1727539791.756,81.055,1.953,52.246,59.570,0.000
1727539791.760,89.844,-2.441,55.664,72.754,0.000
1727539791.764,25.391,-5.859,44.434,13.672,0.000
1727539791.768,-104.492,-1.465,35.156,-99.609,0.000
1727539791.772,-77.148,3.906,4.395,-81.055,0.000
1727539791.776,74.707,7.324,2.930,61.523,0.000
1727539791.779,92.773,1.465,53.223,79.590,0.000
1727539791.783,35.156,-4.883,63.477,21.973,0.000
1727539791.787,-97.168,-5.371,25.879,-83.496,0.000
1727539791.791,-106.934,-5.859,20.020,-97.656,0.000
1727539791.795,49.316,-3.906,39.551,32.227,0.000
1727539791.799,88.867,-4.883,26.367,71.777,0.000
1727539791.803,26.855,-9.277,18.066,18.066,0.000
1727539791.807,-94.238,-10.742,22.461,-91.797,0.000
1727539791.811,-112.793,-7.324,11.230,-116.699,0.000
1727539791.815,39.551,-5.859,9.277,17.090,0.000
1727539791.818,93.750,-7.812,13.184,70.801,0.000
1727539791.822,36.133,-9.766,17.578,27.344,0.000
1727539791.826,-88.867,-7.812,20.020,-72.754,0.000
1727539791.830,-132.324,-3.906,11.230,-114.258,0.000
1727539791.834,10.742,-6.836,0.977,12.695,0.000
1727539791.838,70.801,-5.859,-6.836,66.406,0.000
1727539791.842,27.344,-2.930,-4.395,25.879,0.000
1727539791.846,-82.520,-10.254,0.977,-62.500,0.000
1727539791.850,-144.531,-8.789,-5.859,-123.047,0.000
1727539791.854,-3.418,-0.977,-7.812,-18.066,0.000
1727539791.858,83.984,0.000,-2.930,63.965,0.000
1727539791.861,53.711,-3.906,4.395,35.645,0.000
1727539791.865,-54.688,-7.812,9.766,-55.176,0.000
1727539791.869,-154.297,-12.695,4.395,-129.395,0.000
1727539791.873,-38.574,-13.672,4.395,-31.738,0.000
1727539791.877,64.453,-9.766,3.418,59.082,0.000
1727539791.881,39.551,-8.301,2.441,35.645,0.000
1727539791.885,-64.941,-9.277,-7.812,-53.223,0.000
1727539791.889,-171.387,-9.766,-20.996,-144.531,0.000
1727539791.893,-60.547,-9.766,-14.160,-60.059,0.000
1727539791.897,73.730,-9.766,-8.301,54.688,0.000
1727539791.901,41.992,-9.277,-8.789,24.902,0.000
1727539791.904,-4.395,-6.836,-3.418,-13.672,0.000
1727539791.908,51.270,-5.371,-13.672,41.016,0.000
1727539791.912,65.918,-4.395,-21.973,56.152,0.000
1727539791.916,-15.625,-6.836,-21.973,-10.254,0.000
1727539791.920,-144.043,-13.672,-18.066,-125.977,0.000
1727539791.924,-88.379,-9.766,-7.812,-84.473,0.000
1727539791.928,56.152,-4.883,-5.859,33.691,0.000
1727539791.932,63.477,-0.977,-26.367,51.758,0.000
1727539791.936,-2.441,-6.836,-31.738,-2.441,0.000
1727539791.940,-127.930,-7.812,-13.184,-121.094,0.000
1727539791.944,-97.656,-0.977,-3.906,-92.773,0.000
1727539791.947,50.293,-1.465,-12.207,42.969,0.000
1727539791.951,70.312,-1.465,-18.555,57.617,0.000
1727539791.955,1.465,-3.418,-18.066,-2.441,0.000
1727539791.959,-125.977,-2.930,-20.020,-105.957,0.000
1727539791.963,-118.164,-1.953,-26.367,-107.910,0.000
1727539791.967,45.410,-0.977,-26.855,24.902,0.000
1727539791.971,85.449,2.441,-18.066,62.500,0.000
1727539791.975,24.902,-3.418,-16.602,25.391,0.000
1727539791.979,-103.027,-13.672,-21.484,-78.125,0.000
1727539791.983,-130.371,-12.695,-12.207,-113.770,0.000
1727539791.987,24.414,-7.812,-9.277,20.508,0.000
1727539791.990,77.148,-3.906,-17.578,61.035,0.000
1727539791.994,29.785,-0.488,-20.996,14.160,0.000
1727539791.998,-90.332,-0.977,-24.902,-70.801,0.000
1727539792.002,-139.648,-7.324,-23.926,-110.840,0.000
1727539792.006,8.789,-7.324,-21.484,9.277,0.000
1727539792.010,73.730,-0.488,-29.785,70.801,0.000
1727539792.014,31.738,-4.883,-47.363,31.738,0.000
1727539792.018,-81.543,-12.695,-34.180,-64.453,0.000
1727539792.022,-149.414,-12.207,-11.719,-123.535,0.000
1727539792.026,-13.184,-11.230,-10.254,-11.230,0.000
1727539792.029,78.125,-11.230,-8.789,63.965,0.000
1727539792.033,48.340,-4.883,-15.137,33.691,0.000
1727539792.037,-63.965,-2.930,-30.762,-60.059,0.000
1727539792.041,-140.137,-1.953,-36.133,-135.742,0.000
1727539792.045,-18.555,0.488,-30.762,-20.020,0.000
1727539792.049,68.848,2.930,-26.367,70.801,0.000
1727539792.053,48.340,0.488,-31.738,44.434,0.000
1727539792.057,-49.805,-2.441,-41.992,-36.133,0.000
1727539792.061,-156.738,-8.301,-41.504,-134.766,0.000
1727539792.065,-45.410,-10.254,-38.086,-37.109,0.000
1727539792.069,61.523,-10.254,-28.809,68.359,0.000
1727539792.072,44.434,-12.695,-22.949,45.898,0.000
1727539792.076,-27.832,-8.789,-31.250,-30.762,0.000
1727539792.080,-136.719,-8.789,-35.645,-128.418,0.000
1727539792.084,-68.848,-9.277,-34.180,-56.641,0.000
1727539792.088,47.852,-6.836,-32.715,55.176,0.000
1727539792.092,48.340,-16.602,-24.902,51.270,0.000
1727539792.096,-9.766,-22.461,-23.438,0.000,0.000
1727539792.100,-133.789,-12.695,-34.668,-114.258,0.000
1727539792.104,-98.145,-9.766,-37.598,-96.680,0.000
1727539792.108,49.805,-6.836,-32.715,33.691,0.000
1727539792.112,67.383,-0.977,-36.133,51.270,0.000
1727539792.115,-10.254,-3.906,-35.645,-16.602,0.000
1727539792.119,-134.766,-1.953,-37.109,-124.512,0.000
1727539792.123,-93.750,-0.488,-36.621,-101.074,0.000
1727539792.127,50.293,-2.441,-26.367,28.320,0.000
1727539792.131,59.570,2.930,-25.879,48.340,0.000
1727539792.135,-1.953,3.418,-38.086,-3.906,0.000
1727539792.139,-119.141,2.441,-23.926,-109.375,0.000
1727539792.143,-108.398,2.930,-11.230,-111.328,0.000
1727539792.147,41.504,-0.977,-14.160,22.949,0.000
1727539792.151,72.754,-3.418,-12.695,65.918,0.000
1727539792.155,1.953,-5.371,-9.277,26.855,0.000
1727539792.158,-120.117,-2.930,-6.836,-85.938,0.000
1727539792.162,-121.582,1.953,-13.184,-115.723,0.000
1727539792.166,29.297,6.836,-22.461,14.648,0.000
1727539792.170,82.031,7.812,-22.949,56.641,0.000
1727539792.174,34.668,9.766,-14.160,13.184,0.000
1727539792.178,-88.867,8.301,-8.301,-89.355,0.000
1727539792.182,-131.348,-0.488,-6.348,-126.465,0.000
1727539792.186,14.648,-3.906,-12.695,4.395,0.000
1727539792.190,79.102,0.488,-25.391,60.059,0.000
1727539792.194,36.133,2.441,-26.855,22.949,0.000
1727539792.197,-74.707,-1.465,-17.090,-66.895,0.000
1727539792.201,-142.578,-1.465,-12.695,-121.094,0.000
1727539792.205,-8.301,-3.906,-16.602,-12.207,0.000
1727539792.209,79.590,-3.906,-23.438,63.965,0.000
1727539792.213,38.574,1.465,-24.414,42.480,0.000
1727539792.217,-77.148,0.000,-29.297,-54.199,0.000
1727539792.221,-148.438,2.930,-28.320,-135.742,0.000
1727539792.225,-10.742,5.371,-11.230,-20.508,0.000
1727539792.229,79.590,1.953,-9.766,59.082,0.000
1727539792.233,51.758,-0.488,-6.348,32.227,0.000
1727539792.237,-41.992,2.441,-6.836,-35.645,0.000
1727539792.240,-140.625,2.441,-19.531,-127.930,0.000
1727539792.244,-29.785,0.488,-19.043,-40.039,0.000
1727539792.248,73.242,1.953,-19.043,59.570,0.000
1727539792.252,54.199,-0.977,-10.742,39.062,0.000
1727539792.256,-31.250,-2.441,-4.883,-28.809,0.000
1727539792.260,-148.438,-7.324,-12.207,-135.742,0.000
1727539792.264,-59.082,-7.812,-24.414,-66.895,0.000
1727539792.268,69.336,-4.395,-41.016,49.316,0.000
1727539792.272,64.941,0.000,-30.273,43.457,0.000
1727539792.276,-2.930,7.324,-15.625,-12.695,0.000
1727539792.280,-126.953,3.418,-13.184,-116.211,0.000
1727539792.283,-70.801,-6.836,-8.301,-77.637,0.000
1727539792.287,65.430,-10.742,-8.789,44.434,0.000
1727539792.291,66.406,-7.324,-4.883,62.012,0.000
1727539792.295,0.977,-6.836,-2.441,-5.859,0.000
1727539792.299,-125.488,-12.207,-6.348,-129.395,0.000
1727539792.303,-94.238,-13.184,-9.766,-96.191,0.000
1727539792.307,54.688,-12.695,-20.020,40.527,0.000
1727539792.311,72.266,-15.625,-26.855,56.152,0.000
1727539792.315,11.230,-13.184,-30.762,0.488,0.000
1727539792.319,-122.070,-10.742,-31.738,-111.816,0.000
1727539792.323,-108.887,-12.695,-29.297,-99.609,0.000
1727539792.326,47.852,-10.742,-32.715,38.086,0.000
1727539792.330,77.148,-7.812,-27.344,68.848,0.000
1727539792.334,14.648,-6.836,-19.043,25.391,0.000
1727539792.338,-112.793,-5.859,-16.602,-89.355,0.000
1727539792.342,-118.652,-9.277,-16.602,-105.469,0.000
1727539792.346,39.062,-8.301,-36.621,33.203,0.000
1727539792.350,86.426,-8.301,-45.410,74.707,0.000
1727539792.354,36.621,-11.719,-24.902,25.391,0.000
1727539792.358,-82.520,-7.324,-7.324,-85.938,0.000
1727539792.362,-110.840,-5.859,-4.883,-117.676,0.000
1727539792.366,42.969,-1.465,-12.695,23.926,0.000
1727539792.369,93.262,-1.465,-26.367,75.195,0.000
1727539792.373,36.133,-2.441,-21.484,32.715,0.000
1727539792.377,-82.520,-3.418,-11.230,-61.523,0.000
1727539792.381,-136.719,-7.324,-9.277,-119.141,0.000
1727539792.385,3.906,-9.277,-14.160,-3.418,0.000
1727539792.389,86.426,-11.719,-27.832,74.707,0.000
1727539792.393,54.688,-8.301,-30.273,45.410,0.000
1727539792.397,-55.176,-7.324,-20.996,-56.152,0.000
1727539792.401,-133.301,-5.859,-25.879,-130.371,0.000
1727539792.405,-10.742,-3.418,-36.621,-26.855,0.000
1727539792.409,73.730,-0.488,-36.133,51.270,0.000
1727539792.412,42.480,1.953,-29.785,24.902,0.000
1727539792.416,-60.059,-0.488,-35.645,-67.383,0.000
1727539792.420,-149.414,-1.465,-52.734,-155.273,0.000
1727539792.424,-27.344,-0.488,-41.992,-50.293,0.000
1727539792.428,83.496,-0.488,-36.621,47.363,0.000
1727539792.432,68.848,0.000,-44.922,34.668,0.000
1727539792.436,-33.691,-5.371,-39.062,-31.250,0.000
1727539792.440,-147.949,-9.766,-33.203,-130.371,0.000
1727539792.444,-49.316,-4.395,-27.832,-52.734,0.000
1727539792.448,77.637,-1.953,-34.180,57.129,0.000
1727539792.451,70.801,-0.977,-38.086,41.016,0.000
1727539792.455,-16.602,-0.977,-32.715,-25.391,0.000
1727539792.459,-139.648,-3.906,-28.320,-131.836,0.000
1727539792.463,-71.289,-5.859,-22.949,-87.891,0.000
1727539792.467,62.500,-6.836,-31.250,31.250,0.000
1727539792.471,62.988,-8.301,-31.250,48.828,0.000
1727539792.475,-16.602,-4.883,-20.508,-4.883,0.000
1727539792.479,-143.555,-6.836,-28.320,-118.164,0.000
1727539792.483,-90.820,-8.301,-36.621,-81.055,0.000
1727539792.487,47.852,-5.371,-39.062,56.641,0.000
1727539792.491,62.500,-4.395,-47.852,57.129,0.000
1727539792.494,-4.883,-2.930,-52.246,-2.441,0.000
1727539792.498,-130.859,0.000,-52.734,-106.934,0.000
1727539792.502,-97.168,5.371,-42.480,-98.633,0.000
1727539792.506,58.594,2.441,-38.574,37.598,0.000
1727539792.510,79.102,-4.883,-49.316,62.012,0.000
1727539792.514,14.648,-6.836,-50.781,21.973,0.000
1727539792.518,-116.211,-2.441,-38.086,-86.914,0.000
1727539792.522,-116.699,-4.395,-26.367,-116.699,0.000
1727539792.526,47.363,-1.953,-31.738,20.020,0.000
1727539792.530,88.379,5.371,-32.227,74.707,0.000
1727539792.534,21.973,3.418,-28.320,26.855,0.000
1727539792.537,-105.957,1.953,-33.203,-85.938,0.000
1727539792.541,-127.930,0.977,-31.250,-114.258,0.000
1727539792.545,21.973,-5.371,-29.297,16.113,0.000
1727539792.549,87.891,-4.395,-26.367,72.266,0.000
1727539792.553,44.434,-6.836,-23.926,44.434,0.000
1727539792.557,-86.426,-9.766,-27.344,-69.336,0.000
1727539792.561,-130.371,-8.301,-30.273,-134.277,0.000
1727539792.565,24.414,-6.348,-33.203,-4.395,0.000
1727539792.569,93.750,-6.348,-46.387,69.824,0.000
1727539792.573,38.086,-7.812,-56.641,38.574,0.000
1727539792.576,-84.473,-13.672,-43.945,-51.270,0.000
1727539792.580,-151.367,-13.184,-28.809,-134.277,0.000
1727539792.584,-13.672,-13.672,-38.086,-32.715,0.000
1727539792.588,78.125,-14.160,-42.969,56.641,0.000
1727539792.592,48.340,-12.695,-35.156,38.574,0.000
1727539792.596,-50.293,-18.066,-27.344,-44.434,0.000
1727539792.600,-131.836,-20.020,-24.902,-124.023,0.000
1727539792.604,-13.184,-16.602,-28.320,-21.484,0.000
1727539792.608,88.379,-15.137,-39.062,72.266,0.000
1727539792.612,72.266,-9.277,-46.875,46.875,0.000
1727539792.616,-13.672,-7.324,-49.805,-21.973,0.000
1727539792.619,-129.395,-13.184,-51.270,-115.723,0.000
1727539792.623,-36.621,-12.207,-39.551,-48.828,0.000
1727539792.627,85.938,-15.137,-40.527,61.523,0.000
1727539792.631,70.312,-20.508,-47.852,59.570,0.000
1727539792.635,-19.531,-18.066,-36.133,-3.906,0.000
1727539792.639,-132.812,-14.648,-31.250,-118.164,0.000
1727539792.643,-53.223,-15.137,-36.133,-60.547,0.000
1727539792.647,77.637,-12.695,-34.668,55.664,0.000
1727539792.651,69.824,-9.277,-46.387,51.270,0.000
1727539792.655,-2.441,-12.695,-62.988,0.977,0.000
1727539792.659,-119.629,-8.789,-60.547,-119.141,0.000
1727539792.662,-73.242,-5.371,-49.316,-92.285,0.000
1727539792.666,66.895,-12.695,-47.852,44.434,0.000
1727539792.670,76.172,-14.648,-43.945,49.316,0.000
1727539792.674,10.254,-14.648,-29.785,-10.254,0.000
1727539792.678,-117.676,-19.531,-22.949,-120.605,0.000
1727539792.682,-97.656,-15.137,-28.809,-100.586,0.000
1727539792.686,44.922,-12.695,-31.738,33.203,0.000
1727539792.690,61.523,-15.137,-32.227,53.711,0.000
1727539792.694,4.395,-14.648,-37.109,9.277,0.000
1727539792.698,-112.793,-9.277,-44.434,-101.074,0.000
1727539792.702,-109.375,-4.395,-52.246,-112.305,0.000
1727539792.705,35.156,0.000,-45.898,22.949,0.000
1727539792.709,70.801,1.465,-44.922,72.754,0.000
1727539792.713,20.020,-1.953,-53.223,32.227,0.000
1727539792.717,-101.562,-3.418,-37.598,-75.684,0.000
1727539792.721,-114.746,-3.418,-21.973,-103.027,0.000
1727539792.725,43.457,-10.742,-20.996,31.250,0.000
1727539792.729,85.938,-14.160,-19.043,80.078,0.000
1727539792.733,35.156,-10.254,-24.902,40.527,0.000
1727539792.737,-75.195,-5.371,-39.062,-61.035,0.000
1727539792.741,-125.488,-3.418,-47.363,-112.305,0.000
1727539792.745,16.113,-7.812,-38.086,15.137,0.000
1727539792.748,88.379,-7.324,-30.273,84.473,0.000
1727539792.752,43.945,-7.812,-40.039,51.758,0.000
1727539792.756,-66.406,-7.812,-44.922,-40.039,0.000
1727539792.760,-130.859,-10.254,-25.879,-113.770,0.000
1727539792.764,2.930,-16.602,-15.625,-11.719,0.000
1727539792.768,94.727,-18.066,-18.066,69.336,0.000
1727539792.772,57.617,-16.602,-26.367,44.434,0.000
1727539792.776,-55.664,-15.137,-39.062,-57.617,0.000
1727539792.780,-140.625,-14.648,-42.480,-134.766,0.000
1727539792.784,-22.949,-9.277,-47.852,-19.043,0.000
1727539792.788,86.426,-1.465,-46.387,83.984,0.000
1727539792.791,68.848,-1.465,-38.574,60.547,0.000
1727539792.795,-34.668,-9.277,-40.527,-21.484,0.000
1727539792.799,-136.230,-16.113,-37.598,-102.051,0.000
1727539792.803,-45.898,-17.578,-35.645,-30.762,0.000
1727539792.807,69.824,-15.625,-50.781,67.383,0.000
1727539792.811,65.918,-11.230,-64.453,61.523,0.000
1727539792.815,-14.160,-11.719,-66.406,-3.418,0.000
1727539792.819,-120.117,-10.254,-47.852,-102.051,0.000
1727539792.823,-44.434,-4.883,-32.227,-47.852,0.000
1727539792.827,84.473,-6.836,-31.738,64.941,0.000
1727539792.831,78.613,-9.766,-35.156,59.082,0.000
1727539792.834,-9.766,-9.766,-35.156,-2.441,0.000
1727539792.838,-142.090,-16.113,-33.203,-115.723,0.000
1727539792.842,-89.844,-21.484,-42.480,-83.984,0.000
1727539792.846,59.082,-19.531,-42.969,53.711,0.000
1727539792.850,70.801,-20.508,-41.016,64.453,0.000
1727539792.854,-3.906,-20.020,-46.875,-13.184,0.000
1727539792.858,-131.836,-18.555,-43.457,-126.465,0.000
1727539792.862,-94.727,-17.090,-36.133,-92.285,0.000
1727539792.866,50.293,-15.137,-38.086,36.621,0.000
1727539792.870,69.336,-17.578,-37.109,47.363,0.000
1727539792.873,8.301,-22.461,-35.156,-1.953,0.000
1727539792.877,-120.117,-18.066,-41.016,-109.863,0.000
1727539792.881,-113.281,-11.719,-36.133,-108.398,0.000
1727539792.885,36.621,-12.695,-28.809,20.020,0.000
1727539792.889,78.613,-16.113,-32.227,55.664,0.000
1727539792.893,27.832,-14.160,-35.645,16.602,0.000
1727539792.897,-93.750,-7.812,-35.156,-82.031,0.000
1727539792.901,-108.887,-16.602,-32.227,-102.051,0.000
1727539792.905,33.203,-22.461,-37.598,27.832,0.000
1727539792.909,73.730,-17.090,-49.316,72.266,0.000
1727539792.913,23.438,-15.625,-42.969,27.832,0.000
1727539792.916,-101.562,-17.578,-31.738,-83.496,0.000
1727539792.920,-133.789,-15.137,-20.508,-124.512,0.000
1727539792.924,20.508,-16.113,-24.414,6.348,0.000
1727539792.928,78.125,-14.160,-28.809,68.359,0.000
1727539792.932,20.996,-12.695,-30.273,37.598,0.000
1727539792.936,-93.262,-14.160,-40.527,-61.523,0.000
1727539792.940,-143.066,-10.254,-37.598,-124.023,0.000
1727539792.944,-4.883,-12.695,-23.438,-2.930,0.000
1727539792.948,70.312,-15.137,-11.719,79.590,0.000
1727539792.952,33.691,-14.648,-13.672,62.988,0.000
1727539792.955,-74.219,-17.578,-19.043,-46.387,0.000
1727539792.959,-147.461,-13.672,-24.414,-134.766,0.000
1727539792.963,-13.672,-9.766,-26.367,-27.832,0.000
1727539792.967,79.590,-9.277,-29.785,52.734,0.000
1727539792.971,46.875,-9.277,-31.250,32.227,0.000
1727539792.975,-56.152,-15.625,-34.668,-47.852,0.000
1727539792.979,-152.344,-12.207,-41.016,-135.742,0.000
1727539792.983,-35.156,-7.324,-38.574,-44.922,0.000
1727539792.987,87.402,-5.859,-35.645,71.289,0.000
1727539792.991,73.730,-9.277,-37.109,62.012,0.000
1727539792.995,-16.113,-18.066,-38.574,-6.348,0.000
1727539792.998,-137.695,-17.578,-39.551,-106.934,0.000
1727539793.002,-62.012,-15.137,-44.922,-56.152,0.000
1727539793.006,74.219,-11.230,-46.387,63.477,0.000
1727539793.010,84.473,-7.324,-41.504,71.777,0.000
1727539793.014,-0.977,-5.859,-41.504,-3.906,0.000
1727539793.018,-133.789,-4.883,-41.016,-117.188,0.000
1727539793.022,-73.730,-5.371,-50.293,-68.359,0.000
1727539793.026,61.035,-11.719,-47.363,47.852,0.000
1727539793.030,72.266,-17.090,-29.785,54.199,0.000
1727539793.034,13.184,-14.648,-26.367,4.395,0.000
1727539793.038,-109.375,-15.137,-32.227,-105.957,0.000
1727539793.041,-68.359,-11.230,-40.039,-82.031,0.000
1727539793.045,79.102,-9.277,-36.621,52.734,0.000
1727539793.049,85.938,-14.160,-40.039,68.359,0.000
1727539793.053,13.184,-17.090,-41.504,16.113,0.000
1727539793.057,-122.070,-18.555,-40.039,-90.332,0.000
1727539793.061,-105.469,-17.090,-44.922,-105.469,0.000
1727539793.065,52.734,-17.090,-41.504,28.809,0.000
1727539793.069,82.520,-19.043,-34.668,64.941,0.000
1727539793.073,28.809,-14.648,-33.203,22.461,0.000
1727539793.077,-95.215,-14.160,-32.715,-83.008,0.000
1727539793.081,-121.094,-29.297,-49.805,-118.652,0.000
1727539793.084,44.922,-26.367,-51.270,26.367,0.000
1727539793.088,104.004,-15.137,-45.410,83.984,0.000
1727539793.092,36.133,-21.484,-44.922,18.555,0.000
1727539793.096,-76.660,-16.602,-39.062,-79.102,0.000
1727539793.100,-115.234,-17.090,-36.133,-117.676,0.000
1727539793.104,14.160,-21.973,-48.340,-0.488,0.000
1727539793.108,88.867,-11.230,-50.293,73.242,0.000
1727539793.112,48.828,-10.742,-36.621,45.898,0.000
1727539793.116,-77.637,-14.648,-36.621,-68.848,0.000
1727539793.120,-132.324,-9.277,-35.645,-130.371,0.000
1727539793.124,7.812,-12.207,-31.738,-3.418,0.000
1727539793.127,81.055,-12.207,-35.645,71.777,0.000
1727539793.131,39.551,-14.648,-41.992,35.645,0.000
1727539793.135,-72.266,-23.438,-48.828,-65.430,0.000
1727539793.139,-148.926,-24.414,-44.434,-142.578,0.000
1727539793.143,-21.973,-16.113,-34.668,-26.855,0.000
1727539793.147,77.148,-12.695,-40.039,64.453,0.000
1727539793.151,43.457,-16.113,-39.062,40.527,0.000
1727539793.155,-56.152,-16.113,-40.039,-37.598,0.000
1727539793.159,-155.762,-18.555,-49.316,-138.184,0.000
1727539793.163,-48.340,-15.625,-47.363,-51.270,0.000
1727539793.167,64.941,-10.254,-36.133,44.922,0.000
1727539793.170,44.434,-14.648,-41.992,26.367,0.000
1727539793.174,-34.668,-16.602,-58.105,-35.156,0.000
1727539793.178,-138.672,-16.602,-52.734,-132.324,0.000
1727539793.182,-61.523,-17.578,-48.828,-81.055,0.000
1727539793.186,57.129,-12.207,-41.504,31.738,0.000
1727539793.190,55.664,-9.277,-36.133,57.617,0.000
1727539793.194,-42.480,-23.926,-40.527,-22.461,0.000
1727539793.198,-166.504,-28.809,-39.551,-146.484,0.000
1727539793.202,-71.777,-14.648,-47.363,-69.824,0.000
1727539793.206,74.219,-17.578,-49.316,48.340,0.000
1727539793.210,53.711,-25.879,-26.367,24.414,0.000
1727539793.213,-20.996,-20.508,-20.508,-24.414,0.000
1727539793.217,-141.602,-12.207,-35.645,-126.465,0.000
1727539793.221,-149.902,-31.250,-13.672,-146.484,0.000
1727539793.225,4.395,-40.527,-27.832,-13.672,0.000
1727539793.229,64.453,-15.137,-50.293,49.316,0.000
1727539793.233,-20.996,-18.555,-15.137,-20.996,0.000
1727539793.237,-152.344,-32.715,0.000,-139.648,0.000
1727539793.241,-104.004,-18.555,-30.762,-105.469,0.000
1727539793.245,41.992,-21.484,-43.945,21.484,0.000
1727539793.249,25.391,-44.434,-47.363,9.277,0.000
1727539793.252,-41.016,-45.898,-10.742,-45.410,0.000
1727539793.256,-160.156,-25.879,-10.254,-171.875,0.000
1727539793.260,-147.949,-20.996,-49.316,-156.738,0.000
1727539793.264,36.621,-31.250,-44.434,25.879,0.000
1727539793.268,58.594,-37.598,-38.086,27.832,0.000
1727539793.272,-39.551,-59.082,-22.949,-79.102,0.000
1727539793.276,-157.227,-53.711,-49.805,-191.895,0.000
1727539793.280,-208.984,-65.430,-25.879,-247.070,0.000
1727539793.284,-94.238,-97.656,-21.484,-120.117,0.000
1727539793.288,14.160,-54.688,-81.543,-11.230,0.000
1727539793.292,-21.484,-63.477,-41.504,-61.523,0.000
1727539793.295,-155.273,-101.562,-21.484,-189.453,0.000
1727539793.299,-207.520,-93.262,-78.125,-235.840,0.000
1727539793.303,-15.137,-71.777,-128.906,-45.898,0.000
1727539793.307,83.984,-65.918,-95.215,33.691,0.000
1727539793.311,2.441,-60.059,-54.688,-64.941,0.000
1727539793.315,-108.887,-65.918,-73.730,-138.672,0.000
1727539793.319,-190.430,-103.027,-88.379,-222.656,0.000
1727539793.323,-82.520,-91.309,-150.391,-137.207,0.000
1727539793.327,48.340,-66.406,-207.520,19.531,0.000
1727539793.331,33.691,-68.359,-257.812,6.348,0.000
1727539793.335,-80.078,-70.801,-337.402,-122.559,0.000
1727539793.338,-150.879,-63.965,-433.594,-193.359,0.000
1727539793.342,-22.461,-59.570,-530.762,-48.340,0.000
1727539793.346,63.965,-68.359,-626.465,46.387,0.000
1727539793.350,35.645,-74.219,-726.562,36.621,0.000
1727539793.354,-67.383,-77.148,-838.867,-75.684,0.000
1727539793.358,-178.223,-74.707,-969.238,-214.844,0.000
1727539793.362,-42.480,-66.895,-1000.000,-61.035,0.000
1727539793.366,84.961,-69.336,-996.094,88.867,0.000
1727539793.370,51.758,-65.918,-1000.000,55.664,0.000
1727539793.374,-46.387,-64.453,-1000.000,-55.176,0.000
1727539793.377,-169.434,-65.918,-1000.000,-177.246,0.000
1727539793.381,-53.223,-44.922,-1000.000,-50.781,0.000
1727539793.385,90.332,-45.410,-1000.000,98.633,0.000
1727539793.389,50.781,-56.641,-1000.000,54.199,0.000
1727539793.393,-2.930,-50.781,-1000.000,-6.348,0.000
1727539793.397,-118.652,-38.086,-1000.000,-106.445,0.000
1727539793.401,-85.449,-23.926,-1000.000,-58.594,0.000
1727539793.405,27.832,-49.316,-1000.000,66.406,0.000
1727539793.409,48.828,-52.734,-1000.000,89.844,0.000
1727539793.413,20.020,-26.855,-1000.000,70.312,0.000
1727539793.417,-113.770,-27.344,-1000.000,-63.477,0.000
1727539793.420,-121.094,-38.574,-1000.000,-100.586,0.000
1727539793.424,34.180,-42.969,-1000.000,73.242,0.000
1727539793.428,81.055,-39.551,-1000.000,131.836,0.000
1727539793.432,17.578,-24.902,-1000.000,59.082,0.000
1727539793.436,-114.746,-22.949,-1000.000,-80.078,0.000
1727539793.440,-120.605,-17.090,-1000.000,-102.539,0.000
1727539793.444,36.133,-11.230,-1000.000,69.824,0.000
1727539793.448,68.848,-23.926,-1000.000,90.820,0.000
1727539793.452,44.922,-7.812,-1000.000,60.059,0.000
1727539793.456,-64.453,-10.254,-1000.000,-24.414,0.000
1727539793.460,-134.277,-34.180,-1000.000,-93.262,0.000
1727539793.463,24.902,-28.320,-1000.000,62.012,0.000
1727539793.467,87.891,-21.973,-1000.000,129.395,0.000
1727539793.471,49.316,-14.648,-1000.000,71.777,0.000
1727539793.475,-58.105,-18.555,-1000.000,-42.969,0.000
1727539793.479,-136.230,-27.832,-1000.000,-114.746,0.000
1727539793.483,16.113,-23.926,-1000.000,44.434,0.000
1727539793.487,98.633,-16.602,-1000.000,133.301,0.000
1727539793.491,76.660,-3.418,-1000.000,105.469,0.000
1727539793.495,-33.691,-12.207,-1000.000,-4.395,0.000
1727539793.499,-114.258,-24.902,-1000.000,-86.426,0.000
1727539793.503,22.949,-23.438,-1000.000,42.969,0.000
1727539793.506,125.977,-16.602,-1000.000,129.395,0.000
1727539793.510,82.520,-22.461,-1000.000,94.727,0.000
1727539793.514,-46.387,-23.438,-1000.000,-9.766,0.000
1727539793.518,-117.188,-5.859,-1000.000,-83.984,0.000
1727539793.522,-11.230,-17.090,-1000.000,24.902,0.000
1727539793.526,86.426,-14.160,-1000.000,101.074,0.000
1727539793.530,39.062,-22.949,-997.559,40.039,0.000
1727539793.534,-24.414,-24.902,-1000.000,-8.789,0.000
1727539793.538,-127.441,-24.414,-982.910,-108.398,0.000
1727539793.542,-47.363,-25.879,-942.383,-29.785,0.000
1727539793.546,137.695,3.418,-926.758,155.273,0.000
1727539793.549,104.980,-0.488,-838.867,129.883,0.000
1727539793.553,0.000,-6.836,-786.621,18.555,0.000
1727539793.557,-122.559,-23.926,-755.859,-115.234,0.000
1727539793.561,-52.734,-29.785,-711.914,-39.062,0.000
1727539793.565,89.355,-17.090,-675.293,121.094,0.000
1727539793.569,83.984,-17.090,-625.977,124.023,0.000
1727539793.573,2.930,-26.855,-566.895,26.855,0.000
1727539793.577,-127.441,-25.879,-527.344,-121.582,0.000
1727539793.581,-56.152,-19.531,-520.996,-66.895,0.000
1727539793.585,85.938,-22.949,-493.164,98.145,0.000
1727539793.589,80.566,-25.391,-440.430,95.215,0.000
1727539793.592,1.953,-23.926,-396.484,3.418,0.000
1727539793.596,-148.438,-25.391,-355.469,-134.766,0.000
1727539793.600,-97.656,-14.648,-331.055,-84.473,0.000
1727539793.604,74.219,-0.977,-325.684,106.445,0.000
1727539793.608,85.449,-7.324,-289.062,133.301,0.000
1727539793.612,24.414,-12.207,-244.629,62.988,0.000
1727539793.616,-110.840,-13.672,-203.613,-99.609,0.000
1727539793.620,-104.004,-14.160,-169.922,-113.281,0.000
1727539793.624,57.617,-13.184,-166.016,62.012,0.000
1727539793.628,89.844,-12.695,-154.297,104.492,0.000
1727539793.631,47.852,-8.301,-133.789,62.012,0.000
1727539793.635,-79.590,-8.301,-116.211,-58.105,0.000
1727539793.639,-126.465,-12.695,-97.656,-88.867,0.000
1727539793.643,33.691,-16.602,-55.176,56.641,0.000
1727539793.647,98.633,-17.090,-0.977,104.004,0.000
1727539793.651,56.641,-13.184,19.531,72.754,0.000
1727539793.655,-52.734,-9.766,36.133,-33.691,0.000
1727539793.659,-96.680,-12.695,123.047,-90.332,0.000
1727539793.663,42.480,-15.137,256.836,45.898,0.000
1727539793.667,94.238,-17.578,380.371,111.816,0.000
1727539793.671,54.199,-16.113,512.207,76.660,0.000
1727539793.674,-60.059,-13.672,658.203,-40.039,0.000
1727539793.678,-136.719,-17.578,858.398,-116.211,0.000
1727539793.682,1.465,-21.484,974.121,25.879,0.000
1727539793.686,92.285,-21.484,963.379,112.793,0.000
1727539793.690,60.059,-19.531,967.285,75.195,0.000
1727539793.694,-41.992,-17.090,968.750,-16.113,0.000
1727539793.698,-127.441,-15.137,968.262,-93.262,0.000
1727539793.702,-14.160,-13.184,968.262,14.160,0.000
1727539793.706,86.426,-14.648,968.262,100.098,0.000
1727539793.710,72.266,-14.160,968.262,83.984,0.000
1727539793.714,-18.066,-7.324,968.262,11.230,0.000
1727539793.717,-119.141,-2.930,967.773,-87.891,0.000
1727539793.721,-22.461,-11.230,968.262,-10.742,0.000
1727539793.725,95.703,-11.230,968.262,91.797,0.000
1727539793.729,91.309,-6.836,968.262,74.219,0.000
1727539793.733,8.789,-5.859,968.262,3.418,0.000
1727539793.737,-118.652,-4.883,968.262,-96.191,0.000
1727539793.741,-53.223,-3.906,967.773,-32.227,0.000
1727539793.745,97.656,2.441,967.773,88.379,0.000
1727539793.749,109.375,4.395,968.262,89.355,0.000
1727539793.753,21.973,0.977,968.262,15.137,0.000
1727539793.756,-99.121,1.465,968.262,-86.426,0.000
1727539793.760,-36.133,6.348,968.262,-42.969,0.000
1727539793.764,90.332,-3.906,968.262,64.453,0.000
1727539793.768,85.938,-9.277,968.262,61.035,0.000
1727539793.772,29.297,5.371,968.262,7.324,0.000
1727539793.776,-95.215,2.441,968.262,-114.746,0.000
1727539793.780,-62.988,-6.836,968.262,-107.910,0.000
1727539793.784,86.426,-1.465,968.262,19.531,0.000
1727539793.788,92.285,2.441,968.262,51.270,0.000
1727539793.792,8.789,-0.488,968.262,16.113,0.000
1727539793.796,-106.445,3.418,968.262,-95.215,0.000
1727539793.799,-83.984,6.836,968.262,-97.168,0.000
1727539793.803,65.918,8.301,968.262,37.109,0.000
1727539793.807,102.539,10.254,968.262,65.430,0.000
1727539793.811,37.109,0.488,968.262,15.625,0.000
1727539793.815,-94.238,-3.418,968.262,-99.121,0.000
1727539793.819,-98.633,5.371,968.262,-121.582,0.000
1727539793.823,55.176,5.859,968.262,16.113,0.000
1727539793.827,94.727,-1.953,968.262,59.570,0.000
1727539793.831,48.340,-7.812,968.262,17.090,0.000
1727539793.835,-64.941,-8.301,968.262,-86.426,0.000
1727539793.839,-100.098,-2.441,968.262,-127.441,0.000
1727539793.842,44.922,-4.395,968.750,6.836,0.000
1727539793.846,102.539,0.977,966.309,60.547,0.000
1727539793.850,62.500,2.930,970.215,36.133,0.000
1727539793.854,-60.547,0.488,956.543,-56.152,0.000
1727539793.858,-125.488,11.230,893.555,-130.371,0.000
1727539793.862,30.762,12.695,843.750,-12.207,0.000
1727539793.866,113.770,9.277,825.684,65.430,0.000
1727539793.870,67.383,7.812,821.289,25.391,0.000
1727539793.874,-32.227,-6.348,803.223,-64.453,0.000
1727539793.878,-103.516,-5.371,770.020,-133.301,0.000
1727539793.882,17.578,1.953,791.016,-24.902,0.000
1727539793.885,121.094,2.441,837.402,76.172,0.000
1727539793.889,98.633,8.301,821.777,51.758,0.000
1727539793.893,-10.742,6.348,777.344,-36.621,0.000
1727539793.897,-124.023,4.395,755.371,-109.375,0.000
1727539793.901,-19.531,8.789,711.914,-21.973,0.000
1727539793.905,100.586,11.230,660.156,74.707,0.000
1727539793.909,79.590,9.766,678.711,63.965,0.000
1727539793.913,-8.301,-1.953,708.984,-18.066,0.000
1727539793.917,-122.070,-5.371,710.938,-127.441,0.000
1727539793.921,-36.133,-3.906,701.660,-65.430,0.000
1727539793.925,94.238,-6.348,683.594,39.551,0.000
1727539793.928,85.449,-7.324,654.297,24.902,0.000
1727539793.932,5.371,-5.371,609.375,-25.391,0.000
1727539793.936,-115.723,-0.977,568.359,-128.906,0.000
1727539793.940,-51.758,3.418,543.457,-79.590,0.000
1727539793.944,78.613,1.465,528.809,49.316,0.000
1727539793.948,86.914,-1.953,509.277,57.129,0.000
1727539793.952,28.809,2.441,478.027,-2.930,0.000
1727539793.956,-91.309,-0.488,445.801,-118.652,0.000
1727539793.960,-51.758,-5.371,440.430,-91.309,0.000
1727539793.964,90.332,-5.859,440.918,39.551,0.000
1727539793.968,96.191,-7.812,423.340,63.477,0.000
1727539793.971,10.254,-8.301,393.555,8.789,0.000
1727539793.975,-116.699,-9.277,358.398,-101.074,0.000
1727539793.979,-89.844,-9.277,347.656,-98.145,0.000
1727539793.983,64.941,-14.160,352.539,36.621,0.000
1727539793.987,97.168,-8.789,346.680,82.031,0.000
1727539793.991,34.668,-8.301,332.031,35.156,0.000
1727539793.995,-84.473,-11.230,314.941,-82.031,0.000
1727539793.999,-93.262,-7.324,292.480,-101.562,0.000
1727539794.003,62.500,-9.766,273.438,34.180,0.000
1727539794.007,103.027,-14.648,286.133,69.336,0.000
1727539794.010,39.551,-14.648,305.176,19.531,0.000
1727539794.014,-93.750,-14.648,297.363,-82.520,0.000
1727539794.018,-137.695,-17.578,278.809,-112.793,0.000
1727539794.022,20.508,-15.625,266.113,22.949,0.000
1727539794.026,93.262,-13.184,252.441,74.707,0.000
1727539794.030,44.434,-13.184,230.469,30.762,0.000
1727539794.034,-67.383,-9.766,221.680,-62.012,0.000
1727539794.038,-114.258,-6.348,212.891,-116.699,0.000
1727539794.042,31.250,-5.371,198.730,9.766,0.000
1727539794.046,107.422,-2.441,173.340,82.520,0.000
1727539794.050,63.965,-5.859,164.551,44.922,0.000
1727539794.053,-43.457,-11.230,173.340,-56.152,0.000
1727539794.057,-128.418,-10.254,177.246,-126.953,0.000
1727539794.061,-17.578,-10.254,184.570,-24.414,0.000
1727539794.065,73.242,-10.742,191.895,64.941,0.000
1727539794.069,53.711,-8.789,186.523,53.223,0.000
1727539794.073,-33.691,-7.812,168.457,-41.504,0.000
1727539794.077,-131.348,-8.301,157.715,-123.535,0.000
1727539794.081,-15.137,-5.859,136.230,-32.227,0.000
1727539794.085,104.980,-3.906,118.652,62.500,0.000
1727539794.089,86.426,-1.465,119.141,65.918,0.000
1727539794.093,-12.695,-5.859,137.695,-11.230,0.000
1727539794.096,-142.578,-12.695,154.785,-135.742,0.000
1727539794.100,-58.594,-16.113,159.180,-76.172,0.000
1727539794.104,68.359,-11.719,152.344,44.434,0.000
1727539794.108,61.523,-8.789,150.879,40.039,0.000
1727539794.112,-28.320,-10.742,143.066,-46.875,0.000
1727539794.116,-158.203,-7.812,122.559,-155.273,0.000
1727539794.120,-77.148,-3.418,109.863,-96.680,0.000
1727539794.124,63.477,-7.812,111.816,38.086,0.000
1727539794.128,58.594,-12.207,107.910,49.805,0.000
1727539794.132,-8.301,-15.625,100.586,-6.348,0.000
1727539794.135,-130.371,-15.137,104.004,-110.840,0.000
1727539794.139,-83.496,-9.766,103.516,-81.543,0.000
1727539794.143,65.430,-11.719,101.074,43.457,0.000
1727539794.147,80.078,-17.090,94.238,56.641,0.000
1727539794.151,15.625,-13.672,103.027,7.812,0.000
1727539794.155,-105.469,-7.812,115.723,-98.633,0.000
1727539794.159,-82.031,-9.766,92.285,-89.355,0.000
1727539794.163,72.266,-6.836,66.895,43.945,0.000
1727539794.167,101.074,0.977,88.379,75.195,0.000
1727539794.171,36.133,0.488,111.328,20.996,0.000
1727539794.175,-100.098,-6.348,115.723,-94.238,0.000
1727539794.178,-117.188,-13.672,104.004,-113.770,0.000
1727539794.182,41.992,-15.625,94.238,25.391,0.000
1727539794.186,100.098,-17.578,88.867,72.266,0.000
1727539794.190,45.898,-13.184,80.078,27.344,0.000
1727539794.194,-72.754,-6.836,85.449,-71.777,0.000
1727539794.198,-104.004,-8.789,82.520,-106.934,0.000
1727539794.202,31.250,-11.230,92.773,19.531,0.000
1727539794.206,83.008,-11.230,116.699,75.195,0.000
1727539794.210,35.645,-12.207,120.605,33.203,0.000
1727539794.214,-91.309,-15.137,108.887,-69.336,0.000
1727539794.218,-142.090,-14.160,95.215,-116.211,0.000
1727539794.221,17.090,-9.766,82.031,6.348,0.000
1727539794.225,98.633,-9.277,83.496,79.590,0.000
1727539794.229,54.199,-10.254,80.566,46.875,0.000
1727539794.233,-54.688,-9.766,73.730,-49.316,0.000
1727539794.237,-125.488,-9.277,79.102,-112.305,0.000
1727539794.241,0.000,-5.371,79.590,0.977,0.000
1727539794.245,95.215,-6.348,85.449,76.660,0.000
1727539794.249,70.801,-8.789,94.238,34.668,0.000
1727539794.253,-36.621,-10.742,97.656,-44.922,0.000
1727539794.257,-131.348,-11.230,101.074,-130.859,0.000
1727539794.261,-17.090,-9.766,97.656,-48.828,0.000
1727539794.264,83.984,-13.672,108.398,53.223,0.000
1727539794.268,58.594,-16.113,121.582,41.016,0.000
1727539794.272,-37.598,-15.137,113.770,-33.203,0.000
1727539794.276,-136.719,-18.555,97.656,-136.230,0.000
1727539794.280,-33.203,-13.184,88.867,-59.570,0.000
1727539794.284,86.426,-6.348,91.309,51.758,0.000
1727539794.288,75.684,-8.301,85.449,43.945,0.000
1727539794.292,-3.906,-14.160,62.500,-22.949,0.000
1727539794.296,-120.117,-13.184,65.918,-116.699,0.000
1727539794.300,-42.969,-11.719,75.684,-53.711,0.000
1727539794.304,78.613,-13.672,68.848,61.035,0.000
1727539794.307,82.520,-18.555,68.359,67.871,0.000
1727539794.311,16.602,-19.043,70.801,2.441,0.000
1727539794.315,-104.492,-16.602,65.918,-98.145,0.000
1727539794.319,-55.176,-15.137,58.105,-61.035,0.000
1727539794.323,81.543,-10.742,54.688,43.457,0.000
1727539794.327,92.773,-8.301,55.176,52.734,0.000
1727539794.331,20.508,-9.277,59.570,-9.766,0.000
1727539794.335,-121.582,-12.695,44.434,-113.281,0.000
1727539794.339,-91.797,-5.371,29.297,-91.309,0.000
1727539794.343,56.152,-2.930,46.387,38.574,0.000
1727539794.347,93.262,-9.766,46.387,75.684,0.000
1727539794.350,45.410,-8.789,39.062,35.645,0.000
1727539794.354,-92.285,-11.719,53.711,-81.543,0.000
1727539794.358,-86.914,-11.719,63.477,-88.379,0.000
1727539794.362,69.336,-12.695,58.594,52.246,0.000
1727539794.366,96.191,-15.137,43.457,78.125,0.000
1727539794.370,37.598,-12.695,30.762,27.832,0.000
1727539794.374,-91.797,-13.184,31.250,-76.660,0.000
1727539794.378,-109.863,-10.254,34.668,-115.723,0.000
1727539794.382,45.898,-7.324,28.320,13.672,0.000
1727539794.386,99.609,-6.348,20.996,83.496,0.000
1727539794.389,52.734,-7.324,28.809,43.457,0.000
1727539794.393,-68.359,-8.789,20.508,-52.246,0.000
1727539794.397,-108.398,-7.324,-1.953,-85.938,0.000
1727539794.401,24.414,-12.695,10.742,20.996,0.000
1727539794.405,92.285,-12.695,24.902,85.449,0.000
1727539794.409,52.734,-14.160,22.461,57.617,0.000
1727539794.413,-73.730,-14.160,28.320,-46.875,0.000
1727539794.417,-141.602,-17.090,32.227,-116.211,0.000
1727539794.421,-3.906,-19.531,24.902,-1.465,0.000
1727539794.425,82.031,-15.137,23.926,82.520,0.000
1727539794.429,55.176,-14.648,20.020,60.547,0.000
1727539794.432,-47.363,-18.066,11.719,-20.020,0.000
1727539794.436,-150.391,-16.113,14.160,-113.281,0.000
1727539794.440,-38.086,-8.301,16.602,-35.156,0.000
1727539794.444,71.289,-7.324,16.113,52.246,0.000
1727539794.448,56.641,-10.742,14.160,37.109,0.000
1727539794.452,-27.832,-7.324,11.719,-27.832,0.000
1727539794.456,-131.836,-6.836,11.719,-114.258,0.000
1727539794.460,-29.785,-9.766,7.812,-31.250,0.000
1727539794.464,81.055,-11.230,0.488,69.824,0.000
1727539794.468,67.383,-12.695,-6.836,53.223,0.000
1727539794.472,-2.441,-7.324,-8.789,-10.254,0.000
1727539794.475,-122.070,-8.301,2.441,-108.398,0.000
1727539794.479,-57.129,-19.043,12.695,-53.223,0.000
1727539794.483,73.242,-15.625,25.391,68.848,0.000
1727539794.487,67.383,-11.230,21.484,63.965,0.000
1727539794.491,-0.488,-10.742,12.207,-0.977,0.000
1727539794.495,-119.141,-8.301,7.324,-96.680,0.000
1727539794.499,-69.824,-5.859,9.277,-56.641,0.000
1727539794.503,71.289,-8.301,1.953,66.406,0.000
1727539794.507,89.844,-9.277,-5.859,88.379,0.000
1727539794.511,23.438,-10.254,18.066,22.949,0.000
1727539794.514,-111.816,-20.020,36.133,-103.516,0.000
1727539794.518,-84.473,-20.508,27.832,-89.844,0.000
1727539794.522,64.453,-18.555,20.020,36.621,0.000
1727539794.526,86.914,-20.996,18.555,50.293,0.000
1727539794.530,21.484,-22.461,4.883,3.906,0.000
1727539794.534,-116.211,-22.461,-0.488,-97.656,0.000
1727539794.538,-99.121,-16.602,0.977,-94.238,0.000
1727539794.542,69.824,-13.184,-4.395,41.992,0.000
1727539794.546,103.516,-12.695,-16.113,76.660,0.000
1727539794.550,45.410,-12.207,-14.160,28.809,0.000
1727539794.554,-84.961,-16.113,-4.395,-79.102,0.000
1727539794.557,-108.887,-23.926,-11.719,-93.750,0.000
1727539794.561,48.828,-17.578,-25.879,44.434,0.000
1727539794.565,97.168,-14.648,-19.043,80.566,0.000
1727539794.569,42.480,-18.066,-3.418,26.855,0.000
1727539794.573,-73.242,-12.207,-8.301,-64.941,0.000
1727539794.577,-103.027,-6.836,-14.648,-109.375,0.000
1727539794.581,42.480,-6.836,-7.812,8.301,0.000
1727539794.585,98.633,-8.301,-4.395,68.848,0.000
1727539794.589,55.664,-6.348,-14.160,31.250,0.000
1727539794.593,-57.129,-11.230,-29.297,-64.941,0.000
1727539794.597,-128.418,-13.184,-31.250,-127.930,0.000
1727539794.600,3.906,-10.742,-19.043,-12.695,0.000
1727539794.604,90.332,-10.742,-9.766,57.617,0.000
1727539794.608,55.664,-10.742,-11.719,32.715,0.000
1727539794.612,-56.641,-9.277,-15.137,-50.781,0.000
1727539794.616,-143.066,-6.348,-26.367,-129.395,0.000
1727539794.620,-17.578,-5.859,-38.574,-33.203,0.000
1727539794.624,80.566,-8.301,-33.203,53.223,0.000
1727539794.628,50.293,-10.742,-25.391,41.016,0.000
1727539794.632,-39.062,-13.672,-36.621,-34.180,0.000
1727539794.636,-128.906,-13.184,-32.715,-122.559,0.000
1727539794.640,-22.461,-11.230,-15.137,-32.227,0.000
1727539794.643,84.961,-12.207,-11.719,68.848,0.000
1727539794.647,62.988,-12.207,-11.230,65.918,0.000
1727539794.651,-19.043,-12.207,-19.531,-7.812,0.000
1727539794.655,-132.812,-9.277,-32.227,-120.117,0.000
1727539794.659,-45.410,-8.301,-32.715,-51.758,0.000
1727539794.663,104.492,-9.277,-28.320,85.938,0.000
1727539794.667,95.703,-12.207,-23.926,92.285,0.000
1727539794.671,-2.441,-10.742,-27.832,7.324,0.000
1727539794.675,-118.652,-12.695,-27.344,-104.004,0.000
1727539794.679,-59.082,-13.672,-27.832,-66.406,0.000
1727539794.683,70.312,-16.113,-35.156,46.387,0.000
1727539794.686,70.312,-16.602,-39.551,56.641,0.000
1727539794.690,8.301,-13.184,-37.598,8.789,0.000
1727539794.694,-119.141,-13.672,-34.668,-102.051,0.000
1727539794.698,-80.566,-12.207,-41.504,-77.637,0.000
1727539794.702,83.984,-10.742,-52.246,66.406,0.000
1727539794.706,106.934,-3.906,-55.176,84.473,0.000
1727539794.710,48.340,-2.441,-55.176,28.320,0.000
1727539794.714,-86.914,-10.742,-44.434,-76.660,0.000
1727539794.718,-84.473,-9.277,-24.414,-84.473,0.000
1727539794.722,77.637,-4.883,-21.973,48.340,0.000
1727539794.726,100.586,-7.324,-31.250,76.660,0.000
1727539794.729,20.996,-9.277,-32.715,18.066,0.000
1727539794.733,-104.980,-7.812,-31.250,-81.055,0.000
1727539794.737,-104.492,-7.812,-35.645,-92.773,0.000
1727539794.741,57.129,-13.184,-29.785,34.668,0.000
1727539794.745,99.609,-9.277,-22.949,66.895,0.000
1727539794.749,46.875,-8.301,-21.973,25.391,0.000
1727539794.753,-62.500,-10.254,-31.250,-63.965,0.000
1727539794.757,-99.121,-13.184,-44.434,-107.910,0.000
1727539794.761,23.926,-17.578,-47.363,14.648,0.000
1727539794.765,83.008,-6.348,-49.316,73.242,0.000
1727539794.769,46.875,-5.859,-37.598,33.203,0.000
1727539794.772,-78.613,-8.789,-24.902,-67.871,0.000
1727539794.776,-135.742,-11.230,-18.066,-124.023,0.000
1727539794.780,4.883,-13.184,-21.484,-2.441,0.000
1727539794.784,83.496,-9.277,-32.227,76.172,0.000
1727539794.788,50.781,-16.113,-17.090,49.805,0.000
1727539794.792,-46.387,-14.160,-6.836,-47.363,0.000
1727539794.796,-129.395,-9.277,-17.090,-128.906,0.000
1727539794.800,-14.160,-12.207,-42.480,-27.344,0.000
1727539794.804,81.543,-7.812,-61.035,63.965,0.000
1727539794.808,60.547,-4.883,-51.270,43.457,0.000
1727539794.811,-39.551,-7.812,-37.109,-41.016,0.000
1727539794.815,-134.766,-8.789,-19.043,-126.953,0.000
1727539794.819,-28.320,-11.230,-14.648,-36.133,0.000
1727539794.823,73.730,-9.277,-11.230,59.082,0.000
1727539794.827,55.176,-3.418,-12.695,48.340,0.000
1727539794.831,-31.250,-8.789,-27.344,-36.621,0.000
1727539794.835,-131.836,-14.160,-35.645,-132.324,0.000
1727539794.839,-37.598,-6.836,-35.645,-61.035,0.000
1727539794.843,83.496,-0.977,-26.367,46.875,0.000
1727539794.847,72.754,-3.418,-33.691,43.457,0.000
1727539794.851,-1.465,-0.977,-40.039,-11.230,0.000
1727539794.854,-117.188,-5.859,-32.715,-103.516,0.000
1727539794.858,-56.152,-5.371,-31.738,-66.895,0.000
1727539794.862,70.312,0.977,-34.180,60.547,0.000
1727539794.866,75.195,-0.488,-47.363,66.406,0.000
1727539794.870,1.953,-6.348,-44.922,1.953,0.000
1727539794.874,-120.117,-10.742,-24.902,-103.027,0.000
1727539794.878,-69.336,-7.812,-20.996,-83.008,0.000
1727539794.882,68.848,-10.254,-33.203,48.340,0.000
1727539794.886,80.566,-15.137,-33.203,65.918,0.000
1727539794.890,17.578,-13.184,-24.902,8.301,0.000
1727539794.894,-111.816,-17.090,-31.250,-101.562,0.000
1727539794.897,-96.191,-12.695,-28.320,-85.449,0.000
1727539794.901,58.105,-8.301,-22.461,40.527,0.000
1727539794.905,92.773,-9.277,-33.691,70.801,0.000
