timestamps,TP9,AF7,AF8,TP10,Right AUX
1727710646.144,-32.715,-21.973,-24.414,-44.922,0.000
1727710646.148,-36.621,-24.902,-26.367,-41.016,0.000
1727710646.152,-45.898,-28.320,-29.785,-36.621,0.000
1727710646.156,-49.805,-28.320,-32.227,-36.133,0.000
1727710646.160,-50.293,-30.273,-31.738,-36.133,0.000
1727710646.164,-46.387,-29.297,-25.879,-31.738,0.000
1727710646.168,-54.688,-30.762,-20.996,-25.391,0.000
1727710646.172,-65.430,-32.715,-25.391,-27.344,0.000
1727710646.176,-48.828,-32.227,-24.414,-37.598,0.000
1727710646.180,-31.738,-29.297,-22.949,-33.203,0.000
1727710646.183,-37.109,-27.832,-32.227,-30.762,0.000
1727710646.187,-51.270,-32.227,-35.645,-41.992,0.000
1727710646.191,-47.363,-31.738,-38.086,-48.828,0.000
1727710646.195,-28.320,-29.297,-41.016,-41.992,0.000
1727710646.199,-26.855,-31.250,-41.016,-42.480,0.000
1727710646.203,-41.992,-31.250,-43.457,-42.969,0.000
1727710646.207,-45.410,-28.320,-36.621,-33.691,0.000
1727710646.211,-34.180,-25.879,-35.645,-31.738,0.000
1727710646.215,-16.602,-24.902,-37.109,-26.855,0.000
1727710646.219,-14.160,-24.902,-36.133,-24.902,0.000
1727710646.222,-21.973,-29.785,-39.062,-31.738,0.000
1727710646.226,-30.762,-33.203,-41.504,-27.832,0.000
1727710646.230,-43.457,-28.320,-43.457,-26.855,0.000
1727710646.234,-36.133,-23.926,-40.039,-30.273,0.000
1727710646.238,-26.855,-27.344,-37.598,-27.344,0.000
1727710646.242,-31.738,-25.879,-36.133,-24.902,0.000
1727710646.246,-40.527,-24.414,-34.668,-30.762,0.000
1727710646.250,-41.992,-21.973,-35.156,-31.250,0.000
1727710646.254,-36.133,-18.555,-37.598,-37.598,0.000
1727710646.258,-19.531,-20.508,-36.133,-30.762,0.000
1727710646.262,-13.184,-21.484,-36.621,-24.414,0.000
1727710646.265,-26.367,-18.066,-40.527,-21.973,0.000
1727710646.269,-29.297,-20.020,-40.527,-25.391,0.000
1727710646.273,-20.996,-18.066,-41.016,-38.574,0.000
1727710646.277,-21.973,-16.602,-42.969,-31.738,0.000
1727710646.281,-25.879,-21.484,-38.574,-22.949,0.000
1727710646.285,-32.715,-22.461,-32.227,-19.043,0.000
1727710646.289,-40.039,-22.949,-35.156,-17.578,0.000
1727710646.293,-35.645,-27.832,-39.551,-27.832,0.000
1727710646.297,-21.973,-29.297,-33.203,-25.879,0.000
1727710646.301,-20.508,-23.926,-32.715,-27.344,0.000
1727710646.305,-33.203,-19.531,-35.156,-30.273,0.000
1727710646.308,-38.086,-20.020,-35.645,-30.273,0.000
1727710646.312,-31.250,-18.555,-35.645,-42.969,0.000
1727710646.316,-10.254,-15.625,-37.109,-42.480,0.000
1727710646.320,-6.836,-26.367,-38.086,-42.480,0.000
1727710646.324,-34.180,-31.250,-36.133,-42.480,0.000
1727710646.328,-58.105,-27.832,-37.109,-36.621,0.000
1727710646.332,-50.293,-29.297,-34.180,-45.898,0.000
1727710646.336,-31.738,-30.273,-34.668,-53.223,0.000
1727710646.340,-26.855,-32.715,-36.133,-50.781,0.000
1727710646.344,-39.551,-29.785,-39.551,-49.316,0.000
1727710646.348,-47.363,-24.902,-41.992,-47.852,0.000
1727710646.351,-39.551,-25.391,-41.504,-42.969,0.000
1727710646.355,-24.902,-32.227,-43.457,-40.527,0.000
1727710646.359,-17.090,-35.156,-41.016,-41.504,0.000
1727710646.363,-32.715,-30.762,-36.133,-36.621,0.000
1727710646.367,-53.711,-32.715,-36.621,-26.367,0.000
1727710646.371,-47.363,-33.203,-37.109,-32.227,0.000
1727710646.375,-21.484,-31.738,-38.574,-32.227,0.000
1727710646.379,-18.066,-31.738,-32.715,-28.809,0.000
1727710646.383,-32.715,-35.645,-29.785,-34.180,0.000
1727710646.387,-50.293,-36.133,-37.598,-29.785,0.000
1727710646.391,-51.758,-33.203,-39.551,-30.273,0.000
1727710646.394,-29.785,-34.668,-34.180,-34.668,0.000
1727710646.398,-21.484,-36.133,-30.762,-32.227,0.000
1727710646.402,-23.926,-33.203,-29.785,-20.020,0.000
1727710646.406,-37.598,-32.227,-30.273,-19.531,0.000
1727710646.410,-36.621,-31.250,-28.320,-21.484,0.000
1727710646.414,-15.137,-27.832,-26.367,-17.090,0.000
1727710646.418,-10.742,-29.297,-31.738,-27.832,0.000
1727710646.422,-19.043,-25.879,-36.621,-27.344,0.000
1727710646.426,-34.180,-22.461,-32.715,-21.484,0.000
1727710646.430,-39.062,-26.367,-30.762,-27.832,0.000
1727710646.434,-25.391,-26.855,-28.809,-23.926,0.000
1727710646.437,-16.602,-22.949,-20.996,-19.043,0.000
1727710646.441,-20.996,-26.855,-20.020,-24.414,0.000
1727710646.445,-32.715,-27.344,-27.344,-24.414,0.000
1727710646.449,-23.438,-16.602,-30.762,-23.926,0.000
1727710646.453,7.812,-14.648,-28.809,-4.883,0.000
1727710646.457,6.836,-19.043,-17.578,0.488,0.000
1727710646.461,-24.414,-26.855,-19.531,-26.367,0.000
1727710646.465,-39.551,-34.180,-26.367,-25.879,0.000
1727710646.469,-51.758,-33.203,-29.297,-32.715,0.000
1727710646.473,-40.039,-34.180,-28.320,-44.434,0.000
1727710646.476,-24.414,-35.645,-16.602,-38.574,0.000
1727710646.480,-33.203,-33.691,-22.461,-40.527,0.000
1727710646.484,-43.945,-33.691,-30.273,-44.922,0.000
1727710646.488,-56.152,-35.156,-27.344,-44.922,0.000
1727710646.492,-49.805,-30.273,-31.250,-45.410,0.000
1727710646.496,-36.621,-29.297,-28.320,-46.387,0.000
1727710646.500,-34.668,-29.785,-27.832,-38.086,0.000
1727710646.504,-41.504,-25.391,-36.133,-29.785,0.000
1727710646.508,-54.199,-23.926,-28.809,-40.039,0.000
1727710646.512,-43.945,-27.832,-26.855,-45.898,0.000
1727710646.516,-26.855,-29.785,-31.738,-35.156,0.000
1727710646.519,-25.391,-26.367,-26.367,-34.668,0.000
1727710646.523,-31.250,-31.250,-20.996,-34.180,0.000
1727710646.527,-41.992,-32.715,-27.832,-30.273,0.000
1727710646.531,-36.133,-28.809,-28.809,-41.992,0.000
1727710646.535,-16.113,-30.762,-24.902,-39.551,0.000
1727710646.539,-13.672,-26.855,-32.227,-32.227,0.000
1727710646.543,-30.273,-24.414,-36.621,-37.598,0.000
1727710646.547,-41.504,-26.855,-36.133,-35.645,0.000
1727710646.551,-38.574,-27.344,-34.668,-45.410,0.000
1727710646.555,-20.020,-29.297,-33.691,-47.852,0.000
1727710646.558,-5.859,-28.320,-37.109,-44.434,0.000
1727710646.562,-19.043,-23.926,-36.621,-36.133,0.000
1727710646.566,-41.504,-26.367,-31.738,-24.902,0.000
1727710646.570,-37.598,-27.832,-28.809,-19.043,0.000
1727710646.574,-19.531,-28.320,-25.879,-22.461,0.000
1727710646.578,-8.301,-25.879,-27.344,-28.809,0.000
1727710646.582,-16.602,-24.902,-28.320,-31.250,0.000
1727710646.586,-36.621,-24.902,-25.879,-28.320,0.000
1727710646.590,-37.109,-26.855,-28.809,-22.949,0.000
1727710646.594,-26.855,-29.785,-35.645,-27.832,0.000
1727710646.598,-21.484,-25.879,-35.156,-33.203,0.000
1727710646.601,-30.273,-29.297,-34.668,-33.203,0.000
1727710646.605,-44.434,-31.250,-38.574,-37.109,0.000
1727710646.609,-44.434,-31.738,-39.062,-34.668,0.000
1727710646.613,-41.016,-34.180,-37.598,-38.574,0.000
1727710646.617,-35.645,-35.645,-32.227,-41.504,0.000
1727710646.621,-40.527,-36.133,-32.227,-36.621,0.000
1727710646.625,-61.523,-30.273,-39.551,-37.109,0.000
1727710646.629,-70.312,-28.320,-40.039,-36.621,0.000
1727710646.633,-48.340,-31.738,-36.621,-39.062,0.000
1727710646.637,-32.227,-26.855,-36.133,-42.480,0.000
1727710646.641,-31.738,-20.996,-33.691,-44.434,0.000
1727710646.644,-24.902,-20.996,-30.273,-29.785,0.000
1727710646.648,-35.156,-23.926,-30.762,-33.691,0.000
1727710646.652,-35.645,-26.367,-34.668,-44.922,0.000
1727710646.656,-21.484,-26.367,-31.738,-41.504,0.000
1727710646.660,-28.809,-23.926,-32.227,-43.945,0.000
1727710646.664,-42.480,-24.414,-31.250,-46.387,0.000
1727710646.668,-61.523,-26.855,-34.180,-43.457,0.000
1727710646.672,-58.105,-26.367,-36.133,-46.875,0.000
1727710646.676,-36.133,-30.762,-35.156,-54.688,0.000
1727710646.680,-30.273,-31.738,-46.387,-47.363,0.000
1727710646.684,-23.438,-30.762,-43.457,-27.832,0.000
1727710646.687,-13.672,-31.250,-35.156,-5.859,0.000
1727710646.691,-19.531,-33.203,-30.762,-14.648,0.000
1727710646.695,-14.160,-32.227,-27.344,-20.020,0.000
1727710646.699,-10.742,-32.227,-22.949,-14.160,0.000
1727710646.703,-49.805,-43.945,-17.090,-41.992,0.000
1727710646.707,-78.613,-55.664,-14.648,-53.711,0.000
1727710646.711,-72.754,-57.129,-13.672,-50.781,0.000
1727710646.715,-71.289,-61.523,-11.719,-59.082,0.000
1727710646.719,-78.613,-69.336,-7.324,-70.312,0.000
1727710646.723,-92.773,-76.660,-0.977,-73.730,0.000
1727710646.727,-112.793,-83.008,1.953,-72.754,0.000
1727710646.730,-111.816,-86.914,-1.465,-69.824,0.000
1727710646.734,-91.797,-84.473,0.000,-72.754,0.000
1727710646.738,-92.773,-86.426,8.789,-78.613,0.000
1727710646.742,-106.445,-91.797,13.672,-71.289,0.000
1727710646.746,-122.559,-94.238,11.719,-61.035,0.000
1727710646.750,-120.605,-92.773,11.719,-54.199,0.000
1727710646.754,-111.816,-96.191,13.184,-68.848,0.000
1727710646.758,-108.887,-98.145,6.348,-74.219,0.000
1727710646.762,-100.586,-97.656,5.371,-65.918,0.000
1727710646.766,-103.027,-97.168,6.348,-55.176,0.000
1727710646.770,-100.586,-93.750,3.906,-52.734,0.000
1727710646.773,-85.938,-94.238,2.441,-63.477,0.000
1727710646.777,-67.383,-88.379,0.977,-57.129,0.000
1727710646.781,-65.430,-76.660,0.488,-45.898,0.000
1727710646.785,-81.543,-73.242,-0.977,-43.457,0.000
1727710646.789,-83.984,-73.730,-7.812,-49.316,0.000
1727710646.793,-59.570,-72.754,-10.742,-48.828,0.000
1727710646.797,-44.434,-70.312,-13.184,-36.621,0.000
1727710646.801,-53.223,-70.801,-13.672,-29.785,0.000
1727710646.805,-60.547,-66.895,-11.230,-17.578,0.000
1727710646.809,-55.664,-61.523,-13.672,-17.578,0.000
1727710646.813,-50.293,-59.082,-14.648,-32.227,0.000
1727710646.816,-41.016,-61.523,-13.184,-32.715,0.000
1727710646.820,-39.062,-63.965,-18.066,-23.926,0.000
1727710646.824,-56.152,-58.594,-25.391,-25.391,0.000
1727710646.828,-62.500,-57.617,-24.414,-34.668,0.000
1727710646.832,-47.852,-51.758,-22.461,-28.809,0.000
1727710646.836,-23.438,-45.410,-17.578,-20.508,0.000
1727710646.840,-11.230,-48.340,-12.695,-21.973,0.000
1727710646.844,-24.414,-48.828,-16.602,-21.973,0.000
1727710646.848,-44.922,-41.504,-28.320,-20.020,0.000
1727710646.852,-44.434,-37.109,-27.832,-26.855,0.000
1727710646.855,-27.832,-35.156,-24.414,-27.832,0.000
1727710646.859,-16.113,-30.762,-32.227,-22.461,0.000
1727710646.863,-30.762,-29.297,-21.973,-19.531,0.000
1727710646.867,-49.316,-38.574,-20.996,-21.973,0.000
1727710646.871,-36.133,-49.805,-36.621,-26.367,0.000
1727710646.875,-10.742,-59.082,-33.691,-14.160,0.000
1727710646.879,-11.719,-47.852,-20.020,-8.301,0.000
1727710646.883,-33.203,-36.133,-15.137,-19.043,0.000
1727710646.887,-40.039,-38.574,-15.137,-15.625,0.000
1727710646.891,-27.344,-52.734,-18.066,-13.184,0.000
1727710646.895,-7.324,-52.246,-21.973,-19.043,0.000
1727710646.898,2.930,-17.578,-21.484,-20.996,0.000
1727710646.902,-28.320,-17.578,-38.086,-35.156,0.000
1727710646.906,-57.617,-26.855,-49.316,-38.574,0.000
1727710646.910,-54.199,-27.344,-50.781,-32.715,0.000
1727710646.914,-35.645,-28.320,-44.434,-44.434,0.000
1727710646.918,-21.973,-26.367,-39.062,-33.203,0.000
1727710646.922,-26.855,-31.738,-46.387,-18.555,0.000
1727710646.926,-43.457,-33.203,-52.734,-30.273,0.000
1727710646.930,-42.480,-29.297,-49.805,-31.738,0.000
1727710646.934,-20.020,-28.809,-37.109,-24.902,0.000
1727710646.938,-9.766,-33.691,-29.785,-12.207,0.000
1727710646.941,-16.113,-32.227,-28.809,-7.812,0.000
1727710646.945,-30.762,-30.273,-31.250,-14.160,0.000
1727710646.949,-39.551,-24.414,-37.109,-20.020,0.000
1727710646.953,-23.926,-23.926,-35.156,-16.113,0.000
1727710646.957,-2.441,-27.344,-36.621,-14.648,0.000
1727710646.961,-12.695,-20.020,-38.574,-19.531,0.000
1727710646.965,-27.832,-13.672,-29.785,-20.020,0.000
1727710646.969,-27.344,-12.695,-25.879,-25.391,0.000
1727710646.973,-26.855,-17.578,-24.902,-34.180,0.000
1727710646.977,0.488,-17.578,-14.160,-7.812,0.000
1727710646.980,17.578,-26.855,-14.160,5.859,0.000
1727710646.984,-24.902,-24.414,-32.227,-13.672,0.000
1727710646.988,-50.781,-8.301,-41.992,-31.738,0.000
1727710646.992,-26.855,-7.812,-39.551,-41.504,0.000
1727710646.996,-16.602,-12.207,-32.715,-36.133,0.000
1727710647.000,-20.020,-19.043,-37.109,-34.180,0.000
1727710647.004,-33.203,-24.902,-38.574,-35.645,0.000
1727710647.008,-47.363,-22.949,-32.227,-34.668,0.000
1727710647.012,-34.668,-17.578,-39.062,-37.109,0.000
1727710647.016,-29.785,-14.160,-40.527,-44.922,0.000
1727710647.020,-31.738,-13.184,-31.250,-43.945,0.000
1727710647.023,-33.691,-14.160,-31.738,-37.109,0.000
1727710647.027,-37.598,-14.160,-34.180,-31.250,0.000
1727710647.031,-26.855,-18.555,-29.297,-33.203,0.000
1727710647.035,-17.578,-23.438,-26.855,-36.133,0.000
1727710647.039,-25.879,-21.973,-31.738,-31.250,0.000
1727710647.043,-29.785,-25.391,-30.762,-23.438,0.000
1727710647.047,-32.227,-29.297,-26.367,-25.879,0.000
1727710647.051,-15.625,-25.391,-28.809,-23.926,0.000
1727710647.055,0.488,-23.438,-28.809,-21.484,0.000
1727710647.059,-1.953,-23.926,-32.715,-27.344,0.000
1727710647.063,-20.996,-20.996,-40.527,-25.879,0.000
1727710647.066,-31.250,-20.508,-37.598,-23.926,0.000
1727710647.070,-12.207,-26.367,-36.133,-24.414,0.000
1727710647.074,-0.977,-35.156,-37.598,-30.273,0.000
1727710647.078,-8.301,-41.016,-35.156,-37.109,0.000
1727710647.082,-22.461,-32.227,-28.320,-29.297,0.000
1727710647.086,-38.086,-25.879,-27.344,-25.391,0.000
1727710647.090,-41.504,-26.855,-31.738,-35.156,0.000
1727710647.094,-22.949,-31.738,-28.809,-29.297,0.000
1727710647.098,-8.301,-26.855,-22.461,-13.184,0.000
1727710647.102,-7.812,-38.574,-19.531,-5.371,0.000
1727710647.106,-36.133,-43.945,-27.344,-12.207,0.000
1727710647.109,-43.457,-17.578,-37.109,-23.926,0.000
1727710647.113,-25.391,-11.230,-40.039,-22.461,0.000
1727710647.117,-17.090,-14.648,-32.715,-23.926,0.000
1727710647.121,-6.836,-9.277,-23.438,-29.785,0.000
1727710647.125,-12.207,-14.160,-26.855,-20.020,0.000
1727710647.129,-31.738,-23.438,-25.391,-28.809,0.000
1727710647.133,-19.043,-20.996,-24.902,-38.086,0.000
1727710647.137,4.395,-20.508,-32.715,-11.719,0.000
1727710647.141,-9.766,-24.902,-30.762,-11.719,0.000
1727710647.145,-35.156,-25.391,-31.250,-32.715,0.000
1727710647.148,-42.480,-30.273,-39.062,-36.621,0.000
1727710647.152,-23.926,-33.691,-28.320,-36.133,0.000
1727710647.156,-3.418,-43.945,-15.625,-29.297,0.000
1727710647.160,-16.113,-62.500,-15.625,-34.668,0.000
1727710647.164,-48.340,-49.805,-14.648,-33.203,0.000
1727710647.168,-62.500,-37.598,-15.137,-26.855,0.000
1727710647.172,-45.410,-38.574,-19.531,-40.039,0.000
1727710647.176,-19.531,-31.250,-31.250,-39.062,0.000
1727710647.180,-30.273,-34.668,-28.320,-34.180,0.000
1727710647.184,-48.828,-37.109,-22.949,-30.762,0.000
1727710647.188,-54.688,-40.039,-29.297,-31.250,0.000
1727710647.191,-68.359,-53.711,-13.184,-55.664,0.000
1727710647.195,-49.316,-56.152,7.812,-45.410,0.000
1727710647.199,-18.555,-46.875,-11.230,-35.645,0.000
1727710647.203,-55.176,-37.598,-36.133,-63.965,0.000
1727710647.207,-78.125,-39.551,-3.418,-51.270,0.000
1727710647.211,-38.574,-43.457,20.508,-11.719,0.000
1727710647.215,-10.742,-31.250,-20.996,0.000,0.000
1727710647.219,-46.387,-51.758,-19.531,-51.758,0.000
1727710647.223,0.000,-49.805,7.324,-69.336,0.000
1727710647.227,0.000,-9.277,-49.316,-32.227,0.000
1727710647.231,0.000,-20.020,-83.008,-52.734,0.000
1727710647.234,0.000,-50.293,-68.359,-63.965,0.000
1727710647.238,0.000,-49.316,-68.848,-74.707,0.000
1727710647.242,0.000,-21.973,-87.402,-92.285,0.000
1727710647.246,0.000,-17.090,-153.320,-68.848,0.000
1727710647.250,0.000,-27.344,-217.773,-47.363,0.000
1727710647.254,0.000,-34.180,-199.219,-57.129,0.000
1727710647.258,0.000,-19.043,-253.906,-49.316,0.000
1727710647.262,0.000,-22.461,-351.074,-61.035,0.000
1727710647.266,0.000,-40.039,-377.441,-66.895,0.000
1727710647.270,-88.867,-39.551,-420.410,-76.172,0.000
1727710647.274,-86.426,-39.062,-536.621,-104.492,0.000
1727710647.277,-41.992,-32.227,-680.664,-91.797,0.000
1727710647.281,-78.125,-67.383,-766.113,-107.910,0.000
1727710647.285,-104.492,-65.430,-914.551,-82.520,0.000
1727710647.289,-73.242,-21.973,-1000.000,-73.730,0.000
1727710647.293,-17.578,-21.484,-996.094,-41.992,0.000
1727710647.297,2.441,-41.992,-999.512,-13.184,0.000
1727710647.301,-82.031,-62.012,-1000.000,-99.121,0.000
1727710647.305,-85.449,-28.809,-1000.000,-79.590,0.000
1727710647.309,-60.547,-25.391,-1000.000,-58.594,0.000
1727710647.313,-78.125,-58.594,-998.047,-67.383,0.000
1727710647.316,-78.613,-35.156,-997.559,-89.844,0.000
1727710647.320,-87.891,-31.738,-1000.000,-136.230,0.000
1727710647.324,-91.309,-61.523,-861.328,-86.914,0.000
1727710647.328,-74.219,-55.176,-682.617,-60.059,0.000
1727710647.332,-46.875,-20.508,-655.273,-82.031,0.000
1727710647.336,-54.199,10.742,-640.137,-99.609,0.000
1727710647.340,-107.910,-18.555,-642.578,-136.719,0.000
1727710647.344,-107.910,-42.480,-705.566,-127.930,0.000
1727710647.348,-80.566,-19.043,-735.352,-85.938,0.000
1727710647.352,-83.984,-20.020,-710.449,-85.938,0.000
1727710647.356,-64.941,-20.996,-703.125,-65.918,0.000
1727710647.359,-66.406,-14.160,-719.238,-52.734,0.000
1727710647.363,-71.777,3.418,-748.047,-41.016,0.000
1727710647.367,-50.293,-24.902,-752.441,-12.695,0.000
1727710647.371,-58.105,-80.078,-738.281,-82.520,0.000
1727710647.375,-86.914,-47.363,-770.020,-118.164,0.000
1727710647.379,-54.199,14.648,-855.957,-80.078,0.000
1727710647.383,-58.594,12.695,-897.949,-79.102,0.000
1727710647.387,-130.371,-23.926,-839.355,-74.707,0.000
1727710647.391,-100.586,-19.043,-899.902,-70.801,0.000
1727710647.395,-25.391,6.836,-1000.000,-57.617,0.000
1727710647.399,-53.223,-16.602,-997.559,-56.641,0.000
1727710647.402,-67.383,-22.461,-1000.000,-43.457,0.000
1727710647.406,-66.406,2.441,-990.234,-57.617,0.000
1727710647.410,-58.105,-7.812,-980.469,-58.105,0.000
1727710647.414,-40.039,-8.301,-997.070,-10.254,0.000
1727710647.418,-59.570,-6.836,-975.586,-67.383,0.000
1727710647.422,-45.898,-47.852,-920.898,-56.152,0.000
1727710647.426,-83.008,-69.824,-882.812,-29.785,0.000
1727710647.430,-71.289,-16.602,-898.438,-41.504,0.000
1727710647.434,-24.414,19.043,-869.629,-34.180,0.000
1727710647.438,-73.242,-13.672,-785.645,-57.617,0.000
1727710647.441,-109.375,-21.484,-714.355,-37.598,0.000
1727710647.445,-80.078,5.859,-682.617,-40.527,0.000
1727710647.449,-60.059,-0.977,-701.660,-54.688,0.000
1727710647.453,-63.965,-16.602,-639.160,-41.504,0.000
1727710647.457,-47.363,-10.742,-570.801,-52.246,0.000
1727710647.461,-62.012,-23.926,-537.109,-86.426,0.000
1727710647.465,-81.055,-31.250,-463.379,-37.109,0.000
1727710647.469,-65.918,-30.273,-415.039,-10.742,0.000
1727710647.473,-64.941,-27.832,-357.422,-33.203,0.000
1727710647.477,-57.129,-18.555,-292.480,-39.062,0.000
1727710647.481,-54.688,-23.926,-244.629,-51.758,0.000
1727710647.484,-59.570,-23.926,-199.707,-19.043,0.000
1727710647.488,-59.570,-24.414,-154.785,-39.551,0.000
1727710647.492,-38.086,-22.949,-124.512,-49.316,0.000
1727710647.496,-6.836,-22.461,-81.055,9.766,0.000
1727710647.500,-8.789,-34.668,-9.277,1.953,0.000
1727710647.504,-8.301,-31.250,-0.977,-1.465,0.000
1727710647.508,-3.906,-10.742,5.371,0.488,0.000
1727710647.512,-14.160,-15.625,61.035,-15.137,0.000
1727710647.516,-33.691,-31.738,100.586,-5.371,0.000
1727710647.520,-39.551,-36.621,128.906,-10.254,0.000
1727710647.524,-62.988,-37.109,150.879,-40.527,0.000
1727710647.527,-54.199,-34.180,157.715,-49.805,0.000
1727710647.531,-13.184,-59.082,214.844,-54.199,0.000
1727710647.535,-44.922,-79.102,247.070,-54.199,0.000
1727710647.539,-62.500,-50.293,232.910,-26.855,0.000
1727710647.543,-26.367,-15.137,231.934,-7.324,0.000
1727710647.547,-10.254,-20.508,223.145,16.602,0.000
1727710647.551,-9.277,-43.945,265.137,30.273,0.000
1727710647.555,-4.395,-39.062,296.387,13.672,0.000
1727710647.559,-8.789,-24.902,298.828,-19.531,0.000
1727710647.563,-35.156,-33.203,310.059,-25.879,0.000
1727710647.567,-54.688,-39.551,319.824,-12.695,0.000
1727710647.570,-28.320,-33.203,315.430,-21.484,0.000
1727710647.574,-8.301,-34.668,321.289,-28.320,0.000
1727710647.578,-15.625,-41.992,329.590,-18.555,0.000
1727710647.582,-24.414,-45.898,328.125,-20.020,0.000
1727710647.586,-25.391,-36.133,316.406,-14.160,0.000
1727710647.590,4.395,-33.691,307.617,12.695,0.000
1727710647.594,20.508,-52.246,319.824,7.324,0.000
1727710647.598,12.695,-40.527,333.496,-5.859,0.000
1727710647.602,-3.906,-23.438,373.047,-5.371,0.000
1727710647.606,-16.602,-24.414,458.984,-22.949,0.000
1727710647.610,5.859,-22.461,503.906,0.000,0.000
1727710647.613,24.414,-13.184,530.273,20.996,0.000
1727710647.617,15.625,-16.113,687.500,8.789,0.000
1727710647.621,-5.371,-28.809,829.102,4.883,0.000
1727710647.625,-20.996,-25.879,877.441,12.207,0.000
1727710647.629,-6.836,-21.484,905.762,5.859,0.000
1727710647.633,24.902,-18.555,939.941,-0.977,0.000
1727710647.637,22.461,-16.602,969.238,0.000,0.000
1727710647.641,4.883,-20.020,967.773,11.230,0.000
1727710647.645,0.488,-21.484,967.773,22.461,0.000
1727710647.649,12.695,-19.043,968.262,20.020,0.000
1727710647.652,37.109,-9.766,968.262,27.344,0.000
1727710647.656,38.086,-17.090,968.262,23.438,0.000
1727710647.660,5.859,-23.438,968.262,7.812,0.000
1727710647.664,-11.230,-21.484,968.262,-13.184,0.000
1727710647.668,-0.977,-24.414,968.262,-20.996,0.000
1727710647.672,17.578,-25.391,968.262,-13.672,0.000
1727710647.676,24.414,-23.926,968.262,-5.371,0.000
1727710647.680,14.648,-20.996,968.262,0.488,0.000
1727710647.684,1.465,-15.625,967.285,-0.488,0.000
1727710647.688,-0.488,-15.625,966.797,0.977,0.000
1727710647.692,22.461,-17.578,966.309,6.348,0.000
1727710647.695,27.344,-15.625,910.645,-1.953,0.000
1727710647.699,19.043,-15.137,812.500,4.395,0.000
1727710647.703,6.348,-16.113,745.117,10.742,0.000
1727710647.707,-12.695,-20.996,723.145,-7.324,0.000
1727710647.711,-0.488,-32.715,702.637,-11.230,0.000
1727710647.715,15.137,-34.668,679.688,-7.812,0.000
1727710647.719,9.277,-27.344,665.527,-18.066,0.000
1727710647.723,-6.348,-23.926,653.320,-16.113,0.000
1727710647.727,-24.902,-26.367,613.770,-23.438,0.000
1727710647.731,-10.254,-27.832,565.430,-20.020,0.000
1727710647.735,10.254,-27.832,540.039,0.488,0.000
1727710647.738,10.742,-24.902,493.652,-5.859,0.000
1727710647.742,-12.695,-29.785,477.539,-12.695,0.000
1727710647.746,-29.297,-42.480,468.750,-17.578,0.000
1727710647.750,-14.160,-43.457,433.105,-21.484,0.000
1727710647.754,-7.812,-37.598,368.164,-10.254,0.000
1727710647.758,-3.906,-33.691,302.246,-0.977,0.000
1727710647.762,-1.465,-28.320,264.648,1.465,0.000
1727710647.766,-18.555,-29.297,227.051,-2.441,0.000
1727710647.770,-4.883,-28.320,197.754,-17.578,0.000
1727710647.774,24.902,-26.367,187.012,-11.230,0.000
1727710647.777,16.602,-27.344,167.480,-0.488,0.000
1727710647.781,4.395,-24.902,126.953,-6.348,0.000
1727710647.785,-6.836,-30.762,147.949,-12.207,0.000
1727710647.789,-1.465,-36.133,192.383,-18.555,0.000
1727710647.793,5.859,-34.180,176.270,-17.090,0.000
1727710647.797,-9.766,-32.715,147.461,-22.461,0.000
1727710647.801,-12.695,-32.227,123.047,-17.578,0.000
1727710647.805,-16.602,-33.203,117.188,-1.465,0.000
1727710647.809,-20.508,-33.203,114.746,-7.812,0.000
1727710647.813,0.000,-29.297,96.191,-11.230,0.000
1727710647.817,15.137,-23.926,77.148,9.766,0.000
1727710647.820,-1.953,-19.531,88.867,2.930,0.000
1727710647.824,-22.461,-16.113,106.934,-21.973,0.000
1727710647.828,-19.043,-16.113,114.746,-27.832,0.000
1727710647.832,-15.137,-20.508,105.957,-24.414,0.000
1727710647.836,-17.090,-22.949,95.215,-18.066,0.000
1727710647.840,-17.090,-21.973,82.031,-12.207,0.000
1727710647.844,-26.367,-26.367,75.195,-8.301,0.000
1727710647.848,-25.391,-33.691,78.125,-17.090,0.000
1727710647.852,-2.930,-26.367,59.570,-13.184,0.000
1727710647.856,9.277,-24.902,46.387,-10.254,0.000
1727710647.860,5.371,-37.598,80.566,-18.066,0.000
1727710647.863,-18.066,-36.133,91.309,-15.137,0.000
1727710647.867,-19.531,-31.250,76.660,-10.742,0.000
1727710647.871,2.930,-26.367,73.730,-14.648,0.000
1727710647.875,0.977,-23.438,74.707,-13.184,0.000
1727710647.879,-9.766,-23.438,77.637,-6.348,0.000
1727710647.883,-24.414,-17.090,71.289,-1.465,0.000
1727710647.887,-31.738,-20.020,63.477,-10.254,0.000
1727710647.891,-3.418,-35.156,57.617,-8.789,0.000
1727710647.895,2.930,-38.086,35.156,3.906,0.000
1727710647.899,-7.324,-24.902,25.391,-6.836,0.000
1727710647.903,-10.742,-18.555,45.410,-9.277,0.000
1727710647.906,-11.719,-12.695,42.480,-4.883,0.000
1727710647.910,-3.906,-11.230,31.250,-5.371,0.000
1727710647.914,-9.277,-20.996,40.039,-13.672,0.000
1727710647.918,-5.371,-19.531,47.363,-14.160,0.000
1727710647.922,-6.348,-17.090,57.129,-13.184,0.000
1727710647.926,-36.133,-22.949,62.988,-15.625,0.000
1727710647.930,-22.461,-27.344,53.223,-21.973,0.000
1727710647.934,-3.418,-27.832,43.457,-20.996,0.000
1727710647.938,-17.090,-24.902,41.504,-3.418,0.000
1727710647.942,-23.926,-21.973,20.996,-3.906,0.000
1727710647.946,-23.438,-16.113,-2.441,-20.020,0.000
1727710647.949,-9.277,-17.090,17.578,-18.555,0.000
1727710647.953,4.395,-14.160,34.668,-11.719,0.000
1727710647.957,-6.836,-12.207,38.574,-16.602,0.000
1727710647.961,-20.020,-20.996,54.199,-28.809,0.000
1727710647.965,-20.508,-16.113,58.594,-23.438,0.000
1727710647.969,-11.230,-20.020,41.992,-9.277,0.000
1727710647.973,6.836,-38.574,17.090,-0.488,0.000
1727710647.977,0.977,-32.227,24.414,-10.742,0.000
1727710647.981,-17.090,-13.672,65.430,-21.484,0.000
1727710647.985,-31.250,-11.719,85.938,-25.879,0.000
1727710647.988,-36.133,-18.066,70.312,-34.668,0.000
1727710647.992,-22.461,-24.414,61.035,-29.785,0.000
1727710647.996,-18.555,-28.320,58.105,-25.879,0.000
1727710648.000,-27.832,-26.855,44.922,-22.949,0.000
1727710648.004,-34.668,-21.973,47.363,-14.160,0.000
1727710648.008,-37.109,-16.602,56.641,-15.625,0.000
1727710648.012,-23.926,-21.973,51.270,-30.273,0.000
1727710648.016,-16.113,-22.949,55.664,-40.527,0.000
1727710648.020,0.000,-20.508,62.500,-35.645,0.000
1727710648.024,0.000,-21.484,58.105,-32.715,0.000
1727710648.028,0.000,-18.066,53.711,-31.250,0.000
1727710648.031,0.000,-15.137,47.363,-30.273,0.000
1727710648.035,0.000,-25.879,49.316,-37.598,0.000
1727710648.039,0.000,-29.785,58.105,-27.344,0.000
1727710648.043,0.000,-23.926,52.734,-17.578,0.000
1727710648.047,0.000,-30.762,44.922,-22.949,0.000
1727710648.051,0.000,-40.039,39.062,-22.461,0.000
1727710648.055,0.000,-45.898,41.016,-24.902,0.000
1727710648.059,0.000,-41.016,41.992,-35.156,0.000
1727710648.063,0.000,-35.156,32.227,-23.926,0.000
1727710648.067,-48.340,-35.156,36.133,-25.879,0.000
1727710648.071,-39.551,-32.715,41.992,-31.250,0.000
1727710648.074,-25.879,-30.762,29.297,-36.621,0.000
1727710648.078,-29.297,-29.297,23.926,-39.551,0.000
1727710648.082,-44.922,-30.762,35.645,-30.273,0.000
1727710648.086,-60.547,-32.227,47.852,-46.875,0.000
1727710648.090,-38.574,-25.391,46.875,-36.133,0.000
1727710648.094,-28.320,-20.508,38.574,-23.438,0.000
1727710648.098,-39.551,-23.926,31.250,-26.855,0.000
1727710648.102,-40.527,-27.832,29.785,-31.250,0.000
1727710648.106,-46.387,-29.785,33.691,-44.922,0.000
1727710648.110,-26.855,-27.832,34.668,-50.781,0.000
1727710648.113,-27.832,-25.391,23.926,-57.617,0.000
1727710648.117,-40.039,-28.809,22.949,-48.828,0.000
1727710648.121,-41.016,-34.180,20.996,-39.551,0.000
1727710648.125,-45.410,-33.691,22.949,-33.203,0.000
1727710648.129,-24.902,-23.438,30.273,-36.621,0.000
1727710648.133,-7.812,-20.996,25.391,-31.738,0.000
1727710648.137,-3.418,-17.090,30.273,-23.926,0.000
1727710648.141,-24.414,-25.879,32.715,-28.809,0.000
1727710648.145,-65.918,-33.691,16.602,-43.457,0.000
1727710648.149,-62.012,-27.832,8.301,-53.711,0.000
1727710648.153,-32.715,-29.297,19.043,-47.852,0.000
1727710648.156,-17.578,-23.926,28.320,-33.691,0.000
1727710648.160,-32.227,-20.996,33.203,-39.062,0.000
1727710648.164,-48.828,-28.809,35.156,-44.922,0.000
1727710648.168,-32.227,-36.133,25.879,-36.621,0.000
1727710648.172,-22.949,-36.621,20.996,-40.527,0.000
1727710648.176,-22.461,-32.715,20.996,-36.133,0.000
1727710648.180,-33.691,-24.902,16.113,-37.109,0.000
1727710648.184,-54.199,-20.508,18.555,-35.645,0.000
1727710648.188,-45.898,-20.020,20.020,-39.062,0.000
1727710648.192,-30.273,-20.508,9.277,-44.434,0.000
1727710648.196,-29.297,-22.949,8.789,-39.062,0.000
1727710648.199,-31.738,-32.715,11.230,-45.410,0.000
1727710648.203,-46.875,-38.086,7.324,-44.922,0.000
1727710648.207,-38.574,-31.250,2.930,-37.598,0.000
1727710648.211,-21.973,-23.926,-7.812,-43.457,0.000
1727710648.215,-17.578,-26.855,-1.953,-43.457,0.000
1727710648.219,-22.461,-33.691,11.719,-33.691,0.000
1727710648.223,-39.551,-33.203,14.648,-27.344,0.000
1727710648.227,-43.945,-32.227,17.578,-26.367,0.000
1727710648.231,-32.227,-31.738,19.043,-31.250,0.000
1727710648.235,-16.113,-30.273,15.137,-29.785,0.000
1727710648.239,-14.648,-25.879,9.277,-24.414,0.000
1727710648.242,-30.273,-23.438,1.953,-20.508,0.000
1727710648.246,-34.180,-31.738,-4.395,-25.391,0.000
1727710648.250,-41.016,-35.156,-13.184,-23.438,0.000
1727710648.254,-21.484,-33.691,-12.207,-21.484,0.000
1727710648.258,-12.207,-35.156,-9.766,-29.297,0.000
1727710648.262,-41.504,-36.133,-17.578,-24.414,0.000
1727710648.266,-40.527,-34.180,-11.719,-19.531,0.000
1727710648.270,-14.160,-29.785,-18.066,-24.902,0.000
1727710648.274,-13.184,-31.738,-62.012,-27.344,0.000
1727710648.278,-20.020,-29.297,-44.922,-30.762,0.000
1727710648.282,-36.621,-26.367,16.602,-30.273,0.000
1727710648.285,-48.340,-29.785,24.902,-27.832,0.000
1727710648.289,-22.949,-28.809,16.602,-35.156,0.000
1727710648.293,0.488,-21.973,10.742,-38.574,0.000
1727710648.297,-5.859,-20.508,1.465,-29.297,0.000
1727710648.301,-17.578,-22.949,-7.812,-25.391,0.000
1727710648.305,-26.855,-20.996,-9.766,-34.668,0.000
1727710648.309,-20.508,-18.555,-10.254,-33.691,0.000
1727710648.313,-10.742,-19.531,-4.395,-30.273,0.000
1727710648.317,-18.555,-21.973,12.207,-25.879,0.000
1727710648.321,-30.273,-22.461,27.832,-24.414,0.000
1727710648.324,-34.668,-24.414,25.391,-29.785,0.000
1727710648.328,-21.484,-27.832,15.625,-30.273,0.000
1727710648.332,-5.371,-27.344,4.883,-19.043,0.000
1727710648.336,-9.766,-22.949,-3.418,-24.902,0.000
1727710648.340,-15.625,-17.578,-20.020,-28.809,0.000
1727710648.344,-18.066,-15.137,-30.762,-23.926,0.000
1727710648.348,-17.090,-16.602,-6.348,-22.949,0.000
1727710648.352,-1.953,-19.531,14.648,-13.672,0.000
1727710648.356,18.555,-20.508,10.742,0.977,0.000
1727710648.360,-0.488,-26.367,8.789,0.488,0.000
1727710648.364,-43.945,-25.879,6.836,-6.348,0.000
1727710648.367,-48.828,-19.531,-6.836,-21.973,0.000
1727710648.371,-20.996,-22.949,-7.324,-26.367,0.000
1727710648.375,-10.254,-26.855,-2.441,-13.184,0.000
1727710648.379,-15.625,-23.438,-12.695,-12.695,0.000
1727710648.383,-13.184,-23.926,-22.949,-1.953,0.000
1727710648.387,-11.230,-24.414,-20.996,0.000,0.000
1727710648.391,-1.465,-17.090,-13.184,-16.602,0.000
1727710648.395,0.000,-14.160,-12.207,-18.066,0.000
1727710648.399,-11.230,-19.043,-14.648,-14.648,0.000
1727710648.403,-21.484,-21.484,-9.277,-12.695,0.000
1727710648.407,-22.461,-21.973,-4.395,-12.695,0.000
1727710648.410,-3.418,-25.879,-3.906,-13.672,0.000
1727710648.414,10.254,-24.414,-2.930,-3.418,0.000
1727710648.418,-3.906,-18.555,-6.836,7.812,0.000
1727710648.422,-20.996,-16.113,-15.625,17.090,0.000
1727710648.426,-20.996,-15.625,-20.020,6.836,0.000
1727710648.430,-5.371,-18.555,-23.926,-9.766,0.000
1727710648.434,-1.465,-19.043,-17.578,-5.859,0.000
1727710648.438,-7.324,-13.672,-12.207,-6.348,0.000
1727710648.442,-17.090,-18.555,-10.742,4.395,0.000
1727710648.446,-28.320,-30.762,1.953,-10.254,0.000
1727710648.450,-17.090,-28.809,-4.395,-34.668,0.000
1727710648.453,-11.230,-24.414,-23.438,-26.855,0.000
1727710648.457,-22.949,-29.785,-26.367,-25.391,0.000
1727710648.461,-26.367,-27.344,-17.578,-20.020,0.000
1727710648.465,-27.832,-25.879,-10.742,-21.484,0.000
1727710648.469,-26.367,-30.762,-9.277,-24.414,0.000
1727710648.473,-19.043,-30.273,-17.578,-26.855,0.000
1727710648.477,-18.066,-28.809,-22.949,-23.438,0.000
1727710648.481,-21.973,-20.508,-11.719,-18.066,0.000
1727710648.485,-23.926,-16.113,-8.789,-26.367,0.000
1727710648.489,-16.602,-17.578,-26.855,-33.203,0.000
1727710648.492,-16.602,-21.973,-30.762,-38.574,0.000
1727710648.496,-22.461,-24.902,-20.020,-41.504,0.000
1727710648.500,-31.250,-22.949,-18.066,-35.156,0.000
1727710648.504,-37.598,-21.484,-21.484,-24.414,0.000
1727710648.508,-20.020,-25.391,-22.461,-20.508,0.000
1727710648.512,0.977,-26.367,-24.902,-21.484,0.000
1727710648.516,5.371,-20.996,-29.297,-23.438,0.000
1727710648.520,-10.254,-21.973,-33.203,-20.996,0.000
1727710648.524,-28.320,-30.273,-33.203,-13.672,0.000
1727710648.528,-17.578,-31.738,-33.203,-14.160,0.000
1727710648.532,2.930,-31.250,-29.785,-20.996,0.000
1727710648.535,7.324,-30.273,-20.996,-13.184,0.000
1727710648.539,-16.602,-27.832,-11.719,-10.254,0.000
1727710648.543,-38.086,-31.738,-12.695,-9.766,0.000
1727710648.547,-22.949,-29.297,-25.391,-6.348,0.000
1727710648.551,-10.254,-27.832,-23.926,-8.789,0.000
1727710648.555,4.395,-38.574,-16.602,-5.371,0.000
1727710648.559,11.719,-39.551,-16.113,-8.301,0.000
1727710648.563,-4.883,-27.344,-24.902,-17.578,0.000
1727710648.567,-10.742,-22.949,-38.086,-16.602,0.000
1727710648.571,-5.371,-23.438,-40.039,-13.672,0.000
1727710648.575,-4.395,-25.391,-31.738,-13.184,0.000
1727710648.578,-14.160,-24.902,-19.531,-11.719,0.000
1727710648.582,-26.855,-21.973,-20.996,-16.602,0.000
1727710648.586,-28.809,-24.902,-22.461,-19.531,0.000
1727710648.590,-17.090,-25.879,-25.391,-17.578,0.000
1727710648.594,-0.977,-18.066,-25.391,-7.812,0.000
1727710648.598,-5.371,-12.207,-12.695,-2.441,0.000
1727710648.602,-24.414,-15.137,-10.742,-7.812,0.000
1727710648.606,-25.879,-17.090,-14.160,-13.184,0.000
1727710648.610,-9.766,-11.230,-22.949,-20.508,0.000
1727710648.614,0.000,-15.137,-34.668,-11.230,0.000
1727710648.618,-0.488,-23.438,-27.832,-1.465,0.000
1727710648.621,-15.137,-26.367,-21.973,-14.160,0.000
1727710648.625,-17.090,-28.809,-20.996,-17.090,0.000
1727710648.629,-4.395,-23.438,-15.625,-9.766,0.000
1727710648.633,-10.254,-20.020,-20.020,-8.301,0.000
1727710648.637,-21.484,-20.508,-35.156,-16.113,0.000
1727710648.641,-23.926,-19.043,-43.457,-12.695,0.000
1727710648.645,-32.715,-15.625,-42.969,-13.672,0.000
1727710648.649,-27.344,-19.043,-34.180,-7.812,0.000
1727710648.653,-9.277,-23.438,-27.832,-4.883,0.000
1727710648.657,-3.906,-27.832,-25.391,-6.836,0.000
1727710648.660,-9.277,-35.645,-26.855,16.113,0.000
1727710648.664,-16.113,-28.809,-28.320,7.812,0.000
1727710648.668,-22.949,-15.625,-42.480,-37.109,0.000
1727710648.672,-8.301,-15.625,-48.828,-32.715,0.000
1727710648.676,0.000,-24.414,-30.273,-12.207,0.000
1727710648.680,0.000,-20.996,-29.297,-22.949,0.000
1727710648.684,0.000,-16.113,-44.922,-23.926,0.000
1727710648.688,0.000,-19.531,-57.617,-11.719,0.000
1727710648.692,0.000,-21.484,-57.617,-0.488,0.000
1727710648.696,0.000,-25.391,-48.340,-6.836,0.000
1727710648.700,0.000,-32.715,-40.527,-12.695,0.000
1727710648.703,0.000,-23.438,-39.062,0.000,0.000
1727710648.707,0.000,-11.719,-34.180,-2.930,0.000
1727710648.711,0.000,-15.625,-26.367,-17.090,0.000
1727710648.715,0.000,-20.020,-20.996,-15.137,0.000
1727710648.719,0.000,-24.414,-17.578,-18.066,0.000
1727710648.723,-30.273,-23.438,-22.949,-12.207,0.000
1727710648.727,-27.344,-23.438,-35.645,-4.883,0.000
1727710648.731,3.418,-22.461,-49.316,-3.906,0.000
1727710648.735,4.395,-22.949,-40.527,-4.883,0.000
1727710648.739,9.766,-24.414,-25.879,-4.883,0.000
1727710648.743,6.348,-18.066,-36.133,3.906,0.000
1727710648.746,-7.324,-17.578,-40.527,-4.883,0.000
1727710648.750,-2.441,-18.555,-33.203,-10.254,0.000
1727710648.754,3.418,-18.066,-33.691,2.441,0.000
1727710648.758,-3.906,-23.438,-30.762,-3.906,0.000
1727710648.762,-13.184,-25.391,-31.738,-6.836,0.000
1727710648.766,-13.184,-21.484,-39.551,-9.766,0.000
1727710648.770,-5.371,-17.578,-43.945,-16.113,0.000
1727710648.774,-3.418,-22.949,-41.016,-12.695,0.000
1727710648.778,-6.348,-26.855,-34.668,-4.883,0.000
1727710648.782,-16.113,-24.902,-30.762,3.906,0.000
1727710648.786,-18.066,-26.367,-31.738,7.324,0.000
1727710648.789,-3.906,-28.809,-39.062,2.441,0.000
1727710648.793,9.766,-26.367,-42.969,0.488,0.000
1727710648.797,9.277,-29.297,-33.691,1.953,0.000
1727710648.801,1.953,-33.691,-27.832,-3.906,0.000
1727710648.805,1.953,-35.645,-35.156,-2.441,0.000
1727710648.809,1.953,-33.203,-37.109,-8.301,0.000
1727710648.813,-1.953,-28.809,-29.297,-24.414,0.000
1727710648.817,-4.883,-29.785,-22.949,-20.996,0.000
1727710648.821,-21.973,-34.668,-33.691,-9.277,0.000
1727710648.825,-21.973,-30.762,-47.852,-2.441,0.000
1727710648.828,-3.418,-27.344,-46.387,-4.883,0.000
1727710648.832,5.859,-29.785,-41.016,-4.883,0.000
1727710648.836,17.090,-30.273,-28.809,0.977,0.000
1727710648.840,2.930,-31.738,-26.855,6.348,0.000
1727710648.844,-8.301,-26.367,-26.367,6.836,0.000
1727710648.848,1.465,-18.555,-18.555,-0.977,0.000
1727710648.852,4.883,-19.531,-14.160,-9.766,0.000
1727710648.856,2.441,-17.090,-27.344,-8.301,0.000
1727710648.860,-3.906,-14.648,-35.156,0.488,0.000
1727710648.864,-14.648,-17.578,-31.738,-2.930,0.000
1727710648.868,-2.930,-19.531,-33.203,-8.301,0.000
1727710648.871,13.184,-16.113,-38.086,-2.441,0.000
1727710648.875,6.836,-17.578,-35.645,-3.418,0.000
1727710648.879,-0.977,-20.996,-27.344,1.465,0.000
1727710648.883,-13.672,-25.879,-27.344,12.207,0.000
1727710648.887,-14.160,-26.367,-27.832,13.672,0.000
1727710648.891,3.906,-19.531,-28.320,5.859,0.000
1727710648.895,-2.930,-21.973,-39.062,-10.742,0.000
1727710648.899,-12.695,-23.438,-37.598,-12.695,0.000
1727710648.903,-14.648,-19.043,-32.227,-10.742,0.000
1727710648.907,-21.484,-15.625,-46.875,-22.949,0.000
1727710648.911,-14.160,-24.414,-50.781,-27.832,0.000
1727710648.914,-8.789,-28.809,-35.645,-36.621,0.000
1727710648.918,-23.438,-25.391,-23.926,-29.785,0.000
1727710648.922,-48.340,-27.832,-16.113,-20.508,0.000
1727710648.926,-41.992,-28.320,-11.719,-20.020,0.000
1727710648.930,-19.043,-23.926,-13.672,-20.508,0.000
1727710648.934,-17.090,-25.391,-22.461,-21.973,0.000
1727710648.938,-26.855,-31.738,-31.250,-18.066,0.000
1727710648.942,-41.504,-32.227,-36.621,-17.578,0.000
1727710648.946,-34.180,-26.855,-44.922,-19.043,0.000
1727710648.950,-7.324,-33.203,-45.898,-22.461,0.000
1727710648.953,0.000,-38.086,-35.645,-13.672,0.000
1727710648.957,-9.766,-24.902,-35.645,-9.766,0.000
1727710648.961,-33.203,-16.602,-36.133,-18.066,0.000
1727710648.965,-43.945,-18.555,-34.668,-19.531,0.000
1727710648.969,-22.949,-21.973,-34.180,-28.809,0.000
1727710648.973,-12.695,-22.461,-38.574,-26.855,0.000
1727710648.977,-16.602,-21.973,-42.480,-18.066,0.000
1727710648.981,-23.926,-20.020,-43.945,-5.859,0.000
1727710648.985,-26.855,-21.484,-41.992,-5.859,0.000
1727710648.989,-7.324,-24.902,-30.273,-12.207,0.000
1727710648.993,1.953,-25.391,-22.461,1.953,0.000
1727710648.996,-4.883,-18.555,-24.414,0.000,0.000
1727710649.000,-14.160,-15.137,-24.414,-9.277,0.000
1727710649.004,-22.949,-20.020,-17.090,-5.859,0.000
1727710649.008,-14.160,-25.879,-20.508,-10.742,0.000
1727710649.012,-3.906,-25.879,-28.320,-10.254,0.000
1727710649.016,-8.301,-21.973,-24.414,-21.484,0.000
1727710649.020,-20.508,-21.973,-22.461,-28.809,0.000
1727710649.024,-17.578,-20.020,-21.973,-11.719,0.000
1727710649.028,-3.906,-20.020,-29.297,-0.977,0.000
1727710649.032,-9.766,-21.973,-32.715,-1.465,0.000
1727710649.036,-15.137,-22.949,-28.320,-2.441,0.000
1727710649.039,-25.879,-22.461,-31.250,-11.230,0.000
1727710649.043,-33.203,-21.973,-26.855,-15.625,0.000
1727710649.047,-22.461,-26.367,-27.344,-27.344,0.000
1727710649.051,-14.648,-31.738,-25.879,-26.367,0.000
1727710649.055,-8.301,-28.320,-24.414,-15.625,0.000
1727710649.059,-19.531,-23.438,-31.250,-17.578,0.000
1727710649.063,-41.504,-29.297,-34.668,-23.438,0.000
1727710649.067,-34.180,-26.855,-35.156,-34.180,0.000
1727710649.071,-19.531,-22.949,-35.156,-31.250,0.000
1727710649.075,-16.602,-25.391,-33.203,-24.902,0.000
1727710649.079,-23.438,-22.949,-33.691,-25.391,0.000
1727710649.082,-34.668,-23.438,-40.039,-7.812,0.000
1727710649.086,-29.785,-24.902,-46.387,-14.648,0.000
1727710649.090,-14.160,-25.391,-43.945,-40.039,0.000
1727710649.094,-8.789,-29.785,-36.621,-27.832,0.000
1727710649.098,-16.113,-32.227,-29.785,-15.625,0.000
1727710649.102,-26.367,-23.926,-24.414,-8.301,0.000
1727710649.106,-23.926,-18.066,-29.297,-10.742,0.000
1727710649.110,-19.043,-22.949,-32.715,-37.598,0.000
1727710649.114,-11.719,-21.973,-35.645,-39.062,0.000
1727710649.118,-6.836,-20.508,-42.480,-9.766,0.000
1727710649.122,-24.902,-27.344,-46.387,-19.043,0.000
1727710649.125,-21.484,-27.832,-39.062,-20.508,0.000
1727710649.129,4.883,-20.020,-25.879,-11.719,0.000
1727710649.133,7.324,-20.020,-27.344,-22.461,0.000
1727710649.137,-6.348,-21.484,-28.809,-20.996,0.000
1727710649.141,-25.391,-18.555,-28.320,-13.184,0.000
1727710649.145,-21.973,-23.438,-26.367,-10.254,0.000
1727710649.149,-5.859,-30.762,-25.391,-23.438,0.000
1727710649.153,-4.395,-25.391,-32.715,-21.484,0.000
1727710649.157,-16.602,-20.508,-31.738,-17.578,0.000
1727710649.161,-39.062,-24.902,-32.227,-30.273,0.000
1727710649.164,-34.668,-22.461,-32.227,-26.367,0.000
1727710649.168,-18.066,-24.414,-34.668,-16.602,0.000
1727710649.172,-12.695,-28.809,-34.668,-7.324,0.000
1727710649.176,-18.066,-22.461,-28.809,-7.324,0.000
1727710649.180,-28.809,-20.020,-29.297,-8.789,0.000
1727710649.184,-35.156,-22.461,-34.180,-17.090,0.000
1727710649.188,-29.785,-24.902,-35.156,-24.902,0.000
1727710649.192,-20.020,-24.414,-30.273,-24.902,0.000
1727710649.196,-16.602,-19.531,-25.879,-19.043,0.000
1727710649.200,-28.809,-18.066,-32.715,-20.508,0.000
1727710649.204,-43.457,-20.508,-34.180,-19.531,0.000
1727710649.207,-28.320,-20.996,-28.320,-18.555,0.000
1727710649.211,-14.160,-21.484,-27.832,-23.926,0.000
1727710649.215,-13.184,-22.461,-30.273,-20.020,0.000
1727710649.219,-24.902,-23.926,-32.715,-18.066,0.000
1727710649.223,-26.855,-25.879,-37.598,-20.996,0.000
1727710649.227,-12.207,-24.414,-32.715,-26.367,0.000
1727710649.231,-7.812,-19.531,-25.391,-18.066,0.000
1727710649.235,-3.418,-19.531,-30.273,-5.371,0.000
1727710649.239,-9.766,-17.578,-34.668,-19.531,0.000
1727710649.243,-22.949,-17.090,-35.156,-30.273,0.000
1727710649.247,-15.137,-19.531,-36.621,-30.273,0.000
1727710649.250,-5.859,-18.555,-27.832,-32.227,0.000
1727710649.254,-21.484,-23.438,-24.414,-35.645,0.000
1727710649.258,-43.945,-23.926,-29.785,-24.414,0.000
1727710649.262,-42.480,-18.066,-26.855,-21.484,0.000
1727710649.266,-24.414,-15.625,-23.926,-32.715,0.000
1727710649.270,-21.484,-21.973,-16.113,-31.250,0.000
1727710649.274,-15.137,-25.879,-12.207,-22.461,0.000
1727710649.278,-9.766,-18.555,-18.555,-7.812,0.000
1727710649.282,-22.461,-14.648,-22.949,-2.930,0.000
1727710649.286,-20.508,-17.090,-31.250,-6.348,0.000
1727710649.290,-11.230,-26.367,-30.273,-17.090,0.000
1727710649.293,-14.160,-29.297,-21.973,-28.320,0.000
1727710649.297,-32.227,-27.344,-14.648,-26.855,0.000
1727710649.301,-66.895,-32.227,-9.766,-43.945,0.000
1727710649.305,-48.828,-40.527,-13.672,-46.875,0.000
1727710649.309,-3.418,-31.738,-18.066,-13.672,0.000
1727710649.313,7.812,-25.879,-18.066,-15.137,0.000
1727710649.317,-19.531,-33.691,-17.090,-36.133,0.000
1727710649.321,-79.590,-44.922,-2.930,-37.109,0.000
1727710649.325,-85.938,-60.059,7.812,-64.453,0.000
1727710649.329,-72.754,-56.152,8.301,-98.633,0.000
1727710649.333,-64.453,-41.992,6.348,-84.961,0.000
1727710649.336,-41.504,-39.551,-0.488,-60.059,0.000
1727710649.340,-54.688,-45.898,-17.090,-71.289,0.000
1727710649.344,-102.539,-53.223,-0.977,-115.234,0.000
1727710649.348,-72.266,-9.277,-5.859,-90.820,0.000
1727710649.352,-82.031,-35.645,-36.621,-109.863,0.000
1727710649.356,-83.984,-43.945,-46.875,-96.680,0.000
1727710649.360,-13.672,3.906,-78.613,-8.301,0.000
1727710649.364,-5.371,-40.039,-86.914,9.277,0.000
1727710649.368,-31.738,-71.777,-97.168,-20.508,0.000
1727710649.372,-81.055,-81.543,-125.488,-109.375,0.000
1727710649.375,-80.566,-85.449,-201.172,-116.699,0.000
1727710649.379,-43.945,-54.688,-305.664,-64.453,0.000
1727710649.383,-72.754,-58.105,-461.914,-79.590,0.000
1727710649.387,-92.773,-86.426,-634.277,-108.398,0.000
1727710649.391,-76.660,-80.566,-680.176,-69.824,0.000
1727710649.395,-113.770,-108.398,-599.609,-101.562,0.000
1727710649.399,-159.180,-133.789,-585.449,-162.109,0.000
1727710649.403,-143.066,-103.027,-642.578,-131.836,0.000
1727710649.407,-100.586,-69.336,-679.199,-105.957,0.000
1727710649.411,-112.305,-76.660,-688.965,-173.340,0.000
1727710649.415,-129.883,-75.195,-777.832,-190.430,0.000
1727710649.418,-127.441,-86.426,-915.039,-111.328,0.000
1727710649.422,-129.395,-90.820,-988.770,-103.516,0.000
1727710649.426,-109.375,-64.453,-1000.000,-116.211,0.000
1727710649.430,-122.070,-85.449,-998.535,-126.465,0.000
1727710649.434,-131.348,-84.473,-1000.000,-128.906,0.000
1727710649.438,-156.738,-71.289,-1000.000,-151.855,0.000
1727710649.442,-191.406,-66.406,-1000.000,-177.246,0.000
1727710649.446,-195.801,-64.453,-1000.000,-171.875,0.000
1727710649.450,-169.922,-75.684,-1000.000,-160.156,0.000
1727710649.454,-84.961,-61.523,-1000.000,-104.492,0.000
1727710649.458,-75.195,-65.430,-1000.000,-92.285,0.000
1727710649.461,-123.047,-99.121,-1000.000,-112.305,0.000
1727710649.465,-165.039,-102.051,-1000.000,-123.047,0.000
1727710649.469,-152.832,-46.875,-1000.000,-112.793,0.000
1727710649.473,-119.141,-20.508,-1000.000,-116.699,0.000
1727710649.477,-167.480,-55.664,-1000.000,-131.836,0.000
1727710649.481,-145.508,-58.594,-1000.000,-89.844,0.000
1727710649.485,-65.430,-35.645,-1000.000,-46.387,0.000
1727710649.489,-60.059,-43.457,-1000.000,-44.434,0.000
1727710649.493,-77.637,-41.504,-1000.000,-68.359,0.000
1727710649.497,-77.637,-40.527,-999.023,-72.754,0.000
1727710649.501,-78.125,-40.039,-1000.000,-64.453,0.000
1727710649.504,-121.094,-41.016,-982.910,-100.586,0.000
1727710649.508,-121.094,-47.852,-938.477,-97.656,0.000
1727710649.512,-69.336,-30.762,-899.902,-27.344,0.000
1727710649.516,-50.781,-9.766,-836.426,0.488,0.000
1727710649.520,-73.730,-13.672,-746.094,-40.039,0.000
1727710649.524,-68.848,-23.926,-705.566,-48.340,0.000
1727710649.528,-49.805,-26.855,-565.918,-41.016,0.000
1727710649.532,-92.773,-34.668,-407.715,-85.449,0.000
1727710649.536,-59.570,1.465,-427.734,-34.180,0.000
1727710649.540,-62.012,-2.930,-382.324,-17.578,0.000
1727710649.543,-116.211,-50.781,-369.629,-76.660,0.000
1727710649.547,-53.711,-3.906,-370.117,-62.012,0.000
1727710649.551,-13.672,38.574,-312.012,-30.762,0.000
1727710649.555,-23.926,33.691,-258.789,10.742,0.000
1727710649.559,-53.223,28.320,-132.324,-23.926,0.000
1727710649.563,-69.336,27.344,-27.344,-46.387,0.000
1727710649.567,-73.730,8.301,47.363,-74.707,0.000
1727710649.571,-58.105,-4.883,81.543,-100.586,0.000
1727710649.575,-21.484,-8.301,69.336,-64.453,0.000
1727710649.579,-28.809,10.254,83.008,-29.785,0.000
1727710649.583,-63.965,32.227,122.559,-7.812,0.000
1727710649.586,-60.059,26.855,146.973,-28.320,0.000
1727710649.590,-20.996,16.113,138.184,-11.230,0.000
1727710649.594,-0.488,15.625,180.664,29.785,0.000
1727710649.598,-3.906,20.996,215.332,24.902,0.000
1727710649.602,-34.668,3.906,228.516,-0.488,0.000
1727710649.606,-58.105,-4.395,243.164,-55.664,0.000
1727710649.610,-15.625,9.277,218.750,-44.922,0.000
1727710649.614,-1.953,5.859,243.652,-4.883,0.000
1727710649.618,-28.320,8.789,260.742,-4.395,0.000
1727710649.622,-41.016,21.973,260.742,-4.395,0.000
1727710649.626,-49.805,9.277,287.109,-18.555,0.000
1727710649.629,-13.184,2.930,287.598,-27.344,0.000
1727710649.633,14.160,2.441,269.043,-8.789,0.000
1727710649.637,-15.137,-3.418,286.133,5.371,0.000
1727710649.641,-38.086,-8.301,310.547,-11.719,0.000
1727710649.645,-20.996,-6.348,298.340,-20.020,0.000
1727710649.649,13.672,-0.977,291.504,8.301,0.000
1727710649.653,12.695,-10.742,308.594,16.602,0.000
1727710649.657,-0.977,-13.672,313.965,22.461,0.000
1727710649.661,-0.977,-11.719,338.379,19.531,0.000
1727710649.665,-21.973,-16.113,388.672,-6.836,0.000
1727710649.669,-9.766,-12.207,407.715,2.441,0.000
1727710649.672,12.695,-16.113,440.918,-21.973,0.000
1727710649.676,3.906,-21.484,487.305,-22.461,0.000
1727710649.680,-2.441,-11.230,510.742,11.230,0.000
1727710649.684,-3.418,-17.578,523.438,6.836,0.000
1727710649.688,0.488,-26.367,541.504,3.906,0.000
1727710649.692,0.000,-21.973,533.691,17.090,0.000
1727710649.696,14.160,-22.461,526.855,27.832,0.000
1727710649.700,-12.695,-31.250,595.703,1.465,0.000
1727710649.704,-18.555,-32.227,686.523,-2.441,0.000
1727710649.708,17.090,-25.879,769.043,13.672,0.000
1727710649.711,26.367,-22.949,893.555,11.719,0.000
1727710649.715,27.832,-16.113,971.680,16.113,0.000
1727710649.719,13.672,-8.789,965.332,29.297,0.000
1727710649.723,10.254,-5.859,967.285,34.668,0.000
1727710649.727,17.578,-5.859,968.750,20.020,0.000
1727710649.731,31.738,-8.301,968.262,11.230,0.000
1727710649.735,31.250,-16.113,967.773,4.883,0.000
1727710649.739,15.137,-18.555,967.773,0.977,0.000
1727710649.743,11.719,-20.020,968.262,0.000,0.000
1727710649.747,19.531,-26.367,968.262,11.230,0.000
1727710649.751,22.461,-25.391,968.262,26.367,0.000
1727710649.754,26.855,-16.113,968.262,8.789,0.000
1727710649.758,22.949,-8.789,968.262,-1.953,0.000
1727710649.762,-0.488,-8.301,968.262,11.719,0.000
1727710649.766,10.254,-6.836,968.262,30.273,0.000
1727710649.770,46.387,-2.441,968.262,34.180,0.000
1727710649.774,51.270,-3.418,968.262,11.230,0.000
1727710649.778,17.578,-13.184,968.262,-12.695,0.000
1727710649.782,-17.090,-21.973,968.262,4.883,0.000
1727710649.786,8.301,-16.602,968.262,13.184,0.000
1727710649.790,23.926,-16.113,968.262,3.418,0.000
1727710649.794,8.789,-23.926,968.750,5.859,0.000
1727710649.797,-1.953,-25.391,965.820,7.812,0.000
1727710649.801,-12.207,-26.367,969.238,-10.742,0.000
1727710649.805,-5.371,-26.367,953.125,-6.836,0.000
1727710649.809,18.066,-22.461,863.281,9.766,0.000
1727710649.813,16.602,-20.996,778.809,3.418,0.000
1727710649.817,-6.348,-21.484,735.352,1.465,0.000
1727710649.821,-2.930,-34.180,672.363,-1.953,0.000
1727710649.825,3.906,-33.691,649.902,-17.578,0.000
1727710649.829,8.301,-20.020,699.219,-7.812,0.000
1727710649.833,2.930,-25.391,706.543,-5.859,0.000
1727710649.837,-19.531,-32.227,670.898,-17.578,0.000
1727710649.840,-25.879,-21.973,609.375,-15.625,0.000
1727710649.844,-21.484,-24.902,528.320,-27.832,0.000
1727710649.848,0.977,-37.598,480.469,-31.738,0.000
1727710649.852,1.953,-33.691,461.914,-27.344,0.000
1727710649.856,-17.578,-22.461,429.688,-28.320,0.000
1727710649.860,-27.832,-21.973,380.371,-22.949,0.000
1727710649.864,-23.926,-24.414,340.332,-28.320,0.000
1727710649.868,-0.488,-21.484,312.012,-38.574,0.000
1727710649.872,-2.930,-21.973,285.645,-27.344,0.000
1727710649.876,-9.277,-25.391,253.906,-19.043,0.000
1727710649.879,-20.020,-23.926,220.215,-17.578,0.000
1727710649.883,-15.625,-21.973,178.711,-22.461,0.000
1727710649.887,8.301,-20.020,154.785,-19.531,0.000
1727710649.891,10.742,-13.184,159.180,-13.672,0.000
1727710649.895,6.348,-13.672,158.203,-4.395,0.000
1727710649.899,-5.371,-17.578,145.508,-10.742,0.000
1727710649.903,-18.555,-16.113,135.254,-19.043,0.000
1727710649.907,-5.859,-19.531,131.348,-13.184,0.000
1727710649.911,-5.371,-20.508,107.910,-27.832,0.000
1727710649.915,-5.859,-21.973,87.402,-35.645,0.000
1727710649.919,2.441,-22.461,74.219,-16.113,0.000
1727710649.922,-4.395,-19.043,58.105,0.977,0.000
1727710649.926,-12.207,-20.996,69.336,-17.578,0.000
1727710649.930,-11.719,-22.461,83.496,-13.184,0.000
1727710649.934,0.977,-22.949,83.008,-7.324,0.000
1727710649.938,2.930,-29.785,85.449,-6.836,0.000
1727710649.942,-9.277,-35.156,80.078,0.488,0.000
1727710649.946,-13.672,-33.203,53.711,-2.441,0.000
1727710649.950,1.465,-32.715,33.203,-9.277,0.000
1727710649.954,-2.441,-31.738,42.480,-17.578,0.000
1727710649.958,-27.344,-27.832,54.199,-16.113,0.000
1727710649.962,-39.551,-21.484,48.340,-17.090,0.000
1727710649.965,-18.066,-18.066,36.133,-7.812,0.000
1727710649.969,2.441,-24.414,41.992,-18.066,0.000
1727710649.973,-12.695,-29.785,45.410,-31.738,0.000
1727710649.977,-33.203,-32.715,36.621,-18.555,0.000
1727710649.981,-40.039,-34.180,25.391,-15.137,0.000
1727710649.985,-25.879,-35.156,12.207,-11.719,0.000
1727710649.989,4.395,-38.086,8.301,-4.883,0.000
1727710649.993,8.301,-41.992,10.742,-7.324,0.000
1727710649.997,-18.066,-44.434,28.809,-18.066,0.000
1727710650.001,-42.480,-39.062,34.668,-18.555,0.000
1727710650.004,-38.574,-34.668,28.809,-14.160,0.000
1727710650.008,-20.508,-32.227,23.926,-11.719,0.000
1727710650.012,-13.672,-31.250,9.766,-8.301,0.000
1727710650.016,-16.113,-35.156,5.859,-18.066,0.000
1727710650.020,-23.438,-38.086,5.859,-36.621,0.000
1727710650.024,-19.043,-38.574,20.996,-38.086,0.000
1727710650.028,-13.672,-41.504,20.020,-20.508,0.000
1727710650.032,-10.742,-42.480,9.766,-10.742,0.000
1727710650.036,-3.906,-41.016,28.809,-9.766,0.000
1727710650.040,-30.762,-42.480,40.527,-7.324,0.000
1727710650.044,-36.133,-39.062,38.086,-19.043,0.000
1727710650.047,-13.672,-33.203,30.762,-35.156,0.000
1727710650.051,-9.277,-38.086,31.250,-39.551,0.000
1727710650.055,-28.320,-41.992,28.809,-36.621,0.000
1727710650.059,-39.551,-31.250,17.090,-16.602,0.000
1727710650.063,-36.133,-29.785,20.996,-33.203,0.000
1727710650.067,-32.227,-40.039,25.391,-33.203,0.000
1727710650.071,-6.836,-44.922,12.695,-12.695,0.000
1727710650.075,-19.531,-43.945,22.461,-26.367,0.000
1727710650.079,-42.969,-36.133,37.109,-32.715,0.000
1727710650.083,-35.156,-28.320,39.062,-29.785,0.000
1727710650.087,-25.879,-25.879,25.879,-31.738,0.000
1727710650.090,-8.789,-25.391,16.602,-31.250,0.000
1727710650.094,-22.461,-29.297,12.695,-32.715,0.000
1727710650.098,-42.480,-30.273,1.465,-24.902,0.000
1727710650.102,-38.574,-24.414,-1.465,-20.020,0.000
1727710650.106,-26.367,-22.949,12.695,-29.785,0.000
1727710650.110,-22.949,-26.855,23.438,-41.016,0.000
1727710650.114,-26.855,-28.320,19.043,-35.645,0.000
1727710650.118,-37.109,-31.250,8.301,-17.578,0.000
1727710650.122,-41.992,-32.227,12.695,-23.926,0.000
1727710650.126,-20.996,-33.691,20.020,-34.180,0.000
1727710650.130,0.000,-33.691,10.742,-35.156,0.000
1727710650.133,0.000,-33.203,-1.465,-38.086,0.000
1727710650.137,0.000,-28.809,-3.418,-41.992,0.000
1727710650.141,0.000,-31.250,4.395,-42.969,0.000
1727710650.145,0.000,-41.016,-7.812,-36.621,0.000
1727710650.149,0.000,-37.109,-1.465,-36.133,0.000
1727710650.153,0.000,-31.250,26.855,-32.227,0.000
1727710650.157,0.000,-27.344,22.461,-29.785,0.000
1727710650.161,0.000,-22.949,3.906,-17.090,0.000
1727710650.165,0.000,-25.391,4.395,-14.160,0.000
1727710650.169,0.000,-34.180,18.555,-25.879,0.000
1727710650.173,0.000,-39.551,1.953,-34.180,0.000
1727710650.176,-32.227,-45.410,-8.789,-27.832,0.000
1727710650.180,-48.340,-46.387,7.812,-33.691,0.000
1727710650.184,-46.875,-35.645,17.578,-42.969,0.000
1727710650.188,-25.391,-29.297,10.742,-45.898,0.000
1727710650.192,-20.508,-28.320,4.395,-54.199,0.000
1727710650.196,-37.109,-25.391,9.766,-50.781,0.000
1727710650.200,-53.223,-24.902,7.812,-43.457,0.000
1727710650.204,-55.176,-24.414,-4.883,-41.016,0.000
1727710650.208,-42.969,-24.902,-1.953,-33.691,0.000
1727710650.212,-21.973,-22.949,-3.418,-32.715,0.000
1727710650.216,-19.531,-20.020,-15.625,-36.133,0.000
1727710650.219,-38.574,-28.809,-10.742,-25.391,0.000
1727710650.223,0.000,-37.109,-26.855,-16.602,0.000
1727710650.227,0.000,-26.367,-45.898,-29.785,0.000
1727710650.231,0.000,-19.043,-21.484,-38.086,0.000
1727710650.235,0.000,-27.344,3.906,-41.504,0.000
1727710650.239,0.000,-33.691,4.883,-49.805,0.000
1727710650.243,0.000,-31.738,-9.766,-51.758,0.000
1727710650.247,0.000,-29.785,-8.789,-47.852,0.000
1727710650.251,0.000,-31.250,-7.324,-45.898,0.000
1727710650.255,0.000,-33.691,-12.695,-28.809,0.000
1727710650.258,0.000,-30.762,-8.301,-19.043,0.000
1727710650.262,0.000,-28.320,-1.953,-26.855,0.000
1727710650.266,0.000,-29.297,0.488,-30.273,0.000
1727710650.270,-4.395,-30.273,-1.953,-28.320,0.000
1727710650.274,-23.926,-22.949,-17.090,-22.949,0.000
1727710650.278,-41.504,-21.973,-26.367,-11.719,0.000
1727710650.282,-42.480,-29.297,-12.207,-28.809,0.000
1727710650.286,-33.203,-35.645,-12.207,-41.504,0.000
1727710650.290,-15.625,-36.621,-19.043,-30.762,0.000
1727710650.294,-18.066,-30.762,-3.418,-25.391,0.000
1727710650.298,-41.016,-32.227,10.742,-28.320,0.000
1727710650.301,-57.617,-35.156,12.695,-38.574,0.000
1727710650.305,-44.922,-31.250,9.766,-37.109,0.000
1727710650.309,-38.574,-30.762,5.859,-33.691,0.000
1727710650.313,-25.879,-28.809,3.906,-22.949,0.000
1727710650.317,-27.344,-23.926,0.000,-21.973,0.000
1727710650.321,-37.598,-25.391,-7.812,-20.020,0.000
1727710650.325,-29.297,-20.508,-5.859,-22.949,0.000
1727710650.329,-23.926,-26.855,1.953,-39.062,0.000
1727710650.333,-29.785,-36.621,4.883,-48.828,0.000
1727710650.337,-46.875,-27.832,-3.906,-44.922,0.000
1727710650.341,-57.617,-28.320,-13.184,-33.691,0.000
1727710650.344,-69.824,-36.133,-8.301,-46.387,0.000
1727710650.348,-40.039,-32.227,-8.301,-41.992,0.000
1727710650.352,-13.184,-28.320,-8.301,-25.391,0.000
1727710650.356,-28.320,-28.809,-4.883,-21.973,0.000
1727710650.360,-41.016,-30.273,-14.648,-18.555,0.000
1727710650.364,-42.969,-31.738,-28.320,-24.902,0.000
1727710650.368,-26.367,-32.227,-36.133,-27.344,0.000
1727710650.372,-16.602,-28.320,-32.227,-26.367,0.000
1727710650.376,-23.438,-30.273,-15.625,-33.203,0.000
1727710650.380,-39.551,-33.691,3.418,-49.805,0.000
1727710650.383,-37.598,-34.668,14.160,-40.039,0.000
1727710650.387,-37.598,-37.109,4.395,-35.156,0.000
1727710650.391,-43.457,-36.621,-9.766,-40.527,0.000
1727710650.395,-44.922,-39.551,-5.371,-30.273,0.000
1727710650.399,-41.992,-33.691,2.930,-20.508,0.000
1727710650.403,-28.809,-28.320,-3.906,-21.973,0.000
1727710650.407,-11.230,-26.855,-17.090,-28.320,0.000
1727710650.411,-4.883,-23.438,-18.555,-33.203,0.000
1727710650.415,-38.574,-24.414,-23.926,-51.758,0.000
1727710650.419,-56.152,-27.344,-31.250,-48.828,0.000
1727710650.423,-35.156,-22.461,-27.832,-27.344,0.000
1727710650.426,-17.578,-21.484,-15.625,-38.574,0.000
1727710650.430,-10.254,-24.414,-10.742,-41.016,0.000
1727710650.434,-12.695,-21.973,-6.348,-27.832,0.000
1727710650.438,-21.973,-18.555,-4.883,-17.090,0.000
1727710650.442,-29.297,-20.996,-10.742,-21.484,0.000
1727710650.446,-18.066,-19.531,-8.789,-32.715,0.000
1727710650.450,-9.277,-20.020,-12.207,-20.508,0.000
1727710650.454,-20.020,-21.973,-21.973,-17.090,0.000
1727710650.458,-26.367,-20.508,-25.879,-20.508,0.000
1727710650.462,-36.133,-19.531,-26.855,-26.367,0.000
1727710650.466,-17.090,-13.672,-21.484,-41.504,0.000
1727710650.469,2.441,-21.484,-14.648,-41.016,0.000
1727710650.473,-11.719,-30.273,-14.160,-20.508,0.000
1727710650.477,-27.832,-26.855,-16.113,-19.531,0.000
1727710650.481,-48.340,-28.320,-5.859,-24.902,0.000
1727710650.485,-37.109,-36.621,1.465,-24.414,0.000
1727710650.489,-20.020,-33.691,-5.859,-32.227,0.000
1727710650.493,-20.020,-30.273,-7.324,-14.648,0.000
1727710650.497,-23.438,-34.668,0.488,-7.812,0.000
1727710650.501,-39.551,-39.062,-4.395,-26.855,0.000
1727710650.505,-37.598,-29.785,-11.230,-27.832,0.000
1727710650.509,-26.367,-29.297,-21.484,-27.832,0.000
1727710650.512,-12.207,-29.785,-40.039,-38.086,0.000
1727710650.516,-20.508,-22.461,-31.738,-33.203,0.000
1727710650.520,-51.758,-31.250,-16.602,-33.203,0.000
1727710650.524,-38.086,-37.598,-4.395,-37.598,0.000
1727710650.528,-24.414,-35.156,-2.441,-37.109,0.000
1727710650.532,-24.902,-30.762,-24.902,-31.250,0.000
1727710650.536,-34.180,-32.227,-37.109,-30.273,0.000
1727710650.540,-54.199,-35.645,-18.066,-40.039,0.000
1727710650.544,-50.293,-34.180,-3.906,-39.062,0.000
1727710650.548,-37.109,-35.645,-10.742,-40.039,0.000
1727710650.552,0.000,-32.715,-14.160,-30.273,0.000
1727710650.555,0.000,-29.297,-12.207,-36.133,0.000
1727710650.559,0.000,-26.855,-9.766,-48.340,0.000
1727710650.563,0.000,-28.809,-11.719,-41.992,0.000
1727710650.567,0.000,-31.250,-18.555,-26.855,0.000
1727710650.571,0.000,-31.738,-22.949,-25.879,0.000
1727710650.575,0.000,-33.203,-25.391,-41.016,0.000
1727710650.579,0.000,-27.832,-21.484,-23.438,0.000
1727710650.583,0.000,-28.809,-18.066,-21.973,0.000
1727710650.587,0.000,-32.227,-18.555,-41.992,0.000
1727710650.591,0.000,-26.367,-18.066,-47.363,0.000
1727710650.594,0.000,-28.809,-10.742,-46.387,0.000
1727710650.598,-32.715,-29.785,-5.371,-31.738,0.000
1727710650.602,-41.016,-26.855,-4.883,-32.715,0.000
1727710650.606,-34.668,-28.809,1.465,-34.180,0.000
1727710650.610,-30.762,-30.273,4.883,-32.715,0.000
1727710650.614,-20.508,-32.227,2.930,-21.973,0.000
1727710650.618,-22.949,-30.762,-4.395,-9.766,0.000
1727710650.622,-41.016,-24.902,-5.859,-14.648,0.000
1727710650.626,-28.320,-25.879,-10.742,-22.461,0.000
1727710650.630,-9.277,-29.785,-19.531,-29.785,0.000
1727710650.634,-17.578,-32.227,-8.789,-26.367,0.000
1727710650.637,-32.715,-28.320,21.973,-8.301,0.000
1727710650.641,-37.598,-20.996,41.016,-14.160,0.000
1727710650.645,-20.508,-20.020,42.480,-32.715,0.000
1727710650.649,-8.301,-22.461,36.133,-36.133,0.000
1727710650.653,-15.625,-23.926,28.320,-33.691,0.000
1727710650.657,-36.621,-23.926,22.461,-21.973,0.000
1727710650.661,-42.969,-20.996,14.648,-17.090,0.000
1727710650.665,-24.902,-18.555,10.742,-36.133,0.000
1727710650.669,-15.137,-21.484,13.672,-34.668,0.000
1727710650.673,-17.090,-23.926,13.184,-12.695,0.000
1727710650.677,-26.367,-23.438,4.883,-15.625,0.000
1727710650.680,-43.945,-28.809,0.488,-34.668,0.000
1727710650.684,-39.062,-34.180,1.953,-36.621,0.000
1727710650.688,-27.832,-29.785,3.906,-36.621,0.000
1727710650.692,-37.598,-29.785,2.441,-45.898,0.000
1727710650.696,-43.457,-30.762,-0.977,-32.227,0.000
1727710650.700,-40.039,-26.367,-6.348,-20.996,0.000
1727710650.704,-41.992,-32.227,-12.695,-37.109,0.000
1727710650.708,-24.414,-31.250,-16.113,-40.039,0.000
1727710650.712,-17.578,-32.715,-16.113,-34.668,0.000
1727710650.716,-24.902,-35.156,-20.020,-34.668,0.000
1727710650.720,-31.738,-32.715,-21.973,-36.133,0.000
1727710650.723,-36.133,-32.715,-17.578,-35.645,0.000
1727710650.727,-32.227,-27.832,-13.672,-25.879,0.000
1727710650.731,-20.996,-23.926,-6.836,-27.832,0.000
1727710650.735,-32.227,-27.832,-0.977,-32.715,0.000
1727710650.739,-54.199,-26.367,4.395,-33.691,0.000
1727710650.743,-40.527,-24.902,8.789,-38.086,0.000
1727710650.747,-26.367,-25.879,15.137,-43.457,0.000
1727710650.751,-29.785,-25.391,10.254,-47.852,0.000
1727710650.755,-42.480,-27.832,7.324,-42.480,0.000
1727710650.759,-48.340,-30.273,15.137,-24.414,0.000
1727710650.762,-47.852,-32.227,3.418,-27.832,0.000
1727710650.766,-44.434,-35.156,-12.207,-40.039,0.000
1727710650.770,-48.828,-39.551,-11.230,-40.527,0.000
1727710650.774,-47.852,-42.969,-2.930,-31.250,0.000
1727710650.778,-53.711,-41.504,-4.883,-42.480,0.000
1727710650.782,-62.988,-33.691,-19.043,-56.641,0.000
1727710650.786,-40.527,-32.227,-16.602,-39.551,0.000
1727710650.790,-24.414,-36.133,-8.789,-43.945,0.000
1727710650.794,-25.879,-31.250,-7.812,-55.664,0.000
1727710650.798,-46.875,-35.645,-7.812,-43.457,0.000
1727710650.802,-61.035,-41.504,-24.902,-41.504,0.000
1727710650.805,-39.551,-38.574,-33.203,-47.852,0.000
1727710650.809,-29.785,-38.574,-20.020,-53.711,0.000
1727710650.813,-40.527,-37.109,-12.695,-56.152,0.000
1727710650.817,-48.828,-35.645,-9.766,-49.316,0.000
1727710650.821,-49.316,-38.086,-8.301,-36.133,0.000
1727710650.825,-39.551,-43.945,-12.207,-41.992,0.000
1727710650.829,-24.902,-44.434,-17.578,-43.945,0.000
1727710650.833,0.000,-44.434,-27.832,-38.574,0.000
1727710650.837,0.000,-50.781,-28.320,-34.668,0.000
1727710650.841,0.000,-46.387,-14.160,-42.480,0.000
1727710650.845,0.000,-37.109,-8.301,-51.758,0.000
1727710650.848,0.000,-37.598,-9.277,-53.223,0.000
1727710650.852,0.000,-34.668,-15.137,-44.434,0.000
1727710650.856,0.000,-29.785,-17.578,-34.180,0.000
1727710650.860,0.000,-29.785,-15.137,-41.016,0.000
1727710650.864,0.000,-31.738,-24.902,-30.762,0.000
1727710650.868,0.000,-34.668,-36.133,-16.602,0.000
1727710650.872,0.000,-37.109,-30.273,-24.414,0.000
1727710650.876,0.000,-33.203,-13.672,-20.508,0.000
1727710650.880,-38.086,-32.227,-10.742,-19.043,0.000
1727710650.884,-33.203,-34.668,-13.672,-26.367,0.000
1727710650.888,-17.578,-33.691,-20.508,-30.273,0.000
1727710650.891,-12.695,-32.227,-19.043,-36.133,0.000
1727710650.895,-25.879,-31.250,-19.531,-29.785,0.000
1727710650.899,-27.832,-27.832,-43.945,-15.625,0.000
1727710650.903,-26.367,-26.855,-46.875,-27.344,0.000
1727710650.907,-22.949,-29.297,-22.461,-36.621,0.000
1727710650.911,-5.371,-32.227,-4.883,-22.461,0.000
1727710650.915,-5.371,-34.668,-9.766,-27.832,0.000
1727710650.919,-24.902,-32.227,-30.273,-38.086,0.000
1727710650.923,-31.250,-25.879,-32.227,-28.809,0.000
1727710650.927,0.000,-26.855,-28.809,-28.809,0.000
1727710650.931,0.000,-26.367,-25.879,-21.973,0.000
1727710650.934,0.000,-21.484,-22.461,-23.926,0.000
1727710650.938,0.000,-23.438,-20.508,-26.855,0.000
1727710650.942,0.000,-23.926,-20.508,-18.555,0.000
1727710650.946,0.000,-24.414,-28.320,-8.789,0.000
1727710650.950,0.000,-27.344,-43.457,-23.438,0.000
1727710650.954,0.000,-27.344,-40.039,-24.414,0.000
1727710650.958,0.000,-25.391,-33.203,-5.859,0.000
1727710650.962,0.000,-25.391,-30.762,-19.531,0.000
1727710650.966,0.000,-25.391,-21.973,-27.832,0.000
1727710650.970,0.000,-20.508,-24.414,-14.648,0.000
1727710650.973,-4.395,-20.508,-29.297,-16.602,0.000
1727710650.977,-27.832,-21.484,-24.902,-20.508,0.000
1727710650.981,-27.832,-19.531,-33.691,-18.066,0.000
1727710650.985,-17.090,-19.531,-43.945,-17.090,0.000
1727710650.989,-11.719,-21.484,-28.320,-20.996,0.000
1727710650.993,-11.230,-24.902,-20.508,-22.949,0.000
1727710650.997,-22.461,-25.879,-20.996,-15.625,0.000
1727710651.001,-28.320,-30.273,-14.648,-10.254,0.000
1727710651.005,-16.602,-27.344,-21.973,-20.508,0.000
1727710651.009,-4.883,-23.926,-30.762,-22.461,0.000
1727710651.013,-6.836,-25.879,-27.344,-16.113,0.000
1727710651.016,-20.020,-24.902,-24.414,-20.508,0.000
1727710651.020,-22.461,-28.320,-21.484,-13.672,0.000
1727710651.024,-8.301,-27.832,-20.508,-16.113,0.000
1727710651.028,6.836,-23.438,-26.855,-13.672,0.000
1727710651.032,2.441,-28.320,-40.527,-20.996,0.000
1727710651.036,-6.836,-28.320,-50.293,-23.438,0.000
1727710651.040,-22.461,-23.926,-45.410,-8.789,0.000
1727710651.044,-19.531,-25.879,-38.086,-11.230,0.000
1727710651.048,-6.836,-28.809,-30.273,-13.184,0.000
1727710651.052,-15.625,-32.227,-30.762,-20.996,0.000
1727710651.056,-18.066,-31.738,-23.438,-17.578,0.000
1727710651.059,-26.855,-32.715,-15.137,-5.371,0.000
1727710651.063,-18.066,-34.180,-24.414,-11.719,0.000
1727710651.067,10.254,-29.785,-33.691,-15.625,0.000
1727710651.071,10.742,-27.344,-43.457,-11.719,0.000
1727710651.075,-11.719,-32.227,-37.109,-5.371,0.000
1727710651.079,-32.715,-39.551,-26.855,-12.207,0.000
1727710651.083,-21.484,-35.645,-26.855,-20.996,0.000
1727710651.087,4.883,-33.203,-42.969,-15.137,0.000
1727710651.091,11.719,-33.203,-46.387,6.348,0.000
1727710651.095,-5.859,-32.715,-31.738,6.836,0.000
1727710651.098,-20.020,-36.621,-23.438,-11.230,0.000
1727710651.102,-13.184,-39.062,-13.672,-22.949,0.000
1727710651.106,-2.930,-42.480,-15.625,-22.461,0.000
1727710651.110,-3.906,-47.363,-26.367,-12.207,0.000
1727710651.114,0.000,-47.852,-26.367,-10.254,0.000
1727710651.118,0.000,-41.016,-28.320,-5.859,0.000
1727710651.122,0.000,-39.551,-31.250,-17.578,0.000
1727710651.126,0.000,-38.574,-31.738,-14.648,0.000
1727710651.130,0.000,-35.156,-39.551,-0.977,0.000
1727710651.134,0.000,-33.203,-39.551,-2.930,0.000
1727710651.138,0.000,-32.227,-42.969,2.441,0.000
1727710651.141,0.000,-35.156,-41.504,-1.465,0.000
1727710651.145,0.000,-40.039,-32.715,-13.672,0.000
1727710651.149,0.000,-43.457,-38.574,-15.137,0.000
1727710651.153,0.000,-42.480,-41.504,-8.301,0.000
1727710651.157,0.000,-43.945,-41.992,-6.348,0.000
1727710651.161,-14.160,-48.340,-42.969,-8.789,0.000
1727710651.165,-6.348,-47.363,-44.922,-7.324,0.000
1727710651.169,-2.441,-48.828,-53.223,-9.766,0.000
1727710651.173,-4.883,-51.270,-55.664,-22.461,0.000
1727710651.177,-16.602,-44.922,-59.082,-17.578,0.000
1727710651.181,-19.531,-49.316,-67.383,-3.906,0.000
1727710651.184,-11.230,-55.664,-65.918,-6.836,0.000
1727710651.188,-1.465,-47.852,-61.035,-9.766,0.000
1727710651.192,1.465,-44.434,-61.035,-14.648,0.000
1727710651.196,-6.836,-45.898,-58.105,-1.465,0.000
1727710651.200,-8.301,-46.875,-48.828,2.930,0.000
1727710651.204,1.953,-43.945,-46.387,-8.789,0.000
1727710651.208,7.812,-45.898,-40.527,0.488,0.000
1727710651.212,10.742,-51.270,-33.203,0.000,0.000
1727710651.216,9.277,-45.898,-37.598,-10.742,0.000
1727710651.220,-9.277,-48.340,-60.059,-12.207,0.000
1727710651.224,-4.395,-57.129,-67.383,-0.977,0.000
1727710651.227,15.137,-55.176,-59.570,-9.277,0.000
1727710651.231,19.531,-48.340,-52.246,-19.531,0.000
1727710651.235,6.836,-46.387,-44.434,-4.395,0.000
1727710651.239,-17.090,-52.734,-46.875,15.137,0.000
1727710651.243,-10.742,-54.199,-46.875,13.184,0.000
1727710651.247,14.648,-48.828,-49.316,-1.953,0.000
1727710651.251,11.230,-51.758,-57.617,-6.836,0.000
1727710651.255,-8.789,-55.664,-53.711,-0.488,0.000
1727710651.259,-19.531,-57.129,-48.340,-2.441,0.000
1727710651.263,1.465,-52.246,-51.270,-12.207,0.000
1727710651.267,15.625,-50.781,-51.758,-4.883,0.000
1727710651.270,6.836,-54.688,-47.852,13.672,0.000
1727710651.274,5.371,-51.758,-52.734,8.789,0.000
1727710651.278,-7.324,-48.828,-62.500,-9.766,0.000
1727710651.282,-19.043,-54.199,-59.082,-24.902,0.000
1727710651.286,0.488,-55.664,-55.664,-2.441,0.000
1727710651.290,36.621,-47.852,-61.035,26.367,0.000
1727710651.294,23.438,-48.828,-58.594,17.090,0.000
1727710651.298,-16.113,-55.176,-44.922,4.395,0.000
1727710651.302,0.000,-46.875,-55.664,2.930,0.000
1727710651.306,0.000,-51.758,-61.035,-13.672,0.000
1727710651.310,0.000,-59.082,-50.293,-20.020,0.000
1727710651.313,0.000,-48.340,-54.199,6.348,0.000
1727710651.317,0.000,-52.734,-54.688,14.648,0.000
1727710651.321,0.000,-56.152,-46.387,15.625,0.000
1727710651.325,0.000,-52.734,-46.875,0.488,0.000
1727710651.329,0.000,-61.035,-52.734,-23.438,0.000
1727710651.333,0.000,-61.523,-60.059,-25.391,0.000
1727710651.337,0.000,-57.129,-63.965,-7.324,0.000
1727710651.341,0.000,-61.523,-58.105,-8.789,0.000
1727710651.345,0.000,-71.289,-47.852,-40.527,0.000
1727710651.349,1.953,-60.547,-42.480,-11.230,0.000
1727710651.352,6.836,-55.176,-47.852,20.020,0.000
1727710651.356,8.789,-59.570,-58.105,4.883,0.000
1727710651.360,-5.859,-66.406,-62.012,-44.434,0.000
1727710651.364,-18.555,-75.195,-43.457,-40.527,0.000
1727710651.368,24.414,-56.641,-52.246,21.973,0.000
1727710651.372,-13.672,-82.031,-26.367,-17.090,0.000
1727710651.376,-17.090,-77.637,-34.180,-25.391,0.000
1727710651.380,27.832,-50.781,-81.055,27.344,0.000
1727710651.384,-21.973,-80.566,-33.203,-4.395,0.000
1727710651.388,-37.598,-97.656,-19.531,-50.781,0.000
1727710651.392,15.137,-76.172,-85.449,-20.020,0.000
1727710651.395,-24.902,-84.473,-62.500,-20.996,0.000
1727710651.399,-50.293,-90.820,-43.945,-42.480,0.000
1727710651.403,-12.207,-63.477,-112.305,-10.742,0.000
1727710651.407,-42.969,-84.473,-102.539,-33.691,0.000
1727710651.411,-29.297,-99.121,-92.285,-51.758,0.000
1727710651.415,-38.574,-79.590,-128.906,-54.688,0.000
1727710651.419,-62.500,-69.336,-129.395,-26.855,0.000
1727710651.423,-10.742,-82.031,-157.227,-3.906,0.000
1727710651.427,-6.348,-105.957,-204.102,-49.316,0.000
1727710651.431,-29.785,-104.492,-250.977,-46.387,0.000
1727710651.435,-30.762,-102.051,-335.449,-29.297,0.000
1727710651.438,-43.457,-113.770,-413.574,-17.090,0.000
1727710651.442,-64.453,-107.910,-477.051,-43.945,0.000
1727710651.446,-89.355,-104.004,-514.160,-105.469,0.000
1727710651.450,-34.180,-80.566,-510.742,-46.387,0.000
1727710651.454,-1.953,-75.684,-439.941,-9.766,0.000
1727710651.458,-39.062,-95.703,-357.910,-40.039,0.000
1727710651.462,-53.223,-81.543,-336.426,-65.918,0.000
1727710651.466,-50.293,-62.012,-339.844,-74.219,0.000
1727710651.470,-56.641,-71.289,-390.137,-59.082,0.000
1727710651.474,-81.055,-90.332,-456.055,-51.758,0.000
1727710651.477,-75.195,-70.312,-469.727,-68.848,0.000
1727710651.481,-39.551,-44.922,-500.977,-72.754,0.000
1727710651.485,-14.648,-54.688,-489.746,-20.020,0.000
1727710651.489,-11.230,-67.871,-504.395,13.184,0.000
1727710651.493,-9.766,-55.664,-642.578,0.977,0.000
1727710651.497,-25.879,-54.199,-702.637,-38.086,0.000
1727710651.501,-35.645,-65.430,-726.074,-64.941,0.000
1727710651.505,17.090,-56.152,-812.988,-23.926,0.000
1727710651.509,20.508,-104.004,-815.918,11.230,0.000
1727710651.513,-15.137,-97.656,-812.988,17.578,0.000
1727710651.517,-17.578,-39.551,-881.836,10.742,0.000
1727710651.520,-18.066,-35.156,-934.570,-19.043,0.000
1727710651.524,17.578,-33.203,-979.492,-8.301,0.000
1727710651.528,-16.602,-58.594,-1000.000,-39.062,0.000
1727710651.532,-41.992,-64.941,-999.512,-22.461,0.000
1727710651.536,-19.043,-49.316,-1000.000,25.879,0.000
1727710651.540,-3.906,-45.898,-1000.000,12.207,0.000
1727710651.544,-6.348,-47.363,-1000.000,-47.363,0.000
1727710651.548,-9.766,-47.852,-1000.000,-39.062,0.000
1727710651.552,43.457,-52.734,-999.512,32.227,0.000
1727710651.556,14.648,-66.406,-1000.000,18.555,0.000
1727710651.560,-46.875,-61.523,-988.281,10.254,0.000
1727710651.563,-37.598,-45.898,-975.098,8.301,0.000
1727710651.567,11.719,-26.367,-987.793,-9.766,0.000
1727710651.571,36.133,-13.184,-984.375,17.578,0.000
1727710651.575,0.488,-20.996,-939.941,22.949,0.000
1727710651.579,-44.922,-44.922,-865.234,-30.762,0.000
1727710651.583,-16.113,-33.203,-851.562,-8.789,0.000
1727710651.587,29.297,-44.922,-856.934,26.367,0.000
1727710651.591,37.109,-44.434,-834.961,8.789,0.000
1727710651.595,18.066,-11.230,-796.387,-15.137,0.000
1727710651.599,-2.441,-5.371,-754.395,-30.762,0.000
1727710651.603,8.789,-11.230,-746.582,18.555,0.000
1727710651.606,11.719,-21.484,-722.168,41.504,0.000
1727710651.610,7.324,-24.902,-711.914,-2.441,0.000
1727710651.614,7.812,-29.297,-718.750,2.930,0.000
1727710651.618,6.836,-21.973,-700.195,33.203,0.000
1727710651.622,1.953,-15.625,-681.152,17.090,0.000
1727710651.626,18.066,-15.625,-657.227,0.977,0.000
1727710651.630,10.742,-38.086,-590.820,-36.621,0.000
1727710651.634,14.160,-32.227,-579.102,7.324,0.000
1727710651.638,35.645,-16.602,-570.801,38.086,0.000
1727710651.642,50.293,-16.602,-529.297,3.418,0.000
1727710651.646,34.668,-26.367,-470.215,23.926,0.000
1727710651.649,0.488,-38.574,-398.926,55.176,0.000
1727710651.653,17.578,-25.879,-393.066,58.594,0.000
1727710651.657,17.090,-22.949,-385.254,35.156,0.000
1727710651.661,-4.395,-32.227,-333.496,29.785,0.000
1727710651.665,-3.906,-35.645,-288.574,14.648,0.000
1727710651.669,29.297,-29.297,-277.344,21.973,0.000
1727710651.673,41.992,-26.855,-269.043,34.668,0.000
1727710651.677,16.602,-36.621,-243.652,13.672,0.000
1727710651.681,30.762,-31.250,-226.074,32.227,0.000
1727710651.685,48.828,-34.668,-194.824,56.641,0.000
1727710651.689,40.527,-43.945,-167.969,39.062,0.000
1727710651.692,36.133,-45.410,-141.113,34.668,0.000
1727710651.696,26.855,-41.504,-71.289,35.156,0.000
1727710651.700,34.668,-33.203,2.441,31.738,0.000
1727710651.704,45.410,-37.109,60.547,51.270,0.000
1727710651.708,50.781,-38.086,136.719,71.289,0.000
1727710651.712,54.688,-32.715,212.891,82.031,0.000
1727710651.716,40.527,-40.039,248.535,60.547,0.000
1727710651.720,45.410,-38.574,300.781,41.992,0.000
1727710651.724,63.965,-30.762,410.645,59.570,0.000
1727710651.728,79.590,-28.320,526.367,60.059,0.000
1727710651.732,80.078,-25.879,640.625,43.945,0.000
1727710651.735,56.641,-23.926,815.430,49.316,0.000
1727710651.739,31.250,-20.508,925.293,51.270,0.000
1727710651.743,42.969,-16.602,946.777,40.039,0.000
1727710651.747,62.012,-13.672,966.797,36.133,0.000
1727710651.751,52.734,-13.184,968.262,33.203,0.000
1727710651.755,42.969,-10.254,967.773,21.973,0.000
1727710651.759,41.992,-16.113,968.262,40.039,0.000
1727710651.763,40.039,-21.973,968.262,56.641,0.000
1727710651.767,45.898,-20.508,968.262,38.086,0.000
1727710651.771,36.133,-24.902,968.262,24.902,0.000
1727710651.774,30.762,-23.438,968.262,19.043,0.000
1727710651.778,20.996,-21.484,968.262,18.555,0.000
1727710651.782,21.973,-21.973,968.262,35.156,0.000
1727710651.786,50.781,-14.160,968.262,39.062,0.000
1727710651.790,49.316,-11.719,968.262,26.855,0.000
1727710651.794,33.691,-10.742,968.262,29.297,0.000
1727710651.798,35.645,-4.883,968.262,38.086,0.000
1727710651.802,49.316,-3.906,967.773,20.020,0.000
1727710651.806,67.871,-6.836,967.285,24.414,0.000
1727710651.810,64.453,-12.695,960.938,42.969,0.000
1727710651.814,50.781,-9.277,925.781,45.410,0.000
1727710651.817,45.410,-2.930,871.094,43.457,0.000
1727710651.821,29.297,-11.230,893.066,30.762,0.000
1727710651.825,25.391,-20.020,909.668,8.789,0.000
1727710651.829,35.156,-18.066,876.953,-8.301,0.000
1727710651.833,36.133,-8.789,844.727,-10.742,0.000
1727710651.837,23.438,-7.324,791.992,1.953,0.000
1727710651.841,16.113,-11.719,745.605,15.625,0.000
1727710651.845,20.508,-11.719,687.500,19.043,0.000
1727710651.849,30.762,-14.648,638.672,20.020,0.000
1727710651.853,31.250,-18.555,661.621,16.602,0.000
1727710651.856,21.484,-17.090,684.570,2.930,0.000
1727710651.860,30.273,-13.672,641.602,8.789,0.000
1727710651.864,45.898,-13.672,566.895,16.602,0.000
1727710651.868,47.852,-13.672,526.855,13.672,0.000
1727710651.872,24.414,-15.137,515.625,10.254,0.000
1727710651.876,1.465,-20.020,485.840,2.441,0.000
1727710651.880,-3.418,-20.508,448.730,-5.859,0.000
1727710651.884,6.348,-19.043,414.062,-2.930,0.000
1727710651.888,12.695,-14.648,371.094,7.812,0.000
1727710651.892,9.277,-16.602,344.238,-6.836,0.000
1727710651.896,-16.602,-28.320,324.219,-21.973,0.000
1727710651.899,-36.133,-33.691,288.574,-18.066,0.000
1727710651.903,-14.648,-33.203,266.602,-18.555,0.000
1727710651.907,2.930,-29.297,261.230,-19.531,0.000
1727710651.911,-7.812,-27.344,245.605,-27.832,0.000
1727710651.915,-38.574,-27.832,217.285,-37.109,0.000
1727710651.919,-67.383,-26.367,186.523,-55.176,0.000
1727710651.923,-71.777,-25.391,185.059,-78.613,0.000
1727710651.927,-60.547,-30.762,214.844,-73.242,0.000
1727710651.931,-57.617,-38.574,235.352,-74.707,0.000
1727710651.935,-65.918,-43.457,223.633,-82.031,0.000
1727710651.939,-83.008,-44.922,187.500,-81.055,0.000
1727710651.942,-67.871,-41.016,159.668,-86.914,0.000
1727710651.946,-53.711,-39.551,137.207,-81.543,0.000
1727710651.950,-54.199,-36.133,119.141,-67.871,0.000
1727710651.954,-49.316,-24.414,86.914,-61.035,0.000
1727710651.958,-43.945,-19.531,78.613,-42.480,0.000
1727710651.962,-32.715,-26.855,112.793,-32.227,0.000
1727710651.966,-17.578,-32.715,128.418,-34.668,0.000
1727710651.970,-18.066,-26.367,107.910,-24.902,0.000
1727710651.974,-20.996,-25.879,75.195,-11.719,0.000
1727710651.978,-24.414,-27.832,66.895,-11.719,0.000
1727710651.982,-25.391,-20.996,68.359,-21.973,0.000
1727710651.985,-13.672,-26.855,70.801,-20.020,0.000
1727710651.989,2.930,-28.320,45.898,-7.324,0.000
1727710651.993,9.277,-19.043,31.250,-4.883,0.000
1727710651.997,-1.953,-18.066,44.434,-12.207,0.000
1727710652.001,-4.395,-17.090,56.641,-2.930,0.000
1727710652.005,0.000,-20.508,59.082,-6.836,0.000
1727710652.009,0.000,-21.484,49.805,3.906,0.000
1727710652.013,0.000,-19.043,40.527,0.000,0.000
1727710652.017,0.000,-18.555,40.039,-7.324,0.000
1727710652.021,0.000,-19.531,38.086,4.883,0.000
1727710652.025,0.000,-19.043,44.922,9.277,0.000
1727710652.028,0.000,-14.648,42.969,0.977,0.000
1727710652.032,0.000,-20.020,32.227,-5.859,0.000
1727710652.036,0.000,-20.996,23.438,7.812,0.000
1727710652.040,0.000,-17.090,21.973,3.906,0.000
1727710652.044,0.000,-15.137,22.949,-2.441,0.000
1727710652.048,0.000,-17.578,24.414,-1.465,0.000
1727710652.052,17.090,-16.113,10.254,-4.883,0.000
1727710652.056,4.395,-14.160,-15.625,3.906,0.000
1727710652.060,-1.465,-18.066,3.906,11.230,0.000
1727710652.064,-2.441,-14.648,18.555,-4.395,0.000
1727710652.068,3.906,-12.207,2.930,-15.625,0.000
1727710652.071,9.766,-11.230,-7.812,-0.977,0.000
1727710652.075,-1.953,-7.812,-32.715,2.930,0.000
1727710652.079,2.930,-8.301,-37.109,7.812,0.000
1727710652.083,15.625,-14.648,-35.645,8.301,0.000
1727710652.087,11.719,-20.508,-28.320,1.465,0.000
1727710652.091,12.207,-24.414,0.000,-5.371,0.000
1727710652.095,4.883,-26.367,10.742,-1.465,0.000
1727710652.099,-0.977,-21.484,17.090,8.789,0.000
1727710652.103,-7.324,-19.531,7.812,-0.488,0.000
1727710652.107,-8.301,-22.461,-0.977,-1.953,0.000
1727710652.110,3.418,-17.090,-5.859,6.836,0.000
1727710652.114,-4.883,-14.160,-15.137,19.043,0.000
1727710652.118,-11.719,-11.719,-24.414,20.020,0.000
1727710652.122,3.418,-12.695,-23.926,10.254,0.000
1727710652.126,16.113,-16.602,-1.465,14.648,0.000
1727710652.130,8.301,-18.066,2.441,4.395,0.000
1727710652.134,0.488,-22.461,-7.812,-2.930,0.000
1727710652.138,-13.184,-18.555,-9.766,8.301,0.000
1727710652.142,-11.230,-18.066,5.859,0.488,0.000
1727710652.146,4.395,-26.367,21.484,-7.324,0.000
1727710652.150,13.184,-25.879,19.043,-0.488,0.000
1727710652.153,8.301,-23.926,26.855,-1.465,0.000
1727710652.157,-12.207,-19.043,42.480,-8.789,0.000
1727710652.161,-10.742,-13.672,59.570,0.000,0.000
1727710652.165,-0.977,-16.602,69.336,4.395,0.000
1727710652.169,-9.277,-21.973,73.242,-5.371,0.000
1727710652.173,-22.949,-22.461,70.312,-13.672,0.000
1727710652.177,-25.391,-16.602,62.988,-8.301,0.000
1727710652.181,-15.625,-15.137,52.734,-8.789,0.000
1727710652.185,-0.488,-15.625,45.898,-14.648,0.000
1727710652.189,10.254,-15.137,53.711,-5.859,0.000
1727710652.193,7.324,-13.672,53.223,2.930,0.000
1727710652.196,0.488,-17.578,47.363,0.488,0.000
1727710652.200,-3.418,-24.902,41.992,-5.859,0.000
1727710652.204,-1.465,-23.438,28.809,-25.391,0.000
1727710652.208,-5.371,-25.391,27.832,-32.715,0.000
1727710652.212,-17.090,-28.320,35.156,-21.973,0.000
1727710652.216,-42.480,-29.297,38.574,-16.602,0.000
1727710652.220,-52.246,-29.785,31.250,-14.160,0.000
1727710652.224,-24.902,-27.832,21.973,-23.438,0.000
1727710652.228,-6.348,-26.855,11.719,-24.902,0.000
1727710652.232,-17.578,-27.832,4.395,-25.391,0.000
1727710652.235,-24.414,-25.879,23.926,-23.926,0.000
1727710652.239,-22.949,-25.879,36.133,-19.531,0.000
1727710652.243,-25.879,-31.738,36.621,-28.320,0.000
1727710652.247,-26.855,-35.645,31.738,-39.551,0.000
1727710652.251,-24.414,-32.715,24.902,-38.086,0.000
1727710652.255,-26.855,-31.738,28.809,-23.438,0.000
1727710652.259,-26.367,-32.715,28.809,-22.949,0.000
1727710652.263,-15.625,-32.715,24.414,-25.879,0.000
1727710652.267,-4.883,-35.645,26.367,-23.926,0.000
1727710652.271,-13.184,-37.109,22.949,-27.344,0.000
1727710652.275,-23.926,-34.180,13.184,-26.367,0.000
1727710652.278,-25.879,-33.203,16.602,-41.016,0.000
1727710652.282,-26.367,-33.691,22.949,-42.480,0.000
1727710652.286,-29.785,-33.203,16.602,-32.715,0.000
1727710652.290,-34.180,-33.691,11.719,-37.109,0.000
1727710652.294,-42.969,-35.156,20.020,-37.109,0.000
1727710652.298,-54.688,-40.039,12.695,-34.180,0.000
1727710652.302,-37.109,-38.086,-9.766,-32.227,0.000
1727710652.306,-13.672,-31.250,2.441,-32.715,0.000
1727710652.310,-28.320,-35.156,23.926,-34.668,0.000
1727710652.314,-34.668,-31.738,27.344,-31.250,0.000
1727710652.318,-41.016,-26.367,19.043,-36.133,0.000
1727710652.321,-44.434,-27.832,13.672,-40.527,0.000
1727710652.325,-31.738,-26.855,9.277,-44.922,0.000
1727710652.329,-32.227,-28.809,9.766,-44.922,0.000
1727710652.333,-31.738,-29.297,15.625,-36.621,0.000
1727710652.337,-51.270,-28.320,17.090,-35.156,0.000
1727710652.341,-49.805,-23.926,15.137,-44.434,0.000
1727710652.345,-25.391,-20.508,9.766,-54.199,0.000
1727710652.349,-24.414,-21.973,15.625,-41.016,0.000
1727710652.353,-36.621,-24.902,21.484,-29.785,0.000
1727710652.357,-35.156,-25.879,18.555,-32.227,0.000
1727710652.361,-26.855,-22.949,20.020,-46.875,0.000
1727710652.364,-21.484,-28.320,10.742,-36.133,0.000
1727710652.368,-20.508,-35.156,2.441,-22.949,0.000
1727710652.372,-30.273,-29.297,4.883,-23.926,0.000
1727710652.376,-40.527,-20.996,4.883,-23.926,0.000
1727710652.380,-40.527,-25.391,11.719,-43.945,0.000
1727710652.384,-29.785,-29.785,27.344,-57.129,0.000
1727710652.388,-34.668,-31.250,33.203,-47.363,0.000
1727710652.392,-45.410,-30.762,25.391,-50.293,0.000
1727710652.396,-62.012,-28.809,25.391,-48.340,0.000
1727710652.400,-62.012,-31.738,25.879,-44.434,0.000
1727710652.404,-38.086,-32.715,13.672,-56.641,0.000
1727710652.407,-26.855,-29.297,2.441,-43.945,0.000
1727710652.411,-40.527,-31.738,14.648,-28.320,0.000
1727710652.415,-59.570,-41.992,24.414,-32.227,0.000
1727710652.419,-53.711,-40.039,14.648,-41.016,0.000
1727710652.423,-43.457,-25.879,14.160,-48.828,0.000
1727710652.427,-47.363,-23.438,18.066,-48.340,0.000
1727710652.431,-46.387,-25.391,15.137,-34.180,0.000
1727710652.435,-56.152,-27.344,10.254,-40.527,0.000
1727710652.439,-76.172,-30.762,0.488,-63.965,0.000
1727710652.443,-62.012,-31.738,-4.395,-62.500,0.000
1727710652.446,-42.480,-31.738,-0.488,-48.828,0.000
1727710652.450,-44.434,-31.738,-3.418,-43.945,0.000
1727710652.454,-59.082,-31.250,3.418,-57.129,0.000
1727710652.458,-57.617,-26.367,7.812,-54.199,0.000
1727710652.462,-40.039,-23.926,6.348,-38.574,0.000
1727710652.466,-28.320,-23.438,6.348,-37.109,0.000
1727710652.470,-25.391,-19.043,0.488,-40.527,0.000
1727710652.474,-43.457,-20.996,0.977,-41.992,0.000
1727710652.478,-62.012,-31.738,-1.953,-40.527,0.000
1727710652.482,-44.434,-30.273,-5.859,-44.434,0.000
1727710652.486,-32.715,-19.531,-4.883,-47.852,0.000
1727710652.489,-39.062,-18.555,-8.789,-42.480,0.000
1727710652.493,-44.922,-20.508,-5.859,-45.898,0.000
1727710652.497,-61.035,-26.855,-3.418,-45.410,0.000
1727710652.501,-57.129,-30.762,-5.859,-34.668,0.000
1727710652.505,-35.156,-24.902,0.977,-26.855,0.000
1727710652.509,-30.762,-24.414,4.395,-34.668,0.000
1727710652.513,-43.945,-29.785,-4.883,-47.852,0.000
1727710652.517,-45.410,-34.180,-4.883,-45.410,0.000
1727710652.521,-24.902,-39.062,4.395,-26.855,0.000
1727710652.525,-23.438,-36.621,-4.883,-26.855,0.000
1727710652.529,-35.645,-28.320,-18.066,-31.738,0.000
1727710652.532,-57.617,-28.320,-13.672,-31.738,0.000
1727710652.536,-80.566,-31.738,-7.324,-41.504,0.000
1727710652.540,-62.988,-30.273,-7.812,-45.410,0.000
1727710652.544,-44.922,-29.785,-4.395,-48.828,0.000
1727710652.548,-46.387,-31.738,-4.883,-53.223,0.000
1727710652.552,-44.922,-24.902,-9.766,-58.594,0.000
1727710652.556,-57.617,-19.043,-11.719,-54.688,0.000
1727710652.560,-56.152,-19.043,-19.043,-44.434,0.000
1727710652.564,-28.809,-20.020,-21.484,-37.109,0.000
1727710652.568,-14.648,-19.043,-30.762,-33.691,0.000
1727710652.572,-18.066,-21.973,-38.086,-37.598,0.000
1727710652.575,-26.855,-22.949,-13.672,-41.992,0.000
1727710652.579,-42.969,-24.414,5.371,-46.875,0.000
1727710652.583,-36.133,-30.762,-1.465,-45.410,0.000
1727710652.587,-23.926,-31.738,-8.789,-42.480,0.000
1727710652.591,-41.016,-27.344,-11.230,-44.434,0.000
1727710652.595,-71.289,-25.879,-14.648,-50.781,0.000
1727710652.599,-65.918,-30.273,-12.695,-61.523,0.000
1727710652.603,-47.852,-34.180,-5.859,-68.359,0.000
1727710652.607,-36.621,-36.133,-0.977,-61.523,0.000
1727710652.611,-32.715,-33.203,1.465,-46.387,0.000
1727710652.614,-40.039,-34.180,-2.441,-24.414,0.000
1727710652.618,-34.668,-35.645,-7.812,-10.254,0.000
1727710652.622,-10.742,-36.133,-6.348,-30.273,0.000
1727710652.626,-13.184,-34.668,-13.672,-50.781,0.000
1727710652.630,-34.668,-29.785,-30.273,-58.105,0.000
1727710652.634,-46.387,-24.902,-30.762,-47.363,0.000
1727710652.638,-52.246,-23.926,-37.598,-21.973,0.000
1727710652.642,-49.316,-25.879,-39.062,-27.832,0.000
1727710652.646,-46.875,-23.926,-14.160,-40.039,0.000
1727710652.650,-39.551,-20.508,-4.883,-40.039,0.000
1727710652.654,-48.340,-21.484,-15.137,-43.457,0.000
1727710652.657,-54.688,-23.926,-6.348,-40.039,0.000
1727710652.661,-43.457,-23.438,-14.160,-46.875,0.000
1727710652.665,-33.203,-19.043,-36.621,-35.645,0.000
1727710652.669,-27.832,-22.949,-21.484,-17.578,0.000
1727710652.673,-35.645,-30.273,-3.906,-32.227,0.000
1727710652.677,-49.805,-31.250,2.930,-41.504,0.000
1727710652.681,-43.945,-31.738,-3.418,-42.969,0.000
1727710652.685,-24.902,-30.762,-13.672,-35.156,0.000
1727710652.689,-29.785,-25.879,-18.066,-32.227,0.000
1727710652.693,-49.316,-21.484,-20.020,-41.992,0.000
1727710652.697,-59.082,-22.461,-24.902,-38.574,0.000
1727710652.700,-47.363,-25.391,-35.156,-41.016,0.000
1727710652.704,-27.344,-24.902,-33.203,-35.645,0.000
1727710652.708,-26.367,-18.066,-22.461,-30.762,0.000
1727710652.712,-42.969,-19.531,-32.227,-35.645,0.000
1727710652.716,-57.617,-21.973,-36.621,-31.738,0.000
1727710652.720,-55.664,-18.066,-24.902,-39.551,0.000
1727710652.724,-43.945,-19.531,-20.020,-48.828,0.000
1727710652.728,-40.527,-23.926,-23.438,-50.781,0.000
1727710652.732,-48.828,-24.902,-26.855,-41.504,0.000
1727710652.736,-64.941,-27.832,-25.391,-37.598,0.000
1727710652.740,-51.270,-30.762,-26.367,-33.691,0.000
1727710652.743,-31.738,-28.809,-32.227,-33.203,0.000
1727710652.747,-28.809,-22.949,-40.039,-44.434,0.000
1727710652.751,-34.180,-20.020,-31.738,-41.016,0.000
1727710652.755,-42.480,-22.949,-20.508,-37.598,0.000
1727710652.759,-46.875,-26.855,-22.461,-44.434,0.000
1727710652.763,-42.480,-25.391,-30.762,-50.781,0.000
1727710652.767,-25.879,-19.531,-36.133,-49.805,0.000
1727710652.771,-29.297,-17.578,-27.832,-60.547,0.000
1727710652.775,-53.223,-24.414,-16.602,-53.711,0.000
1727710652.779,-60.547,-30.273,-18.555,-53.223,0.000
1727710652.782,-42.480,-27.832,-19.043,-51.270,0.000
1727710652.786,-27.344,-31.250,-15.137,-32.715,0.000
1727710652.790,-26.855,-36.133,-30.273,-26.855,0.000
1727710652.794,-47.363,-32.227,-35.645,-28.320,0.000
1727710652.798,-61.035,-32.715,-16.602,-26.855,0.000
1727710652.802,-44.922,-34.668,-11.230,-33.691,0.000
1727710652.806,-33.691,-31.250,-16.113,-46.875,0.000
1727710652.810,-46.387,-27.344,-25.391,-39.062,0.000
1727710652.814,-55.664,-26.367,-29.297,-33.203,0.000
1727710652.818,-58.594,-20.996,-24.414,-45.898,0.000
1727710652.822,-43.945,-16.602,-21.973,-53.223,0.000
1727710652.825,-29.785,-20.020,-32.227,-36.621,0.000
1727710652.829,-36.133,-23.926,-32.227,-26.855,0.000
1727710652.833,-31.738,-18.555,-18.066,-22.461,0.000
1727710652.837,-33.691,-16.113,-13.184,-22.949,0.000
1727710652.841,-30.762,-18.555,-15.137,-38.086,0.000
1727710652.845,-21.973,-15.625,-22.461,-44.922,0.000
1727710652.849,-25.391,-15.137,-22.461,-32.715,0.000
1727710652.853,-37.598,-17.578,-17.578,-33.691,0.000
1727710652.857,-41.504,-18.555,-25.879,-45.410,0.000
1727710652.861,-48.340,-21.973,-35.156,-46.387,0.000
1727710652.865,-44.922,-22.461,-37.598,-52.246,0.000
1727710652.868,-32.715,-18.555,-29.785,-45.898,0.000
1727710652.872,-34.668,-20.020,-22.949,-41.016,0.000
1727710652.876,-55.176,-23.438,-24.414,-31.738,0.000
1727710652.880,-47.363,-20.508,-23.438,-28.809,0.000
1727710652.884,-23.438,-22.949,-39.062,-48.340,0.000
1727710652.888,-30.273,-27.344,-44.434,-48.340,0.000
1727710652.892,-34.668,-29.297,-34.180,-39.551,0.000
1727710652.896,-52.734,-31.738,-40.527,-59.082,0.000
1727710652.900,-53.711,-27.832,-34.180,-66.895,0.000
1727710652.904,-31.738,-28.320,-24.902,-55.664,0.000
1727710652.908,-30.762,-27.832,-24.414,-52.734,0.000
1727710652.911,-49.805,-23.926,-22.949,-45.898,0.000
1727710652.915,-69.336,-27.832,-20.996,-38.086,0.000
1727710652.919,-50.781,-21.484,-25.879,-35.156,0.000
1727710652.923,-28.809,-15.137,-32.227,-39.551,0.000
1727710652.927,-31.738,-21.484,-45.410,-45.410,0.000
1727710652.931,-37.109,-26.367,-60.059,-42.969,0.000
1727710652.935,-49.805,-24.414,-57.129,-40.039,0.000
1727710652.939,-44.434,-21.973,-33.691,-43.945,0.000
1727710652.943,-33.691,-27.344,-11.719,-41.016,0.000
1727710652.947,-32.227,-30.273,-15.137,-28.809,0.000
1727710652.950,-19.531,-25.879,-21.484,-33.203,0.000
1727710652.954,-26.855,-22.949,-33.691,-34.668,0.000
1727710652.958,-29.785,-18.066,-39.551,-21.973,0.000
1727710652.962,-13.184,-17.090,-26.855,-27.832,0.000
1727710652.966,-11.719,-20.020,-26.855,-34.180,0.000
1727710652.970,-24.902,-22.461,-32.227,-28.320,0.000
1727710652.974,-36.133,-21.973,-32.227,-31.250,0.000
1727710652.978,-43.457,-26.367,-35.156,-28.320,0.000
1727710652.982,-34.668,-27.344,-34.180,-37.109,0.000
1727710652.986,-24.902,-22.461,-29.297,-40.039,0.000
1727710652.990,-25.879,-20.996,-37.598,-23.438,0.000
1727710652.993,-29.785,-22.461,-46.387,-25.391,0.000
1727710652.997,-22.461,-20.996,-40.527,-31.738,0.000
1727710653.001,-11.230,-17.578,-30.762,-39.062,0.000
1727710653.005,8.301,-17.578,-41.504,-21.973,0.000
1727710653.009,-3.418,-15.625,-46.875,-19.531,0.000
1727710653.013,-33.203,-14.160,-29.785,-35.645,0.000
1727710653.017,-43.457,-18.555,-20.996,-36.133,0.000
1727710653.021,-38.086,-19.531,-35.156,-35.156,0.000
1727710653.025,-18.066,-17.090,-44.434,-32.715,0.000
1727710653.029,-20.508,-25.879,-35.156,-35.645,0.000
1727710653.033,-38.086,-25.391,-30.273,-39.062,0.000
1727710653.036,-52.246,-21.973,-41.504,-38.574,0.000
1727710653.040,-46.875,-20.996,-51.758,-39.062,0.000
1727710653.044,-25.391,-20.508,-41.992,-43.945,0.000
1727710653.048,-18.555,-24.414,-35.156,-32.715,0.000
1727710653.052,-35.645,-25.391,-38.574,-31.738,0.000
1727710653.056,-48.828,-21.484,-42.969,-34.180,0.000
1727710653.060,-40.527,-18.555,-45.898,-31.250,0.000
1727710653.064,-39.551,-20.508,-40.527,-30.273,0.000
1727710653.068,-30.762,-23.926,-40.039,-36.133,0.000
1727710653.072,-13.672,-24.902,-51.758,-34.668,0.000
1727710653.076,-28.809,-25.879,-57.617,-23.438,0.000
1727710653.079,-42.480,-24.902,-42.480,-24.902,0.000
1727710653.083,-28.809,-31.250,-29.785,-36.133,0.000
1727710653.087,-14.160,-33.691,-34.180,-36.133,0.000
1727710653.091,-23.438,-26.367,-38.086,-27.832,0.000
1727710653.095,-44.434,-28.809,-36.133,-25.879,0.000
1727710653.099,-41.992,-31.738,-41.504,-36.133,0.000
1727710653.103,-32.227,-29.785,-53.711,-41.992,0.000
1727710653.107,-29.297,-32.227,-54.199,-39.062,0.000
1727710653.111,-29.297,-35.645,-48.340,-37.109,0.000
1727710653.115,-51.270,-31.738,-45.410,-33.691,0.000
1727710653.118,-51.758,-26.367,-39.551,-40.527,0.000
1727710653.122,-21.973,-27.832,-36.133,-41.016,0.000
1727710653.126,-17.578,-26.367,-37.109,-42.969,0.000
1727710653.130,-28.320,-23.926,-43.457,-54.688,0.000
1727710653.134,-31.250,-22.949,-47.363,-44.434,0.000
1727710653.138,-41.016,-23.438,-45.410,-32.227,0.000
1727710653.142,-28.809,-25.391,-45.898,-36.621,0.000
1727710653.146,-22.949,-26.367,-49.316,-37.109,0.000
1727710653.150,-25.391,-22.949,-46.875,-24.902,0.000
1727710653.154,-42.480,-25.391,-46.387,-23.438,0.000
1727710653.158,-56.152,-28.809,-41.504,-39.551,0.000
1727710653.161,-31.738,-25.879,-38.574,-34.180,0.000
1727710653.165,-20.020,-24.414,-39.062,-29.785,0.000
1727710653.169,-25.391,-28.809,-36.133,-36.133,0.000
1727710653.173,-40.039,-30.762,-44.434,-26.855,0.000
1727710653.177,-44.922,-32.715,-53.711,-21.484,0.000
1727710653.181,-35.645,-33.203,-49.805,-32.715,0.000
1727710653.185,-22.461,-31.250,-31.738,-36.133,0.000
1727710653.189,-18.066,-33.691,-34.180,-25.391,0.000
1727710653.193,-29.297,-28.809,-43.945,-33.691,0.000
1727710653.197,-48.828,-20.020,-38.574,-43.945,0.000
1727710653.201,-37.109,-15.137,-48.340,-35.645,0.000
1727710653.204,-20.508,-20.508,-69.824,-25.391,0.000
1727710653.208,-32.715,-27.832,-65.918,-32.715,0.000
1727710653.212,-50.293,-27.344,-40.039,-43.457,0.000
1727710653.216,-64.453,-27.344,-20.996,-34.668,0.000
1727710653.220,-56.152,-24.902,-25.879,-41.992,0.000
1727710653.224,-40.039,-22.949,-34.180,-43.457,0.000
1727710653.228,-35.156,-20.996,-27.832,-33.691,0.000
1727710653.232,-38.086,-20.020,-30.762,-38.574,0.000
1727710653.236,-45.898,-21.973,-36.621,-50.781,0.000
1727710653.240,-45.410,-22.461,-38.086,-48.828,0.000
1727710653.244,-36.621,-20.508,-39.062,-42.480,0.000
1727710653.247,-27.344,-23.926,-38.086,-35.645,0.000
1727710653.251,-42.969,-24.902,-30.762,-30.762,0.000
1727710653.255,-53.711,-25.879,-30.273,-23.926,0.000
1727710653.259,-43.945,-29.785,-38.086,-32.715,0.000
1727710653.263,-36.621,-36.621,-41.016,-46.387,0.000
1727710653.267,-24.414,-33.691,-55.176,-34.668,0.000
1727710653.271,-21.484,-21.973,-61.035,-24.414,0.000
1727710653.275,-44.922,-23.926,-50.781,-26.855,0.000
1727710653.279,-43.945,-25.879,-43.945,-35.156,0.000
1727710653.283,-19.531,-22.949,-39.551,-28.809,0.000
1727710653.287,-12.207,-21.973,-31.738,-20.020,0.000
1727710653.290,-18.066,-26.367,-29.785,-37.109,0.000
1727710653.294,-40.527,-31.250,-34.180,-34.180,0.000
1727710653.298,-56.152,-30.762,-34.180,-28.809,0.000
1727710653.302,-32.227,-29.297,-35.645,-31.250,0.000
1727710653.306,-5.859,-28.320,-41.016,-35.156,0.000
1727710653.310,-17.578,-27.832,-67.383,-29.785,0.000
1727710653.314,-41.504,-23.438,-87.402,-28.320,0.000
1727710653.318,-36.621,-20.508,-53.711,-36.621,0.000
1727710653.322,-38.574,-21.484,-19.043,-38.574,0.000
1727710653.326,-29.785,-26.855,-20.996,-35.156,0.000
1727710653.329,-21.973,-29.785,-24.902,-30.762,0.000
1727710653.333,-36.621,-27.344,-27.344,-36.133,0.000
1727710653.337,-38.086,-24.414,-29.297,-37.109,0.000
1727710653.341,-26.367,-26.855,-34.180,-36.133,0.000
1727710653.345,-26.855,-36.133,-39.062,-35.645,0.000
1727710653.349,-34.180,-32.227,-40.527,-39.062,0.000
1727710653.353,-43.945,-19.531,-42.480,-29.785,0.000
1727710653.357,-56.152,-18.066,-43.945,-40.039,0.000
1727710653.361,-28.320,-20.996,-45.898,-45.898,0.000
1727710653.365,-13.672,-20.996,-45.410,-30.273,0.000
1727710653.369,-20.996,-26.855,-40.527,-34.668,0.000
1727710653.372,-36.621,-26.855,-40.527,-39.062,0.000
1727710653.376,-44.434,-27.832,-46.875,-37.598,0.000
1727710653.380,-27.832,-26.855,-39.551,-50.293,0.000
1727710653.384,-8.789,-24.902,-28.809,-40.039,0.000
1727710653.388,-10.254,-26.855,-29.785,-34.180,0.000
1727710653.392,-32.227,-28.320,-33.691,-33.203,0.000
1727710653.396,-41.992,-27.832,-38.086,-32.227,0.000
1727710653.400,-28.809,-23.926,-40.039,-41.992,0.000
1727710653.404,-26.855,-23.438,-41.992,-30.762,0.000
1727710653.408,-21.484,-24.902,-50.293,-24.902,0.000
1727710653.412,-16.602,-28.320,-51.758,-24.414,0.000
1727710653.415,-25.879,-23.438,-47.852,-19.043,0.000
1727710653.419,-18.555,-20.508,-45.410,-29.297,0.000
1727710653.423,0.977,-20.020,-37.109,-33.691,0.000
1727710653.427,4.883,-20.020,-24.902,-20.020,0.000
1727710653.431,-4.395,-26.367,-17.578,-10.254,0.000
1727710653.435,-20.020,-30.762,-17.090,-9.277,0.000
1727710653.439,-13.184,-21.973,-19.531,-16.113,0.000
1727710653.443,5.859,-12.207,-21.973,-16.602,0.000
1727710653.447,-0.488,-14.648,-25.391,-13.184,0.000
1727710653.451,-19.531,-19.531,-32.227,-26.367,0.000
1727710653.454,-26.855,-20.508,-30.762,-33.203,0.000
1727710653.458,-35.156,-20.996,-28.809,-23.926,0.000
1727710653.462,-26.855,-24.902,-33.691,-23.926,0.000
1727710653.466,-11.230,-23.926,-30.762,-32.227,0.000
1727710653.470,-13.672,-21.973,-33.691,-27.832,0.000
1727710653.474,-34.180,-24.414,-39.062,-26.367,0.000
1727710653.478,-34.180,-26.855,-33.203,-29.785,0.000
1727710653.482,-11.719,-30.762,-30.273,-29.297,0.000
1727710653.486,-13.672,-25.879,-38.086,-32.227,0.000
1727710653.490,-21.973,-25.879,-41.016,-40.039,0.000
1727710653.494,-30.762,-27.832,-41.016,-33.691,0.000
1727710653.497,-30.273,-28.320,-42.480,-35.645,0.000
1727710653.501,-22.949,-28.809,-43.945,-55.176,0.000
1727710653.505,-16.602,-25.391,-44.922,-46.387,0.000
1727710653.509,-24.414,-27.832,-45.410,-37.598,0.000
1727710653.513,-47.852,-26.367,-45.898,-47.852,0.000
1727710653.517,-55.176,-29.297,-45.410,-48.828,0.000
1727710653.521,-31.738,-31.738,-39.062,-40.039,0.000
1727710653.525,-21.484,-30.762,-34.668,-36.621,0.000
1727710653.529,-37.109,-31.250,-39.551,-36.621,0.000
1727710653.533,-56.641,-33.691,-41.992,-44.922,0.000
1727710653.537,-57.129,-34.180,-38.574,-31.250,0.000
1727710653.540,-36.133,-32.227,-37.109,-28.809,0.000
1727710653.544,-35.645,-27.344,-39.551,-40.039,0.000
1727710653.548,-33.203,-29.785,-50.781,-35.645,0.000
1727710653.552,-33.203,-28.809,-53.711,-40.527,0.000
1727710653.556,-49.316,-24.414,-40.039,-34.668,0.000
1727710653.560,-35.645,-28.320,-41.504,-34.180,0.000
1727710653.564,-12.207,-25.391,-41.992,-31.738,0.000
1727710653.568,-13.184,-24.902,-36.621,-27.832,0.000
1727710653.572,-27.344,-27.832,-36.133,-27.832,0.000
1727710653.576,-46.875,-23.438,-42.480,-25.391,0.000
1727710653.580,-43.457,-26.855,-52.734,-32.227,0.000
1727710653.583,-29.297,-29.297,-47.363,-37.109,0.000
1727710653.587,-20.996,-25.879,-45.410,-28.809,0.000
1727710653.591,-24.902,-24.414,-46.387,-27.344,0.000
1727710653.595,-44.434,-23.926,-42.969,-27.832,0.000
1727710653.599,-34.180,-27.344,-40.527,-25.879,0.000
1727710653.603,-20.996,-27.344,-35.645,-29.785,0.000
1727710653.607,-27.344,-21.484,-36.133,-31.250,0.000
1727710653.611,-31.738,-23.438,-38.574,-16.113,0.000
1727710653.615,-32.715,-23.438,-38.574,-26.855,0.000
1727710653.619,-32.715,-20.996,-37.598,-40.527,0.000
1727710653.623,-27.344,-25.391,-27.344,-24.902,0.000
1727710653.626,-23.438,-28.320,-23.438,-19.531,0.000
1727710653.630,-35.156,-26.855,-27.832,-22.461,0.000
1727710653.634,-52.734,-26.855,-29.297,-31.250,0.000
1727710653.638,-42.969,-27.832,-35.156,-36.133,0.000
1727710653.642,-32.715,-22.949,-38.086,-25.391,0.000
1727710653.646,-23.926,-18.555,-37.109,-17.578,0.000
1727710653.650,-23.438,-24.902,-43.457,-27.344,0.000
1727710653.654,-42.480,-25.391,-41.016,-18.555,0.000
1727710653.658,-47.363,-23.926,-38.086,-24.414,0.000
1727710653.662,-27.832,-23.926,-38.086,-41.016,0.000
1727710653.666,-22.949,-23.926,-33.203,-32.715,0.000
1727710653.669,-35.645,-20.996,-36.621,-34.668,0.000
1727710653.673,-47.363,-17.090,-45.898,-30.762,0.000
1727710653.677,-51.270,-21.973,-48.340,-29.297,0.000
1727710653.681,-32.227,-23.438,-45.898,-40.527,0.000
1727710653.685,-33.203,-20.020,-46.875,-38.086,0.000
1727710653.689,-44.434,-23.438,-46.387,-37.109,0.000
1727710653.693,-50.781,-26.367,-44.434,-33.203,0.000
1727710653.697,-47.363,-22.461,-43.945,-28.809,0.000
1727710653.701,-36.133,-26.855,-41.016,-31.250,0.000
1727710653.705,-33.691,-30.762,-40.039,-31.738,0.000
1727710653.708,-32.715,-29.785,-41.504,-29.297,0.000
1727710653.712,-58.105,-31.250,-44.434,-34.180,0.000
1727710653.716,-69.824,-30.273,-48.828,-32.227,0.000
1727710653.720,-47.852,-29.785,-44.434,-31.250,0.000
1727710653.724,-27.832,-32.715,-40.039,-42.969,0.000
1727710653.728,-22.949,-29.297,-38.086,-50.293,0.000
1727710653.732,-36.133,-25.391,-37.109,-45.898,0.000
1727710653.736,-55.664,-27.832,-40.039,-39.062,0.000
1727710653.740,-53.711,-31.738,-39.062,-37.109,0.000
1727710653.744,-41.992,-33.691,-42.969,-34.668,0.000
1727710653.748,-36.621,-34.180,-48.340,-39.062,0.000
1727710653.751,-49.316,-31.250,-46.875,-43.945,0.000
1727710653.755,-53.711,-29.785,-43.457,-42.480,0.000
1727710653.759,-40.527,-28.320,-38.086,-51.270,0.000
1727710653.763,-46.875,-25.391,-36.621,-41.992,0.000
1727710653.767,-51.758,-25.879,-35.156,-34.180,0.000
1727710653.771,-51.270,-28.320,-32.227,-41.504,0.000
1727710653.775,-64.453,-30.273,-34.180,-50.293,0.000
1727710653.779,-62.988,-32.227,-41.504,-43.457,0.000
1727710653.783,-45.410,-32.715,-42.969,-32.227,0.000
1727710653.787,-38.574,-35.156,-37.598,-40.527,0.000
1727710653.791,-50.781,-36.621,-36.133,-40.039,0.000
1727710653.794,-69.824,-30.762,-45.410,-39.551,0.000
1727710653.798,-62.012,-26.855,-49.316,-41.992,0.000
1727710653.802,-50.781,-27.832,-47.363,-38.574,0.000
1727710653.806,-47.852,-30.762,-47.852,-36.133,0.000
1727710653.810,-51.270,-32.227,-41.992,-47.363,0.000
1727710653.814,-64.453,-32.227,-33.203,-57.617,0.000
1727710653.818,-54.688,-31.250,-40.039,-57.617,0.000
1727710653.822,-47.363,-27.832,-44.434,-49.805,0.000
1727710653.826,-49.316,-29.785,-40.039,-44.434,0.000
1727710653.830,-57.617,-37.598,-39.062,-49.805,0.000
1727710653.834,-62.012,-41.992,-39.062,-48.828,0.000
1727710653.837,-44.922,-38.574,-41.992,-48.828,0.000
1727710653.841,-47.852,-38.574,-39.551,-47.363,0.000
1727710653.845,-44.922,-37.109,-42.969,-44.922,0.000
1727710653.849,-37.598,-33.203,-40.039,-38.574,0.000
1727710653.853,-60.059,-34.668,-41.504,-35.645,0.000
1727710653.857,-68.359,-37.598,-44.922,-43.457,0.000
1727710653.861,-68.848,-43.945,-32.227,-68.359,0.000
1727710653.865,-46.387,-44.922,-35.645,-55.664,0.000
1727710653.869,-35.156,-34.668,-45.898,-41.504,0.000
1727710653.873,-67.383,-33.203,-44.922,-60.547,0.000
1727710653.876,-62.988,-32.715,-41.016,-55.176,0.000
1727710653.880,-42.969,-41.992,-38.574,-41.504,0.000
1727710653.884,-71.289,-56.152,-26.855,-67.871,0.000
1727710653.888,-77.148,-44.434,-20.020,-83.496,0.000
1727710653.892,-66.895,-34.668,-36.133,-68.359,0.000
1727710653.896,-62.988,-36.133,-46.875,-42.480,0.000
1727710653.900,-47.363,-37.598,-41.992,-40.527,0.000
1727710653.904,-39.551,-31.738,-31.250,-71.289,0.000
1727710653.908,-32.227,-22.949,-47.363,-58.594,0.000
1727710653.912,-62.988,-32.715,-49.316,-59.570,0.000
1727710653.916,-100.098,-43.945,-27.832,-96.191,0.000
1727710653.919,-86.426,-56.641,-3.418,-99.121,0.000
1727710653.923,-67.383,-57.617,-13.184,-87.402,0.000
1727710653.927,-99.609,-57.129,-8.789,-114.258,0.000
1727710653.931,-111.816,-52.734,-5.371,-127.441,0.000
1727710653.935,-46.387,-28.809,-64.941,-79.102,0.000
1727710653.939,-37.598,-63.965,-61.035,-85.938,0.000
1727710653.943,-84.961,-83.984,-41.504,-96.191,0.000
1727710653.947,-54.688,-64.453,-46.875,-31.250,0.000
1727710653.951,-67.871,-58.594,-65.918,-44.922,0.000
1727710653.955,-149.902,-55.664,-103.516,-144.043,0.000
1727710653.959,-112.305,-40.527,-173.340,-98.145,0.000
1727710653.962,-49.316,-50.293,-224.609,-62.012,0.000
1727710653.966,-39.062,-62.988,-311.035,-103.027,0.000
1727710653.970,-58.105,-45.410,-448.730,-91.309,0.000
1727710653.974,-132.324,-40.527,-526.367,-107.422,0.000
1727710653.978,-142.090,-16.113,-549.805,-121.094,0.000
1727710653.982,-114.746,-10.742,-511.719,-147.949,0.000
1727710653.986,-104.980,-24.414,-416.504,-153.320,0.000
1727710653.990,-93.750,-29.785,-377.441,-141.602,0.000
1727710653.994,-78.613,-5.859,-408.691,-149.414,0.000
1727710653.998,-91.797,-0.488,-435.547,-140.137,0.000
1727710654.002,-113.770,-12.207,-470.703,-88.867,0.000
1727710654.005,-116.211,-15.625,-503.906,-68.359,0.000
1727710654.009,-99.609,-17.578,-534.180,-97.656,0.000
1727710654.013,-86.426,0.977,-560.547,-96.680,0.000
1727710654.017,-70.801,18.066,-526.855,-78.125,0.000
1727710654.021,-52.246,19.531,-527.344,-39.062,0.000
1727710654.025,-66.895,-17.090,-608.398,-61.523,0.000
1727710654.029,-61.523,-28.809,-668.945,-95.703,0.000
1727710654.033,-61.523,12.695,-716.309,-91.309,0.000
1727710654.037,-81.543,29.785,-765.625,-69.824,0.000
1727710654.041,-62.988,35.156,-791.016,-37.598,0.000
1727710654.044,-30.762,31.738,-785.156,-56.152,0.000
1727710654.048,-33.203,28.809,-802.246,-56.641,0.000
1727710654.052,-51.270,26.855,-813.477,-18.066,0.000
1727710654.056,-62.012,10.742,-798.340,-45.898,0.000
1727710654.060,-68.848,-0.977,-790.039,-91.797,0.000
1727710654.064,-51.270,1.465,-818.359,-53.223,0.000
1727710654.068,-42.480,3.418,-882.324,-17.090,0.000
1727710654.072,-30.762,4.395,-923.340,-33.203,0.000
1727710654.076,-42.480,-2.441,-905.273,-80.566,0.000
1727710654.080,-51.758,-9.277,-900.391,-80.078,0.000
1727710654.084,-13.184,-16.602,-906.250,-34.180,0.000
1727710654.087,-35.156,-20.020,-845.703,-7.812,0.000
1727710654.091,-59.570,6.348,-837.891,6.836,0.000
1727710654.095,-58.105,17.090,-849.121,-14.648,0.000
1727710654.099,-61.523,1.953,-812.012,-44.922,0.000
1727710654.103,-84.473,-23.438,-742.676,-86.914,0.000
1727710654.107,-63.477,-22.461,-750.977,-71.289,0.000
1727710654.111,-39.551,0.977,-784.180,-31.250,0.000
1727710654.115,-39.062,7.812,-760.742,-47.852,0.000
1727710654.119,-26.855,0.977,-695.801,-30.273,0.000
1727710654.123,-32.227,-10.254,-663.086,-24.902,0.000
1727710654.127,-17.578,-2.441,-687.012,-14.648,0.000
1727710654.130,-39.551,-8.301,-649.414,2.441,0.000
1727710654.134,-75.195,-28.809,-598.633,-19.531,0.000
1727710654.138,-63.965,-30.273,-584.473,-4.883,0.000
1727710654.142,-45.410,-34.668,-558.105,-22.949,0.000
1727710654.146,-27.344,-26.367,-555.176,-53.223,0.000
1727710654.150,-34.180,-44.922,-510.254,-29.297,0.000
1727710654.154,-46.875,-78.613,-464.355,-28.320,0.000
1727710654.158,-31.250,-61.035,-471.191,-40.527,0.000
1727710654.162,-41.992,-39.551,-458.984,-38.574,0.000
1727710654.166,-60.059,-26.367,-421.875,-54.688,0.000
1727710654.170,-49.805,-12.695,-399.902,-61.523,0.000
1727710654.173,-59.570,-23.926,-383.789,-34.668,0.000
1727710654.177,-56.152,-32.715,-336.914,-15.625,0.000
1727710654.181,-17.578,-21.484,-342.773,-39.062,0.000
1727710654.185,-20.020,-23.926,-309.082,-23.926,0.000
1727710654.189,-64.941,-46.387,-250.000,-30.273,0.000
1727710654.193,-73.242,-47.852,-245.605,-63.477,0.000
1727710654.197,-50.293,-39.062,-232.910,-38.574,0.000
1727710654.201,-26.855,-29.297,-223.145,-11.230,0.000
1727710654.205,-8.301,-31.738,-210.938,-24.414,0.000
1727710654.209,-7.324,-57.129,-173.828,-33.691,0.000
1727710654.213,-15.625,-49.805,-155.273,-14.160,0.000
1727710654.216,-33.691,-31.250,-154.785,-11.230,0.000
1727710654.220,-51.758,-27.344,-154.297,-47.363,0.000
1727710654.224,-49.805,-28.809,-126.953,-47.852,0.000
1727710654.228,-45.410,-28.320,-119.629,-25.391,0.000
1727710654.232,-53.223,-25.879,-120.117,-27.832,0.000
1727710654.236,-40.527,-24.902,-113.281,-33.203,0.000
1727710654.240,-19.043,-24.414,-98.145,-42.969,0.000
1727710654.244,-10.254,-30.273,-77.148,-32.715,0.000
1727710654.248,-21.484,-35.645,-82.031,-38.086,0.000
1727710654.252,-40.039,-35.156,-68.848,-24.902,0.000
1727710654.255,-31.250,-30.762,-50.781,16.113,0.000
1727710654.259,-23.926,-28.320,-48.340,10.254,0.000
1727710654.263,-17.090,-28.809,-27.832,-10.742,0.000
1727710654.267,-3.906,-28.320,-8.789,-20.020,0.000
1727710654.271,-12.695,-21.973,-4.883,-3.906,0.000
1727710654.275,-34.668,-30.762,25.879,-17.578,0.000
1727710654.279,-32.227,-33.203,73.242,-38.086,0.000
1727710654.283,-7.812,-21.973,143.555,-6.836,0.000
1727710654.287,-9.277,-23.438,275.391,2.930,0.000
1727710654.291,-29.297,-28.320,395.996,-2.441,0.000
1727710654.295,-30.762,-31.738,456.543,-2.930,0.000
1727710654.298,-8.301,-32.715,474.609,-2.930,0.000
1727710654.302,9.766,-30.273,508.301,-9.277,0.000
1727710654.306,5.371,-20.508,527.344,-16.113,0.000
1727710654.310,-9.277,-22.949,568.848,-20.508,0.000
1727710654.314,-22.949,-30.273,716.309,-19.043,0.000
1727710654.318,-15.625,-28.809,838.867,-20.508,0.000
1727710654.322,-5.371,-26.855,919.922,-15.625,0.000
1727710654.326,0.488,-24.902,967.773,-18.066,0.000
1727710654.330,-9.277,-24.414,966.797,-22.461,0.000
1727710654.334,-40.039,-27.344,967.285,-12.695,0.000
1727710654.338,-35.645,-27.344,968.262,-15.137,0.000
1727710654.341,-5.371,-28.320,968.262,-20.508,0.000
1727710654.345,-6.348,-29.297,967.773,-15.137,0.000
1727710654.349,-14.648,-31.250,967.773,-12.207,0.000
1727710654.353,-23.438,-41.016,968.262,-24.414,0.000
1727710654.357,-27.344,-42.480,968.262,-40.527,0.000
1727710654.361,-25.879,-40.039,968.750,-43.945,0.000
1727710654.365,-22.461,-42.969,966.309,-48.828,0.000
1727710654.369,-34.668,-48.340,967.285,-53.711,0.000
1727710654.373,-66.406,-51.758,964.844,-55.664,0.000
1727710654.377,-72.266,-51.758,868.652,-52.246,0.000
1727710654.381,-58.105,-51.758,755.371,-59.570,0.000
1727710654.384,-57.617,-57.617,711.426,-89.844,0.000
1727710654.388,-73.242,-60.059,649.414,-87.891,0.000
1727710654.392,-88.867,-62.988,582.031,-74.707,0.000
1727710654.396,-88.867,-70.312,564.941,-88.379,0.000
1727710654.400,-64.941,-67.383,543.457,-99.609,0.000
1727710654.404,-52.734,-67.871,514.160,-98.633,0.000
1727710654.408,-57.129,-66.406,547.363,-88.379,0.000
1727710654.412,-73.242,-64.941,585.449,-78.613,0.000
1727710654.416,-84.473,-62.012,580.566,-66.895,0.000
1727710654.420,-56.152,-61.035,562.988,-45.410,0.000
1727710654.423,-34.668,-64.453,540.039,-35.156,0.000
1727710654.427,-34.668,-59.082,528.809,-47.363,0.000
1727710654.431,-46.875,-57.129,514.160,-40.527,0.000
1727710654.435,-49.805,-52.734,502.441,-36.621,0.000
1727710654.439,-26.367,-48.828,486.328,-51.270,0.000
1727710654.443,-6.348,-46.875,494.141,-49.316,0.000
1727710654.447,-14.160,-43.457,497.070,-35.645,0.000
1727710654.451,-28.809,-44.922,450.195,-24.414,0.000
1727710654.455,-18.555,-41.016,393.066,-5.371,0.000
1727710654.459,1.953,-39.551,350.586,-5.859,0.000
1727710654.463,13.672,-40.527,314.941,-15.137,0.000
1727710654.466,11.719,-44.434,270.508,3.906,0.000
1727710654.470,0.000,-42.969,249.023,8.301,0.000
1727710654.474,-7.812,-32.715,246.582,-2.930,0.000
1727710654.478,-3.906,-26.367,245.605,-7.324,0.000
1727710654.482,6.836,-27.344,254.395,-6.836,0.000
1727710654.486,8.301,-32.227,251.953,-5.371,0.000
1727710654.490,-12.207,-32.715,249.512,-7.324,0.000
1727710654.494,-30.762,-36.133,245.117,-10.742,0.000
1727710654.498,-4.395,-35.645,231.445,-15.137,0.000
1727710654.502,20.020,-20.508,187.012,-6.836,0.000
1727710654.506,24.414,-10.254,135.254,3.906,0.000
1727710654.509,9.766,-15.625,144.043,6.348,0.000
1727710654.513,-10.254,-19.531,149.902,2.441,0.000
1727710654.517,-5.371,-14.160,125.000,-4.883,0.000
1727710654.521,9.766,-17.578,111.328,-9.766,0.000
1727710654.525,27.832,-18.066,108.887,-12.695,0.000
1727710654.529,25.391,-16.602,115.723,-14.160,0.000
1727710654.533,3.418,-19.531,122.070,-0.488,0.000
1727710654.537,3.418,-18.066,129.883,2.441,0.000
1727710654.541,19.531,-17.090,102.539,-0.488,0.000
1727710654.545,19.043,-14.160,81.543,4.395,0.000
1727710654.549,2.441,-11.230,93.750,5.371,0.000
1727710654.552,-3.906,-14.160,101.562,11.230,0.000
1727710654.556,-4.883,-23.438,124.023,6.836,0.000
1727710654.560,-4.395,-25.879,121.582,-8.301,0.000
1727710654.564,4.395,-20.020,98.145,-4.395,0.000
1727710654.568,1.953,-19.531,87.891,2.441,0.000
1727710654.572,-11.230,-23.926,81.055,-7.812,0.000
1727710654.576,-16.602,-28.809,81.543,-14.160,0.000
1727710654.580,-4.395,-29.297,85.449,-12.207,0.000
1727710654.584,6.348,-20.996,78.613,-4.883,0.000
1727710654.588,1.953,-21.973,71.777,-10.254,0.000
1727710654.591,-10.742,-21.973,74.219,-3.418,0.000
1727710654.595,-16.113,-21.484,62.012,-3.906,0.000
1727710654.599,4.395,-20.020,48.828,-14.160,0.000
1727710654.603,10.742,-18.066,45.898,-0.977,0.000
1727710654.607,-12.207,-21.484,54.688,-8.789,0.000
1727710654.611,-23.438,-24.414,62.988,-9.277,0.000
1727710654.615,-24.902,-23.926,61.523,-2.441,0.000
1727710654.619,-27.344,-22.461,53.223,-2.441,0.000
1727710654.623,-15.625,-26.367,39.062,-10.742,0.000
1727710654.627,-9.766,-23.926,34.668,-8.789,0.000
1727710654.631,-20.996,-19.531,30.762,8.789,0.000
1727710654.634,-20.508,-18.555,15.137,7.324,0.000
1727710654.638,-13.184,-19.531,10.254,-5.371,0.000
1727710654.642,-5.859,-21.973,22.949,-10.742,0.000
1727710654.646,-1.953,-19.531,29.785,-6.348,0.000
1727710654.650,-9.766,-21.484,31.738,-5.859,0.000
1727710654.654,-20.996,-22.461,41.016,-7.812,0.000
1727710654.658,-15.625,-18.555,41.016,-10.742,0.000
1727710654.662,11.230,-22.461,33.691,10.254,0.000
1727710654.666,23.926,-25.391,37.109,11.719,0.000
1727710654.670,4.395,-21.973,52.246,0.000,0.000
1727710654.674,-20.996,-15.137,60.059,-10.742,0.000
1727710654.677,-20.996,-14.648,58.105,-21.484,0.000
1727710654.681,-4.395,-12.695,60.059,-7.812,0.000
1727710654.685,0.488,-12.695,57.129,-7.812,0.000
1727710654.689,-3.906,-14.648,41.016,-5.859,0.000
1727710654.693,-13.672,-20.508,33.203,3.418,0.000
1727710654.697,-8.789,-21.484,27.832,-4.883,0.000
1727710654.701,-4.395,-18.066,35.156,-9.766,0.000
1727710654.705,-1.953,-13.672,52.246,-10.254,0.000
1727710654.709,-9.766,-13.672,41.504,-14.648,0.000
1727710654.713,-29.297,-18.066,35.156,-15.137,0.000
1727710654.717,-25.879,-18.555,27.832,-13.672,0.000
1727710654.720,-9.766,-21.484,24.902,-25.391,0.000
1727710654.724,-8.789,-20.020,43.457,-22.949,0.000
1727710654.728,-10.254,-18.555,44.922,-13.184,0.000
1727710654.732,-19.043,-21.484,32.227,-23.926,0.000
1727710654.736,-18.555,-18.555,21.973,-22.461,0.000
1727710654.740,-8.789,-17.090,11.230,-11.719,0.000
1727710654.744,-8.789,-20.508,25.879,-24.902,0.000
1727710654.748,-5.371,-19.531,48.828,-32.715,0.000
1727710654.752,-22.949,-19.043,38.086,-21.973,0.000
1727710654.756,-32.227,-19.531,31.738,-17.578,0.000
1727710654.759,-18.555,-20.996,33.691,-25.879,0.000
1727710654.763,-17.090,-26.855,31.250,-26.855,0.000
1727710654.767,-14.160,-28.320,28.320,-24.902,0.000
1727710654.771,-17.090,-22.461,9.766,-26.855,0.000
1727710654.775,-21.484,-23.926,-2.441,-20.996,0.000
1727710654.779,-22.949,-25.391,-3.906,-21.973,0.000
1727710654.783,-13.184,-22.949,-0.977,-26.855,0.000
1727710654.787,-11.230,-23.926,6.348,-28.320,0.000
1727710654.791,-32.715,-24.902,17.090,-38.574,0.000
1727710654.795,-38.574,-25.879,24.414,-33.203,0.000
1727710654.799,-26.367,-28.809,17.090,-21.973,0.000
1727710654.802,-12.695,-27.832,9.766,-14.648,0.000
1727710654.806,-6.348,-25.879,-0.977,-22.461,0.000
1727710654.810,-20.020,-24.414,-7.324,-31.738,0.000
1727710654.814,-41.016,-28.320,-14.648,-29.785,0.000
1727710654.818,-28.809,-28.809,-23.438,-28.320,0.000
1727710654.822,-13.672,-20.996,-26.855,-22.949,0.000
1727710654.826,-19.043,-21.973,-11.230,-20.020,0.000
1727710654.830,-37.109,-21.484,5.371,-30.762,0.000
1727710654.834,-45.410,-21.973,3.906,-39.551,0.000
1727710654.838,-33.203,-21.973,6.836,-37.109,0.000
1727710654.842,-24.902,-23.926,10.254,-17.090,0.000
1727710654.845,-17.090,-24.414,3.906,0.000,0.000
1727710654.849,-27.344,-22.461,0.000,-6.836,0.000
1727710654.853,-52.734,-26.367,-3.906,-21.484,0.000
1727710654.857,-35.645,-22.949,-5.859,-29.297,0.000
1727710654.861,-19.043,-22.461,-12.207,-26.367,0.000
1727710654.865,-29.297,-31.250,-25.879,-25.879,0.000
1727710654.869,-32.715,-35.645,-20.508,-6.836,0.000
1727710654.873,-46.875,-36.133,1.953,-7.812,0.000
1727710654.877,-45.898,-30.762,15.625,-28.809,0.000
1727710654.881,-26.855,-30.273,17.090,-29.297,0.000
1727710654.884,-16.113,-30.762,17.090,-24.414,0.000
1727710654.888,-20.020,-26.855,14.160,-23.438,0.000
1727710654.892,-39.551,-26.855,10.742,-23.438,0.000
1727710654.896,-38.086,-24.902,3.906,-28.809,0.000
1727710654.900,-15.137,-24.902,1.953,-21.973,0.000
1727710654.904,-11.719,-27.832,0.000,-14.648,0.000
1727710654.908,-30.762,-29.297,-2.930,-18.066,0.000
1727710654.912,-49.316,-28.809,-2.930,-15.625,0.000
1727710654.916,-58.105,-31.738,-6.348,-26.855,0.000
1727710654.920,-30.762,-32.715,-11.719,-28.809,0.000
1727710654.924,-20.508,-29.297,-13.672,-26.367,0.000
1727710654.927,-46.875,-28.320,-4.883,-23.926,0.000
1727710654.931,-48.828,-26.855,-3.418,-22.949,0.000
1727710654.935,-45.898,-28.809,-1.953,-20.020,0.000
1727710654.939,-49.316,-31.250,-1.465,-35.156,0.000
1727710654.943,-36.621,-26.367,-10.742,-40.527,0.000
1727710654.947,-37.598,-24.414,-11.719,-18.066,0.000
1727710654.951,-49.805,-24.414,-6.836,-18.066,0.000
1727710654.955,-43.945,-22.461,-13.672,-33.203,0.000
1727710654.959,-28.320,-23.926,-19.043,-38.574,0.000
1727710654.963,-25.879,-22.461,-20.508,-39.551,0.000
1727710654.967,-29.297,-20.020,-20.996,-31.738,0.000
1727710654.970,-34.668,-17.578,-14.160,-31.250,0.000
1727710654.974,-40.527,-18.555,-23.438,-26.855,0.000
1727710654.978,-28.809,-24.902,-31.738,-22.461,0.000
1727710654.982,-20.508,-30.762,-15.625,-27.344,0.000
1727710654.986,-29.785,-31.250,-2.930,-35.645,0.000
1727710654.990,-55.664,-29.785,2.441,-48.828,0.000
1727710654.994,-62.012,-27.832,-0.977,-43.457,0.000
1727710654.998,-40.527,-28.320,-8.301,-41.504,0.000
1727710655.002,-28.809,-31.250,-14.648,-43.945,0.000
1727710655.006,-28.320,-30.273,-13.672,-36.621,0.000
1727710655.010,-41.992,-31.250,-18.555,-36.133,0.000
1727710655.013,-56.152,-35.156,-28.809,-35.156,0.000
1727710655.017,-38.086,-35.645,-23.438,-30.273,0.000
1727710655.021,-25.879,-32.227,-11.230,-41.016,0.000
1727710655.025,-33.203,-29.297,-21.484,-53.711,0.000
1727710655.029,-33.203,-32.227,-31.250,-46.387,0.000
1727710655.033,-47.852,-33.203,-20.996,-30.273,0.000
1727710655.037,-38.086,-31.250,-6.836,-26.855,0.000
1727710655.041,-15.137,-27.344,-23.926,-25.879,0.000
1727710655.045,-8.789,-20.996,-56.641,-22.461,0.000
1727710655.049,-19.043,-30.273,-28.809,-20.020,0.000
1727710655.053,-30.762,-38.574,11.719,-17.090,0.000
1727710655.056,-34.180,-28.809,4.883,-35.156,0.000
1727710655.060,-40.527,-20.508,-11.719,-47.363,0.000
1727710655.064,-39.062,-19.043,-12.207,-41.992,0.000
1727710655.068,-44.434,-19.531,-17.578,-40.039,0.000
1727710655.072,-68.848,-19.531,-22.461,-36.621,0.000
1727710655.076,-62.988,-15.137,-23.926,-40.527,0.000
1727710655.080,-37.598,-13.672,-22.461,-33.203,0.000
1727710655.084,-27.832,-18.066,-29.785,-16.602,0.000
1727710655.088,-41.992,-20.020,-35.645,-25.391,0.000
1727710655.092,-59.082,-23.438,-23.926,-24.414,0.000
1727710655.096,-41.016,-20.020,-11.719,-15.137,0.000
1727710655.099,-24.414,-12.207,-26.367,-20.996,0.000
1727710655.103,-20.020,-8.789,-36.621,-17.090,0.000
1727710655.107,-14.160,-6.348,-20.996,-15.137,0.000
1727710655.111,-35.645,-11.719,-21.484,-24.414,0.000
1727710655.115,-41.992,-12.695,-39.062,-41.992,0.000
1727710655.119,-32.715,-14.648,-53.223,-37.598,0.000
1727710655.123,-32.715,-14.648,-52.246,-26.855,0.000
1727710655.127,-20.996,-10.742,-33.203,-27.832,0.000
1727710655.131,-30.273,-15.625,-17.578,-22.461,0.000
