timestamps,TP9,AF7,AF8,TP10,Right AUX
1727710807.114,8.301,-5.371,-49.805,-20.996,0.000
1727710807.118,13.672,-9.766,-54.688,-24.902,0.000
1727710807.122,-3.906,-11.230,-55.176,-23.926,0.000
1727710807.126,-19.531,-10.742,-53.223,-27.344,0.000
1727710807.130,-16.602,-14.648,-52.246,-33.691,0.000
1727710807.134,-5.859,-14.160,-45.898,-25.391,0.000
1727710807.138,-3.418,-14.160,-49.805,-13.184,0.000
1727710807.142,-20.996,-16.602,-56.152,-24.414,0.000
1727710807.146,-41.016,-16.602,-51.270,-39.062,0.000
1727710807.149,-24.414,-24.414,-42.480,-24.902,0.000
1727710807.153,-2.930,-31.250,-41.504,-8.789,0.000
1727710807.157,-10.742,-20.508,-52.734,-28.320,0.000
1727710807.161,-20.020,-11.719,-57.129,-37.598,0.000
1727710807.165,-28.320,-15.625,-58.105,-36.133,0.000
1727710807.169,-27.832,-12.695,-64.453,-36.133,0.000
1727710807.173,-22.461,-8.789,-62.988,-31.738,0.000
1727710807.177,-22.461,-7.324,-60.059,-38.086,0.000
1727710807.181,-20.996,-4.883,-62.988,-32.227,0.000
1727710807.185,-30.762,-9.277,-60.547,-28.809,0.000
1727710807.189,-41.992,-15.137,-61.035,-37.598,0.000
1727710807.192,-31.738,-20.020,-61.523,-31.250,0.000
1727710807.196,-13.672,-20.508,-57.617,-19.531,0.000
1727710807.200,-21.973,-23.438,-56.152,-25.391,0.000
1727710807.204,-43.945,-26.855,-51.758,-29.785,0.000
1727710807.208,-41.992,-23.438,-50.781,-29.297,0.000
1727710807.212,-13.672,-19.531,-56.152,-20.020,0.000
1727710807.216,-5.371,-23.438,-57.129,-15.137,0.000
1727710807.220,-10.742,-46.875,-53.223,-20.508,0.000
1727710807.224,-24.414,-47.363,-51.270,-19.531,0.000
1727710807.228,-42.480,-18.066,-55.664,-29.297,0.000
1727710807.232,-25.391,-6.836,-55.664,-32.715,0.000
1727710807.235,-12.695,-8.789,-57.617,-33.691,0.000
1727710807.239,-17.090,-13.672,-62.500,-30.762,0.000
1727710807.243,-21.973,-16.602,-62.988,-18.066,0.000
1727710807.247,-37.109,-10.254,-59.570,-25.879,0.000
1727710807.251,-28.809,-6.348,-51.270,-20.020,0.000
1727710807.255,-13.672,-8.301,-49.316,-13.672,0.000
1727710807.259,-11.719,-9.766,-52.246,-15.625,0.000
1727710807.263,-17.090,-12.207,-49.805,-22.949,0.000
1727710807.267,-30.273,-14.160,-49.805,-27.832,0.000
1727710807.271,-26.855,-15.137,-60.547,-36.621,0.000
1727710807.275,-12.207,-16.602,-58.105,-34.668,0.000
1727710807.278,-15.137,-20.020,-45.898,-20.996,0.000
1727710807.282,-17.090,-26.367,-46.387,-22.949,0.000
1727710807.286,-20.020,-20.996,-50.781,-23.926,0.000
1727710807.290,-21.484,-14.648,-55.176,-33.203,0.000
1727710807.294,-7.324,-16.113,-44.922,-36.133,0.000
1727710807.298,-2.930,-16.113,-39.551,-29.297,0.000
1727710807.302,-18.066,-15.625,-44.922,-34.180,0.000
1727710807.306,-35.645,-17.578,-44.434,-35.156,0.000
1727710807.310,-36.621,-19.043,-46.875,-33.691,0.000
1727710807.314,-19.043,-21.973,-47.363,-28.809,0.000
1727710807.317,-7.324,-22.461,-45.410,-35.156,0.000
1727710807.321,-20.508,-25.391,-52.734,-34.668,0.000
1727710807.325,-37.598,-23.926,-57.617,-29.297,0.000
1727710807.329,-31.738,-20.996,-57.129,-20.996,0.000
1727710807.333,-14.160,-24.414,-55.664,-15.137,0.000
1727710807.337,-6.836,-28.320,-55.664,-24.902,0.000
1727710807.341,-14.648,-34.180,-56.641,-27.832,0.000
1727710807.345,-26.367,-35.645,-52.246,-21.484,0.000
1727710807.349,-28.809,-33.203,-53.223,-18.066,0.000
1727710807.353,-16.113,-24.414,-58.105,-22.949,0.000
1727710807.357,-2.930,-14.160,-57.617,-18.066,0.000
1727710807.360,-8.789,-14.648,-60.059,-14.160,0.000
1727710807.364,-25.879,-19.531,-69.336,-20.020,0.000
1727710807.368,-25.879,-21.484,-68.848,-20.996,0.000
1727710807.372,-13.184,-22.461,-66.406,-26.367,0.000
1727710807.376,-5.859,-22.461,-67.383,-20.020,0.000
1727710807.380,-5.371,-19.531,-56.152,-15.137,0.000
1727710807.384,-25.879,-22.461,-48.340,-22.461,0.000
1727710807.388,-43.945,-29.785,-47.852,-19.531,0.000
1727710807.392,-30.273,-31.250,-43.457,-19.531,0.000
1727710807.396,-12.207,-26.367,-41.992,-20.508,0.000
1727710807.399,-15.137,-24.414,-40.527,-25.391,0.000
1727710807.403,-35.645,-25.879,-47.852,-35.645,0.000
1727710807.407,-52.734,-25.879,-52.246,-35.645,0.000
1727710807.411,-31.250,-25.391,-51.270,-31.250,0.000
1727710807.415,-13.184,-24.414,-51.270,-40.527,0.000
1727710807.419,-21.973,-27.832,-49.316,-34.180,0.000
1727710807.423,-41.992,-28.320,-44.922,-26.367,0.000
1727710807.427,-54.199,-26.367,-43.457,-39.551,0.000
1727710807.431,-33.203,-26.855,-49.316,-40.527,0.000
1727710807.435,-11.719,-24.414,-56.152,-32.227,0.000
1727710807.439,-4.883,-22.949,-52.734,-25.391,0.000
1727710807.442,-14.648,-24.902,-38.086,-25.879,0.000
1727710807.446,-48.340,-29.785,-29.297,-37.598,0.000
1727710807.450,-54.199,-34.668,-30.762,-49.805,0.000
1727710807.454,-30.762,-35.645,-38.086,-45.410,0.000
1727710807.458,-29.785,-30.762,-41.992,-41.504,0.000
1727710807.462,-39.551,-34.180,-36.133,-37.598,0.000
1727710807.466,-43.945,-32.227,-33.691,-31.250,0.000
1727710807.470,-32.227,-26.855,-35.156,-32.715,0.000
1727710807.474,-16.113,-31.250,-36.133,-27.832,0.000
1727710807.478,-17.578,-28.320,-42.480,-24.902,0.000
1727710807.481,-26.855,-30.273,-42.969,-32.715,0.000
1727710807.485,-31.738,-31.738,-37.109,-30.762,0.000
1727710807.489,-26.367,-25.391,-40.527,-25.391,0.000
1727710807.493,-17.578,-31.738,-43.457,-24.902,0.000
1727710807.497,-11.719,-35.645,-41.504,-26.367,0.000
1727710807.501,-20.996,-34.180,-46.387,-33.203,0.000
1727710807.505,-46.387,-35.645,-58.594,-40.039,0.000
1727710807.509,-40.039,-32.227,-58.105,-38.574,0.000
1727710807.513,-16.602,-33.203,-45.898,-31.738,0.000
1727710807.517,-21.484,-35.645,-41.992,-35.645,0.000
1727710807.520,-32.715,-35.645,-46.875,-48.340,0.000
1727710807.524,-34.180,-34.668,-50.293,-47.363,0.000
1727710807.528,-27.832,-33.203,-51.758,-39.062,0.000
1727710807.532,-13.672,-29.785,-58.105,-34.668,0.000
1727710807.536,0.000,-31.250,-71.289,-28.320,0.000
1727710807.540,0.000,-35.645,-69.336,-33.203,0.000
1727710807.544,0.000,-43.945,-61.035,-35.645,0.000
1727710807.548,0.000,-46.387,-60.547,-39.062,0.000
1727710807.552,0.000,-41.016,-54.199,-39.551,0.000
1727710807.556,0.000,-39.062,-51.758,-24.414,0.000
1727710807.560,0.000,-35.645,-50.293,-21.484,0.000
1727710807.563,0.000,-38.574,-41.504,-23.438,0.000
1727710807.567,0.000,-47.363,-42.480,-18.555,0.000
1727710807.571,0.000,-43.457,-45.410,-13.672,0.000
1727710807.575,0.000,-39.551,-49.805,-20.996,0.000
1727710807.579,0.000,-37.598,-60.547,-30.273,0.000
1727710807.583,-23.926,-29.297,-53.223,-24.902,0.000
1727710807.587,-34.668,-31.250,-37.109,-27.832,0.000
1727710807.591,-29.297,-36.621,-33.691,-29.785,0.000
1727710807.595,-12.695,-40.527,-32.715,-23.926,0.000
1727710807.599,-12.207,-41.992,-35.156,-15.137,0.000
1727710807.603,-21.973,-37.598,-49.805,-9.766,0.000
1727710807.606,-32.227,-34.180,-49.316,-15.137,0.000
1727710807.610,-3.418,-32.227,-39.062,-1.953,0.000
1727710807.614,20.996,-36.133,-30.273,22.949,0.000
1727710807.618,-17.578,-44.434,-20.508,-1.465,0.000
1727710807.622,-60.059,-42.969,-20.996,-34.668,0.000
1727710807.626,-64.453,-46.387,-31.250,-40.039,0.000
1727710807.630,-49.805,-54.688,-35.156,-46.387,0.000
1727710807.634,-55.176,-60.059,-37.109,-46.875,0.000
1727710807.638,-62.500,-65.918,-29.297,-44.922,0.000
1727710807.642,-72.266,-69.824,-5.859,-52.734,0.000
1727710807.646,-86.914,-74.707,4.395,-61.035,0.000
1727710807.649,-80.078,-82.520,7.812,-66.406,0.000
1727710807.653,-70.801,-85.938,3.906,-57.617,0.000
1727710807.657,-83.008,-86.914,-6.348,-55.664,0.000
1727710807.661,-98.145,-88.379,4.883,-61.523,0.000
1727710807.665,-109.863,-83.008,19.043,-70.312,0.000
1727710807.669,-110.840,-91.309,15.137,-79.102,0.000
1727710807.673,-93.262,-102.539,13.672,-66.895,0.000
1727710807.677,-101.562,-95.703,12.695,-67.383,0.000
1727710807.681,-110.352,-85.938,13.672,-75.684,0.000
1727710807.685,-104.492,-85.449,5.371,-71.777,0.000
1727710807.688,-91.309,-86.914,-7.812,-62.500,0.000
1727710807.692,-71.289,-85.449,-5.371,-48.828,0.000
1727710807.696,-70.312,-78.613,-4.395,-44.434,0.000
1727710807.700,-71.777,-75.195,4.883,-44.922,0.000
1727710807.704,-70.801,-77.148,20.020,-33.203,0.000
1727710807.708,-67.383,-69.824,10.742,-20.508,0.000
1727710807.712,-49.316,-61.035,0.488,-20.020,0.000
1727710807.716,-31.250,-56.152,13.184,-21.973,0.000
1727710807.720,-28.809,-58.105,14.160,-27.344,0.000
1727710807.724,-38.574,-60.547,-2.441,-26.855,0.000
1727710807.728,-44.922,-61.035,-5.371,-21.973,0.000
1727710807.731,-40.039,-59.570,2.930,-26.855,0.000
1727710807.735,-31.250,-52.246,-1.465,-29.297,0.000
1727710807.739,-30.273,-49.316,-26.855,-28.320,0.000
1727710807.743,-38.086,-52.246,-35.645,-30.762,0.000
1727710807.747,-39.551,-50.781,-20.996,-20.508,0.000
1727710807.751,-24.414,-51.758,-4.883,-15.625,0.000
1727710807.755,-19.043,-52.246,3.906,-28.320,0.000
1727710807.759,-35.645,-47.852,5.859,-25.879,0.000
1727710807.763,-46.875,-48.340,-8.789,-22.949,0.000
1727710807.767,-46.875,-48.340,-15.625,-30.273,0.000
1727710807.770,-34.668,-43.457,-12.207,-24.414,0.000
1727710807.774,-21.973,-41.992,-14.648,-20.996,0.000
1727710807.778,-14.648,-37.598,-20.996,-15.625,0.000
1727710807.782,-26.367,-33.691,-29.297,-17.578,0.000
1727710807.786,-40.039,-34.668,-25.879,-26.367,0.000
1727710807.790,-20.020,-34.668,-13.672,-19.043,0.000
1727710807.794,-6.348,-36.621,-9.766,-7.812,0.000
1727710807.798,-12.695,-36.133,-16.602,-6.348,0.000
1727710807.802,-19.531,-32.227,-31.738,-13.672,0.000
1727710807.806,-36.621,-27.344,-41.504,-17.090,0.000
1727710807.810,-25.879,-25.391,-25.879,-12.695,0.000
1727710807.813,-6.348,-29.297,-18.555,-5.859,0.000
1727710807.817,-1.465,-29.785,-17.578,2.441,0.000
1727710807.821,-5.371,-21.973,-10.254,-1.465,0.000
1727710807.825,-13.184,-29.297,-11.230,-3.906,0.000
1727710807.829,0.000,-35.156,-14.648,-0.977,0.000
1727710807.833,9.277,-31.250,-15.137,0.000,0.000
1727710807.837,8.301,-26.367,-13.184,-3.906,0.000
1727710807.841,6.836,-26.367,-20.508,0.977,0.000
1727710807.845,-9.277,-24.414,-22.461,8.301,0.000
1727710807.849,-7.324,-19.043,-19.043,6.348,0.000
1727710807.852,4.395,-20.508,-21.484,-0.977,0.000
1727710807.856,6.836,-22.949,-22.949,1.953,0.000
1727710807.860,1.465,-20.996,-20.508,1.465,0.000
1727710807.864,-13.184,-23.438,-21.973,-11.719,0.000
1727710807.868,-7.324,-28.320,-25.391,-3.906,0.000
1727710807.872,9.277,-30.762,-27.832,-1.465,0.000
1727710807.876,9.277,-37.109,-28.320,-10.742,0.000
1727710807.880,-2.441,-37.598,-29.785,-14.160,0.000
1727710807.884,-6.348,-33.691,-30.273,-7.812,0.000
1727710807.888,-3.906,-34.180,-27.832,-9.766,0.000
1727710807.891,10.742,-36.133,-27.832,-19.531,0.000
1727710807.895,15.137,-36.621,-31.250,-23.438,0.000
1727710807.899,-0.977,-43.945,-31.738,-22.461,0.000
1727710807.903,-21.973,-46.387,-30.762,-15.625,0.000
1727710807.907,-29.785,-39.551,-31.250,-19.043,0.000
1727710807.911,-17.090,-35.645,-27.832,-22.949,0.000
1727710807.915,-10.254,-40.039,-26.367,-20.508,0.000
1727710807.919,-12.207,-46.875,-28.809,-15.625,0.000
1727710807.923,-15.137,-44.922,-21.484,-8.789,0.000
1727710807.927,-18.066,-37.109,-23.438,-12.695,0.000
1727710807.931,-20.996,-37.109,-30.762,-22.461,0.000
1727710807.934,-17.578,-36.133,-31.250,-15.625,0.000
1727710807.938,-17.090,-33.203,-33.691,-18.066,0.000
1727710807.942,-38.086,-40.527,-30.762,-23.926,0.000
1727710807.946,-39.062,-43.945,-20.996,-21.973,0.000
1727710807.950,-16.113,-42.969,-19.043,-22.949,0.000
1727710807.954,-16.113,-49.316,-20.508,-24.414,0.000
1727710807.958,-26.367,-53.711,-20.020,-37.109,0.000
1727710807.962,-33.203,-50.781,-23.926,-42.969,0.000
1727710807.966,-22.949,-51.758,-24.902,-23.926,0.000
1727710807.970,4.395,-45.898,-26.855,-12.207,0.000
1727710807.974,15.137,-37.598,-29.297,-14.648,0.000
1727710807.977,2.930,-41.504,-28.320,-18.555,0.000
1727710807.981,-23.926,-53.223,-30.273,-26.367,0.000
1727710807.985,-37.598,-52.734,-32.227,-21.973,0.000
1727710807.989,-14.160,-39.062,-20.508,-7.324,0.000
1727710807.993,0.488,-36.133,-21.484,-7.812,0.000
1727710807.997,-6.836,-41.504,-31.250,-20.996,0.000
1727710808.001,-21.973,-46.875,-19.531,-19.043,0.000
1727710808.005,-34.180,-42.480,-11.719,-20.996,0.000
1727710808.009,-14.160,-35.156,-14.648,-17.578,0.000
1727710808.013,13.184,-33.691,-21.973,-11.719,0.000
1727710808.017,25.879,-40.039,-23.438,-6.348,0.000
1727710808.020,9.766,-37.598,-23.438,-9.277,0.000
1727710808.024,-20.508,-30.762,-26.855,-22.461,0.000
1727710808.028,-21.973,-37.598,-22.461,-20.508,0.000
1727710808.032,-6.348,-42.969,-19.043,-14.648,0.000
1727710808.036,-1.953,-36.621,-26.367,-18.555,0.000
1727710808.040,-4.395,-33.203,-27.344,-23.926,0.000
1727710808.044,-16.113,-39.062,-21.973,-27.344,0.000
1727710808.048,-25.879,-41.504,-20.508,-23.438,0.000
1727710808.052,-3.906,-33.691,-11.719,-15.137,0.000
1727710808.056,4.395,-35.645,-9.766,-14.160,0.000
1727710808.059,-18.555,-44.434,-17.578,-9.766,0.000
1727710808.063,-33.203,-47.363,-10.254,-15.137,0.000
1727710808.067,-16.602,-41.992,-9.277,-13.184,0.000
1727710808.071,18.555,-34.668,-19.043,5.371,0.000
1727710808.075,24.902,-26.855,-19.531,0.000,0.000
1727710808.079,8.301,-31.250,-15.137,-7.812,0.000
1727710808.083,-16.602,-39.062,-27.832,-13.672,0.000
1727710808.087,-15.625,-42.969,-33.203,-15.137,0.000
1727710808.091,5.859,-51.758,-15.625,-3.906,0.000
1727710808.095,13.672,-43.457,-4.883,4.883,0.000
1727710808.099,-1.953,-43.457,-16.602,-5.859,0.000
1727710808.102,-33.691,-42.969,-24.902,-26.855,0.000
1727710808.106,-43.457,-35.156,-17.090,-27.832,0.000
1727710808.110,-12.207,-31.250,-22.461,-20.996,0.000
1727710808.114,17.090,-30.273,-28.320,-7.812,0.000
1727710808.118,4.883,-38.574,-18.555,-5.859,0.000
1727710808.122,-24.902,-41.504,-10.742,-15.625,0.000
1727710808.126,-43.945,-43.457,-11.719,-22.949,0.000
1727710808.130,-25.879,-47.363,-15.625,-23.438,0.000
1727710808.134,-16.113,-53.711,-13.184,-18.555,0.000
1727710808.138,-26.855,-54.199,-7.812,-10.254,0.000
1727710808.142,-17.090,-45.410,1.953,1.465,0.000
1727710808.145,-18.555,-51.270,-0.488,-9.766,0.000
1727710808.149,-11.230,-51.270,-6.348,-17.090,0.000
1727710808.153,-4.395,-46.387,-5.371,-8.789,0.000
1727710808.157,-17.578,-54.199,-4.395,-10.742,0.000
1727710808.161,-38.086,-56.641,-7.324,-11.719,0.000
1727710808.165,-35.645,-58.594,-18.555,-15.625,0.000
1727710808.169,-18.066,-58.105,-8.789,-14.648,0.000
1727710808.173,2.930,-54.199,-4.395,4.395,0.000
1727710808.177,12.207,-51.270,-18.555,5.371,0.000
1727710808.181,-4.883,-36.621,-4.395,0.488,0.000
1727710808.184,-24.414,-30.762,8.789,-8.789,0.000
1727710808.188,-21.484,-35.156,-1.465,-20.020,0.000
1727710808.192,2.930,-40.527,-9.277,-18.066,0.000
1727710808.196,16.113,-41.992,-3.906,-13.184,0.000
1727710808.200,4.395,-43.945,2.930,-12.207,0.000
1727710808.204,-11.719,-48.828,7.324,-7.812,0.000
1727710808.208,-10.254,-46.875,3.906,-1.465,0.000
1727710808.212,3.418,-41.992,-8.789,2.930,0.000
1727710808.216,11.719,-38.574,-18.555,1.465,0.000
1727710808.220,-0.977,-39.551,-16.113,-13.184,0.000
1727710808.223,-19.531,-38.574,-11.230,-26.367,0.000
1727710808.227,-0.977,-35.645,-17.578,-18.555,0.000
1727710808.231,21.484,-33.691,-15.625,-7.324,0.000
1727710808.235,20.996,-29.785,-1.465,4.395,0.000
1727710808.239,7.324,-32.715,0.000,8.301,0.000
1727710808.243,-9.277,-34.668,-10.742,-4.395,0.000
1727710808.247,-11.230,-36.133,-19.043,-11.230,0.000
1727710808.251,0.977,-35.156,-16.113,-5.859,0.000
1727710808.255,12.695,-38.086,-14.160,-4.883,0.000
1727710808.259,0.977,-42.969,-21.973,-15.137,0.000
1727710808.262,-21.973,-44.922,-28.809,-19.531,0.000
1727710808.266,-22.949,-48.340,-27.832,-25.879,0.000
1727710808.270,-2.930,-45.410,-21.484,-18.066,0.000
1727710808.274,5.371,-42.969,-18.066,-4.395,0.000
1727710808.278,-4.395,-45.898,-20.020,-9.766,0.000
1727710808.282,-13.184,-40.039,-19.531,-10.742,0.000
1727710808.286,-12.207,-39.062,-21.973,-5.371,0.000
1727710808.290,-3.418,-47.363,-23.926,-1.465,0.000
1727710808.294,-1.953,-48.340,-21.973,-8.301,0.000
1727710808.298,-9.277,-51.270,-24.414,-18.555,0.000
1727710808.302,-23.926,-50.781,-20.020,-14.648,0.000
1727710808.305,-20.996,-46.387,-17.578,-3.418,0.000
1727710808.309,0.488,-54.688,-22.461,-0.977,0.000
1727710808.313,5.371,-57.129,-28.809,0.000,0.000
1727710808.317,-2.441,-49.805,-28.320,2.441,0.000
1727710808.321,-4.883,-45.898,-24.414,5.859,0.000
1727710808.325,-16.602,-47.363,-24.414,-4.883,0.000
1727710808.329,-16.113,-39.551,-21.484,-18.066,0.000
1727710808.333,-3.418,-36.621,-21.973,-12.207,0.000
1727710808.337,-8.789,-45.410,-22.461,-9.277,0.000
1727710808.341,-20.020,-46.387,-21.973,-17.090,0.000
1727710808.345,-34.668,-42.969,-29.785,-27.344,0.000
1727710808.348,-25.391,-37.598,-31.250,-24.902,0.000
1727710808.352,-5.371,-27.344,-23.438,-19.043,0.000
1727710808.356,-8.301,-36.133,-21.484,-15.137,0.000
1727710808.360,-25.879,-41.992,-21.973,-27.344,0.000
1727710808.364,-38.574,-42.480,-19.043,-28.809,0.000
1727710808.368,-19.531,-45.898,-15.137,-20.508,0.000
1727710808.372,-5.371,-37.598,-16.113,-23.926,0.000
1727710808.376,-12.207,-31.738,-17.578,-17.578,0.000
1727710808.380,-23.438,-35.645,-17.090,-19.043,0.000
1727710808.384,-16.113,-31.250,-14.648,-6.348,0.000
1727710808.388,-6.836,-31.738,-20.020,-3.418,0.000
1727710808.391,-3.906,-31.250,-29.785,-20.508,0.000
1727710808.395,9.277,-25.391,-22.949,-15.625,0.000
1727710808.399,0.977,-43.945,-13.184,-6.348,0.000
1727710808.403,-26.367,-43.945,-23.438,-18.555,0.000
1727710808.407,-13.672,-20.508,-29.297,-20.996,0.000
1727710808.411,11.719,-15.137,-23.926,-7.812,0.000
1727710808.415,2.930,-23.438,-19.043,-6.348,0.000
1727710808.419,-13.184,-30.273,-19.531,-5.371,0.000
1727710808.423,-16.602,-23.438,-13.184,-2.930,0.000
1727710808.427,-15.137,-4.395,-10.254,-5.859,0.000
1727710808.431,-7.812,-24.902,-29.297,-19.531,0.000
1727710808.434,-20.020,-44.434,-34.180,-41.016,0.000
1727710808.438,-30.273,-19.043,-25.391,-42.480,0.000
1727710808.442,-31.738,-13.672,-17.090,-29.785,0.000
1727710808.446,-31.738,-6.836,-9.766,-19.531,0.000
1727710808.450,20.020,4.883,2.441,16.602,0.000
1727710808.454,58.594,-27.832,12.207,40.039,0.000
1727710808.458,-5.371,-51.270,-16.602,-5.859,0.000
1727710808.462,-68.359,-19.531,-29.297,-46.875,0.000
1727710808.466,-67.383,-4.883,-31.738,-48.340,0.000
1727710808.470,-54.688,-19.043,-57.617,-58.594,0.000
1727710808.473,-36.133,-15.137,-53.711,-58.105,0.000
1727710808.477,-23.438,-4.395,-42.969,-42.480,0.000
1727710808.481,-24.902,1.465,-37.109,-39.062,0.000
1727710808.485,-25.879,-6.836,-29.297,-33.203,0.000
1727710808.489,-21.973,-16.602,-32.715,-27.344,0.000
1727710808.493,-38.086,-13.184,-38.574,-38.086,0.000
1727710808.497,-27.832,-6.348,-29.785,-41.992,0.000
1727710808.501,-21.484,-10.254,-27.344,-27.344,0.000
1727710808.505,-36.621,-13.184,-35.156,-47.363,0.000
1727710808.509,-25.879,0.488,-33.203,-56.641,0.000
1727710808.513,-23.926,4.395,-36.621,-30.273,0.000
1727710808.516,-37.598,-0.488,-36.133,-43.945,0.000
1727710808.520,-41.504,-2.930,-27.344,-46.875,0.000
1727710808.524,-35.645,2.930,-27.832,-23.438,0.000
1727710808.528,-16.602,8.789,-39.062,-10.742,0.000
1727710808.532,-11.230,0.488,-37.598,-15.625,0.000
1727710808.536,-22.949,-11.719,-26.855,-23.438,0.000
1727710808.540,-32.227,-4.883,-32.227,-30.762,0.000
1727710808.544,-56.641,-3.906,-33.203,-27.344,0.000
1727710808.548,-42.480,-3.906,-26.367,-9.766,0.000
1727710808.552,-17.578,3.418,-23.438,-24.902,0.000
1727710808.555,-20.508,-1.953,-24.414,-38.574,0.000
1727710808.559,-23.926,-8.789,-33.691,-21.973,0.000
1727710808.563,-29.785,-6.348,-34.180,-20.020,0.000
1727710808.567,-28.320,-5.371,-25.391,-28.320,0.000
1727710808.571,-30.762,-18.555,-21.484,-41.992,0.000
1727710808.575,-28.809,-21.973,-17.090,-44.922,0.000
1727710808.579,-44.922,-27.832,-24.902,-49.805,0.000
1727710808.583,-67.871,-34.668,-18.555,-53.223,0.000
1727710808.587,-45.898,-25.879,-17.578,-42.480,0.000
1727710808.591,-37.598,-27.832,-26.367,-46.387,0.000
1727710808.594,-45.410,-29.297,-10.742,-44.922,0.000
1727710808.598,-41.016,-23.438,-2.441,-33.691,0.000
1727710808.602,-60.547,-32.715,-3.906,-51.758,0.000
1727710808.606,-58.594,-40.039,-3.418,-70.312,0.000
1727710808.610,-35.156,-36.133,-4.395,-63.477,0.000
1727710808.614,-62.500,-55.176,-1.465,-99.121,0.000
1727710808.618,-65.430,-52.246,17.090,-87.402,0.000
1727710808.622,-75.195,-52.246,28.320,-83.496,0.000
1727710808.626,-127.930,-78.613,29.297,-116.699,0.000
1727710808.630,-83.984,-56.152,4.395,-75.684,0.000
1727710808.634,-34.668,-34.668,-20.996,-56.152,0.000
1727710808.637,-71.289,-58.594,-11.230,-103.027,0.000
1727710808.641,-125.977,-90.332,17.090,-142.578,0.000
1727710808.645,-114.258,-91.309,8.789,-118.164,0.000
1727710808.649,-81.543,-85.449,-55.176,-87.402,0.000
1727710808.653,-106.445,-97.168,-79.102,-111.328,0.000
1727710808.657,-111.816,-86.914,-73.242,-108.398,0.000
1727710808.661,-98.633,-62.988,-199.707,-98.145,0.000
1727710808.665,-98.145,-52.246,-437.988,-99.609,0.000
1727710808.669,-112.793,-74.707,-603.516,-111.816,0.000
1727710808.673,-126.953,-100.098,-700.195,-146.484,0.000
1727710808.677,-113.281,-126.953,-845.215,-144.531,0.000
1727710808.680,-72.266,-102.539,-992.676,-76.660,0.000
1727710808.684,-67.871,-59.570,-1000.000,-53.223,0.000
1727710808.688,-114.746,-68.359,-996.582,-109.863,0.000
1727710808.692,-145.996,-74.707,-1000.000,-136.719,0.000
1727710808.696,-144.531,-81.055,-1000.000,-112.305,0.000
1727710808.700,-150.879,-83.984,-1000.000,-142.090,0.000
1727710808.704,-109.375,-61.035,-1000.000,-120.117,0.000
1727710808.708,-36.621,-46.387,-1000.000,-45.410,0.000
1727710808.712,-66.406,-74.219,-1000.000,-105.957,0.000
1727710808.716,-78.613,-74.707,-1000.000,-124.512,0.000
1727710808.720,-78.125,-67.383,-1000.000,-69.824,0.000
1727710808.723,-105.469,-111.816,-1000.000,-98.145,0.000
1727710808.727,-66.895,-104.980,-1000.000,-94.727,0.000
1727710808.731,-67.871,-67.383,-1000.000,-72.754,0.000
1727710808.735,-108.398,-73.730,-1000.000,-105.469,0.000
1727710808.739,-84.961,-48.828,-1000.000,-95.703,0.000
1727710808.743,-133.301,-56.641,-1000.000,-127.441,0.000
1727710808.747,-144.531,-72.266,-1000.000,-139.160,0.000
1727710808.751,-48.828,-49.316,-1000.000,-79.590,0.000
1727710808.755,-33.691,-55.176,-1000.000,-84.961,0.000
1727710808.759,-69.824,-62.012,-1000.000,-77.148,0.000
1727710808.762,-85.938,-55.176,-1000.000,-71.777,0.000
1727710808.766,-87.891,-59.570,-1000.000,-99.121,0.000
1727710808.770,-117.188,-56.152,-1000.000,-121.582,0.000
1727710808.774,-93.750,-54.199,-1000.000,-93.262,0.000
1727710808.778,-24.902,-45.410,-1000.000,-41.016,0.000
1727710808.782,-71.289,-40.527,-980.957,-80.566,0.000
1727710808.786,-118.164,-46.875,-977.539,-105.957,0.000
1727710808.790,-68.359,-27.832,-994.629,-85.449,0.000
1727710808.794,-60.059,-27.832,-944.824,-94.727,0.000
1727710808.798,-98.145,-46.875,-873.047,-86.914,0.000
1727710808.802,-135.254,-57.129,-801.270,-89.355,0.000
1727710808.805,-100.098,-36.133,-787.598,-74.707,0.000
1727710808.809,-35.645,-29.297,-813.477,-42.480,0.000
1727710808.813,-55.176,-46.387,-785.156,-69.336,0.000
1727710808.817,-79.590,-48.340,-775.391,-89.844,0.000
1727710808.821,-80.078,-29.785,-778.809,-98.145,0.000
1727710808.825,-72.754,-34.668,-786.133,-91.309,0.000
1727710808.829,-43.457,-56.641,-795.410,-42.480,0.000
1727710808.833,-42.480,-58.594,-789.551,-29.297,0.000
1727710808.837,-63.477,-41.504,-794.434,-28.809,0.000
1727710808.841,-69.336,-22.461,-764.160,-47.363,0.000
1727710808.845,-73.730,-13.672,-726.562,-78.125,0.000
1727710808.848,-67.871,-19.531,-686.035,-70.312,0.000
1727710808.852,-64.941,-27.832,-615.723,-65.430,0.000
1727710808.856,-54.199,-22.949,-548.340,-41.992,0.000
1727710808.860,-60.059,-25.879,-459.473,-41.504,0.000
1727710808.864,-66.406,-34.668,-377.930,-65.430,0.000
1727710808.868,-67.871,-41.504,-281.250,-82.031,0.000
1727710808.872,-43.945,-26.855,-228.516,-36.133,0.000
1727710808.876,-33.691,-38.574,-163.086,-39.062,0.000
1727710808.880,-32.715,-33.691,-131.836,-65.918,0.000
1727710808.884,-49.316,-16.113,-76.660,-19.531,0.000
1727710808.887,-24.414,-25.391,16.113,10.254,0.000
1727710808.891,-20.996,-40.039,61.523,-45.410,0.000
1727710808.895,-50.293,-43.457,93.750,-73.730,0.000
1727710808.899,-33.203,-20.996,106.934,-33.691,0.000
1727710808.903,-49.316,-23.926,172.363,-47.363,0.000
1727710808.907,-69.824,-38.086,236.816,-48.828,0.000
1727710808.911,-49.805,-35.156,243.652,-55.664,0.000
1727710808.915,-3.906,-19.043,242.188,-48.828,0.000
1727710808.919,-47.852,-39.062,295.410,-35.645,0.000
1727710808.923,-80.078,-48.828,321.777,-63.477,0.000
1727710808.926,-35.645,-32.715,306.152,-71.289,0.000
1727710808.930,-12.207,-31.250,308.594,-19.531,0.000
1727710808.934,-21.484,-40.527,353.516,-20.996,0.000
1727710808.938,-48.828,-44.434,365.723,-54.688,0.000
1727710808.942,-70.801,-35.156,378.906,-33.691,0.000
1727710808.946,-44.922,-30.273,392.578,-7.324,0.000
1727710808.950,-19.043,-36.133,415.527,-15.137,0.000
1727710808.954,-42.480,-50.293,445.312,-30.762,0.000
1727710808.958,-33.203,-43.457,411.133,-7.812,0.000
1727710808.962,-34.668,-39.551,408.691,-1.465,0.000
1727710808.966,-30.762,-43.945,430.664,-15.137,0.000
1727710808.969,-36.133,-53.223,447.754,-54.688,0.000
1727710808.973,-28.320,-45.898,429.688,-55.176,0.000
1727710808.977,-26.367,-39.551,420.898,-37.109,0.000
1727710808.981,-47.852,-39.062,432.129,-27.344,0.000
1727710808.985,-38.574,-44.434,434.570,-8.301,0.000
1727710808.989,-24.414,-55.176,441.895,-11.719,0.000
1727710808.993,-17.578,-52.734,427.734,-16.602,0.000
1727710808.997,-23.438,-47.852,410.156,-17.578,0.000
1727710809.001,-39.551,-45.410,403.809,-16.602,0.000
1727710809.005,-47.363,-47.852,422.852,-33.203,0.000
1727710809.008,-19.531,-44.922,415.527,-20.020,0.000
1727710809.012,1.953,-37.109,390.137,6.836,0.000
1727710809.016,-4.883,-45.898,411.621,-4.395,0.000
1727710809.020,-11.230,-47.363,431.641,1.465,0.000
1727710809.024,-18.066,-42.480,501.465,2.441,0.000
1727710809.028,-13.672,-48.828,587.891,-14.160,0.000
1727710809.032,0.488,-47.852,624.512,-18.066,0.000
1727710809.036,-1.465,-38.574,655.762,-10.254,0.000
1727710809.040,-13.672,-34.668,665.527,-9.766,0.000
1727710809.044,-9.277,-34.180,677.246,-4.883,0.000
1727710809.048,3.418,-33.203,716.309,2.441,0.000
1727710809.051,9.277,-29.785,724.609,-0.488,0.000
1727710809.055,11.719,-34.180,776.855,-5.371,0.000
1727710809.059,-1.953,-38.086,839.355,-7.324,0.000
1727710809.063,-19.043,-28.320,806.641,-4.395,0.000
1727710809.067,8.301,-17.578,737.793,3.906,0.000
1727710809.071,32.715,-14.160,804.199,11.230,0.000
1727710809.075,19.043,-20.508,903.809,11.230,0.000
1727710809.079,-3.906,-25.391,863.281,-2.930,0.000
1727710809.083,-2.441,-19.043,829.590,-2.441,0.000
1727710809.087,7.324,-13.184,846.191,1.953,0.000
1727710809.091,16.113,-9.277,835.938,10.254,0.000
1727710809.094,10.254,-9.277,828.613,14.160,0.000
1727710809.098,-4.395,-14.648,860.840,2.930,0.000
1727710809.102,-8.789,-16.113,860.840,-4.395,0.000
1727710809.106,3.418,-12.207,808.105,2.930,0.000
1727710809.110,13.184,-11.719,682.617,11.230,0.000
1727710809.114,18.066,-9.277,567.383,22.949,0.000
1727710809.118,12.695,-2.930,551.758,14.648,0.000
1727710809.122,-6.836,-8.789,543.457,-11.230,0.000
1727710809.126,-0.488,-16.113,519.043,-2.441,0.000
1727710809.130,21.484,-13.672,501.465,2.441,0.000
1727710809.134,13.184,-9.766,491.211,7.324,0.000
1727710809.137,-1.953,-7.812,478.516,2.441,0.000
1727710809.141,-11.719,-10.254,421.387,-6.836,0.000
1727710809.145,-4.883,-12.695,339.844,-5.859,0.000
1727710809.149,13.672,-8.301,266.602,-0.977,0.000
1727710809.153,17.090,2.441,192.871,5.371,0.000
1727710809.157,3.418,3.418,145.508,6.836,0.000
1727710809.161,-2.930,1.953,94.238,15.625,0.000
1727710809.165,20.508,3.906,47.852,21.484,0.000
1727710809.169,36.133,2.441,40.039,23.926,0.000
1727710809.173,35.645,5.371,28.320,20.508,0.000
1727710809.176,30.273,4.395,10.254,16.113,0.000
1727710809.180,21.484,5.371,-2.441,13.184,0.000
1727710809.184,18.555,15.625,-6.836,6.348,0.000
1727710809.188,12.695,8.301,19.531,8.301,0.000
1727710809.192,2.930,-4.395,25.879,13.184,0.000
1727710809.196,5.371,4.395,10.742,12.695,0.000
1727710809.200,-3.906,9.766,-7.324,5.371,0.000
1727710809.204,-4.395,4.883,-14.160,10.742,0.000
1727710809.208,19.043,9.766,-11.230,20.508,0.000
1727710809.212,28.320,9.277,-13.184,9.766,0.000
1727710809.216,22.461,3.906,-17.578,0.000,0.000
1727710809.219,3.418,7.812,-22.949,1.465,0.000
1727710809.223,-5.859,9.766,-25.391,-3.906,0.000
1727710809.227,9.766,9.277,-35.645,-10.254,0.000
1727710809.231,13.672,13.184,-25.391,-6.836,0.000
1727710809.235,7.324,15.137,-10.254,-16.602,0.000
1727710809.239,1.465,7.812,-8.301,-17.578,0.000
1727710809.243,-4.883,1.465,2.441,-21.973,0.000
1727710809.247,4.395,-1.465,12.695,-21.973,0.000
1727710809.251,10.742,0.977,9.766,-7.324,0.000
1727710809.255,0.977,0.977,8.789,-9.766,0.000
1727710809.258,-20.508,1.465,16.602,-20.508,0.000
1727710809.262,-40.039,2.930,19.043,-20.508,0.000
1727710809.266,-20.508,0.488,13.672,-17.090,0.000
1727710809.270,0.977,3.906,10.742,-14.648,0.000
1727710809.274,-3.906,-0.488,16.113,-22.461,0.000
1727710809.278,-21.484,-8.301,20.508,-26.855,0.000
1727710809.282,-33.203,-6.836,20.996,-25.879,0.000
1727710809.286,-30.762,-7.812,15.625,-23.438,0.000
1727710809.290,-22.949,-10.742,13.672,-18.555,0.000
1727710809.294,-20.996,-5.859,15.625,-16.602,0.000
1727710809.298,-24.414,0.488,16.602,-10.742,0.000
1727710809.301,-32.227,1.465,12.695,-15.625,0.000
1727710809.305,-25.391,-1.953,3.418,-26.367,0.000
1727710809.309,-14.648,-7.812,11.719,-24.902,0.000
1727710809.313,-11.719,-14.648,23.926,-27.832,0.000
1727710809.317,-20.996,-14.160,26.855,-33.691,0.000
1727710809.321,-42.480,-19.043,26.855,-28.320,0.000
1727710809.325,-34.668,-21.484,24.414,-27.832,0.000
1727710809.329,-23.926,-14.160,23.438,-24.902,0.000
1727710809.333,-24.902,-14.648,22.949,-23.926,0.000
1727710809.337,-24.414,-18.066,15.137,-34.180,0.000
1727710809.340,-37.598,-13.184,1.465,-29.785,0.000
1727710809.344,-33.203,-9.766,0.488,-25.391,0.000
1727710809.348,-23.438,-12.695,14.648,-35.156,0.000
1727710809.352,-25.391,-16.113,32.715,-30.762,0.000
1727710809.356,-24.414,-14.648,40.039,-25.391,0.000
1727710809.360,-38.574,-12.207,35.645,-36.621,0.000
1727710809.364,-38.086,-13.672,30.273,-33.203,0.000
1727710809.368,-22.949,-18.555,24.902,-26.367,0.000
1727710809.372,-19.531,-20.996,16.602,-35.645,0.000
1727710809.376,-27.344,-17.578,0.488,-39.062,0.000
1727710809.379,-47.363,-5.371,-12.207,-36.621,0.000
1727710809.383,-37.598,0.977,0.000,-22.949,0.000
1727710809.387,-25.391,-4.883,19.043,-20.508,0.000
1727710809.391,-33.691,-11.719,22.949,-41.016,0.000
1727710809.395,-27.344,-8.301,17.090,-40.039,0.000
1727710809.399,-28.809,-1.953,11.719,-32.715,0.000
1727710809.403,-27.344,-0.488,-7.812,-36.621,0.000
1727710809.407,-0.488,2.930,-19.531,-14.648,0.000
1727710809.411,8.301,2.441,-3.906,-2.441,0.000
1727710809.415,-18.555,-9.766,1.953,-30.273,0.000
1727710809.419,-42.969,-14.160,12.207,-41.016,0.000
1727710809.422,-41.504,-15.137,27.832,-34.180,0.000
1727710809.426,-25.391,-17.578,24.414,-31.250,0.000
1727710809.430,-10.254,-16.113,15.137,-18.555,0.000
1727710809.434,-14.160,-17.578,12.207,-14.160,0.000
1727710809.438,-33.203,-16.113,4.395,-28.809,0.000
1727710809.442,-38.574,-17.090,-28.809,-26.367,0.000
1727710809.446,-30.273,-22.949,-45.410,-21.484,0.000
1727710809.450,-26.855,-28.320,-18.555,-26.367,0.000
1727710809.454,-33.691,-27.832,-11.719,-27.832,0.000
1727710809.458,-52.734,-21.484,-10.254,-32.227,0.000
1727710809.462,-51.270,-14.648,9.277,-28.320,0.000
1727710809.465,-25.391,-13.672,8.789,-26.367,0.000
1727710809.469,-20.996,-17.090,-0.977,-30.273,0.000
1727710809.473,-24.902,-14.648,-20.020,-21.973,0.000
1727710809.477,-38.086,-14.160,-40.039,-22.949,0.000
1727710809.481,-48.340,-16.113,-33.203,-24.902,0.000
1727710809.485,-33.691,-13.672,-10.254,-18.555,0.000
1727710809.489,-19.043,-15.625,-4.883,-12.207,0.000
1727710809.493,-21.484,-19.043,-20.020,-16.113,0.000
1727710809.497,-36.621,-18.555,-17.090,-19.531,0.000
1727710809.501,-61.035,-20.996,-5.371,-29.297,0.000
1727710809.505,-58.594,-21.484,-9.766,-32.227,0.000
1727710809.508,-35.645,-17.578,-30.273,-24.414,0.000
1727710809.512,-28.809,-16.113,-33.691,-25.391,0.000
1727710809.516,-43.945,-19.043,-27.344,-27.832,0.000
1727710809.520,-54.199,-17.578,-33.691,-34.180,0.000
1727710809.524,-39.062,-13.184,-28.809,-40.039,0.000
1727710809.528,-23.438,-11.719,-20.996,-39.062,0.000
1727710809.532,-20.996,-16.113,-17.578,-40.527,0.000
1727710809.536,-29.785,-14.648,-15.625,-37.109,0.000
1727710809.540,-51.270,-10.742,-25.879,-40.527,0.000
1727710809.544,-56.152,-16.602,-32.715,-50.293,0.000
1727710809.548,-30.762,-17.090,-33.203,-45.898,0.000
1727710809.551,-21.973,-7.812,-21.973,-37.598,0.000
1727710809.555,-29.297,-9.277,-10.254,-38.086,0.000
1727710809.559,-42.969,-15.137,-8.789,-39.062,0.000
1727710809.563,-37.109,-16.602,-14.160,-24.414,0.000
1727710809.567,-21.484,-20.996,-24.902,-23.926,0.000
1727710809.571,-24.902,-18.555,-32.227,-32.715,0.000
1727710809.575,-39.062,-15.137,-35.156,-39.062,0.000
1727710809.579,-53.711,-16.113,-29.297,-46.875,0.000
1727710809.583,-57.617,-21.484,-13.184,-48.828,0.000
1727710809.587,-42.969,-24.414,-16.602,-51.270,0.000
1727710809.590,-35.645,-23.438,-30.273,-59.570,0.000
1727710809.594,-46.875,-23.926,-33.691,-61.523,0.000
1727710809.598,-54.688,-24.902,-43.945,-51.758,0.000
1727710809.602,-55.176,-19.531,-59.570,-48.828,0.000
1727710809.606,-45.410,-16.113,-48.340,-45.898,0.000
1727710809.610,-33.203,-21.973,-34.180,-42.480,0.000
1727710809.614,-37.109,-25.879,-32.227,-45.410,0.000
1727710809.618,-44.922,-24.902,-28.320,-60.059,0.000
1727710809.622,-53.223,-19.531,-32.227,-62.988,0.000
1727710809.626,-46.387,-20.508,-32.715,-39.062,0.000
1727710809.630,-31.250,-23.926,-43.945,-37.598,0.000
1727710809.633,-21.973,-17.578,-44.922,-41.504,0.000
1727710809.637,-26.855,-20.508,-29.785,-32.715,0.000
1727710809.641,-45.898,-27.832,-21.973,-40.039,0.000
1727710809.645,-42.480,-29.785,-12.207,-36.621,0.000
1727710809.649,-29.297,-29.785,-4.883,-35.156,0.000
1727710809.653,-31.250,-26.367,-13.184,-37.109,0.000
1727710809.657,-35.645,-23.438,-25.879,-38.086,0.000
1727710809.661,-41.992,-22.461,-34.180,-37.598,0.000
1727710809.665,-34.180,-20.996,-26.367,-24.902,0.000
1727710809.669,-19.043,-19.043,-15.137,-21.973,0.000
1727710809.672,-24.414,-22.949,-16.602,-29.785,0.000
1727710809.676,-36.621,-24.414,-23.926,-37.598,0.000
1727710809.680,-41.016,-19.043,-27.832,-41.016,0.000
1727710809.684,-27.344,-15.625,-13.672,-30.273,0.000
1727710809.688,-20.996,-14.648,-14.648,-18.555,0.000
1727710809.692,-18.555,-12.695,-21.484,-17.578,0.000
1727710809.696,-19.531,-15.137,-20.020,-26.367,0.000
1727710809.700,-32.227,-13.672,-24.414,-34.668,0.000
1727710809.704,-21.973,-7.812,-11.230,-32.715,0.000
1727710809.708,-4.883,-9.766,0.000,-32.715,0.000
1727710809.711,-9.766,-13.184,-9.766,-38.574,0.000
1727710809.715,-21.973,-15.137,-16.113,-28.809,0.000
1727710809.719,-38.086,-20.020,-10.254,-28.809,0.000
1727710809.723,-31.738,-20.020,-19.043,-36.133,0.000
1727710809.727,-8.789,-14.648,-31.250,-27.832,0.000
1727710809.731,-11.230,-13.672,-32.715,-28.320,0.000
1727710809.735,-21.973,-17.578,-24.902,-30.762,0.000
1727710809.739,-33.203,-17.578,-21.973,-31.250,0.000
1727710809.743,-33.203,-13.672,-27.832,-35.645,0.000
1727710809.747,-27.344,-16.113,-23.438,-36.133,0.000
1727710809.750,-28.320,-17.090,-18.066,-35.156,0.000
1727710809.754,-29.297,-20.508,-15.137,-38.574,0.000
1727710809.758,-42.969,-28.320,-12.207,-33.691,0.000
1727710809.762,-48.340,-30.273,-23.438,-35.156,0.000
1727710809.766,-33.203,-26.367,-27.344,-37.598,0.000
1727710809.770,-27.832,-22.461,-22.461,-31.738,0.000
1727710809.774,-32.715,-24.414,-27.344,-37.109,0.000
1727710809.778,-53.711,-27.344,-31.250,-46.875,0.000
1727710809.782,-65.918,-27.344,-32.227,-45.410,0.000
1727710809.786,-48.828,-24.902,-32.715,-37.598,0.000
1727710809.790,-38.086,-26.367,-30.273,-38.574,0.000
1727710809.794,-38.086,-25.391,-28.320,-48.340,0.000
1727710809.797,-50.293,-26.367,-29.785,-53.711,0.000
1727710809.801,-59.082,-34.668,-30.273,-48.828,0.000
1727710809.805,-44.434,-31.250,-19.043,-38.574,0.000
1727710809.809,-40.039,-23.438,-13.672,-35.156,0.000
1727710809.813,-39.551,-22.949,-17.090,-39.062,0.000
1727710809.817,-46.875,-20.996,-26.855,-44.922,0.000
1727710809.821,-61.035,-20.996,-38.574,-44.434,0.000
1727710809.825,-40.039,-21.484,-30.762,-35.645,0.000
1727710809.829,-19.531,-20.508,-17.578,-28.320,0.000
1727710809.833,-23.438,-27.344,-19.043,-30.273,0.000
1727710809.836,-49.805,-32.227,-16.602,-35.645,0.000
1727710809.840,-62.988,-27.344,-2.930,-36.133,0.000
1727710809.844,-41.504,-27.344,3.906,-42.480,0.000
1727710809.848,-20.508,-35.156,-11.230,-29.785,0.000
1727710809.852,-13.672,-36.621,-11.719,-5.371,0.000
1727710809.856,-22.461,-31.738,5.371,-16.602,0.000
1727710809.860,-42.969,-26.855,-3.418,-39.062,0.000
1727710809.864,-41.504,-22.949,-17.578,-32.227,0.000
1727710809.868,-23.438,-17.578,-23.926,-20.508,0.000
1727710809.872,-25.879,-21.484,-26.367,-32.227,0.000
1727710809.876,-42.969,-22.949,-28.320,-40.039,0.000
1727710809.879,-49.316,-22.461,-30.273,-34.668,0.000
1727710809.883,-42.480,-25.879,-24.902,-27.832,0.000
1727710809.887,-26.367,-26.855,-28.809,-23.926,0.000
1727710809.891,-19.531,-29.297,-31.738,-26.855,0.000
1727710809.895,-23.438,-30.762,-36.133,-30.762,0.000
1727710809.899,-41.992,-31.250,-76.660,-32.227,0.000
1727710809.903,-44.434,-30.762,-64.941,-34.668,0.000
1727710809.907,-19.043,-29.785,-0.977,-37.109,0.000
1727710809.911,-21.973,-31.250,15.625,-29.297,0.000
1727710809.915,-31.738,-37.598,8.301,-30.762,0.000
1727710809.919,-41.504,-44.434,2.930,-41.016,0.000
1727710809.922,-37.598,-38.574,-3.418,-44.434,0.000
1727710809.926,-17.578,-31.250,-12.207,-34.668,0.000
1727710809.930,-15.625,-29.785,-23.926,-28.809,0.000
1727710809.934,-32.715,-30.762,-27.344,-28.809,0.000
1727710809.938,-53.711,-36.133,-13.672,-27.832,0.000
1727710809.942,-44.922,-38.574,-12.207,-28.320,0.000
1727710809.946,-29.297,-47.363,-26.855,-28.809,0.000
1727710809.950,-20.996,-44.434,-30.762,-36.621,0.000
1727710809.954,-28.320,-37.109,-20.020,-40.039,0.000
1727710809.958,-53.223,-33.691,-12.695,-35.156,0.000
1727710809.962,-47.852,-32.715,-12.695,-36.133,0.000
1727710809.965,-28.809,-35.645,-20.508,-35.645,0.000
1727710809.969,-27.832,-37.109,-24.414,-37.598,0.000
1727710809.973,-25.391,-33.691,-32.227,-40.039,0.000
1727710809.977,-29.785,-30.273,-37.109,-33.691,0.000
1727710809.981,-38.086,-31.738,-31.250,-33.203,0.000
1727710809.985,-34.180,-32.715,-35.645,-34.180,0.000
1727710809.989,-20.996,-32.715,-41.504,-32.227,0.000
1727710809.993,-16.602,-27.344,-42.480,-36.621,0.000
1727710809.997,-29.785,-24.414,-35.156,-40.527,0.000
1727710810.001,-45.898,-26.367,-32.227,-32.227,0.000
1727710810.004,-32.715,-22.949,-38.574,-26.367,0.000
1727710810.008,-17.090,-22.461,-39.062,-20.508,0.000
1727710810.012,-21.973,-24.902,-39.062,-20.508,0.000
1727710810.016,-35.645,-24.414,-49.316,-28.320,0.000
1727710810.020,-44.434,-26.367,-54.688,-31.250,0.000
1727710810.024,-25.879,-26.855,-41.016,-27.344,0.000
1727710810.028,-13.672,-24.414,-23.926,-24.902,0.000
1727710810.032,-21.484,-26.367,-14.648,-25.879,0.000
1727710810.036,-33.691,-27.344,-24.414,-39.062,0.000
1727710810.040,-46.387,-24.902,-39.062,-43.457,0.000
1727710810.044,-32.715,-20.996,-30.273,-24.414,0.000
1727710810.047,-20.996,-17.090,-23.926,-20.996,0.000
1727710810.051,-20.020,-16.113,-34.180,-33.203,0.000
1727710810.055,-28.320,-21.484,-31.250,-26.855,0.000
1727710810.059,-45.410,-25.391,-23.438,-20.996,0.000
1727710810.063,-29.297,-20.996,-16.113,-23.926,0.000
1727710810.067,-15.625,-26.855,-25.391,-29.297,0.000
1727710810.071,-22.949,-32.227,-41.016,-30.273,0.000
1727710810.075,-33.203,-25.391,-28.320,-31.250,0.000
1727710810.079,-47.363,-19.531,-21.484,-35.645,0.000
1727710810.083,-45.410,-19.043,-34.668,-35.645,0.000
1727710810.086,-26.367,-18.066,-45.410,-38.086,0.000
1727710810.090,-24.414,-22.461,-38.574,-35.156,0.000
1727710810.094,-41.016,-29.297,-24.414,-35.645,0.000
1727710810.098,-58.105,-26.367,-22.949,-44.434,0.000
1727710810.102,-52.734,-22.949,-31.250,-41.992,0.000
1727710810.106,-34.180,-28.809,-27.832,-37.109,0.000
1727710810.110,-30.762,-34.180,-24.414,-39.062,0.000
1727710810.114,-44.922,-35.156,-29.297,-39.062,0.000
1727710810.118,-60.059,-32.227,-25.879,-29.297,0.000
1727710810.122,-58.594,-28.320,-35.156,-32.715,0.000
1727710810.125,-43.457,-27.832,-45.410,-42.480,0.000
1727710810.129,-30.762,-29.785,-46.875,-37.109,0.000
1727710810.133,-29.785,-26.855,-52.246,-22.461,0.000
1727710810.137,-44.922,-19.043,-67.871,-16.602,0.000
1727710810.141,-49.805,-15.137,-55.664,-21.973,0.000
1727710810.145,-27.344,-14.648,-29.785,-24.414,0.000
1727710810.149,-23.926,-18.555,-29.785,-26.367,0.000
1727710810.153,-29.785,-28.320,-20.020,-33.203,0.000
1727710810.157,-37.598,-24.414,-17.090,-41.992,0.000
1727710810.161,-42.480,-20.996,-24.902,-41.504,0.000
1727710810.165,-32.227,-21.973,-32.227,-32.227,0.000
1727710810.168,-22.461,-23.438,-41.016,-35.645,0.000
1727710810.172,-17.090,-19.043,-41.992,-34.668,0.000
1727710810.176,-22.949,-14.648,-40.039,-24.902,0.000
1727710810.180,-32.227,-15.137,-30.273,-28.809,0.000
1727710810.184,-21.973,-20.508,-18.555,-26.855,0.000
1727710810.188,-12.207,-23.438,-15.137,-20.508,0.000
1727710810.192,-14.160,-19.531,-22.949,-25.391,0.000
1727710810.196,-18.555,-15.137,-48.340,-13.184,0.000
1727710810.200,-34.668,-15.625,-60.547,-9.277,0.000
1727710810.204,-26.855,-18.555,-33.691,-20.996,0.000
1727710810.208,-0.977,-20.508,-11.719,-20.508,0.000
1727710810.211,-6.836,-20.996,-17.090,-21.484,0.000
1727710810.215,-33.691,-20.996,-27.832,-22.461,0.000
1727710810.219,-60.547,-22.461,-32.227,-33.691,0.000
1727710810.223,-50.293,-18.555,-40.527,-39.551,0.000
1727710810.227,-26.367,-20.020,-40.039,-29.785,0.000
1727710810.231,-27.344,-20.508,-32.715,-31.250,0.000
1727710810.235,-38.086,-21.484,-27.344,-37.109,0.000
1727710810.239,-45.898,-26.855,-29.297,-36.133,0.000
1727710810.243,-41.504,-29.785,-40.039,-23.926,0.000
1727710810.247,-30.762,-22.949,-44.434,-23.438,0.000
1727710810.251,-25.391,-16.602,-35.645,-29.297,0.000
1727710810.254,-36.133,-16.602,-29.785,-30.273,0.000
1727710810.258,-57.617,-20.996,-38.574,-34.668,0.000
1727710810.262,-52.734,-27.832,-42.969,-35.156,0.000
1727710810.266,-37.598,-24.414,-42.480,-30.762,0.000
1727710810.270,-36.621,-20.508,-43.945,-34.668,0.000
1727710810.274,-41.992,-23.438,-41.504,-35.645,0.000
1727710810.278,-52.246,-25.391,-43.457,-41.016,0.000
1727710810.282,-49.805,-23.926,-46.387,-45.898,0.000
1727710810.286,-37.109,-23.926,-52.246,-40.039,0.000
1727710810.290,-33.203,-26.855,-60.547,-48.828,0.000
1727710810.293,-34.180,-29.297,-60.547,-45.898,0.000
1727710810.297,-51.270,-26.855,-49.316,-40.527,0.000
1727710810.301,0.000,-24.902,-41.016,-36.133,0.000
1727710810.305,0.000,-19.531,-40.039,-29.297,0.000
1727710810.309,0.000,-15.137,-40.039,-29.297,0.000
1727710810.313,0.000,-23.438,-37.598,-38.086,0.000
1727710810.317,0.000,-27.344,-31.250,-47.852,0.000
1727710810.321,0.000,-24.414,-33.203,-51.270,0.000
1727710810.325,0.000,-22.461,-41.504,-52.734,0.000
1727710810.329,0.000,-22.461,-37.109,-37.109,0.000
1727710810.333,0.000,-19.043,-30.762,-27.832,0.000
1727710810.336,0.000,-16.602,-31.738,-41.016,0.000
1727710810.340,0.000,-15.625,-34.668,-45.898,0.000
1727710810.344,0.000,-13.672,-36.133,-40.527,0.000
1727710810.348,-29.785,-20.996,-38.574,-33.203,0.000
1727710810.352,-29.785,-23.926,-40.039,-23.438,0.000
1727710810.356,-48.340,-20.020,-37.109,-24.902,0.000
1727710810.360,-58.594,-19.531,-31.738,-31.738,0.000
1727710810.364,-31.250,-27.832,-37.598,-23.926,0.000
1727710810.368,-4.395,-27.832,-44.434,-19.531,0.000
1727710810.372,-10.742,-20.996,-46.875,-32.715,0.000
1727710810.376,-29.785,-17.090,-42.480,-35.645,0.000
1727710810.379,-41.992,-12.207,-39.551,-26.855,0.000
1727710810.383,-34.180,-16.113,-43.457,-25.879,0.000
1727710810.387,-11.719,-20.508,-48.828,-23.438,0.000
1727710810.391,-22.949,-25.391,-57.617,-27.832,0.000
1727710810.395,-41.992,-27.832,-48.340,-29.785,0.000
1727710810.399,-46.387,-24.414,-33.203,-33.691,0.000
1727710810.403,-41.992,-26.855,-33.203,-38.086,0.000
1727710810.407,-35.645,-31.738,-37.598,-38.574,0.000
1727710810.411,-37.598,-25.391,-41.992,-40.527,0.000
1727710810.415,-41.016,-19.043,-43.457,-44.434,0.000
1727710810.418,-48.340,-24.902,-42.480,-37.109,0.000
1727710810.422,-37.109,-21.973,-54.688,-29.785,0.000
1727710810.426,-29.785,-20.996,-61.523,-31.250,0.000
1727710810.430,-35.645,-26.855,-51.758,-41.504,0.000
1727710810.434,-40.039,-22.461,-44.922,-44.434,0.000
1727710810.438,-54.199,-25.879,-41.504,-49.316,0.000
1727710810.442,-53.711,-30.273,-45.898,-46.387,0.000
1727710810.446,-36.133,-26.855,-55.176,-31.250,0.000
1727710810.450,-33.203,-29.297,-50.293,-39.551,0.000
1727710810.454,-45.898,-29.785,-47.852,-47.852,0.000
1727710810.457,-51.758,-22.461,-54.199,-42.969,0.000
1727710810.461,-49.805,-23.926,-57.129,-41.992,0.000
1727710810.465,-41.504,-27.344,-42.480,-48.828,0.000
1727710810.469,-42.969,-27.344,-20.020,-47.852,0.000
1727710810.473,-55.176,-31.738,-8.789,-59.082,0.000
1727710810.477,-65.918,-35.156,-17.090,-59.570,0.000
1727710810.481,-61.035,-33.203,-34.668,-46.875,0.000
1727710810.485,-40.039,-23.926,-38.086,-48.828,0.000
1727710810.489,-28.320,-23.926,-33.203,-42.480,0.000
1727710810.493,-36.621,-29.297,-33.203,-38.086,0.000
1727710810.496,-47.363,-26.367,-36.621,-41.992,0.000
1727710810.500,-41.016,-24.902,-38.574,-40.527,0.000
1727710810.504,-21.484,-22.461,-35.156,-37.109,0.000
1727710810.508,-16.602,-23.438,-41.992,-30.762,0.000
1727710810.512,-21.973,-27.832,-58.105,-29.785,0.000
1727710810.516,-41.992,-25.879,-58.594,-29.785,0.000
1727710810.520,-37.598,-23.438,-43.457,-36.621,0.000
1727710810.524,-14.648,-24.414,-41.016,-39.551,0.000
1727710810.528,-16.602,-25.879,-39.551,-34.668,0.000
1727710810.532,-41.992,-24.902,-31.250,-34.180,0.000
1727710810.536,-50.781,-22.461,-30.762,-31.738,0.000
1727710810.540,-37.598,-22.949,-35.156,-34.180,0.000
1727710810.543,-33.203,-26.855,-38.574,-40.527,0.000
1727710810.547,-25.391,-24.902,-41.016,-31.250,0.000
1727710810.551,-30.762,-24.902,-46.875,-33.203,0.000
1727710810.555,-57.617,-30.273,-41.504,-47.363,0.000
1727710810.559,-59.570,-33.691,-30.762,-47.852,0.000
1727710810.563,-41.016,-34.180,-35.645,-44.434,0.000
1727710810.567,-37.109,-31.250,-44.922,-46.387,0.000
1727710810.571,-41.016,-30.762,-41.504,-44.434,0.000
1727710810.575,-51.758,-30.762,-30.273,-41.992,0.000
1727710810.579,-59.082,-29.785,-32.715,-43.457,0.000
1727710810.583,-36.621,-25.391,-46.875,-43.945,0.000
1727710810.586,-18.555,-23.926,-51.758,-45.898,0.000
1727710810.590,-29.297,-31.250,-48.828,-60.059,0.000
1727710810.594,-51.758,-30.762,-39.062,-56.152,0.000
1727710810.598,-64.941,-27.344,-26.855,-40.527,0.000
1727710810.602,-60.059,-25.391,-21.484,-48.340,0.000
1727710810.606,-45.898,-23.926,-20.020,-53.223,0.000
1727710810.610,-47.852,-27.832,-26.855,-54.688,0.000
1727710810.614,-59.570,-31.738,-28.320,-54.688,0.000
1727710810.618,-62.500,-28.809,-33.203,-43.457,0.000
1727710810.622,-46.387,-26.367,-33.691,-36.621,0.000
1727710810.625,-28.809,-26.855,-29.297,-38.086,0.000
1727710810.629,-18.555,-23.438,-26.367,-33.691,0.000
1727710810.633,-18.066,-21.973,-19.043,-28.809,0.000
1727710810.637,-40.039,-24.414,-25.391,-37.598,0.000
1727710810.641,-34.668,-25.391,-41.504,-41.992,0.000
1727710810.645,-13.672,-21.973,-48.340,-37.598,0.000
1727710810.649,-9.277,-23.438,-44.922,-38.574,0.000
1727710810.653,-25.391,-27.832,-43.945,-39.062,0.000
1727710810.657,-37.598,-25.879,-47.363,-43.457,0.000
1727710810.661,-29.297,-18.066,-58.594,-19.043,0.000
1727710810.665,-20.996,-18.555,-60.059,-6.348,0.000
1727710810.668,-20.508,-25.879,-39.062,-25.879,0.000
1727710810.672,-18.066,-24.414,-28.320,-27.832,0.000
1727710810.676,-20.020,-20.020,-35.156,-25.879,0.000
1727710810.680,-18.066,-22.949,-45.410,-14.160,0.000
1727710810.684,-11.230,-24.902,-47.852,-13.672,0.000
1727710810.688,-15.625,-25.879,-34.668,-26.367,0.000
1727710810.692,-22.949,-26.367,-31.250,-33.203,0.000
1727710810.696,-27.344,-25.879,-37.109,-38.086,0.000
1727710810.700,-32.227,-26.855,-37.109,-36.621,0.000
1727710810.704,-32.715,-26.367,-35.645,-29.297,0.000
1727710810.708,-30.762,-30.762,-32.715,-20.508,0.000
1727710810.711,-40.527,-38.086,-38.086,-39.062,0.000
1727710810.715,-49.805,-38.574,-45.898,-49.805,0.000
1727710810.719,-43.945,-39.062,-40.039,-35.156,0.000
1727710810.723,-28.320,-41.504,-32.227,-33.691,0.000
1727710810.727,-17.578,-41.504,-25.391,-32.227,0.000
1727710810.731,-29.785,-39.551,-23.926,-24.414,0.000
1727710810.735,-46.875,-44.434,-25.391,-27.832,0.000
1727710810.739,-47.852,-45.898,-40.527,-28.809,0.000
1727710810.743,-34.668,-39.062,-61.035,-28.320,0.000
1727710810.747,-24.902,-42.969,-50.293,-32.227,0.000
1727710810.751,-28.320,-46.875,-35.156,-39.551,0.000
1727710810.754,-47.363,-44.922,-30.273,-48.828,0.000
1727710810.758,-56.152,-43.457,-28.809,-38.574,0.000
1727710810.762,-38.574,-45.410,-28.320,-26.855,0.000
1727710810.766,-25.391,-47.363,-24.902,-29.785,0.000
1727710810.770,-26.367,-46.875,-23.438,-34.668,0.000
1727710810.774,-40.527,-41.504,-35.156,-41.016,0.000
1727710810.778,-53.711,-37.598,-48.340,-41.992,0.000
1727710810.782,-48.828,-40.527,-44.922,-34.668,0.000
1727710810.786,-34.180,-41.992,-31.250,-30.273,0.000
1727710810.790,-26.855,-38.574,-21.973,-36.621,0.000
1727710810.794,-44.434,-36.133,-24.414,-37.109,0.000
1727710810.797,-65.918,-35.156,-29.785,-41.016,0.000
1727710810.801,-41.016,-32.715,-35.156,-41.504,0.000
1727710810.805,-23.438,-31.250,-36.621,-31.738,0.000
1727710810.809,-33.691,-29.297,-39.551,-28.320,0.000
1727710810.813,-34.668,-26.855,-40.039,-27.344,0.000
1727710810.817,-34.668,-30.762,-38.574,-38.086,0.000
1727710810.821,-36.133,-31.250,-42.969,-44.434,0.000
1727710810.825,-22.461,-25.391,-42.969,-38.086,0.000
1727710810.829,-20.996,-20.996,-39.062,-32.715,0.000
1727710810.833,-35.156,-20.020,-39.551,-34.180,0.000
1727710810.836,-48.828,-25.879,-42.969,-33.691,0.000
1727710810.840,-44.922,-28.809,-43.945,-29.297,0.000
1727710810.844,-26.855,-21.973,-43.945,-29.785,0.000
1727710810.848,-17.090,-19.531,-49.316,-33.691,0.000
1727710810.852,-24.902,-24.902,-51.758,-33.203,0.000
1727710810.856,-38.574,-25.391,-45.898,-32.227,0.000
1727710810.860,-25.391,-22.461,-42.969,-29.785,0.000
1727710810.864,-6.348,-20.996,-45.898,-32.715,0.000
1727710810.868,-2.441,-21.484,-50.781,-33.203,0.000
1727710810.872,-19.043,-23.926,-44.922,-29.785,0.000
1727710810.875,-34.180,-26.855,-35.156,-30.762,0.000
1727710810.879,-23.438,-27.832,-37.109,-33.691,0.000
1727710810.883,-9.277,-27.344,-34.668,-19.531,0.000
1727710810.887,-8.301,-26.367,-34.668,-17.578,0.000
1727710810.891,-9.277,-23.438,-49.316,-36.133,0.000
1727710810.895,-18.066,-22.461,-50.781,-36.133,0.000
1727710810.899,-34.180,-25.391,-38.086,-18.066,0.000
1727710810.903,-24.902,-30.273,-35.156,-10.742,0.000
1727710810.907,-16.113,-34.668,-38.574,-20.020,0.000
1727710810.911,-25.879,-31.250,-40.039,-20.996,0.000
1727710810.915,-38.574,-26.367,-42.480,-33.691,0.000
1727710810.918,-46.387,-27.832,-44.434,-38.086,0.000
1727710810.922,-34.668,-33.203,-32.715,-18.555,0.000
1727710810.926,-29.297,-34.180,-31.738,-20.996,0.000
1727710810.930,-23.926,-25.879,-41.016,-35.156,0.000
1727710810.934,-27.832,-25.879,-43.457,-36.621,0.000
1727710810.938,-41.504,-23.438,-39.551,-35.156,0.000
1727710810.942,-33.691,-18.066,-39.551,-26.855,0.000
1727710810.946,-16.602,-22.949,-46.875,-19.531,0.000
1727710810.950,-11.230,-24.414,-46.387,-27.344,0.000
1727710810.954,-31.250,-20.020,-41.016,-41.016,0.000
1727710810.958,-39.551,-18.066,-45.898,-45.410,0.000
1727710810.961,-27.344,-16.602,-55.664,-56.152,0.000
1727710810.965,-25.391,-19.531,-47.363,-44.434,0.000
1727710810.969,-32.715,-23.438,-40.039,-29.297,0.000
1727710810.973,-33.203,-20.020,-42.480,-29.785,0.000
1727710810.977,-44.922,-23.926,-42.480,-40.527,0.000
1727710810.981,-50.293,-29.297,-36.133,-55.176,0.000
1727710810.985,-21.973,-20.020,-40.527,-37.109,0.000
1727710810.989,-13.672,-14.160,-40.527,-22.461,0.000
1727710810.993,-35.645,-20.508,-40.527,-46.875,0.000
1727710810.997,-37.598,-18.066,-51.758,-50.293,0.000
1727710811.001,-38.574,-20.508,-45.410,-36.621,0.000
1727710811.004,-39.062,-28.320,-38.574,-24.902,0.000
1727710811.008,-59.082,-43.457,-37.598,-56.641,0.000
1727710811.012,-60.547,-45.898,-33.691,-78.125,0.000
1727710811.016,-63.965,-41.992,-23.438,-59.570,0.000
1727710811.020,-65.430,-39.551,-26.855,-60.059,0.000
1727710811.024,-35.645,-26.855,-50.293,-61.523,0.000
1727710811.028,-37.598,-21.973,-55.176,-58.594,0.000
1727710811.032,-71.777,-41.992,-37.109,-70.312,0.000
1727710811.036,-88.867,-53.711,-40.527,-84.473,0.000
1727710811.040,-85.938,-53.223,-52.246,-85.938,0.000
1727710811.043,-87.402,-61.523,-57.129,-107.910,0.000
1727710811.047,-75.684,-61.523,-76.660,-85.938,0.000
1727710811.051,-89.844,-55.176,-63.965,-85.449,0.000
1727710811.055,-151.367,-83.984,-67.383,-137.695,0.000
1727710811.059,-134.766,-90.820,-108.887,-126.465,0.000
1727710811.063,-65.918,-50.293,-179.688,-82.031,0.000
1727710811.067,-89.844,-48.828,-215.820,-104.492,0.000
1727710811.071,-153.320,-86.914,-201.660,-145.996,0.000
1727710811.075,-143.555,-84.473,-228.027,-117.188,0.000
1727710811.079,-129.395,-65.430,-277.832,-90.820,0.000
1727710811.083,-147.461,-72.754,-313.965,-132.324,0.000
1727710811.086,-114.746,-69.824,-348.145,-157.715,0.000
1727710811.090,-121.094,-67.871,-414.551,-144.043,0.000
1727710811.094,-143.555,-60.059,-489.746,-137.695,0.000
1727710811.098,-100.098,-56.641,-534.180,-127.930,0.000
1727710811.102,-91.797,-58.594,-582.520,-113.770,0.000
1727710811.106,-147.461,-36.621,-627.930,-149.414,0.000
1727710811.110,-162.598,-12.695,-632.812,-183.594,0.000
1727710811.114,-149.902,-7.812,-607.422,-154.297,0.000
1727710811.118,-114.746,-13.672,-602.539,-81.543,0.000
1727710811.122,-63.965,-4.395,-573.730,-67.871,0.000
1727710811.126,-66.406,-7.324,-479.980,-112.793,0.000
1727710811.129,-112.793,-18.555,-347.656,-120.605,0.000
1727710811.133,-116.211,-8.789,-244.629,-116.211,0.000
1727710811.137,-94.238,1.465,-249.512,-116.211,0.000
1727710811.141,-101.074,0.977,-253.906,-121.094,0.000
1727710811.145,-90.332,-1.465,-217.773,-112.305,0.000
1727710811.149,-109.375,-19.531,-187.500,-125.977,0.000
1727710811.153,-85.449,-3.418,-245.605,-83.008,0.000
1727710811.157,-74.219,-5.371,-295.898,-63.477,0.000
1727710811.161,-79.102,-23.438,-287.109,-117.676,0.000
1727710811.165,-58.594,-9.277,-330.078,-103.027,0.000
1727710811.168,-63.965,-10.254,-389.160,-67.383,0.000
1727710811.172,-31.250,2.930,-435.059,-57.617,0.000
1727710811.176,-77.637,-16.113,-420.410,-118.164,0.000
1727710811.180,-107.422,-36.133,-416.992,-121.582,0.000
1727710811.184,-61.035,-20.996,-429.688,-42.969,0.000
1727710811.188,-78.125,-40.527,-426.270,-73.730,0.000
1727710811.192,-115.234,-59.082,-430.664,-123.535,0.000
1727710811.196,-102.051,-47.852,-492.676,-97.168,0.000
1727710811.200,-40.527,-24.902,-573.242,-54.688,0.000
1727710811.204,-46.387,-34.180,-556.152,-55.176,0.000
1727710811.207,-71.777,-65.430,-504.883,-54.688,0.000
1727710811.211,-72.754,-69.336,-493.652,-38.086,0.000
1727710811.215,-74.219,-50.293,-501.465,-11.230,0.000
1727710811.219,-50.293,-36.621,-492.676,-46.875,0.000
1727710811.223,-51.270,-55.176,-459.473,-67.871,0.000
1727710811.227,-80.566,-80.566,-430.176,-61.035,0.000
1727710811.231,-61.035,-58.105,-441.895,-68.359,0.000
1727710811.235,-51.758,-43.945,-436.035,-60.547,0.000
1727710811.239,-66.406,-55.664,-388.184,-44.922,0.000
1727710811.243,-50.781,-59.570,-353.516,-38.086,0.000
1727710811.246,-33.691,-53.223,-333.984,-46.387,0.000
1727710811.250,-22.949,-40.527,-307.129,-62.988,0.000
1727710811.254,-51.270,-47.363,-255.371,-69.336,0.000
1727710811.258,-78.125,-52.246,-223.633,-40.039,0.000
1727710811.262,-50.293,-50.781,-210.449,-30.762,0.000
1727710811.266,-13.672,-40.039,-225.586,-24.414,0.000
1727710811.270,-6.348,-27.344,-221.680,-15.137,0.000
1727710811.274,-18.555,-35.645,-187.012,-36.133,0.000
1727710811.278,-44.922,-39.551,-150.391,-36.133,0.000
1727710811.282,-49.805,-39.551,-136.230,-4.883,0.000
1727710811.286,-28.320,-46.875,-118.652,-19.043,0.000
1727710811.289,-34.180,-51.270,-70.312,-59.570,0.000
1727710811.293,-62.988,-61.035,-45.898,-66.406,0.000
1727710811.297,-56.641,-58.594,-45.898,-42.969,0.000
1727710811.301,-4.395,-39.551,-41.016,-11.719,0.000
1727710811.305,3.418,-40.527,-14.648,0.977,0.000
1727710811.309,-20.996,-45.898,15.625,-19.043,0.000
1727710811.313,-4.883,-33.691,18.066,-26.367,0.000
1727710811.317,-23.438,-34.180,51.270,-1.465,0.000
1727710811.321,-45.898,-44.922,79.102,18.555,0.000
1727710811.325,-33.203,-50.781,97.168,-22.949,0.000
1727710811.329,-14.648,-45.410,110.352,-62.500,0.000
1727710811.332,0.488,-36.133,65.918,-16.602,0.000
1727710811.336,-13.672,-34.668,76.660,20.508,0.000
1727710811.340,-16.113,-42.480,115.234,21.484,0.000
1727710811.344,4.395,-47.852,109.863,8.789,0.000
1727710811.348,1.465,-47.852,115.234,-8.301,0.000
1727710811.352,-16.113,-50.781,122.559,-12.695,0.000
1727710811.356,-31.738,-46.387,113.281,-26.855,0.000
1727710811.360,-32.715,-37.109,115.234,-30.762,0.000
1727710811.364,-23.926,-44.434,134.277,-18.555,0.000
1727710811.368,-21.973,-48.828,149.414,-19.043,0.000
1727710811.372,-16.113,-42.969,135.742,-25.879,0.000
1727710811.375,-16.602,-41.504,120.605,-11.230,0.000
1727710811.379,-11.719,-42.480,138.672,6.836,0.000
1727710811.383,4.883,-40.527,139.648,-0.977,0.000
1727710811.387,3.906,-36.621,149.902,1.465,0.000
1727710811.391,-1.465,-33.691,174.805,-0.977,0.000
1727710811.395,-29.297,-38.574,222.656,-25.391,0.000
1727710811.399,-34.668,-30.762,363.281,-19.531,0.000
1727710811.403,-10.254,-24.902,495.605,-9.766,0.000
1727710811.407,-8.301,-31.738,555.664,-3.418,0.000
1727710811.411,-2.930,-28.809,566.895,-10.254,0.000
1727710811.415,-8.301,-22.461,625.488,-20.996,0.000
1727710811.418,-12.695,-21.484,758.789,0.488,0.000
1727710811.422,9.766,-20.020,848.633,13.184,0.000
1727710811.426,14.160,-15.137,860.840,8.789,0.000
1727710811.430,0.488,-16.113,851.074,9.277,0.000
1727710811.434,-3.906,-12.695,884.277,1.953,0.000
1727710811.438,5.859,-12.207,915.039,-6.836,0.000
1727710811.442,15.625,-12.695,924.316,15.137,0.000
1727710811.446,31.738,-4.395,956.055,27.344,0.000
1727710811.450,31.250,-1.465,944.336,16.113,0.000
1727710811.454,5.859,-3.906,850.098,18.555,0.000
1727710811.458,-9.277,-7.812,784.180,10.742,0.000
1727710811.461,10.254,-12.695,795.898,-4.395,0.000
1727710811.465,22.949,-13.184,784.668,5.859,0.000
1727710811.469,13.184,-12.207,680.176,-1.465,0.000
1727710811.473,3.418,-6.348,555.176,3.906,0.000
1727710811.477,-0.977,-3.906,517.578,4.395,0.000
1727710811.481,5.371,-13.184,543.457,-11.230,0.000
1727710811.485,20.996,-15.625,573.730,-8.301,0.000
1727710811.489,33.691,-11.230,568.359,2.930,0.000
1727710811.493,20.508,-9.766,520.508,-0.488,0.000
1727710811.497,-3.906,-11.719,482.910,-20.508,0.000
1727710811.500,10.742,-9.766,482.910,-2.441,0.000
1727710811.504,37.598,-7.812,479.492,14.648,0.000
1727710811.508,17.578,-16.602,432.129,-0.488,0.000
1727710811.512,-7.812,-21.973,355.957,-6.348,0.000
1727710811.516,-9.277,-18.066,289.062,-1.465,0.000
1727710811.520,0.977,-13.672,237.793,7.812,0.000
1727710811.524,17.578,-9.766,160.645,3.906,0.000
1727710811.528,31.250,-10.742,117.188,5.371,0.000
1727710811.532,8.789,-14.160,100.098,5.859,0.000
1727710811.536,-0.488,-4.395,69.336,8.789,0.000
1727710811.539,17.090,-0.488,45.410,11.230,0.000
1727710811.543,22.949,-11.719,77.637,7.812,0.000
1727710811.547,19.531,-20.020,107.422,2.441,0.000
1727710811.551,9.277,-20.508,115.723,4.395,0.000
1727710811.555,4.395,-16.113,133.301,9.766,0.000
1727710811.559,13.184,-11.230,109.863,2.930,0.000
1727710811.563,32.715,-5.371,68.359,18.066,0.000
1727710811.567,38.574,0.000,37.109,24.902,0.000
1727710811.571,26.367,-2.930,56.152,6.836,0.000
1727710811.575,5.371,-16.602,109.375,-4.883,0.000
1727710811.579,4.395,-17.090,118.164,-3.418,0.000
1727710811.582,13.672,-12.695,96.191,-2.441,0.000
1727710811.586,15.137,-20.020,74.707,-10.742,0.000
1727710811.590,11.719,-21.973,62.988,-6.836,0.000
1727710811.594,-3.906,-19.531,69.336,0.000,0.000
1727710811.598,-14.648,-22.461,72.754,-2.930,0.000
1727710811.602,7.324,-20.020,69.824,1.953,0.000
1727710811.606,23.926,-18.555,68.359,0.488,0.000
1727710811.610,17.090,-18.555,59.082,0.000,0.000
1727710811.614,3.418,-17.090,67.871,-3.418,0.000
1727710811.618,-9.766,-24.902,95.703,-20.508,0.000
1727710811.621,3.418,-28.809,95.215,-26.855,0.000
1727710811.625,23.438,-22.461,71.289,-7.324,0.000
1727710811.629,17.578,-18.555,63.965,-5.859,0.000
1727710811.633,-2.930,-17.090,58.594,-7.324,0.000
1727710811.637,-0.488,-13.184,48.340,3.906,0.000
1727710811.641,10.254,-15.625,52.734,-2.441,0.000
1727710811.645,19.531,-17.578,64.941,-3.418,0.000
1727710811.649,5.859,-19.531,43.457,-6.348,0.000
1727710811.653,-31.250,-24.902,22.949,-28.320,0.000
1727710811.657,-32.227,-22.949,33.691,-33.203,0.000
1727710811.661,-16.113,-21.484,0.000,-20.508,0.000
1727710811.664,0.488,-28.809,0.000,-17.090,0.000
1727710811.668,0.000,-31.738,0.000,-12.695,0.000
1727710811.672,-20.508,-25.391,0.000,-11.230,0.000
1727710811.676,-22.461,-20.996,0.000,-12.695,0.000
1727710811.680,-1.465,-15.625,0.000,-2.441,0.000
1727710811.684,11.230,-10.254,0.000,-1.465,0.000
1727710811.688,-9.277,-14.648,0.000,-4.883,0.000
1727710811.692,-26.855,-15.625,0.000,-6.348,0.000
1727710811.696,-26.855,-14.648,0.000,-1.953,0.000
1727710811.700,-18.066,-17.090,0.000,-1.953,0.000
1727710811.704,-0.488,-20.020,0.000,0.000,0.000
1727710811.707,1.953,-19.531,13.184,0.488,0.000
1727710811.711,-6.348,-13.184,12.695,-6.348,0.000
1727710811.715,-13.672,-12.695,17.578,-2.441,0.000
1727710811.719,-9.766,-12.207,17.090,-14.160,0.000
1727710811.723,0.000,-15.625,13.672,-16.602,0.000
1727710811.727,-1.953,-20.508,9.766,-7.812,0.000
1727710811.731,-10.742,-17.090,-4.883,-7.812,0.000
1727710811.735,-24.414,-12.695,-23.438,-6.348,0.000
1727710811.739,-13.672,-15.137,-28.320,0.977,0.000
1727710811.743,19.043,-18.555,-18.066,0.000,0.000
1727710811.746,17.578,-14.160,6.348,-15.625,0.000
1727710811.750,-5.859,-12.695,25.391,-15.137,0.000
1727710811.754,-21.973,-14.160,22.461,-7.324,0.000
1727710811.758,-23.438,-19.043,9.277,-0.977,0.000
1727710811.762,-7.324,-24.902,3.418,5.371,0.000
1727710811.766,-7.324,-22.949,0.488,-7.324,0.000
1727710811.770,-28.809,-23.438,-21.973,-35.156,0.000
1727710811.774,-40.527,-21.973,-25.391,-40.527,0.000
1727710811.778,-34.180,-19.043,-13.672,-28.320,0.000
1727710811.782,-19.531,-15.625,-8.301,-24.902,0.000
1727710811.786,-17.090,-15.137,-14.160,-16.113,0.000
1727710811.789,-30.762,-21.973,-24.414,-15.625,0.000
1727710811.793,-35.156,-20.508,-19.043,-20.020,0.000
1727710811.797,-27.344,-17.578,-12.695,-16.113,0.000
1727710811.801,0.000,-16.602,-7.812,-7.812,0.000
1727710811.805,0.000,-14.160,-3.906,-11.719,0.000
1727710811.809,0.000,-15.137,-9.766,-29.297,0.000
1727710811.813,0.000,-21.484,-10.254,-32.227,0.000
1727710811.817,0.000,-24.414,-10.742,-27.344,0.000
1727710811.821,0.000,-22.461,-16.113,-20.020,0.000
1727710811.825,0.000,-19.531,-19.043,-15.137,0.000
1727710811.829,0.000,-19.531,-14.160,-11.719,0.000
1727710811.832,0.000,-22.461,1.465,-20.996,0.000
1727710811.836,0.000,-20.508,6.836,-31.738,0.000
1727710811.840,0.000,-20.996,8.789,-21.484,0.000
1727710811.844,0.000,-22.949,9.277,-9.277,0.000
1727710811.848,-2.441,-21.973,9.277,-9.277,0.000
1727710811.852,-31.738,-25.879,2.441,-24.414,0.000
1727710811.856,-62.500,-23.438,-1.465,-40.039,0.000
1727710811.860,-47.363,-18.066,1.465,-35.156,0.000
1727710811.864,-34.668,-23.438,-1.953,-32.227,0.000
1727710811.868,-35.156,-24.902,-8.301,-36.621,0.000
1727710811.872,-35.156,-18.555,-10.742,-26.367,0.000
1727710811.875,-31.250,-20.508,-7.324,-12.695,0.000
1727710811.879,-13.184,-21.484,-2.930,-8.301,0.000
1727710811.883,2.441,-19.043,-11.719,-10.254,0.000
1727710811.887,-5.371,-19.043,-34.180,-11.719,0.000
1727710811.891,-13.672,-15.625,-38.086,-5.371,0.000
1727710811.895,-34.180,-17.578,-19.531,-7.812,0.000
1727710811.899,-30.273,-22.949,1.465,-22.461,0.000
1727710811.903,-12.695,-22.461,10.742,-28.320,0.000
1727710811.907,-19.531,-27.832,8.301,-34.668,0.000
1727710811.911,-28.809,-26.367,-2.930,-39.551,0.000
1727710811.914,-28.809,-18.555,-10.742,-32.715,0.000
1727710811.918,-22.461,-20.020,-11.230,-21.973,0.000
1727710811.922,-16.113,-20.996,-3.906,-14.648,0.000
1727710811.926,-18.555,-25.879,8.789,-32.715,0.000
1727710811.930,-23.926,-25.879,19.531,-40.527,0.000
1727710811.934,-38.086,-24.902,24.902,-31.250,0.000
1727710811.938,-34.180,-18.555,18.555,-23.438,0.000
1727710811.942,0.000,-14.648,15.137,-19.531,0.000
1727710811.946,0.000,-20.508,8.301,-28.809,0.000
1727710811.950,0.000,-23.438,-2.441,-33.691,0.000
1727710811.953,0.000,-25.879,-6.836,-32.227,0.000
1727710811.957,0.000,-20.508,-5.371,-32.227,0.000
1727710811.961,0.000,-21.973,-1.953,-22.949,0.000
1727710811.965,0.000,-19.531,0.488,-12.207,0.000
1727710811.969,0.000,-21.484,1.465,-21.484,0.000
1727710811.973,0.000,-25.879,10.742,-36.133,0.000
1727710811.977,0.000,-25.391,18.066,-41.016,0.000
1727710811.981,0.000,-22.461,6.836,-33.203,0.000
1727710811.985,0.000,-23.926,4.395,-28.320,0.000
1727710811.989,-33.691,-26.367,8.301,-37.598,0.000
1727710811.992,-42.480,-22.461,11.230,-35.156,0.000
1727710811.996,-39.551,-23.926,8.789,-32.715,0.000
1727710812.000,-25.391,-25.391,5.371,-27.832,0.000
1727710812.004,-20.508,-28.320,-0.977,-28.320,0.000
1727710812.008,-24.414,-24.414,-8.789,-28.809,0.000
1727710812.012,-49.316,-25.879,-12.695,-35.645,0.000
1727710812.016,-59.082,-31.250,-17.090,-44.434,0.000
1727710812.020,-36.621,-27.344,-19.531,-37.109,0.000
1727710812.024,-27.832,-23.926,-10.742,-30.273,0.000
1727710812.028,-33.203,-25.879,-7.324,-42.480,0.000
1727710812.032,-47.852,-30.762,-15.137,-57.617,0.000
1727710812.035,-52.734,-25.391,-8.301,-53.223,0.000
1727710812.039,-40.527,-19.043,-8.789,-46.387,0.000
1727710812.043,-25.879,-22.461,-23.926,-41.992,0.000
1727710812.047,-25.391,-23.926,-41.992,-39.551,0.000
1727710812.051,-48.340,-27.832,-30.273,-46.387,0.000
1727710812.055,-63.965,-29.297,-9.277,-46.387,0.000
1727710812.059,-40.527,-24.414,-8.789,-34.668,0.000
1727710812.063,-23.926,-23.438,-15.625,-41.992,0.000
1727710812.067,-31.250,-22.461,-17.578,-47.852,0.000
1727710812.071,-52.734,-23.926,-12.207,-59.082,0.000
1727710812.075,-53.711,-20.020,-11.230,-57.129,0.000
1727710812.078,-29.297,-15.137,-11.230,-50.781,0.000
1727710812.082,-21.973,-19.531,-8.789,-50.781,0.000
1727710812.086,-30.273,-20.996,-12.695,-36.133,0.000
1727710812.090,-40.527,-15.625,-15.625,-39.551,0.000
1727710812.094,-42.969,-17.090,-12.695,-36.621,0.000
1727710812.098,-35.156,-22.461,-11.719,-30.762,0.000
1727710812.102,-26.855,-16.602,-16.113,-23.926,0.000
1727710812.106,-24.414,-13.184,-18.555,-25.391,0.000
1727710812.110,-25.879,-15.137,-30.762,-34.668,0.000
1727710812.114,-33.691,-11.230,-49.316,-23.438,0.000
1727710812.118,-29.785,-14.648,-38.574,-17.090,0.000
1727710812.121,-20.020,-18.555,-10.254,-32.715,0.000
1727710812.125,-23.926,-24.414,-6.836,-34.668,0.000
1727710812.129,-38.574,-31.738,-9.277,-38.086,0.000
1727710812.133,-52.734,-28.320,-0.488,-35.156,0.000
1727710812.137,-44.434,-27.832,-3.906,-35.645,0.000
1727710812.141,-22.949,-24.902,-8.789,-34.180,0.000
1727710812.145,-15.625,-22.461,-11.719,-21.973,0.000
1727710812.149,-26.367,-18.066,-21.484,-21.973,0.000
1727710812.153,-41.016,-14.648,-26.367,-29.785,0.000
1727710812.157,-40.527,-16.113,-33.203,-29.785,0.000
1727710812.161,-25.879,-15.625,-29.785,-21.484,0.000
1727710812.164,-24.414,-20.996,-24.414,-26.367,0.000
1727710812.168,-29.785,-24.414,-22.949,-41.504,0.000
1727710812.172,-32.227,-23.438,-20.020,-50.781,0.000
1727710812.176,-45.898,-24.902,-27.832,-48.828,0.000
1727710812.180,-40.527,-26.367,-27.344,-41.504,0.000
1727710812.184,-22.461,-27.344,-31.738,-41.992,0.000
1727710812.188,-36.133,-29.785,-56.152,-46.387,0.000
1727710812.192,-50.293,-30.762,-49.316,-40.039,0.000
1727710812.196,-49.316,-32.715,-22.949,-53.223,0.000
1727710812.200,-40.527,-34.180,-6.836,-59.082,0.000
1727710812.204,-31.738,-36.621,-5.859,-41.016,0.000
1727710812.207,-30.762,-38.574,-14.160,-28.320,0.000
1727710812.211,-38.574,-38.574,-22.949,-26.855,0.000
1727710812.215,-48.828,-34.180,-27.832,-40.039,0.000
1727710812.219,-43.945,-32.227,-30.273,-53.711,0.000
1727710812.223,-41.504,-33.691,-26.855,-60.547,0.000
1727710812.227,-53.711,-31.250,-27.832,-60.059,0.000
1727710812.231,-68.848,-30.762,-31.250,-62.012,0.000
1727710812.235,-76.172,-35.645,-31.250,-67.383,0.000
1727710812.239,-62.012,-33.691,-35.645,-63.477,0.000
1727710812.243,-61.523,-37.109,-38.086,-61.035,0.000
1727710812.246,-58.105,-37.109,-34.180,-54.688,0.000
1727710812.250,-48.340,-29.785,-30.762,-34.668,0.000
1727710812.254,-62.500,-31.250,-34.180,-33.691,0.000
1727710812.258,-37.109,-33.203,-40.527,-37.598,0.000
1727710812.262,-14.648,-30.762,-38.086,-38.086,0.000
1727710812.266,-27.344,-33.203,-26.855,-37.598,0.000
1727710812.270,-40.039,-29.785,-21.484,-32.715,0.000
1727710812.274,-44.922,-24.414,-19.531,-28.809,0.000
1727710812.278,-40.039,-24.414,-38.574,-26.367,0.000
1727710812.282,-29.297,-28.320,-39.062,-34.668,0.000
1727710812.286,-33.203,-28.809,-10.742,-49.316,0.000
1727710812.289,-42.480,-28.320,4.395,-41.504,0.000
1727710812.293,-48.828,-26.367,4.883,-27.344,0.000
1727710812.297,-40.039,-21.973,-16.113,-26.367,0.000
1727710812.301,-21.973,-25.391,-31.250,-25.879,0.000
1727710812.305,-11.719,-25.879,-21.973,-23.438,0.000
1727710812.309,-23.438,-22.461,-18.555,-27.344,0.000
1727710812.313,-40.039,-20.996,-19.043,-36.133,0.000
1727710812.317,-31.738,-24.902,-24.414,-33.691,0.000
1727710812.321,-19.531,-23.926,-31.250,-27.832,0.000
1727710812.325,-17.090,-20.020,-25.879,-24.414,0.000
1727710812.328,-31.250,-20.508,-20.996,-32.715,0.000
1727710812.332,-55.664,-19.531,-31.738,-47.363,0.000
1727710812.336,-40.039,-21.484,-35.156,-46.387,0.000
1727710812.340,-20.020,-26.367,-29.785,-20.508,0.000
1727710812.344,-21.484,-21.973,-25.391,-6.836,0.000
1727710812.348,-14.160,-20.020,-32.227,-13.672,0.000
1727710812.352,-23.926,-18.066,-46.387,-21.484,0.000
1727710812.356,-26.367,-15.625,-53.223,-21.973,0.000
1727710812.360,-16.602,-17.578,-58.105,-19.531,0.000
1727710812.364,-17.090,-20.020,-60.547,-24.414,0.000
1727710812.367,-23.438,-22.949,-60.547,-31.250,0.000
1727710812.371,-41.016,-26.855,-65.430,-38.574,0.000
1727710812.375,-43.945,-26.367,-60.059,-37.598,0.000
1727710812.379,-30.273,-26.855,-49.316,-25.879,0.000
1727710812.383,-20.508,-26.855,-50.781,-26.855,0.000
1727710812.387,-29.785,-28.809,-56.641,-26.367,0.000
1727710812.391,-48.828,-31.250,-50.293,-27.832,0.000
1727710812.395,-44.434,-31.738,-42.480,-27.832,0.000
1727710812.399,-30.273,-35.645,-39.551,-32.227,0.000
1727710812.403,-21.484,-34.668,-33.691,-38.574,0.000
1727710812.407,-22.949,-32.227,-38.086,-35.156,0.000
1727710812.410,-37.109,-33.691,-37.109,-45.410,0.000
1727710812.414,-44.922,-33.691,-40.527,-47.852,0.000
1727710812.418,-23.438,-33.691,-45.898,-26.855,0.000
1727710812.422,-12.207,-34.180,-44.922,-21.484,0.000
1727710812.426,-22.949,-32.715,-49.805,-27.832,0.000
1727710812.430,-38.086,-37.109,-38.574,-30.273,0.000
1727710812.434,-48.828,-41.992,-27.832,-42.480,0.000
1727710812.438,-43.457,-41.992,-29.785,-46.387,0.000
1727710812.442,-23.438,-42.480,-34.668,-35.645,0.000
1727710812.446,-31.250,-43.457,-41.016,-41.992,0.000
1727710812.450,-52.734,-39.551,-40.527,-46.387,0.000
1727710812.453,-51.758,-39.551,-42.480,-43.945,0.000
1727710812.457,-39.062,-38.574,-44.922,-44.434,0.000
1727710812.461,-24.902,-41.016,-43.945,-37.598,0.000
1727710812.465,-11.230,-45.898,-40.039,-21.484,0.000
1727710812.469,-15.625,-44.434,-30.762,-23.438,0.000
1727710812.473,-33.203,-41.504,-28.809,-25.391,0.000
1727710812.477,-34.180,-45.410,-37.109,-16.113,0.000
1727710812.481,-26.367,-49.316,-48.340,-14.648,0.000
1727710812.485,-24.902,-41.504,-44.922,-21.973,0.000
1727710812.489,-26.367,-32.227,-34.180,-22.461,0.000
1727710812.493,-32.227,-28.320,-26.855,-26.855,0.000
1727710812.496,-30.273,-25.391,-17.578,-27.832,0.000
1727710812.500,-20.996,-25.391,-24.902,-17.578,0.000
1727710812.504,-26.855,-25.879,-33.691,-23.438,0.000
1727710812.508,-36.621,-25.879,-38.086,-28.809,0.000
1727710812.512,-46.875,-31.250,-34.180,-36.133,0.000
1727710812.516,-49.316,-33.691,-44.434,-28.809,0.000
1727710812.520,-23.926,-25.391,-53.711,-19.043,0.000
1727710812.524,-8.301,-26.367,-32.715,-19.043,0.000
1727710812.528,-9.766,-27.344,-18.555,-12.207,0.000
1727710812.532,-29.297,-26.367,-16.602,-20.508,0.000
1727710812.536,-30.273,-25.879,-16.113,-7.812,0.000
1727710812.539,-8.301,-22.949,-22.461,6.836,0.000
1727710812.543,-11.719,-21.484,-31.738,-12.695,0.000
1727710812.547,-23.438,-16.113,-36.621,-23.438,0.000
1727710812.551,-35.645,-11.719,-47.852,-20.508,0.000
1727710812.555,-37.598,-13.184,-58.594,-27.832,0.000
1727710812.559,-29.785,-19.531,-53.711,-38.086,0.000
1727710812.563,-22.949,-21.484,-57.129,-31.250,0.000
1727710812.567,-21.484,-20.508,-58.594,-25.879,0.000
1727710812.571,-29.297,-20.508,-51.270,-26.855,0.000
1727710812.575,-29.785,-18.066,-49.316,-23.438,0.000
1727710812.578,-20.508,-19.043,-47.363,-12.207,0.000
1727710812.582,-7.324,-20.020,-42.480,-13.672,0.000
1727710812.586,-5.859,-17.090,-48.340,-29.297,0.000
1727710812.590,-23.438,-19.531,-51.758,-38.574,0.000
1727710812.594,-36.621,-18.555,-35.156,-41.016,0.000
1727710812.598,-28.320,-23.438,-28.320,-41.992,0.000
1727710812.602,-20.508,-25.391,-36.133,-42.969,0.000
1727710812.606,-23.438,-20.996,-41.504,-38.086,0.000
1727710812.610,-25.391,-23.926,-40.527,-33.691,0.000
1727710812.614,-36.133,-24.902,-40.039,-40.527,0.000
1727710812.618,-18.555,-22.461,-46.387,-33.203,0.000
1727710812.621,4.395,-22.461,-52.734,-32.715,0.000
1727710812.625,-3.906,-24.414,-50.781,-25.879,0.000
1727710812.629,-21.484,-24.902,-47.363,-16.113,0.000
1727710812.633,-34.180,-23.438,-39.551,-25.879,0.000
1727710812.637,-26.855,-19.043,-36.621,-30.273,0.000
1727710812.641,-7.324,-19.531,-40.527,-32.715,0.000
1727710812.645,0.488,-21.484,-43.945,-30.273,0.000
1727710812.649,-22.949,-21.484,-53.711,-33.691,0.000
1727710812.653,-43.457,-21.973,-48.340,-37.598,0.000
1727710812.657,-35.645,-26.855,-38.086,-32.715,0.000
1727710812.660,-21.973,-28.809,-34.668,-28.809,0.000
1727710812.664,-19.043,-26.855,-33.203,-35.156,0.000
1727710812.668,-22.461,-26.367,-32.227,-28.320,0.000
1727710812.672,-26.367,-24.414,-41.504,-13.672,0.000
1727710812.676,-26.855,-18.555,-57.617,-20.508,0.000
1727710812.680,-17.578,-20.508,-55.176,-31.250,0.000
1727710812.684,-21.973,-23.926,-47.363,-30.762,0.000
1727710812.688,-42.969,-22.461,-41.504,-33.691,0.000
1727710812.692,-46.875,-21.973,-42.969,-36.621,0.000
1727710812.696,-34.668,-21.973,-42.480,-41.504,0.000
1727710812.700,-23.438,-27.344,-30.273,-36.133,0.000
1727710812.703,-20.020,-26.367,-26.367,-33.203,0.000
1727710812.707,-25.879,-25.391,-33.691,-35.645,0.000
1727710812.711,-42.969,-31.250,-39.062,-30.273,0.000
1727710812.715,-44.434,-26.367,-39.551,-24.902,0.000
1727710812.719,-20.508,-19.043,-42.969,-16.113,0.000
1727710812.723,-7.324,-17.578,-43.945,-23.926,0.000
1727710812.727,-18.066,-21.484,-42.480,-33.691,0.000
1727710812.731,-36.133,-23.438,-36.621,-28.320,0.000
1727710812.735,-45.898,-21.973,-38.086,-35.156,0.000
1727710812.739,-32.715,-25.879,-48.828,-30.273,0.000
1727710812.742,-12.695,-24.414,-44.922,-17.578,0.000
1727710812.746,-15.137,-24.414,-42.480,-30.762,0.000
1727710812.750,-51.270,-28.320,-41.992,-38.086,0.000
1727710812.754,-65.430,-27.344,-34.180,-38.086,0.000
1727710812.758,-41.504,-30.762,-37.598,-33.203,0.000
1727710812.762,-25.879,-32.715,-40.039,-24.902,0.000
1727710812.766,-20.508,-30.762,-44.434,-34.668,0.000
1727710812.770,-21.484,-28.809,-43.945,-30.273,0.000
1727710812.774,-32.227,-26.855,-33.691,-24.414,0.000
1727710812.778,-18.066,-25.879,-40.527,-29.785,0.000
1727710812.781,-4.883,-30.273,-49.805,-21.484,0.000
1727710812.785,-15.137,-28.320,-45.410,-15.137,0.000
1727710812.789,-26.367,-22.949,-39.062,-14.160,0.000
1727710812.793,-31.738,-22.461,-35.645,-15.625,0.000
1727710812.797,-12.207,-25.391,-31.738,-14.648,0.000
1727710812.801,0.000,-25.879,-37.598,-13.672,0.000
1727710812.805,-0.977,-31.250,-34.180,-5.859,0.000
1727710812.809,-1.953,-29.785,-25.391,13.184,0.000
1727710812.813,-20.508,-20.996,-31.250,-0.977,0.000
1727710812.817,-18.066,-16.113,-36.621,-22.461,0.000
1727710812.821,-3.418,-15.137,-36.621,-22.461,0.000
1727710812.824,2.930,-15.625,-34.180,-19.043,0.000
1727710812.828,-3.906,-19.531,-37.598,-20.020,0.000
1727710812.832,-23.926,-24.414,-46.387,-22.461,0.000
1727710812.836,-9.277,-25.879,-48.828,-13.184,0.000
1727710812.840,4.883,-24.414,-41.992,-13.672,0.000
1727710812.844,-6.348,-23.438,-34.668,-17.578,0.000
1727710812.848,-27.832,-26.367,-29.785,-21.973,0.000
1727710812.852,-44.434,-26.367,-31.250,-29.785,0.000
1727710812.856,-27.832,-24.414,-37.109,-22.949,0.000
1727710812.860,-5.859,-27.344,-40.039,-18.555,0.000
1727710812.864,-4.883,-25.879,-42.480,-16.113,0.000
1727710812.867,-19.531,-22.461,-45.898,-21.973,0.000
1727710812.871,-34.668,-23.438,-49.805,-25.391,0.000
1727710812.875,-31.250,-24.902,-55.176,-11.719,0.000
1727710812.879,-12.207,-25.879,-51.270,-10.742,0.000
1727710812.883,-8.301,-29.785,-41.016,-25.879,0.000
1727710812.887,-32.715,-33.203,-35.645,-29.785,0.000
1727710812.891,-49.316,-32.227,-35.156,-30.762,0.000
1727710812.895,-37.109,-27.832,-39.062,-35.645,0.000
1727710812.899,-21.484,-23.438,-43.945,-29.785,0.000
1727710812.903,-16.602,-21.973,-48.340,-23.438,0.000
1727710812.907,-21.484,-22.949,-56.152,-31.250,0.000
1727710812.910,-32.227,-24.414,-49.316,-31.250,0.000
1727710812.914,-37.109,-23.438,-41.016,-27.344,0.000
1727710812.918,-25.879,-27.832,-42.480,-38.574,0.000
1727710812.922,-15.625,-29.785,-43.945,-27.344,0.000
1727710812.926,-19.043,-27.344,-47.852,-19.043,0.000
1727710812.930,-41.992,-29.785,-47.852,-25.391,0.000
1727710812.934,-43.945,-30.762,-39.062,-21.484,0.000
1727710812.938,-21.973,-30.273,-25.391,-23.438,0.000
1727710812.942,-13.672,-32.715,-30.273,-35.156,0.000
1727710812.946,-28.320,-32.715,-41.016,-40.527,0.000
1727710812.950,-44.434,-26.855,-37.598,-39.062,0.000
1727710812.953,-48.828,-26.367,-37.109,-32.715,0.000
1727710812.957,-36.133,-26.855,-42.969,-23.438,0.000
1727710812.961,-34.668,-25.879,-53.711,-32.227,0.000
1727710812.965,-28.809,-26.855,-49.316,-36.133,0.000
1727710812.969,-29.785,-27.344,-39.062,-33.691,0.000
1727710812.973,-44.922,-30.762,-45.410,-34.180,0.000
1727710812.977,-28.809,-31.738,-44.922,-31.738,0.000
1727710812.981,-6.348,-28.809,-52.734,-21.973,0.000
1727710812.985,-4.883,-26.855,-55.664,-26.855,0.000
1727710812.989,-18.555,-21.484,-41.992,-33.203,0.000
1727710812.992,-35.645,-21.973,-39.551,-24.902,0.000
1727710812.996,-28.809,-25.879,-41.504,-15.137,0.000
1727710813.000,-5.371,-28.809,-48.340,-4.395,0.000
1727710813.004,1.465,-33.691,-45.410,-6.836,0.000
1727710813.008,-14.648,-30.762,-36.621,-20.996,0.000
1727710813.012,-23.438,-32.715,-32.715,-20.508,0.000
1727710813.016,-11.719,-34.180,-35.645,-23.438,0.000
1727710813.020,-7.812,-33.203,-44.922,-28.320,0.000
1727710813.024,-8.789,-36.133,-44.434,-22.949,0.000
1727710813.028,-27.344,-30.273,-54.199,-17.578,0.000
1727710813.032,-55.176,-32.715,-65.430,-26.367,0.000
1727710813.035,-38.086,-37.109,-48.828,-33.203,0.000
1727710813.039,-5.859,-33.691,-31.738,-29.785,0.000
1727710813.043,0.488,-30.762,-25.391,-23.926,0.000
1727710813.047,-4.395,-26.855,-25.879,-18.555,0.000
1727710813.051,-26.855,-28.809,-42.969,-25.391,0.000
1727710813.055,-34.180,-27.832,-50.781,-27.344,0.000
1727710813.059,-18.555,-27.344,-44.922,-22.949,0.000
1727710813.063,-12.695,-33.203,-41.016,-19.531,0.000
1727710813.067,-24.902,-34.668,-41.504,-16.113,0.000
1727710813.071,-49.316,-36.133,-51.758,-24.414,0.000
1727710813.074,-41.016,-40.527,-53.711,-33.691,0.000
1727710813.078,-14.160,-39.551,-43.945,-29.297,0.000
1727710813.082,-6.836,-37.598,-35.645,-18.066,0.000
1727710813.086,-8.789,-36.133,-41.992,-27.344,0.000
1727710813.090,-25.391,-34.668,-48.340,-30.762,0.000
1727710813.094,-21.973,-38.574,-46.875,-21.484,0.000
1727710813.098,-3.418,-40.527,-52.246,-18.066,0.000
1727710813.102,-5.859,-35.156,-60.059,-20.020,0.000
1727710813.106,-7.324,-33.203,-52.734,-21.484,0.000
1727710813.110,-25.391,-37.598,-44.434,-18.555,0.000
1727710813.113,-30.762,-36.621,-42.480,-14.160,0.000
1727710813.117,-15.625,-35.645,-37.598,-20.020,0.000
1727710813.121,-9.277,-36.133,-30.762,-15.137,0.000
1727710813.125,-11.230,-34.180,-32.227,-6.348,0.000
1727710813.129,-26.855,-36.133,-43.945,-20.020,0.000
1727710813.133,-33.691,-40.039,-39.062,-17.090,0.000
1727710813.137,-7.324,-43.945,-30.762,2.930,0.000
1727710813.141,14.648,-40.527,-37.109,-2.441,0.000
1727710813.145,4.395,-31.250,-45.898,-18.066,0.000
1727710813.149,-20.020,-32.715,-44.434,-29.785,0.000
1727710813.153,-30.762,-36.133,-41.504,-25.391,0.000
1727710813.156,-26.367,-36.621,-45.898,-21.484,0.000
1727710813.160,-14.160,-34.668,-51.270,-24.414,0.000
1727710813.164,-13.672,-33.691,-44.434,-22.461,0.000
1727710813.168,-34.668,-36.133,-40.527,-29.785,0.000
1727710813.172,-39.062,-37.598,-43.945,-28.809,0.000
1727710813.176,-16.602,-37.109,-39.551,-12.695,0.000
1727710813.180,3.906,-31.738,-43.457,-9.277,0.000
1727710813.184,1.465,-28.809,-48.828,-7.812,0.000
1727710813.188,-12.207,-31.250,-53.711,-15.137,0.000
1727710813.192,-16.113,-31.250,-51.758,-21.973,0.000
1727710813.196,-11.230,-29.297,-37.598,-11.230,0.000
1727710813.199,-10.742,-32.715,-37.598,-16.113,0.000
1727710813.203,-15.625,-38.086,-36.133,-21.484,0.000
1727710813.207,-20.020,-39.062,-33.691,-15.137,0.000
1727710813.211,-26.855,-34.180,-39.062,-20.996,0.000
1727710813.215,-23.438,-36.133,-39.062,-25.391,0.000
1727710813.219,-6.836,-33.691,-37.598,-13.184,0.000
1727710813.223,-8.301,-31.738,-39.551,-9.766,0.000
1727710813.227,-24.414,-36.133,-43.457,-3.906,0.000
1727710813.231,-36.133,-28.809,-45.410,-2.441,0.000
1727710813.235,-23.438,-25.391,-40.039,-12.207,0.000
1727710813.239,-10.254,-25.391,-35.645,-1.465,0.000
1727710813.242,-4.395,-29.297,-32.227,7.812,0.000
1727710813.246,2.930,-27.832,-33.691,3.906,0.000
1727710813.250,-11.719,-25.879,-41.992,-9.766,0.000
1727710813.254,-8.301,-29.297,-38.086,-21.484,0.000
1727710813.258,11.719,-26.855,-40.039,-10.254,0.000
1727710813.262,8.301,-24.414,-43.457,-5.371,0.000
1727710813.266,0.000,-27.832,-32.227,-5.859,0.000
1727710813.270,-12.695,-26.855,-35.645,-8.301,0.000
1727710813.274,-20.508,-27.832,-44.922,-13.184,0.000
1727710813.278,-6.348,-36.133,-38.086,-13.184,0.000
1727710813.281,-3.906,-39.062,-33.691,-6.348,0.000
1727710813.285,-21.484,-38.574,-35.156,-4.395,0.000
1727710813.289,-32.227,-39.062,-35.156,-13.184,0.000
1727710813.293,-31.738,-41.016,-38.086,-20.508,0.000
1727710813.297,-13.184,-41.504,-37.598,-17.578,0.000
1727710813.301,-1.953,-43.457,-38.086,-20.508,0.000
1727710813.305,-8.301,-42.969,-37.598,-22.461,0.000
1727710813.309,-19.043,-39.551,-36.621,-29.785,0.000
1727710813.313,-21.973,-35.156,-45.898,-35.645,0.000
1727710813.317,-7.812,-37.109,-48.828,-25.391,0.000
1727710813.321,1.953,-43.945,-43.457,-21.484,0.000
1727710813.324,-6.348,-40.527,-35.645,-27.344,0.000
1727710813.328,-19.531,-41.016,-33.203,-23.926,0.000
1727710813.332,-27.832,-47.852,-39.062,-19.043,0.000
1727710813.336,-12.695,-44.922,-40.039,-21.973,0.000
1727710813.340,10.742,-39.062,-33.691,-20.996,0.000
1727710813.344,-0.977,-40.039,-38.574,-20.508,0.000
1727710813.348,0.000,-39.551,-42.480,-24.902,0.000
1727710813.352,0.000,-40.527,-34.180,-24.902,0.000
1727710813.356,0.000,-38.574,-36.133,-20.020,0.000
1727710813.360,0.000,-33.203,-31.250,-14.160,0.000
1727710813.364,0.000,-31.738,-27.832,-9.766,0.000
1727710813.367,0.000,-35.156,-36.133,-15.137,0.000
1727710813.371,0.000,-35.156,-37.109,-13.184,0.000
1727710813.375,0.000,-32.715,-40.527,-11.230,0.000
1727710813.379,0.000,-36.621,-46.875,-17.578,0.000
1727710813.383,0.000,-37.109,-44.922,-16.113,0.000
1727710813.387,0.000,-33.691,-44.434,-18.555,0.000
1727710813.391,0.000,-34.668,-44.922,-21.484,0.000
1727710813.395,-25.879,-36.621,-45.410,-19.531,0.000
1727710813.399,-11.719,-37.598,-50.293,-20.996,0.000
1727710813.403,1.953,-36.621,-51.270,-16.602,0.000
1727710813.406,-10.254,-38.086,-47.852,-19.043,0.000
1727710813.410,-29.297,-41.504,-47.363,-29.785,0.000
1727710813.414,-28.809,-41.016,-45.898,-29.785,0.000
1727710813.418,-17.578,-35.156,-44.434,-16.602,0.000
1727710813.422,-7.324,-30.273,-47.363,-5.859,0.000
1727710813.426,-14.648,-30.273,-47.852,-12.695,0.000
1727710813.430,-28.809,-30.762,-46.875,-15.625,0.000
1727710813.434,-25.391,-31.250,-48.340,-11.719,0.000
1727710813.438,-7.324,-28.320,-46.875,-10.742,0.000
1727710813.442,0.000,-23.926,-42.480,-4.395,0.000
1727710813.446,0.000,-25.879,-48.828,-10.254,0.000
1727710813.449,0.000,-26.855,-50.781,-13.184,0.000
1727710813.453,0.000,-29.297,-42.480,0.488,0.000
1727710813.457,0.000,-32.227,-39.551,-8.301,0.000
1727710813.461,0.000,-33.691,-38.574,-21.973,0.000
1727710813.465,0.000,-36.133,-41.016,-7.812,0.000
1727710813.469,0.000,-33.691,-41.992,-8.789,0.000
1727710813.473,0.000,-32.227,-38.086,-13.184,0.000
1727710813.477,0.000,-34.180,-36.133,-8.789,0.000
1727710813.481,0.000,-37.598,-39.062,-11.230,0.000
1727710813.485,0.000,-36.621,-41.504,-30.273,0.000
1727710813.488,-38.574,-32.715,-44.922,-35.645,0.000
1727710813.492,-22.949,-26.367,-41.504,-17.090,0.000
1727710813.496,-6.348,-25.391,-38.086,-17.578,0.000
1727710813.500,1.953,-29.297,-41.504,-21.973,0.000
1727710813.504,0.488,-25.391,-43.457,-18.066,0.000
1727710813.508,-6.836,-22.949,-47.363,-22.949,0.000
1727710813.512,-13.184,-26.367,-43.457,-21.973,0.000
1727710813.516,-6.836,-28.809,-40.527,-17.578,0.000
1727710813.520,5.371,-28.320,-39.551,-16.602,0.000
1727710813.524,-1.465,-26.367,-38.086,-12.695,0.000
1727710813.527,-24.414,-27.344,-43.457,-20.020,0.000
1727710813.531,-27.344,-27.832,-39.551,-24.902,0.000
1727710813.535,-4.883,-23.438,-39.062,-21.484,0.000
1727710813.539,1.465,-23.438,-49.805,-20.996,0.000
1727710813.543,-2.930,-28.809,-48.340,-15.625,0.000
1727710813.547,-18.066,-31.738,-43.945,-20.996,0.000
1727710813.551,-31.738,-24.902,-43.945,-25.879,0.000
1727710813.555,-24.902,-20.996,-43.945,-27.832,0.000
1727710813.559,-19.531,-32.715,-40.527,-31.738,0.000
1727710813.563,-7.812,-33.691,-41.016,-27.832,0.000
1727710813.567,-3.906,-29.785,-45.410,-38.086,0.000
1727710813.570,-15.625,-34.180,-44.434,-43.457,0.000
1727710813.574,-13.184,-33.203,-41.016,-28.809,0.000
1727710813.578,-1.953,-33.203,-42.480,-16.113,0.000
1727710813.582,-5.371,-36.133,-40.039,-24.414,0.000
1727710813.586,-24.414,-35.156,-39.551,-31.738,0.000
1727710813.590,-41.992,-35.156,-40.527,-34.180,0.000
1727710813.594,-29.297,-32.227,-38.086,-24.902,0.000
1727710813.598,-17.090,-29.785,-39.062,-12.207,0.000
1727710813.602,-18.555,-27.344,-43.945,-17.578,0.000
1727710813.606,-22.949,-25.391,-39.551,-24.414,0.000
1727710813.610,-41.504,-28.809,-38.086,-25.391,0.000
1727710813.613,-38.574,-31.250,-40.039,-13.184,0.000
1727710813.617,-20.020,-31.738,-37.109,-10.254,0.000
1727710813.621,-24.414,-31.738,-39.062,-16.113,0.000
1727710813.625,-29.785,-33.691,-40.527,-21.484,0.000
1727710813.629,-26.855,-32.227,-40.039,-20.508,0.000
1727710813.633,-32.715,-33.691,-43.945,-16.602,0.000
1727710813.637,-34.668,-34.180,-46.387,-24.414,0.000
1727710813.641,-17.578,-32.227,-41.992,-26.367,0.000
1727710813.645,-16.113,-32.227,-36.133,-26.855,0.000
1727710813.649,-30.762,-26.367,-32.715,-36.621,0.000
1727710813.653,-30.762,-24.414,-39.062,-26.367,0.000
1727710813.656,-23.926,-28.809,-38.574,-23.926,0.000
1727710813.660,-12.207,-31.738,-31.250,-23.926,0.000
1727710813.664,-7.324,-25.879,-40.527,-4.395,0.000
1727710813.668,-35.645,-31.738,-39.062,-19.043,0.000
1727710813.672,-38.574,-35.645,-33.691,-27.344,0.000
1727710813.676,-15.137,-28.809,-35.156,-21.484,0.000
1727710813.680,-20.508,-40.527,-34.668,-43.945,0.000
1727710813.684,-36.133,-44.434,-35.156,-31.250,0.000
1727710813.688,-41.992,-32.715,-36.621,-16.602,0.000
1727710813.692,-20.020,-20.020,-44.922,-1.953,0.000
1727710813.696,-24.414,-26.367,-30.273,-18.066,0.000
1727710813.699,-32.715,-34.668,-21.973,-41.992,0.000
1727710813.703,-30.762,-31.738,-28.320,-37.109,0.000
1727710813.707,-68.359,-41.992,-14.648,-53.711,0.000
1727710813.711,-54.688,-34.668,-12.695,-32.715,0.000
1727710813.715,-31.738,-30.273,-15.625,-19.043,0.000
1727710813.719,-41.504,-43.945,-24.902,-40.039,0.000
1727710813.723,-73.730,-62.500,-11.719,-83.984,0.000
1727710813.727,-82.031,-51.758,-26.855,-70.801,0.000
1727710813.731,-65.430,-39.551,-58.594,-41.992,0.000
1727710813.735,-35.645,-33.203,-56.641,-27.832,0.000
1727710813.739,-39.062,-42.480,-42.969,-33.203,0.000
1727710813.742,-63.965,-51.758,-61.523,-77.148,0.000
1727710813.746,-58.105,-32.227,-125.977,-83.008,0.000
1727710813.750,-90.332,-46.387,-134.277,-84.473,0.000
1727710813.754,-130.371,-76.660,-111.816,-105.957,0.000
1727710813.758,-116.211,-83.008,-132.324,-115.234,0.000
1727710813.762,-111.816,-84.961,-176.270,-113.281,0.000
1727710813.766,-115.234,-77.148,-229.980,-96.191,0.000
1727710813.770,0.000,-58.105,-279.297,-90.820,0.000
1727710813.774,0.000,-56.152,-312.988,-116.211,0.000
1727710813.778,0.000,-48.828,-397.461,-89.844,0.000
1727710813.781,0.000,-48.340,-505.859,-54.688,0.000
1727710813.785,0.000,-66.895,-600.586,-88.867,0.000
1727710813.789,0.000,-75.195,-679.688,-129.395,0.000
1727710813.793,0.000,-94.727,-666.016,-156.738,0.000
1727710813.797,0.000,-62.012,-623.047,-117.676,0.000
1727710813.801,0.000,-31.250,-583.984,-55.664,0.000
1727710813.805,0.000,-65.918,-474.121,-92.773,0.000
1727710813.809,0.000,-70.801,-409.668,-126.465,0.000
1727710813.813,0.000,-57.617,-405.273,-117.676,0.000
1727710813.817,-134.277,-83.984,-385.254,-153.809,0.000
1727710813.820,-155.273,-102.539,-401.855,-198.242,0.000
1727710813.824,-128.906,-79.590,-440.430,-152.832,0.000
1727710813.828,-94.238,-52.734,-468.750,-88.379,0.000
1727710813.832,-97.168,-60.059,-468.262,-95.215,0.000
1727710813.836,-146.973,-111.328,-469.238,-136.230,0.000
1727710813.840,-142.090,-119.629,-478.516,-135.742,0.000
1727710813.844,-96.191,-80.078,-538.086,-114.746,0.000
1727710813.848,-129.395,-80.566,-584.961,-137.695,0.000
1727710813.852,-155.273,-87.402,-608.398,-154.297,0.000
1727710813.856,-125.977,-86.914,-685.059,-149.414,0.000
1727710813.860,-125.977,-90.820,-708.008,-150.391,0.000
1727710813.863,-166.504,-102.051,-703.125,-192.871,0.000
1727710813.867,-166.992,-105.957,-745.605,-167.480,0.000
1727710813.871,-135.254,-93.262,-815.430,-106.445,0.000
1727710813.875,-95.703,-81.055,-905.273,-117.676,0.000
1727710813.879,-102.539,-91.797,-966.797,-176.758,0.000
1727710813.883,-131.348,-93.750,-988.770,-165.039,0.000
1727710813.887,-124.023,-68.848,-1000.000,-117.188,0.000
1727710813.891,-142.090,-80.566,-1000.000,-142.578,0.000
1727710813.895,-122.070,-87.891,-1000.000,-123.047,0.000
1727710813.899,-106.934,-82.520,-1000.000,-104.492,0.000
1727710813.902,-131.836,-94.727,-1000.000,-139.160,0.000
1727710813.906,-126.465,-80.078,-1000.000,-125.488,0.000
1727710813.910,-104.980,-69.824,-998.047,-98.145,0.000
1727710813.914,-84.473,-70.312,-1000.000,-81.543,0.000
1727710813.918,-77.148,-68.848,-981.445,-58.594,0.000
1727710813.922,-77.148,-70.312,-927.734,-57.129,0.000
1727710813.926,-69.336,-59.082,-905.273,-49.316,0.000
1727710813.930,-82.031,-57.617,-860.840,-59.082,0.000
1727710813.934,-75.684,-62.988,-795.410,-73.242,0.000
1727710813.938,-66.895,-63.477,-745.117,-68.359,0.000
1727710813.942,-46.387,-48.828,-713.867,-44.434,0.000
1727710813.945,-33.691,-41.016,-675.781,-14.160,0.000
1727710813.949,-55.176,-42.480,-598.633,-23.926,0.000
1727710813.953,-52.246,-42.480,-515.625,-42.480,0.000
1727710813.957,-47.363,-49.316,-447.754,-47.852,0.000
1727710813.961,-29.297,-42.480,-385.254,-38.086,0.000
1727710813.965,-9.766,-24.902,-342.773,-5.859,0.000
1727710813.969,-27.344,-20.508,-292.969,10.742,0.000
1727710813.973,-28.809,-22.461,-219.238,11.719,0.000
1727710813.977,-10.254,-26.367,-168.457,5.859,0.000
1727710813.981,6.836,-21.973,-124.512,-2.441,0.000
1727710813.985,5.859,-13.672,-69.336,7.812,0.000
1727710813.988,0.000,-10.254,-38.574,25.391,0.000
1727710813.992,-1.465,-10.742,-2.930,14.160,0.000
1727710813.996,8.301,-12.207,54.199,10.254,0.000
1727710814.000,34.668,-7.324,83.496,33.203,0.000
1727710814.004,41.504,-3.418,147.461,40.039,0.000
1727710814.008,25.879,0.000,215.332,32.715,0.000
1727710814.012,23.438,2.441,258.789,36.621,0.000
1727710814.016,46.387,2.930,301.270,51.270,0.000
1727710814.020,60.059,5.859,344.727,52.246,0.000
1727710814.024,54.199,10.742,425.293,56.641,0.000
1727710814.028,34.668,15.137,525.879,55.176,0.000
1727710814.031,34.668,15.137,617.676,54.199,0.000
1727710814.035,62.012,17.578,708.008,63.965,0.000
1727710814.039,71.777,25.391,790.527,67.871,0.000
1727710814.043,68.359,27.832,831.055,69.824,0.000
1727710814.047,65.430,32.227,861.816,69.336,0.000
1727710814.051,61.523,35.645,945.801,58.105,0.000
1727710814.055,71.289,32.227,972.168,59.570,0.000
1727710814.059,81.055,30.273,965.332,66.895,0.000
1727710814.063,66.895,26.367,968.750,51.758,0.000
1727710814.067,48.340,23.438,968.262,45.898,0.000
1727710814.071,48.828,24.902,968.262,47.363,0.000
1727710814.074,55.664,21.973,968.262,41.992,0.000
1727710814.078,58.105,20.508,968.262,40.527,0.000
1727710814.082,56.152,21.484,968.750,47.363,0.000
1727710814.086,41.016,21.973,966.309,46.387,0.000
1727710814.090,9.766,24.414,971.680,39.551,0.000
1727710814.094,23.438,22.949,948.730,47.363,0.000
1727710814.098,49.805,20.508,910.156,48.340,0.000
1727710814.102,41.992,20.996,878.906,43.945,0.000
1727710814.106,43.457,20.508,829.590,36.621,0.000
1727710814.110,28.809,14.160,821.289,20.996,0.000
1727710814.113,17.090,5.371,823.242,20.508,0.000
1727710814.117,25.391,3.418,786.621,18.066,0.000
1727710814.121,32.715,2.441,754.883,11.719,0.000
1727710814.125,31.738,6.348,711.914,17.578,0.000
1727710814.129,25.391,10.742,626.953,24.902,0.000
1727710814.133,33.691,13.184,598.145,25.391,0.000
1727710814.137,38.574,15.625,573.730,15.625,0.000
1727710814.141,35.645,10.254,524.902,13.672,0.000
1727710814.145,29.785,4.883,500.977,21.973,0.000
1727710814.149,13.184,7.324,461.426,15.137,0.000
1727710814.153,20.020,6.836,428.223,10.254,0.000
1727710814.156,38.574,4.395,375.488,20.508,0.000
1727710814.160,47.852,12.695,308.594,25.391,0.000
1727710814.164,42.480,13.672,265.137,22.949,0.000
1727710814.168,28.809,10.254,239.746,20.508,0.000
1727710814.172,31.250,12.695,225.586,28.320,0.000
1727710814.176,38.086,10.254,209.473,20.996,0.000
1727710814.180,34.668,1.953,193.848,9.277,0.000
1727710814.184,23.926,0.000,190.430,3.418,0.000
1727710814.188,6.836,-0.977,166.504,-2.930,0.000
1727710814.192,3.906,-1.953,160.156,-7.812,0.000
1727710814.195,18.066,-1.465,182.617,-4.395,0.000
1727710814.199,15.137,-5.371,200.684,5.859,0.000
1727710814.203,11.230,-7.812,194.824,0.000,0.000
1727710814.207,5.371,-8.301,169.434,-3.906,0.000
1727710814.211,1.953,-12.695,153.320,3.906,0.000
1727710814.215,16.602,-12.207,141.113,18.555,0.000
1727710814.219,14.648,-11.230,139.648,9.277,0.000
1727710814.223,-9.277,-11.230,142.578,-9.277,0.000
1727710814.227,-23.926,-15.137,134.766,-16.113,0.000
1727710814.231,-15.137,-18.555,120.605,-22.461,0.000
1727710814.235,1.953,-14.160,102.539,-7.812,0.000
1727710814.238,8.301,-8.789,88.379,1.953,0.000
1727710814.242,-0.488,-10.742,79.590,-0.488,0.000
1727710814.246,-20.020,-16.113,75.195,-12.207,0.000
1727710814.250,-33.691,-20.508,84.473,-28.809,0.000
1727710814.254,-22.949,-21.973,70.801,-28.809,0.000
1727710814.258,-1.465,-18.066,30.762,-10.254,0.000
1727710814.262,-1.465,-12.695,28.809,-0.977,0.000
1727710814.266,-24.414,-16.113,55.176,-18.066,0.000
1727710814.270,-34.668,-21.973,86.914,-23.926,0.000
1727710814.274,-9.277,-20.996,96.191,-19.043,0.000
1727710814.277,2.441,-21.973,85.449,-20.020,0.000
1727710814.281,-0.488,-21.484,81.543,-18.066,0.000
1727710814.285,-7.324,-14.648,60.547,-6.348,0.000
1727710814.289,-18.066,-11.719,46.875,6.836,0.000
1727710814.293,-26.855,-14.160,65.918,-7.812,0.000
1727710814.297,-23.438,-20.996,79.102,-25.879,0.000
1727710814.301,-7.812,-22.949,74.219,-20.020,0.000
1727710814.305,-17.578,-24.414,72.266,-19.531,0.000
1727710814.309,-30.762,-23.438,66.406,-23.438,0.000
1727710814.313,-27.832,-20.508,56.641,-18.066,0.000
1727710814.317,-19.531,-19.531,45.898,-24.414,0.000
1727710814.320,-3.418,-13.184,45.410,-22.949,0.000
1727710814.324,-15.137,-16.602,41.016,-14.648,0.000
1727710814.328,-27.832,-17.578,13.184,-20.996,0.000
1727710814.332,-14.648,-11.230,-0.977,-18.555,0.000
1727710814.336,-4.395,-12.207,28.320,-13.184,0.000
1727710814.340,-6.348,-20.020,62.012,-21.484,0.000
1727710814.344,-25.391,-24.414,65.430,-32.227,0.000
1727710814.348,-33.691,-27.832,54.199,-28.809,0.000
1727710814.352,-21.973,-23.926,44.434,-16.113,0.000
1727710814.356,-14.160,-15.137,44.922,-15.625,0.000
1727710814.360,-15.137,-16.113,42.480,-24.902,0.000
1727710814.363,-20.020,-16.602,34.180,-19.531,0.000
1727710814.367,-25.391,-13.672,34.668,-16.602,0.000
1727710814.371,-21.484,-15.137,30.273,-26.855,0.000
1727710814.375,-7.324,-20.996,22.949,-25.391,0.000
1727710814.379,-0.488,-24.414,20.508,-18.066,0.000
1727710814.383,-7.324,-16.602,17.090,-22.461,0.000
1727710814.387,-22.461,-16.602,26.367,-23.438,0.000
1727710814.391,-20.996,-19.043,27.344,-17.090,0.000
1727710814.395,-7.324,-19.531,3.418,-10.254,0.000
1727710814.399,2.930,-21.484,3.906,-9.277,0.000
1727710814.403,-5.371,-21.973,14.648,-22.949,0.000
1727710814.406,-24.902,-20.996,12.695,-23.438,0.000
1727710814.410,-32.715,-21.973,26.855,-20.996,0.000
1727710814.414,-17.578,-23.438,34.668,-22.461,0.000
1727710814.418,-18.555,-26.855,27.832,-23.438,0.000
1727710814.422,-26.855,-24.414,26.855,-20.508,0.000
1727710814.426,-39.551,-19.043,21.484,-25.391,0.000
1727710814.430,-47.852,-20.020,13.672,-31.738,0.000
1727710814.434,-30.762,-21.973,2.441,-31.250,0.000
1727710814.438,-18.066,-19.531,-5.371,-26.367,0.000
1727710814.442,-21.484,-21.484,7.324,-24.902,0.000
1727710814.446,-37.109,-24.414,14.160,-33.691,0.000
1727710814.449,-39.551,-23.438,10.742,-38.086,0.000
1727710814.453,-23.438,-25.879,4.883,-22.461,0.000
1727710814.457,-19.043,-29.297,-1.465,-17.090,0.000
1727710814.461,-24.414,-27.344,1.953,-27.832,0.000
1727710814.465,-31.250,-19.043,-3.906,-31.738,0.000
1727710814.469,-39.551,-19.043,-10.254,-32.227,0.000
1727710814.473,-25.879,-18.555,-0.488,-26.855,0.000
1727710814.477,-14.160,-14.648,3.906,-22.949,0.000
1727710814.481,-11.230,-14.648,-4.395,-20.020,0.000
1727710814.485,-20.020,-14.160,-25.391,-19.043,0.000
1727710814.488,-29.297,-12.695,-31.250,-20.508,0.000
1727710814.492,-27.344,-17.090,5.371,-29.785,0.000
1727710814.496,-20.020,-24.414,13.672,-33.203,0.000
1727710814.500,-17.578,-24.414,0.488,-27.344,0.000
1727710814.504,-37.109,-24.414,18.555,-36.133,0.000
1727710814.508,-42.969,-27.344,22.949,-41.016,0.000
1727710814.512,-26.367,-28.320,12.207,-37.109,0.000
1727710814.516,-20.508,-28.809,8.789,-31.738,0.000
1727710814.520,-23.438,-26.855,0.977,-23.926,0.000
1727710814.524,-46.387,-23.438,-7.324,-26.367,0.000
1727710814.528,-58.594,-19.043,-13.184,-24.414,0.000
1727710814.531,-44.434,-17.090,-25.391,-18.555,0.000
1727710814.535,-28.320,-20.508,-31.250,-15.625,0.000
1727710814.539,-19.043,-22.949,-20.020,-22.461,0.000
1727710814.543,-25.879,-25.879,4.883,-29.785,0.000
1727710814.547,-39.551,-25.879,20.508,-25.391,0.000
1727710814.551,-41.016,-26.367,16.113,-27.344,0.000
1727710814.555,-31.738,-26.855,4.883,-42.480,0.000
1727710814.559,-20.020,-22.461,-1.465,-36.133,0.000
1727710814.563,-33.691,-21.484,-10.742,-30.762,0.000
1727710814.567,-57.617,-25.391,-17.090,-43.457,0.000
1727710814.570,-48.828,-29.785,-20.508,-41.504,0.000
1727710814.574,-25.879,-31.250,-28.320,-33.203,0.000
1727710814.578,-28.809,-31.738,-10.742,-26.367,0.000
1727710814.582,-35.156,-33.203,11.230,-21.484,0.000
1727710814.586,-43.945,-29.785,18.555,-30.762,0.000
1727710814.590,-53.711,-26.367,12.695,-25.391,0.000
1727710814.594,-32.227,-26.367,2.441,-25.391,0.000
1727710814.598,-14.648,-26.367,4.883,-30.762,0.000
1727710814.602,-20.020,-27.832,7.324,-30.762,0.000
1727710814.606,-48.828,-28.809,-0.977,-45.410,0.000
1727710814.609,-58.594,-24.414,-5.859,-48.828,0.000
1727710814.613,-31.738,-24.902,-6.348,-38.574,0.000
1727710814.617,-17.090,-22.949,-17.578,-32.227,0.000
1727710814.621,-26.367,-22.461,-20.020,-32.715,0.000
1727710814.625,-52.246,-20.508,-1.465,-31.738,0.000
1727710814.629,-62.500,-21.484,1.953,-33.203,0.000
1727710814.633,-39.062,-23.926,-2.441,-31.250,0.000
1727710814.637,-22.949,-20.996,-5.371,-24.414,0.000
1727710814.641,-24.902,-20.996,-11.230,-26.855,0.000
1727710814.645,-39.062,-23.438,-6.836,-37.109,0.000
1727710814.649,-56.152,-26.367,-12.695,-43.945,0.000
1727710814.652,-39.551,-26.367,-22.949,-38.086,0.000
1727710814.656,-23.926,-22.949,-13.672,-35.645,0.000
1727710814.660,-25.879,-21.484,-6.348,-32.715,0.000
1727710814.664,-42.480,-18.555,-8.301,-42.480,0.000
1727710814.668,-53.711,-18.555,-8.789,-57.617,0.000
1727710814.672,-36.133,-16.602,-3.418,-56.152,0.000
1727710814.676,-28.320,-15.625,-4.395,-46.875,0.000
1727710814.680,-27.344,-19.043,-10.254,-35.645,0.000
1727710814.684,-35.156,-13.184,-25.391,-39.062,0.000
1727710814.688,-48.340,-17.090,-35.156,-37.109,0.000
1727710814.692,-35.645,-22.949,-20.508,-26.367,0.000
1727710814.695,-22.461,-21.484,-6.348,-29.785,0.000
1727710814.699,-28.809,-24.414,-3.418,-28.809,0.000
1727710814.703,-49.805,-24.414,-0.977,-30.762,0.000
1727710814.707,-60.547,-20.508,-6.836,-32.227,0.000
1727710814.711,-39.551,-14.160,-8.301,-25.391,0.000
1727710814.715,-23.926,-15.625,-0.488,-29.785,0.000
1727710814.719,-20.508,-18.555,-4.395,-34.668,0.000
1727710814.723,-30.762,-19.531,-9.766,-36.133,0.000
1727710814.727,-47.363,-22.461,-7.324,-37.598,0.000
1727710814.731,-50.293,-24.902,-15.625,-32.227,0.000
1727710814.735,-32.227,-25.879,-28.320,-35.645,0.000
1727710814.738,-24.414,-23.438,-24.414,-27.832,0.000
1727710814.742,-33.691,-25.879,-14.160,-20.996,0.000
1727710814.746,-50.781,-27.344,-9.766,-40.527,0.000
1727710814.750,-52.246,-25.879,-5.371,-44.922,0.000
1727710814.754,-40.527,-25.391,-2.930,-34.180,0.000
1727710814.758,-38.574,-25.391,-6.836,-31.250,0.000
1727710814.762,-39.062,-23.926,-34.668,-28.809,0.000
1727710814.766,-42.480,-25.879,-38.574,-29.785,0.000
1727710814.770,-42.969,-25.879,-5.859,-42.969,0.000
1727710814.774,-34.180,-25.391,-2.930,-48.828,0.000
1727710814.778,-29.297,-26.367,-11.719,-42.480,0.000
1727710814.781,-28.809,-22.461,-3.418,-44.434,0.000
1727710814.785,-40.039,-17.578,-0.977,-41.992,0.000
1727710814.789,-51.270,-16.113,-13.672,-34.180,0.000
1727710814.793,-32.715,-17.578,-24.902,-33.691,0.000
1727710814.797,-22.461,-19.531,-21.973,-31.738,0.000
1727710814.801,0.000,-19.531,-26.367,-27.832,0.000
1727710814.805,0.000,-14.160,-20.020,-29.785,0.000
1727710814.809,0.000,-16.602,-1.465,-40.527,0.000
1727710814.813,0.000,-20.508,-14.160,-40.527,0.000
1727710814.817,0.000,-22.461,-31.738,-23.926,0.000
1727710814.820,0.000,-18.555,-20.020,-27.344,0.000
1727710814.824,0.000,-11.719,-13.672,-40.039,0.000
1727710814.828,0.000,-15.625,-7.812,-41.992,0.000
1727710814.832,0.000,-12.695,-5.859,-49.805,0.000
1727710814.836,0.000,-8.789,-8.789,-49.805,0.000
1727710814.840,0.000,-9.766,-8.301,-37.109,0.000
1727710814.844,0.000,-10.742,-12.207,-28.809,0.000
1727710814.848,-41.504,-7.324,-18.555,-30.273,0.000
1727710814.852,-31.738,-6.836,-23.926,-37.598,0.000
1727710814.856,-18.555,-11.719,-27.344,-34.180,0.000
1727710814.860,-23.438,-18.555,-27.832,-33.203,0.000
1727710814.863,-38.574,-24.902,-32.227,-40.527,0.000
1727710814.867,-48.828,-22.461,-52.734,-41.992,0.000
1727710814.871,-47.363,-16.602,-58.594,-43.457,0.000
1727710814.875,-33.203,-16.602,-41.504,-38.086,0.000
1727710814.879,-19.531,-19.043,-26.367,-33.203,0.000
1727710814.883,-37.598,-22.949,-18.555,-34.180,0.000
1727710814.887,-54.688,-21.973,-18.066,-34.668,0.000
1727710814.891,-45.410,-17.090,-27.832,-30.762,0.000
1727710814.895,-25.879,-18.555,-31.250,-16.602,0.000
1727710814.899,-35.645,-19.043,-30.762,-28.320,0.000
1727710814.902,-49.805,-15.137,-30.273,-41.504,0.000
1727710814.906,-56.152,-13.672,-35.156,-41.992,0.000
1727710814.910,-53.223,-16.113,-30.762,-39.062,0.000
1727710814.914,-33.203,-24.414,-21.973,-30.762,0.000
1727710814.918,-22.949,-30.762,-22.949,-29.785,0.000
1727710814.922,-31.738,-27.344,-32.227,-29.785,0.000
1727710814.926,-50.293,-26.367,-36.621,-41.016,0.000
1727710814.930,-47.363,-28.320,-35.156,-45.898,0.000
1727710814.934,-31.250,-25.391,-43.457,-38.574,0.000
1727710814.938,-30.762,-23.438,-43.457,-37.109,0.000
1727710814.942,-37.109,-27.832,-33.691,-35.645,0.000
1727710814.945,-56.641,-31.250,-29.785,-45.410,0.000
1727710814.949,-51.758,-30.273,-33.203,-49.805,0.000
1727710814.953,-28.320,-30.273,-37.109,-40.039,0.000
1727710814.957,-25.879,-32.227,-40.527,-39.551,0.000
1727710814.961,-26.367,-25.879,-36.133,-37.109,0.000
1727710814.965,-35.156,-26.367,-25.391,-30.273,0.000
1727710814.969,-41.992,-27.344,-26.367,-31.738,0.000
1727710814.973,-24.902,-23.926,-29.297,-35.645,0.000
1727710814.977,-16.602,-27.832,-26.855,-26.855,0.000
1727710814.981,-29.785,-27.344,-42.969,-35.156,0.000
1727710814.984,-38.086,-28.809,-51.758,-51.758,0.000
1727710814.988,-47.852,-32.715,-41.992,-55.664,0.000
1727710814.992,-46.875,-34.668,-37.109,-46.875,0.000
1727710814.996,-36.133,-35.156,-40.039,-41.992,0.000
1727710815.000,-37.109,-37.109,-32.227,-43.457,0.000
1727710815.004,-44.922,-39.551,-25.391,-40.527,0.000
1727710815.008,-49.316,-34.180,-28.809,-40.039,0.000
1727710815.012,-44.434,-31.250,-34.180,-33.691,0.000
1727710815.016,-32.227,-30.273,-37.598,-32.227,0.000
1727710815.020,-27.832,-25.879,-37.109,-36.133,0.000
1727710815.023,-40.039,-28.320,-37.109,-33.691,0.000
1727710815.027,-41.992,-31.738,-31.738,-17.578,0.000
1727710815.031,-21.973,-35.645,-24.414,-11.230,0.000
1727710815.035,-22.461,-33.691,-31.250,-25.879,0.000
1727710815.039,-37.109,-25.391,-41.016,-46.875,0.000
1727710815.043,-34.668,-27.832,-33.203,-39.551,0.000
1727710815.047,-45.898,-28.320,-29.785,-37.109,0.000
1727710815.051,-45.898,-23.926,-32.715,-37.109,0.000
1727710815.055,-20.508,-25.391,-31.738,-27.832,0.000
1727710815.059,-16.602,-24.902,-36.133,-23.926,0.000
1727710815.063,-28.809,-24.902,-35.645,-21.973,0.000
1727710815.067,-34.180,-24.414,-38.574,-29.785,0.000
1727710815.070,-21.484,-22.461,-43.945,-21.973,0.000
1727710815.074,1.953,-22.461,-37.109,-6.348,0.000
1727710815.078,0.488,-24.414,-33.691,-4.883,0.000
1727710815.082,-17.090,-30.762,-27.832,-16.602,0.000
1727710815.086,-33.203,-38.086,-27.344,-32.715,0.000
1727710815.090,-30.273,-36.621,-30.273,-28.809,0.000
1727710815.094,-22.461,-35.156,-30.273,-20.020,0.000
1727710815.098,-24.414,-35.645,-33.691,-29.785,0.000
1727710815.102,-30.762,-36.621,-41.992,-33.203,0.000
1727710815.106,-37.598,-36.621,-39.551,-25.879,0.000
1727710815.110,-27.344,-37.598,-22.461,-22.461,0.000
1727710815.113,-20.508,-38.086,-16.602,-20.996,0.000
1727710815.117,-16.602,-34.180,-29.785,-15.625,0.000
1727710815.121,-20.996,-36.621,-39.551,-15.137,0.000
1727710815.125,-41.504,-43.945,-32.227,-20.508,0.000
1727710815.129,-40.039,-45.898,-25.879,-26.367,0.000
1727710815.133,-27.832,-42.969,-22.949,-27.344,0.000
1727710815.137,-29.785,-43.457,-31.250,-35.645,0.000
1727710815.141,-34.668,-47.852,-42.969,-34.180,0.000
1727710815.145,-45.898,-47.852,-43.457,-34.668,0.000
1727710815.149,-45.410,-42.480,-39.551,-43.457,0.000
1727710815.152,-21.484,-33.691,-41.504,-26.367,0.000
1727710815.156,-13.672,-27.832,-53.223,-22.461,0.000
1727710815.160,-16.113,-25.391,-48.828,-22.949,0.000
1727710815.164,-27.832,-26.367,-51.270,-20.508,0.000
1727710815.168,-43.457,-31.738,-45.410,-30.762,0.000
1727710815.172,-30.762,-30.273,-22.949,-33.203,0.000
1727710815.176,-15.625,-27.832,-24.902,-32.227,0.000
1727710815.180,-15.625,-29.297,-35.645,-32.227,0.000
1727710815.184,-31.250,-29.297,-50.781,-38.086,0.000
1727710815.188,-50.293,-29.785,-52.734,-40.527,0.000
1727710815.192,-42.969,-31.738,-39.551,-38.086,0.000
1727710815.195,-38.086,-33.691,-32.715,-35.156,0.000
1727710815.199,-41.992,-33.203,-35.156,-38.574,0.000
1727710815.203,-45.898,-28.809,-37.109,-37.598,0.000
1727710815.207,-50.781,-27.832,-29.297,-32.715,0.000
1727710815.211,-39.551,-26.367,-34.180,-34.668,0.000
1727710815.215,-24.414,-20.996,-41.504,-33.203,0.000
1727710815.219,-30.273,-24.902,-33.691,-31.250,0.000
1727710815.223,-42.969,-26.367,-32.227,-29.297,0.000
1727710815.227,-51.758,-22.461,-43.945,-34.180,0.000
1727710815.231,-54.688,-29.297,-34.668,-38.574,0.000
1727710815.235,-39.062,-31.250,-22.949,-31.250,0.000
1727710815.238,-31.738,-29.785,-30.762,-20.996,0.000
1727710815.242,-43.945,-32.715,-39.551,-30.762,0.000
1727710815.246,-49.316,-31.250,-36.133,-29.785,0.000
1727710815.250,-38.574,-24.902,-40.039,-12.695,0.000
1727710815.254,-22.461,-24.902,-50.293,-13.184,0.000
1727710815.258,-26.367,-26.367,-41.016,-25.879,0.000
1727710815.262,-40.039,-26.367,-53.711,-31.250,0.000
1727710815.266,-41.504,-23.926,-71.289,-25.879,0.000
1727710815.270,-37.109,-23.438,-45.410,-32.227,0.000
1727710815.274,-32.715,-32.715,-14.648,-41.504,0.000
1727710815.277,-35.156,-36.133,-10.742,-39.551,0.000
1727710815.281,-32.227,-28.809,-16.602,-27.344,0.000
1727710815.285,-40.527,-25.391,-19.043,-27.344,0.000
1727710815.289,-40.039,-26.367,-35.156,-30.273,0.000
1727710815.293,-17.090,-21.973,-51.270,-19.531,0.000
1727710815.297,-15.625,-22.461,-45.898,-20.020,0.000
1727710815.301,-30.762,-23.438,-35.645,-30.762,0.000
1727710815.305,-45.898,-21.484,-33.691,-31.738,0.000
1727710815.309,-47.852,-25.391,-30.273,-33.691,0.000
1727710815.313,-31.738,-28.809,-26.367,-30.273,0.000
1727710815.316,-24.414,-26.855,-34.668,-27.832,0.000
1727710815.320,-28.320,-23.438,-43.945,-35.645,0.000
1727710815.324,-36.133,-23.438,-42.969,-27.832,0.000
1727710815.328,-38.086,-21.484,-47.852,-24.414,0.000
1727710815.332,-26.367,-21.973,-50.293,-31.250,0.000
1727710815.336,-18.066,-25.391,-38.574,-27.832,0.000
1727710815.340,-31.738,-22.949,-45.410,-23.926,0.000
1727710815.344,-47.852,-21.484,-50.781,-34.668,0.000
1727710815.348,-48.828,-22.461,-34.668,-43.457,0.000
1727710815.352,-40.527,-25.391,-26.855,-44.434,0.000
1727710815.356,-33.691,-24.414,-26.367,-41.504,0.000
1727710815.359,-37.109,-27.344,-26.367,-41.992,0.000
1727710815.363,-45.410,-25.879,-33.691,-45.898,0.000
1727710815.367,-50.293,-20.020,-31.738,-39.551,0.000
1727710815.371,-48.340,-22.949,-32.227,-29.785,0.000
1727710815.375,-41.504,-23.926,-39.551,-29.785,0.000
1727710815.379,-37.598,-26.855,-39.062,-37.598,0.000
1727710815.383,-40.039,-25.879,-42.969,-41.016,0.000
1727710815.387,-48.340,-20.996,-47.363,-41.992,0.000
1727710815.391,-40.039,-26.855,-44.922,-40.039,0.000
1727710815.395,-23.926,-31.738,-48.340,-32.227,0.000
1727710815.398,-24.902,-30.273,-53.223,-31.250,0.000
1727710815.402,-37.598,-26.367,-49.805,-39.062,0.000
1727710815.406,-55.664,-22.949,-50.781,-45.898,0.000
1727710815.410,-50.293,-22.949,-53.223,-44.922,0.000
1727710815.414,-39.551,-22.461,-52.734,-44.434,0.000
1727710815.418,-35.156,-22.461,-50.293,-48.828,0.000
1727710815.422,-43.945,-23.438,-43.945,-45.898,0.000
1727710815.426,-52.734,-21.973,-40.039,-33.203,0.000
1727710815.430,-37.109,-20.020,-39.551,-38.086,0.000
1727710815.434,-22.461,-25.879,-40.039,-47.363,0.000
1727710815.438,-24.414,-30.273,-43.457,-38.574,0.000
1727710815.441,-27.832,-28.809,-42.969,-43.457,0.000
1727710815.445,-29.785,-29.297,-40.039,-45.898,0.000
1727710815.449,-28.320,-28.809,-41.504,-35.156,0.000
1727710815.453,-17.090,-25.391,-44.434,-34.668,0.000
1727710815.457,-11.230,-19.043,-40.039,-29.785,0.000
1727710815.461,-20.508,-19.043,-37.598,-28.809,0.000
1727710815.465,-41.504,-22.949,-45.898,-41.504,0.000
1727710815.469,-34.668,-18.555,-49.805,-36.133,0.000
1727710815.473,-23.438,-19.531,-48.828,-33.691,0.000
1727710815.477,-21.484,-20.508,-53.711,-40.039,0.000
1727710815.481,-26.855,-22.949,-43.457,-35.645,0.000
1727710815.484,-47.363,-26.855,-32.715,-46.387,0.000
1727710815.488,-47.363,-27.832,-38.086,-44.922,0.000
1727710815.492,-31.250,-24.414,-50.293,-36.133,0.000
1727710815.496,-31.738,-20.020,-37.598,-40.039,0.000
1727710815.500,-40.039,-24.414,-14.160,-40.527,0.000
1727710815.504,-50.781,-27.832,-20.508,-37.598,0.000
1727710815.508,-48.340,-24.902,-33.691,-42.969,0.000
1727710815.512,-44.434,-23.438,-35.645,-44.922,0.000
1727710815.516,-36.621,-20.020,-40.039,-41.504,0.000
1727710815.520,-27.832,-20.508,-44.434,-38.086,0.000
1727710815.524,-38.086,-19.531,-34.668,-36.133,0.000
1727710815.527,-41.504,-20.996,-33.203,-43.457,0.000
1727710815.531,-29.785,-29.785,-32.227,-40.527,0.000
1727710815.535,-27.344,-26.855,-33.203,-30.273,0.000
1727710815.539,-39.551,-23.926,-43.945,-31.738,0.000
1727710815.543,-43.945,-22.461,-53.711,-35.645,0.000
1727710815.547,-41.504,-12.695,-53.711,-27.832,0.000
1727710815.551,0.000,-17.090,-44.922,-28.809,0.000
1727710815.555,0.000,-21.484,-45.410,-30.762,0.000
1727710815.559,0.000,-20.996,-42.969,-32.715,0.000
1727710815.563,0.000,-21.973,-28.809,-35.645,0.000
1727710815.567,0.000,-23.438,-21.484,-44.922,0.000
1727710815.570,0.000,-23.926,-22.461,-42.480,0.000
1727710815.574,0.000,-24.414,-29.297,-28.809,0.000
1727710815.578,0.000,-27.344,-36.621,-28.809,0.000
1727710815.582,0.000,-30.273,-36.621,-12.207,0.000
1727710815.586,0.000,-29.297,-36.133,-20.508,0.000
1727710815.590,0.000,-24.902,-35.645,-35.156,0.000
1727710815.594,0.000,-22.949,-41.504,-43.945,0.000
1727710815.598,-34.668,-20.020,-48.340,-42.969,0.000
1727710815.602,-36.621,-16.602,-45.410,-38.086,0.000
1727710815.606,-48.828,-15.137,-45.898,-52.246,0.000
1727710815.609,-56.152,-14.648,-51.758,-56.641,0.000
1727710815.613,-46.875,-20.020,-42.969,-42.969,0.000
1727710815.617,-31.250,-24.902,-36.133,-32.715,0.000
1727710815.621,-40.527,-22.461,-38.574,-39.062,0.000
1727710815.625,-54.688,-22.461,-33.691,-43.945,0.000
1727710815.629,-53.711,-23.438,-35.645,-40.527,0.000
1727710815.633,-44.434,-26.367,-37.109,-37.109,0.000
1727710815.637,-28.320,-26.855,-37.109,-37.598,0.000
1727710815.641,-37.109,-21.973,-44.434,-47.852,0.000
1727710815.645,-62.500,-22.949,-41.504,-58.105,0.000
1727710815.649,-54.688,-29.297,-42.969,-50.781,0.000
1727710815.652,-33.691,-27.344,-54.688,-48.340,0.000
1727710815.656,-34.180,-23.926,-46.875,-53.711,0.000
1727710815.660,-48.340,-29.297,-40.527,-46.387,0.000
1727710815.664,-61.035,-29.785,-44.922,-56.152,0.000
1727710815.668,-57.129,-30.273,-34.668,-49.316,0.000
1727710815.672,-43.945,-29.785,-35.156,-24.902,0.000
1727710815.676,-31.738,-27.832,-48.340,-29.785,0.000
1727710815.680,-31.250,-24.902,-47.363,-41.992,0.000
1727710815.684,-50.293,-24.902,-41.992,-41.992,0.000
1727710815.688,-57.617,-25.879,-35.645,-32.715,0.000
1727710815.691,0.000,-24.902,-26.855,-23.926,0.000
1727710815.695,0.000,-29.785,-35.645,-26.855,0.000
1727710815.699,0.000,-29.785,-43.457,-36.621,0.000
1727710815.703,0.000,-29.785,-38.574,-40.527,0.000
1727710815.707,0.000,-28.809,-41.016,-29.297,0.000
1727710815.711,0.000,-26.855,-44.922,-20.996,0.000
1727710815.715,0.000,-28.320,-40.039,-21.484,0.000
1727710815.719,0.000,-29.785,-40.527,-21.484,0.000
1727710815.723,0.000,-28.809,-41.016,-32.715,0.000
1727710815.727,0.000,-27.344,-38.086,-36.133,0.000
1727710815.731,0.000,-29.297,-34.668,-30.273,0.000
1727710815.734,0.000,-29.785,-30.762,-22.461,0.000
1727710815.738,-29.297,-32.715,-29.785,-23.926,0.000
1727710815.742,-34.180,-30.762,-32.227,-30.762,0.000
1727710815.746,-42.969,-24.414,-40.039,-34.668,0.000
1727710815.750,-38.086,-22.949,-43.457,-31.250,0.000
1727710815.754,-21.973,-23.438,-39.551,-23.926,0.000
1727710815.758,-15.137,-23.926,-38.086,-13.672,0.000
1727710815.762,-34.668,-22.461,-39.551,-21.484,0.000
1727710815.766,-41.016,-23.926,-40.527,-29.297,0.000
1727710815.770,-20.020,-27.344,-48.828,-22.949,0.000
1727710815.773,-23.438,-31.738,-47.852,-20.508,0.000
1727710815.777,-27.832,-26.855,-39.062,-17.090,0.000
1727710815.781,-35.156,-28.320,-45.410,-24.902,0.000
1727710815.785,-50.781,-33.203,-40.039,-25.879,0.000
1727710815.789,-37.598,-34.668,-33.203,-18.555,0.000
1727710815.793,-21.484,-34.180,-44.434,-28.320,0.000
1727710815.797,-14.648,-25.879,-51.758,-29.785,0.000
1727710815.801,-29.785,-21.484,-49.316,-32.715,0.000
1727710815.805,-40.527,-25.879,-42.969,-41.504,0.000
1727710815.809,-31.250,-27.832,-39.062,-32.227,0.000
1727710815.813,-32.227,-28.809,-35.645,-27.832,0.000
1727710815.816,-27.344,-27.832,-48.340,-33.203,0.000
1727710815.820,-16.113,-18.555,-90.820,-26.855,0.000
1727710815.824,-38.086,-21.484,-100.586,-34.180,0.000
1727710815.828,-54.199,-28.320,-74.707,-45.410,0.000
1727710815.832,0.000,-31.250,-60.547,-34.180,0.000
1727710815.836,0.000,-33.691,-61.523,-28.320,0.000
1727710815.840,0.000,-30.762,-70.801,-24.902,0.000
1727710815.844,0.000,-35.156,-68.848,-29.297,0.000
1727710815.848,0.000,-35.645,-70.312,-25.879,0.000
1727710815.852,0.000,-31.250,-84.961,-19.043,0.000
1727710815.856,0.000,-32.715,-82.520,-26.367,0.000
1727710815.859,0.000,-33.203,-73.242,-39.062,0.000
1727710815.863,0.000,-32.715,-78.613,-45.410,0.000
1727710815.867,0.000,-29.297,-83.984,-31.250,0.000
1727710815.871,0.000,-30.762,-77.148,-37.598,0.000
1727710815.875,0.000,-37.598,-67.383,-50.781,0.000
1727710815.879,-48.340,-35.156,-56.152,-42.969,0.000
1727710815.883,-61.523,-31.250,-62.012,-46.875,0.000
1727710815.887,-52.734,-27.832,-69.824,-35.645,0.000
1727710815.891,-35.645,-24.414,-59.570,-19.531,0.000
1727710815.895,-34.180,-26.855,-46.875,-23.438,0.000
1727710815.899,-35.645,-26.855,-60.059,-28.320,0.000
1727710815.902,-37.598,-20.508,-62.012,-35.156,0.000
1727710815.906,-36.133,-23.438,-42.969,-38.086,0.000
1727710815.910,-29.297,-28.809,-42.480,-27.832,0.000
1727710815.914,-24.414,-29.785,-49.316,-27.832,0.000
1727710815.918,-29.297,-29.785,-46.875,-33.691,0.000
1727710815.922,-41.992,-28.809,-51.758,-39.551,0.000
1727710815.926,-43.457,-25.879,-59.570,-46.387,0.000
1727710815.930,-25.879,-23.438,-53.223,-25.879,0.000
1727710815.934,-19.043,-28.809,-56.641,-22.949,0.000
1727710815.938,-17.578,-27.832,-57.617,-37.109,0.000
1727710815.942,-29.297,-25.391,-54.688,-37.598,0.000
1727710815.945,-40.527,-27.344,-53.711,-37.109,0.000
1727710815.949,-39.551,-26.367,-59.570,-37.109,0.000
1727710815.953,-23.438,-27.832,-57.617,-34.180,0.000
1727710815.957,-14.648,-31.738,-48.828,-39.062,0.000
1727710815.961,-41.016,-30.273,-53.223,-32.715,0.000
1727710815.965,-52.246,-30.762,-54.199,-33.203,0.000
1727710815.969,-29.785,-36.133,-57.129,-38.086,0.000
1727710815.973,0.000,-41.992,-57.129,-32.227,0.000
1727710815.977,0.000,-42.480,-56.152,-40.039,0.000
1727710815.981,0.000,-40.039,-50.781,-37.598,0.000
1727710815.984,0.000,-41.504,-48.828,-26.855,0.000
1727710815.988,0.000,-41.504,-50.293,-30.762,0.000
1727710815.992,0.000,-41.016,-54.199,-36.133,0.000
1727710815.996,0.000,-39.551,-61.035,-36.621,0.000
1727710816.000,0.000,-36.621,-59.570,-31.250,0.000
1727710816.004,0.000,-38.086,-54.688,-31.738,0.000
1727710816.008,0.000,-41.016,-45.410,-40.039,0.000
1727710816.012,0.000,-41.992,-46.387,-35.645,0.000
1727710816.016,0.000,-41.016,-47.363,-36.621,0.000
1727710816.020,-35.156,-36.133,-39.551,-36.133,0.000
1727710816.024,-47.852,-37.598,-40.527,-36.133,0.000
1727710816.027,-41.504,-39.551,-42.969,-33.691,0.000
1727710816.031,-29.297,-39.551,-38.574,-36.133,0.000
1727710816.035,-26.855,-36.133,-34.668,-32.227,0.000
1727710816.039,-21.973,-32.715,-33.691,-19.531,0.000
1727710816.043,-35.645,-36.621,-42.480,-15.625,0.000
1727710816.047,-45.898,-35.156,-47.363,-15.137,0.000
1727710816.051,-30.762,-34.668,-44.434,-18.066,0.000
1727710816.055,-30.762,-32.715,-44.434,-25.391,0.000
1727710816.059,-55.176,-37.598,-41.504,-34.180,0.000
1727710816.063,-71.777,-42.969,-39.062,-49.316,0.000
1727710816.066,-73.730,-38.086,-43.945,-51.270,0.000
