,TP9,AF7,AF8,TP10
0,12.531223150023827,4.090871321868091,-16.11737172069536,3.1081492129427093
1,12.578117215003404,3.8584888689547823,-16.19223757148319,2.990883023154696
2,12.70105191717408,3.66141152881835,-16.288717162419232,2.882929485906743
3,12.876615674955469,3.4868245670944154,-16.43982116608912,2.8063634093003906
4,13.051443500040662,3.313285984029094,-16.648365204151972,2.7721305419740223
5,13.14510976718127,3.125525569769889,-16.881056878964916,2.7469738324807524
6,13.098492001268523,2.9134711067137173,-17.096104550862663,2.6941962917402202
7,13.0022695711985,2.679212254723578,-17.253766998609898,2.6181701267195696
8,12.962724228558553,2.4302961134028056,-17.343200218444863,2.538673958144634
9,12.916199943907602,2.1685330499297755,-17.377790297184404,2.4770881392710202
10,12.781148429591518,1.891185913623207,-17.36639890844562,2.4489400323444572
11,12.611830383536512,1.592715079079248,-17.30530080321708,2.442009879292408
12,12.466786708319471,1.2637064451413322,-17.204235632172328,2.431056883588914
13,12.322907117472461,0.8894960217174344,-17.089716155836427,2.3973718416120686
14,12.14182285625002,0.4605618993098665,-16.97595247871466,2.326754844656951
15,11.861137869012522,-0.016152007456638334,-16.861364493129436,2.2117763735267664
16,11.444040858305007,-0.5258390598691669,-16.73584099035478,2.0534258181138005
17,11.007712094517554,-1.0548149133838989,-16.59359077803952,1.859715776404218
18,10.67343148618854,-1.5909283746907568,-16.429459791662552,1.6404236244768609
19,10.369172612107928,-2.123918677633313,-16.238741287612903,1.4005645128456599
20,9.999336184596565,-2.6496578820740995,-16.019985905930323,1.1456975790898432
21,9.599651178164315,-3.177675613735182,-15.772207165913272,0.8837417600728565
22,9.226982308900778,-3.717052078910303,-15.497736903380822,0.6253274671465757
23,8.92166076244152,-4.256560138925106,-15.208694450335832,0.3940040572441307
24,8.701278123292068,-4.78330478698844,-14.912828059075851,0.2064563805223813
25,8.464972375334755,-5.302549377751958,-14.613254070780261,0.04483553222617197
26,8.11166903612629,-5.822526301615364,-14.298649507380429,-0.11417339170453064
27,7.722010851285763,-6.345202433173561,-13.957597739960056,-0.27185289156468395
28,7.395595175190953,-6.869954022817963,-13.581930008706337,-0.4215542458229352
29,7.075411641695924,-7.388617010728881,-13.187244522391225,-0.5525409498619278
30,6.686937834252762,-7.894175937522115,-12.782273987378165,-0.6579981031473972
31,6.240977019293955,-8.391545454006586,-12.371001022150345,-0.7505348704947045
32,5.761798137316472,-8.886908542898958,-11.935829522146207,-0.8517201550515748
33,5.282500029020114,-9.387645403008577,-11.443431224962705,-0.9819877403372799
34,4.833501128973587,-9.89005638501646,-10.90144990518374,-1.152870019813195
35,4.35148698827812,-10.349492671791134,-10.361899541028375,-1.357385797253639
36,3.787023449413819,-10.72398242527923,-9.848448049211667,-1.574424681322299
37,3.2777042715985183,-11.030204276716004,-9.34204595132124,-1.7709914470079968
38,2.959572846017159,-11.292938991892001,-8.832784899589267,-1.9180228205829002
39,2.75671787182767,-11.53402489089253,-8.348538285760178,-2.0112587345256654
40,2.560270685268977,-11.751554446286308,-7.923751493149048,-2.057586553069067
41,2.367089102799688,-11.936169966431502,-7.556194555215635,-2.0637521263034553
42,2.201105423907676,-12.097148992303158,-7.212148720232551,-2.03667237572479
43,2.121371502061258,-12.245567819909327,-6.8619907456527045,-1.9715650131287814
44,2.170634709199885,-12.374822943181975,-6.513998993103682,-1.8678861243544722
45,2.24272299071946,-12.491144951331695,-6.2019707848374885,-1.7533672236899545
46,2.2139718653548854,-12.602379017085227,-5.930566801169188,-1.6598859146359453
47,2.109175322269488,-12.722412174788275,-5.6588343104902705,-1.6022787923666075
48,1.9780682415632995,-12.86779025216275,-5.335413754703452,-1.585846385468177
49,1.7910605613042145,-13.054064605880882,-4.930138370331421,-1.6045402782312275
50,1.51413761752754,-13.290567937885331,-4.442556570035522,-1.6500785946358287
51,1.1254058523421087,-13.571795236882306,-3.8868983655941767,-1.730117081335035
52,0.6093641520875084,-13.889079554126145,-3.2752816818550126,-1.8584808822783738
53,0.02785819486827601,-14.245349496333917,-2.6053237558224778,-2.04119600443918
54,-0.5734744460565355,-14.647356585224706,-1.8768645931629528,-2.2862333385370275
55,-1.3302308992121072,-15.098134676500322,-1.0922046307630833,-2.6124830945011617
56,-2.3714003331269016,-15.601953140848353,-0.26019946960576146,-3.0344925142291226
57,-3.6014013823706135,-16.164693482455206,0.6307699713222253,-3.5493988279273
58,-4.895436172169263,-16.78769848264974,1.6318714499370048,-4.144941234811311
59,-6.253671312250845,-17.47200324340446,2.787789279808447,-4.80632828321991
60,-7.690224778302469,-18.173651279464313,4.000873545784105,-5.511930409276612
61,-9.231948060866586,-18.77929151544415,5.045228851081201,-6.2348704148091505
62,-10.877732754024947,-19.221121639455895,5.796010139718318,-6.952600016732711
63,-12.471875463973692,-19.53150708952666,6.276967947254365,-7.633293353032976
64,-13.86609583530746,-19.785327360701192,6.559697102842494,-8.263808799900993
65,-15.14041510157885,-20.083359877232304,6.738239178348608,-8.906312959297445
66,-16.424409043721337,-20.47682425655869,6.912725139040987,-9.620446293263852
67,-17.711404251112285,-20.94512753087922,7.176680157718224,-10.37825959812612
68,-18.682644898586997,-21.528862718159278,7.85775346170375,-10.948007790335716
69,-19.5692720574158,-22.056800688393363,8.546190124559068,-11.49942237885668
70,-20.32256427851303,-22.54259433114032,9.231002000779224,-12.011892814647219
71,-21.041128894033143,-22.988393162239262,9.903452580155102,-12.508048298689452
72,-21.847627290470776,-23.39905025589583,10.56728374357043,-13.016717618521076
73,-22.657315264129323,-23.762557066302005,11.221300915849667,-13.511897266938394
74,-23.34814039532837,-24.065069864829248,11.8632634793661,-13.95969772404392
75,-23.977127956149317,-24.318662792052585,12.482363652092978,-14.372568447504252
76,-24.628767453172994,-24.543423224830867,13.065840278170315,-14.773079548163839
77,-25.29329551820074,-24.75253560017165,13.605400310751392,-15.167084763415952
78,-25.934581665583323,-24.95260194524318,14.101294976713966,-15.55600540531236
79,-26.46978093018576,-25.13085628126271,14.572701709994156,-15.927788660574627
80,-26.83039990604552,-25.271076462641343,15.03890740953043,-16.27029147488033
81,-27.12950415121023,-25.379668608003094,15.516240316374958,-16.605959578724224
82,-27.513316471149587,-25.47231010317174,16.00070817252276,-16.962277562275656
83,-27.93845122297703,-25.562412057308144,16.467605680390864,-17.33145169755251
84,-28.31375377745612,-25.660520543453558,16.90126822275545,-17.693381416786536
85,-28.65003351215068,-25.76339353504598,17.29676133221765,-18.03559387719752
86,-28.970894055310772,-25.86212805339782,17.65702712179457,-18.34441445236059
87,-29.276632639670595,-25.95764734053303,17.972462850984154,-18.610887717255935
88,-29.563918618642735,-26.05245960529337,18.238592220316093,-18.827556020886778
89,-29.764007397353613,-26.144358014455126,18.46384911603756,-18.969077212996712
90,-29.8140236142979,-26.22886231341211,18.667399161310357,-19.01596867822643
91,-29.813376309496746,-26.294856001885357,18.860267141406126,-18.98715456596918
92,-29.883590550285565,-26.332277348083895,19.040539772065774,-18.9159075668096
93,-29.963534533823758,-26.344617835563806,19.205457662645554,-18.82734727853052
94,-29.96102326237277,-26.34088311079549,19.35743621287472,-18.7403581981947
95,-29.912672263373487,-26.32758701081439,19.518984698076213,-18.65511063327482
96,-29.881318734084537,-26.307617003037056,19.718936641798958,-18.563293535883734
97,-29.91593888886304,-26.276083120705117,19.957518153782512,-18.475756147704665
98,-30.042192511094754,-26.223030246807127,20.208156024273293,-18.402267609775375
99,-30.14470901900944,-26.137471895361593,20.447385265519213,-18.32363403972671
100,-30.095222099986294,-26.01211117740701,20.66478417261681,-18.214429434804178
101,-29.98551312385492,-25.85046111085852,20.851717462810505,-18.068617649957886
102,-29.94969020973893,-25.663273101287675,21.002613614394036,-17.890499787568938
103,-29.93753554896121,-25.461858016267676,21.10747371198593,-17.67852024809811
104,-29.861523703481513,-25.257479842359373,21.153990372982996,-17.44405509683419
105,-29.715370986731028,-25.062043895500768,21.148695836630733,-17.24165961888987
106,-29.51248475650653,-24.881761738647185,21.11897308500063,-17.123631194426515
107,-29.310404873153292,-24.708793801043967,21.08539842264973,-17.085047028838822
108,-29.167589295488163,-24.531238483471686,21.05073491467117,-17.094546037609472
109,-28.993964607921093,-24.343766977903293,21.00324230195787,-17.11803595009377
110,-28.684948622043674,-24.144038120398974,20.928230719253268,-17.12374733692597
111,-28.341321705540224,-23.93659825073775,20.820316420897043,-17.112967961490128
112,-28.092864271840995,-23.72356593228757,20.69411950540538,-17.09722633332036
113,-27.8921549742451,-23.483339830364468,20.57036983669592,-17.056499218168806
114,-27.648833071445466,-23.19171111564617,20.466538404266224,-16.965281969027725
115,-27.324181765656597,-22.85007434692201,20.372289260308435,-16.81531959395027
116,-26.902531091175717,-22.470318529946347,20.265792117412904,-16.60729939294127
117,-26.452677762773956,-22.06322201436237,20.114622900529916,-16.359922018235235
118,-26.059990197543016,-21.64115465737658,19.901677592002656,-16.095060162313153
119,-25.664126601176132,-21.207475238593087,19.6271091255256,-15.805187366524954
120,-25.183035601464475,-20.764994274176768,19.300453686154746,-15.477994269503354
121,-24.688434942124974,-20.337625553085616,18.94343311519227,-15.124344480069395
122,-24.272536454718924,-19.948343398880695,18.596203399975288,-14.762583311568688
123,-23.92674730733857,-19.591642744315624,18.300637194831523,-14.418421699119765
124,-23.607077047587225,-19.250982110885268,18.072290386864186,-14.109619023670254
125,-23.231587999509422,-18.913152738283433,17.889044788221206,-13.80836631054943
126,-22.727314559357527,-18.56804327896775,17.71468739978871,-13.47778146093078
127,-22.172582370553997,-18.21693005820439,17.508405106830274,-13.119199711636767
128,0.11986034040708946,-13.034708376828632,-1.907557006290044,2.088523803655617
129,0.31247397488257056,-13.2204198468025,-2.408384537933047,2.2247504927766464
130,0.5313031332910231,-13.4224222372738,-2.8777871953172505,2.299580803076241
131,0.7458761687196145,-13.633767701108473,-3.335316257887906,2.3372892548698703
132,0.9223489362902709,-13.857917554310148,-3.8246745144691308,2.374724355898076
133,1.064259180670683,-14.119500419629482,-4.3462062622341175,2.409347908387441
134,1.1758234135569596,-14.438437681767036,-4.836967639754782,2.4291824078974136
135,1.3003772840821084,-14.8037890943259,-5.230221295223679,2.4421844644420374
136,1.4642971229162092,-15.18582464594954,-5.50480078683942,2.4535461309878057
137,1.5548713804286454,-15.558983249823488,-5.701602032020871,2.4557667411690396
138,1.4664959711523757,-15.910281430722833,-5.8775926133874945,2.4366541524371685
139,1.284822275660569,-16.23531230148559,-6.069236765720765,2.378921556403949
140,1.121476587927725,-16.532490167672528,-6.280043094357415,2.2665968300773263
141,0.9610949863474431,-16.796541096978093,-6.533389400989938,2.093901735284603
142,0.7660509786329088,-17.016982182610267,-6.885588197309268,1.8666427935175913
143,0.5173225579906255,-17.190072529516527,-7.3505503335132065,1.599797920915547
144,0.20945717793016677,-17.33084909202214,-7.871916547399245,1.3142158953509726
145,-0.07138035279668746,-17.464082503262315,-8.362053812543316,1.039620990041576
146,-0.24314754977479894,-17.60640802932362,-8.741868460086414,0.7921453999531555
147,-0.3869597635602089,-17.76856007769677,-8.965831741469554,0.5472080016515828
148,-0.5956558943000154,-17.958628328181934,-9.036174155557767,0.2688679334285893
149,-0.8054825120774124,-18.165675141711763,-9.023998164364768,-0.0639791886871009
150,-0.9398952508414969,-18.375435131103774,-9.034201403671366,-0.4599155981682152
151,-1.0123035136087177,-18.57831640349415,-9.119401703597196,-0.9005831975527844
152,-1.0615958630037357,-18.770151815176316,-9.265832661573299,-1.3588697990260936
153,-1.1702909304755469,-18.96292949010605,-9.444268276402257,-1.8395575606975532
154,-1.4000256500961776,-19.165400114763262,-9.639831698684837,-2.3426784953189426
155,-1.6425273923525914,-19.368235600404283,-9.842974374683076,-2.816878866388547
156,-1.7795982105951205,-19.552628300686017,-10.033634991374992,-3.212810867597948
157,-1.8865110699471555,-19.712675496799296,-10.18796829793903,-3.530056226078045
158,-2.0635512770834024,-19.857955558497274,-10.296690960152404,-3.7888393488412135
159,-2.2874656199018455,-19.98486460549907,-10.382024137412092,-4.017948651453367
160,-2.5136372011852313,-20.069507664587086,-10.49070209411005,-4.246859617699775
161,-2.707600641768641,-20.090319068482845,-10.693563580753816,-4.479005408423101
162,-2.844526623312573,-20.04074041021846,-11.028629175677217,-4.708359323665172
163,-2.996380342596869,-19.92724903093993,-11.450950276749959,-4.94321362348768
164,-3.2284140145044775,-19.763782877600278,-11.837625490759574,-5.188443992523156
165,-3.4287997393028617,-19.557000184248896,-12.067153483032099,-5.437941330848012
166,-3.481963853477878,-19.310591689394524,-12.11354582780116,-5.678822147434476
167,-3.4591256490987607,-19.019219166990332,-12.022440353765642,-5.880787933585375
168,-3.4595698940500283,-18.68616627219677,-11.856981088278657,-6.021418556314019
169,-3.4933645708285868,-18.327741772565037,-11.64146236916903,-6.117921939671122
170,-3.5463570324094627,-17.970025030656117,-11.348770076791528,-6.199343847391219
171,-3.5589524447866907,-17.610308550340804,-10.946727521058875,-6.285724178025703
172,-3.4779117794276257,-17.214741632036354,-10.470385908252942,-6.385038962597036
173,-3.4054608453474398,-16.762712604760384,-10.025475340600464,-6.47740982983986
174,-3.4423854554089512,-16.257590406518922,-9.704234096244397,-6.538448693947821
175,-3.462046424178389,-15.70362216598373,-9.5162228525741,-6.563676049797201
176,-3.332950233493519,-15.114498954666931,-9.411571511276072,-6.5649305952475485
177,-3.1498242149978837,-14.495708904113204,-9.293096368233392,-6.575096004480628
178,-3.0324640906192335,-13.855055057079023,-8.990554826333987,-6.619714062475635
179,-2.98894917208511,-13.201165966925823,-8.362373021527135,-6.695020060311926
180,-2.984352506920782,-12.5466805397548,-7.428998615010848,-6.768473648982905
181,-2.9030539407931175,-11.890285949041624,-6.402756232643879,-6.75811026061371
182,-2.6481518302363547,-11.211106595983056,-5.6229530517004696,-6.603161169446361
183,-2.3308074974200417,-10.488331363477167,-5.326929935453944,-6.345089783622544
184,-2.103622747887336,-9.73076296466295,-5.4052399745176105,-6.0746539522855105
185,-1.9546690243339677,-8.97167576514732,-5.522985062510315,-5.885333875095503
186,-1.8453327590991784,-8.226198078909686,-5.471281571590451,-5.850371447822723
187,-1.8376251053210502,-7.48830603402408,-5.17434859107503,-5.9916101050760044
188,-1.9671091669523857,-6.819656362861832,-4.563454439166764,-6.287974435920049
189,-2.1563695196040262,-6.35199264554307,-3.7374594228619524,-6.641329254321701
190,-2.3186992402993547,-6.053310200736701,-3.0792821692181915,-6.958885947411853
191,-2.365935994680402,-5.7048687732186165,-2.9957194714705113,-7.195945256523273
192,-2.2680978342718063,-5.182738963024069,-3.536100509201628,-7.343755705586993
193,-2.224581740423153,-4.549005473619419,-4.470717946587084,-7.444572737892879
194,-2.4330983959033237,-3.935045452259334,-5.490501730647094,-7.551211718102982
195,-2.782945027545678,-3.4158815942518186,-6.296200846568192,-7.659063136116134
196,-3.1272932954362145,-3.199306907808575,-6.1499583875032435,-7.808178344377907
197,-3.4333469053197785,-2.9653761641866208,-6.006510148442498,-7.929075277626005
198,-3.732119888630542,-2.710258115857219,-5.843712492080376,-8.017843908336088
199,-4.057197754406959,-2.438731035850205,-5.665682293584034,-8.057181512769773
200,-4.426790551454308,-2.154625284781309,-5.4843578727592375,-8.03117882221102
201,-4.719679279005999,-1.8618262141417197,-5.304196133432539,-7.9355830139789765
202,-4.811164002892298,-1.5614116637121755,-5.115629492921107,-7.776891597991337
203,-4.8142040194178,-1.257596542988467,-4.886564875939635,-7.581439128153702
204,-4.8866473046826995,-0.9525519832258669,-4.584082612239337,-7.377201333558108
205,-4.99241164029771,-0.6471811550020125,-4.225041071120336,-7.1659025232065074
206,-5.0492443599994346,-0.3410088699226446,-3.874201849658606,-6.939440081364117
207,-5.036453780700771,-0.03765401468653647,-3.596331947759474,-6.692533771414284
208,-4.953550078357898,0.24960513737235226,-3.423029203875281,-6.424035509986473
209,-4.877889193944525,0.5056008401801146,-3.353647827944007,-6.157598782000517
210,-4.893557658020471,0.7352959490410763,-3.3211108601410064,-5.917023507372438
211,-4.920703553039404,0.9636003846436663,-3.2151828147350963,-5.682846645811632
212,-4.849551694972504,1.2119532883053867,-3.000448437509496,-5.42648065159154
213,-4.729798868585437,1.4839081097412956,-2.747677734629654,-5.1485533879607015
214,-4.643688439538422,1.7735500260342094,-2.5367099343498754,-4.863197587629141
215,-4.5828098363744125,2.0625935756958573,-2.390689536781471,-4.591608089435799
216,-4.5220639570442875,2.3404554090805623,-2.3036172037971294,-4.357850851764405
217,-4.441590648924891,2.608908024932818,-2.264800094957819,-4.171686134488769
218,-4.325842113203234,2.8695419508546425,-2.267204357422523,-4.029851926368404
219,-4.2376846731372,3.120133172468982,-2.3011192418122173,-3.926168171746931
220,-4.242716896698019,3.3588839354719897,-2.355430771250266,-3.8465269120021133
221,-4.262651031593061,3.5949674894160752,-2.4281724494412,-3.757271497173553
222,-4.197066766105374,3.8383492943431854,-2.5279021103004196,-3.6293037143894487
223,-4.088232953751739,4.088002235456265,-2.640409064758738,-3.4725488298553175
224,-4.006907003287934,4.33795217054181,-2.7227309470096253,-3.3099682175364777
225,-3.939863479434953,4.584317184063721,-2.752232756252514,-3.1435675633167914
226,-3.858370991600643,4.820130797680328,-2.7399339988038713,-2.970901273801955
227,-3.7414462953791547,5.039725371259453,-2.7132563330912087,-2.7979263574782283
228,-3.574446377401624,5.235869506733501,-2.703138929278205,-2.6269943966433438
229,-3.416115068604808,5.406932145833683,-2.730933104095683,-2.4574185599830134
230,-3.3285541305264754,5.561101216827136,-2.8189224612856196,-2.2840904333530845
231,-3.244140268990325,5.708955007157047,-2.989785518636363,-2.081444526625503
232,-3.0770458296645855,5.85326905997295,-3.210986972321185,-1.8289838561328557
233,-2.861345670538449,5.990699790082609,-3.3581705011716796,-1.5462922292039099
234,-2.66053843952399,6.113546978382708,-3.3349940685358312,-1.2661215524494662
235,-2.50696551531918,6.220750199250474,-3.1594225462532295,-1.0141638072333947
236,-2.413480018920525,6.313176093043196,-2.9595543095602856,-0.8034683495566823
237,-2.306454671672451,6.385551561298289,-2.859666389811171,-0.6033690809897841
238,-2.103207341638266,6.434870949209802,-2.8953652913128374,-0.3757179507718479
239,-1.8810380260957718,6.468380390362748,-3.04013664058812,-0.13653943429342286
240,-1.7388058077554613,6.496238714243886,-3.2678901640439926,0.08444759506609857
241,-1.6044880017464094,6.526263323805493,-3.5613241588599873,0.28386294874367923
242,-1.3833919784118243,6.559684508488016,-3.910186694077119,0.46509291768874617
243,-1.0853661881153076,6.5872202461651055,-4.280716025163883,0.650228247578009
244,-0.7645187408668778,6.591485154232977,-4.624833669359432,0.8541057255430116
245,-0.5520388354806088,6.54305046642085,-4.895489431732425,1.0165210487495009
246,-0.5640521523224605,6.42113798134765,-5.0498175446713365,1.071448622741902
247,-0.689466606689143,6.234359308216946,-5.090656149941279,1.0403421269255997
248,-0.7629232932607672,6.008121385960724,-5.071766554461173,0.9752255438761037
249,-0.8175794442314305,5.763948372995451,-5.038513310050847,0.9114632618607054
250,-0.9340465820602302,5.508409241362137,-5.013662761470235,0.8722079950735904
251,-1.087158816288858,5.236453003505276,-4.978783013951132,0.8383573371471192
252,-1.243179927328414,4.9533620762957815,-4.885902526445319,0.7734277570211031
253,-1.4030618618939568,4.6882457883510185,-4.72622741306647,0.6774274603195884
254,-1.568819405355909,4.469821202057853,-4.558989549001093,0.5609049235668268
255,-1.7854663080399704,4.297529429612039,-4.458199717835491,0.4147610422595834
256,-25.975345317700093,-182.68302592391177,3.3244424012295672,-41.90247180890252
257,-27.29059305201841,-194.36904520757224,3.8669406612933903,-42.89081669735425
258,-28.51657064923,-206.11900474855432,4.334832709799771,-43.65235080567776
259,-29.65135628086996,-217.91278745429162,4.8167434112517435,-44.25021360110014
260,-30.70233363403309,-229.73061316257915,5.384574022026827,-44.939017187555145
261,-31.666681643619057,-241.55304685081478,5.921152646549242,-45.83094567543535
262,-32.546669940340365,-253.36098865448216,6.277239434684223,-46.786846449920546
263,-33.36023403523722,-265.13566737376783,6.3888261492921306,-47.59352143301753
264,-34.12202942408965,-276.85863968876816,6.302682577121908,-48.18506281485569
265,-34.86141956133482,-288.5117863424889,6.2507692057007045,-48.65529453301056
266,-35.57396107938553,-300.0773094256354,6.502083942559905,-49.04977501828959
267,-36.12769686275637,-311.5377307576478,7.24550429462101,-49.31095081546175
268,-36.40168391574624,-322.87588901725053,8.496552128621625,-49.42500682793686
269,-36.44791002601731,-334.0749371320673,9.930947102629952,-49.39990125042
270,-36.37407515639348,-345.1183392484636,11.165960333765222,-49.255462219729885
271,-36.24029418732804,-355.9898671225483,12.058470027387012,-48.95671895084082
272,-36.102782772050794,-366.6735977679264,12.646488616193166,-48.494091806214435
273,-35.997312024844206,-377.1539118146829,13.154267635236858,-47.97206070685939
274,-35.92942570608431,-387.4154893014535,13.84568316486708,-47.49774889701643
275,-35.95547202282275,-397.443304783316,14.843381810572817,-47.10098711772878
276,-36.07710047095297,-407.22262751479894,16.11513361674223,-46.74809917431044
277,-36.05878967165897,-416.73902120057704,17.392180657825577,-46.299933773863636
278,-35.68806957713338,-425.97833893798327,18.408053546687555,-45.62381593729724
279,-35.05643058718505,-434.92672080115256,19.19780834476981,-44.738188588588514
280,-34.34439940383803,-443.57058815359255,19.928177240123983,-43.73006951214117
281,-33.66800204708998,-451.8966338737856,20.782272598463884,-42.69151059869102
282,-33.09858882669862,-459.89182886229446,21.885531293351097,-41.700016672261995
283,-32.56721234478069,-467.543431375036,23.13686942312908,-40.75403321122646
284,-31.97135739765395,-474.8389742469172,24.340272204280698,-39.81119045140501
285,-31.365206098045483,-481.76624873118806,25.349760163865863,-38.84416747016712
286,-30.82598942451299,-488.31330561824353,26.08985056504493,-37.834075200049845
287,-30.311024297147547,-494.4684908573205,26.63379871321758,-36.77779617992385
288,-29.76759317455203,-500.22038363023603,27.11168167435113,-35.68420844113506
289,-29.213439596473165,-505.55779374933786,27.594772548157497,-34.56632309009605
290,-28.664649666150805,-510.4698306782468,28.10321097960569,-33.42850954664192
291,-28.10409960195855,-514.9457252558069,28.560044956913597,-32.23760114134668
292,-27.515515678482004,-518.9758319832692,28.87674791518917,-30.966586269947978
293,-26.856675263898723,-522.5485212148157,29.111458654595545,-29.63889806506536
294,-26.10704812797326,-525.655164605077,29.34983652288369,-28.286517480108415
295,-25.388016550748645,-528.2857963764195,29.5507709104376,-26.94187100755845
296,-24.79129273192662,-530.4307762648867,29.681224680857223,-25.595030795346986
297,-24.173043938793946,-532.0811030570515,29.84752645606953,-24.11547757745714
298,-23.352557763109097,-533.2297000769306,30.16047791063399,-22.363945511353336
299,-22.263332735496405,-533.8815280114884,30.61903111234468,-20.304307527492416
300,-20.910519566880293,-534.1562152469312,31.19251234454986,-17.967170513296605
301,-19.448061255962656,-534.4102514161318,31.874532116838274,-15.454041635229284
302,-18.032526508667175,-535.0913386459607,32.643396971297086,-12.879954106795227
303,-16.55933250647056,-536.5700133957579,33.45573199810585,-10.26850463203832
304,-14.901516313739274,-539.1189028387217,34.2540287667032,-7.617049110905154
305,-13.176812883200412,-542.80904626178,34.95934117889144,-4.963747126697521
306,-11.537554265877615,-547.5574265733882,35.485029179487654,-2.3489414310221193
307,-10.030080796276849,-553.327016060983,35.76318496590862,0.1836443822932864
308,-8.658518082360557,-560.0902081538087,35.754437821042956,2.6082846927077283
309,-7.337681825966181,-567.6999892967694,35.420862461289204,4.972359952803116
310,-5.97585559846072,-575.6708515215795,34.78189220255244,7.335453193968479
311,-4.655455989865319,-583.0565135670538,34.01384712925394,9.696922086007163
312,-3.477690731268999,-588.824896075632,33.282083440252286,12.032240376786994
313,-2.3545733046451254,-592.2576723497789,32.55448805757121,14.329720831741655
314,-1.193855285177062,-593.0140537108612,31.736073406837825,16.566883097711397
315,-0.08681436961182643,-591.0324443287185,30.766143067307922,18.68634677725883
316,0.8334195625544223,-586.4950326662799,29.568702938322627,20.64587781919433
317,1.639527368555103,-579.7399178078651,28.05566213850701,22.503550563383286
318,2.377674178468405,-571.0054223715973,26.21389456565722,24.286144363213534
319,3.1136821608296428,-560.3689368501797,24.209175907948648,26.038971770651404
320,3.8505833561861396,-547.8741255554502,22.295099659436598,27.705834316142994
321,4.255208044059257,-533.605944256403,20.678805591004917,29.058630006777786
322,4.0459247644035115,-517.6671922542374,19.428297076173482,29.991473846552303
323,3.499119031638908,-500.0996897231826,18.294430487389768,30.62679119207539
324,3.1864260802244027,-462.8736234111623,16.29743575401525,31.094214235788634
325,3.0946227341349037,-425.91854180737465,14.114961915845987,31.475237845292213
326,3.2749815363353187,-389.2635414251766,11.822357611040518,31.738409415724075
327,3.6842818498946075,-352.9869678055214,9.490946904084664,31.836350120186204
328,4.215004743156232,-317.18081665059077,7.193402536462661,31.769965174300076
329,4.81272858440315,-281.8305214923093,4.810255271351901,31.617962375201554
330,5.458270275993625,-246.8951677008162,2.2215419442655815,31.529983999613258
331,6.122952809934746,-212.47353036049816,-0.295107948431661,31.524344952035488
332,6.799588606384591,-178.6993362257861,-2.5031886309133276,31.43730580344511
333,7.526468802756699,-145.57681355063866,-4.333159125311416,31.160065434217298
334,8.314164115597748,-113.05398596341453,-6.1203675146796135,30.59776765413123
335,9.102256470864619,-81.13940223156591,-8.024962984787658,29.736005928977114
336,9.774621643106519,-49.91546321853822,-10.171296992023139,28.63776328445736
337,10.087362501164156,-19.514788798190825,-12.561291037270651,27.4241998107116
338,9.837463042439001,9.97990942309444,-15.091977457471073,26.205673345286655
339,9.177779693415063,38.58612727283274,-17.56428350805683,24.97563249904071
340,8.36101069171587,66.36515079081987,-19.914972575430625,23.677242654643372
341,7.353156138518011,93.3565317950222,-22.21268787896573,22.278276682504963
342,6.082941646124009,119.53363469082826,-24.70287744141215,20.77257542785541
343,4.717703427204851,144.87727724442885,-27.606602856122837,19.231994690151957
344,3.4379816299793347,169.4626802802011,-30.67700470420459,17.745228961456498
345,2.2880038957252387,193.41269247300352,-33.25233358491408,16.31525989301757
346,1.2444593287459034,216.81890854277356,-34.98683439616403,14.927840815141408
347,0.1443178522390202,239.64522277787427,-36.04170029982818,13.489992888684728
348,-1.1719272168088757,261.6010382389861,-36.8687654018091,11.992989051622324
349,-2.5538681502748237,282.3033822643328,-37.81190639506532,10.472202268149294
350,-3.7822255574840025,301.63344991233976,-39.06081130691515,8.993580073878293
351,-4.906578790164772,319.7525654255633,-40.367343280458506,7.564806219404277
352,-6.0382042140291885,336.89350238115935,-41.41233247421359,6.17637669255048
353,-7.169703945008978,353.2400183463749,-42.070632838900494,4.849111907348707
354,-8.274344420601702,368.8948297323642,-42.529100716858586,3.600419040473287
355,-9.293287646502028,383.8957422847823,-43.01319666497387,2.4283246413019537
356,-10.181735410379654,398.24471695218955,-43.54603839172608,1.314288624622798
357,-11.069521506770501,411.92860889456495,-44.09781452070786,0.21373653919768046
358,-12.113332229698837,424.9366085151443,-44.57326042317626,-0.9230594160566583
359,-13.283323187536007,437.25996074832597,-45.038804996389416,-2.1324312146424877
360,-14.474378451476102,448.8968196011195,-45.61018544199715,-3.411605992190291
361,-15.636241397040294,459.8477385259449,-46.31868217743464,-4.696375716373956
362,-16.712603620624833,470.11508506097266,-47.142959611297805,-5.893993689556775
363,-17.578802321302014,479.70189009676454,-47.99388020875364,-6.882557248190489
364,-18.161240870937792,488.61089607275505,-48.7479844635882,-7.592415018420714
365,-18.562388529613862,496.8447434861772,-49.31688195452433,-8.152711492364396
366,-18.94266341199703,504.40582023077354,-49.66538267359629,-8.743828404344491
367,-19.417363475696323,511.29647104849903,-49.82758405683565,-9.407812191735506
368,-20.041999771229232,517.5190658235663,-49.87423552868691,-10.122660772806727
369,-20.728297161199688,523.0760397775313,-49.90509329828148,-10.836462212452826
370,-21.334570031560496,527.9699354196242,-49.98597581219394,-11.487576999365674
371,-21.83479322998337,532.2033837884003,-49.980819051832476,-12.109561502515545
372,-22.24234327455152,535.7791074126233,-49.73952597852006,-12.75762944769183
373,-22.51215145733583,538.6999110939632,-49.421322971417695,-13.403445832684
374,-22.612521105087524,540.9686721390534,-49.23222580496551,-14.001990264551143
375,-22.579581290613305,542.5883296363021,-49.09683174610061,-14.49104763014041
376,-22.463403492470967,543.5618891557715,-48.871858033167676,-14.868759910385847
377,-22.288353945708586,543.8924361155205,-48.509256468504745,-15.224416265080514
378,-22.068701939790948,543.5831219330679,-47.993846788741706,-15.703508854669483
379,-21.808477297504684,542.6371467566291,-47.407405671061674,-16.264094857734246
380,-21.50224426530738,541.0577694366168,-46.82844232997614,-16.647054197726387
381,-21.15467320744569,538.8483174609352,-46.14312139876773,-16.70349959271024
382,-20.76567841308185,536.0121790960534,-45.182757640608884,-16.535165620745932
383,-20.318064697604488,532.552798166209,-43.84378442812506,-16.345391335043704
384,18.09674181307555,397.0428270654435,9.423701104173768,13.956480797589519
385,18.846096321038807,408.8171015233197,9.778727164872066,14.721100107462643
386,19.5050394779279,420.2637414946427,10.166364684649844,15.43519626348294
387,19.97952638918508,431.30364534706797,10.514663462776547,16.10066792900736
388,20.211164990221345,441.8921968111043,10.761179803722728,16.72452646394748
389,20.303330763982476,452.048343918935,10.921669821426104,17.324904619968525
390,20.393286166477253,461.83781805755626,11.031410933558764,17.91547340165705
391,20.54497469119742,471.31755131184667,11.080626837607335,18.499110767021527
392,20.77375988174983,480.49393583216033,11.051703341317946,19.06525071910927
393,21.005265641980955,489.31379936437446,10.93632005984002,19.59767650768057
394,21.153138366613927,497.6782214354792,10.736707889217374,20.077810897965772
395,21.26697385850016,505.4635937707245,10.487431601430702,20.51699413491378
396,21.416473837775673,512.5648237734795,10.239862367255625,20.95624287112549
397,21.54816928300552,518.9388968806887,10.02500454055359,21.40749261302181
398,21.61114160085642,524.5816622303453,9.862423989550678,21.843171787293308
399,21.657278357025938,529.4836471825697,9.807438388487993,22.240434432913318
400,21.751255556972065,533.6511389974828,9.870873409770724,22.611283893161293
401,21.942644074532026,537.1215773403502,9.895508784673872,22.993466368691866
402,22.24816953941516,539.9120834849049,9.728305787545379,23.40864408688099
403,22.55578249465919,541.9886719163459,9.416352302602322,23.8438519417696
404,22.751409819577443,543.3042623596072,9.064931541658266,24.264531187421525
405,22.913184813646623,543.8454375693956,8.70358438434237,24.63771610855934
406,23.140432866213732,543.6219445652642,8.352431639248552,24.935088746382284
407,23.359041509002523,542.6307296897402,8.061739546564418,25.161511443119895
408,23.490702177019127,540.8589345297362,7.840994206541559,25.334104545222846
409,23.58287867457369,538.3066277775156,7.611972815671781,25.484590632933056
410,23.700976582646838,534.9961456047108,7.284572423832897,25.660127697320622
411,23.909694100322007,530.9461427426203,6.814214639116861,25.885189674813844
412,24.2324118257198,526.1357041785965,6.2016274838673855,26.135126919932752
413,24.50955588889433,520.5230433121372,5.51345114555159,26.36949166383037
414,24.579082870358263,514.0812188097082,4.840938880064275,26.542875402435214
415,24.525281821910422,506.805694786617,4.2425761653067475,26.64258502211041
416,24.474613543875005,498.70843635685543,3.747187225630812,26.676068823248954
417,24.389731642667087,489.80714687016666,3.3497705338595156,26.655871156395758
418,24.220510648299243,480.12219654699487,3.0180680329079057,26.598135909093116
419,23.99177964965102,469.673138309711,2.7184429965723806,26.51270216174888
420,23.738078127370446,458.46538942115217,2.4112487099131474,26.402641077971374
421,23.527628395835645,446.49112837349975,2.0465777853450913,26.26790858544186
422,23.406509829172222,433.7480910999643,1.5861521394859228,26.105953857577703
423,23.266788410935227,420.2586147571346,1.0096877728155755,25.910881064046027
424,22.99222615452095,406.0542252074761,0.3278878774193138,25.67680168276234
425,22.64678197030408,391.13564058629345,-0.39728901541240025,25.411225565529662
426,22.322569745351892,375.47767151668626,-1.0970394116185183,25.11052220999945
427,21.989695921741312,359.06222601868694,-1.7324931468396503,24.765455019028526
428,21.615096003457225,341.89662231848837,-2.2997673356085513,24.353290359132103
429,21.233667900655018,324.0212582226613,-2.8549482422955896,23.878464679862635
430,20.885148362010135,305.4916219639354,-3.4604961574850694,23.388346132087467
431,20.6262537563768,286.33684781304623,-4.117297935009376,22.928514492071542
432,20.47996641729025,266.5463564360637,-4.79801470597231,22.504227821986813
433,20.311864248628183,246.09228519674858,-5.474366425072035,22.09208099466064
434,19.984865784176716,224.9466174148562,-6.123284098672499,21.653197468588214
435,19.55155298416168,203.08871587007508,-6.737976016373687,21.1651877654421
436,19.099684718241765,180.5136600640126,-7.333151971986757,20.62146725813993
437,18.623095296620214,157.2307071291318,-7.973892444237508,20.04926149712351
438,18.09359971785165,133.24604471909254,-8.709233155891582,19.466703186608264
439,17.458232953055706,108.55890671515408,-9.46506876118539,18.850208664403585
440,16.675447292994665,83.18529263979302,-10.160244888783149,18.152174764713155
441,15.825949555675857,57.165717179731445,-10.837984035456536,17.3545616759879
442,15.003546329111078,30.541616792969805,-11.557987982334707,16.479776132168983
443,14.16534136450398,3.338895682952512,-12.322241396630503,15.54643240415187
444,13.180520493904805,-23.35796915509449,-13.111182977267825,14.520373022041657
445,12.064358897325697,-47.30132194073334,-13.906716018327135,13.28993583934248
446,10.794502967599488,-67.5213458182546,-14.687715392215981,11.815478584034572
447,9.390150974141445,-84.86493238244879,-15.50636111774881,10.167434382586812
448,7.896702316103833,-100.56154474010854,-16.414721337438642,8.427037399899481
449,6.242767695440392,-115.55580431145208,-17.377738140242666,6.6565634781396135
450,4.3717264019672015,-130.35861867008964,-18.33583355912843,4.89800464414236
451,2.4674955303197303,-145.1384604798868,-19.275905597304085,3.1764269973109807
452,0.6366324857959247,-164.33798210812145,-20.354162607657553,1.2731401562185911
453,-1.0817862676463907,-182.96789904571764,-21.395527405007037,-0.6190433956673198
454,-2.813388985054963,-200.95647617399746,-22.3831850414397,-2.529529963222768
455,-4.545833187051573,-218.2571803527501,-23.29623943271855,-4.461491088344816
456,-6.223099848091448,-234.8489188544469,-24.09751078393733,-6.397152067832719
457,-7.783574114534788,-250.72739106458226,-24.739976958111814,-8.273751277183454
458,-9.153691905768149,-265.8961451527336,-25.185613359779875,-10.020727165871618
459,-10.339853715244791,-280.3606322192926,-25.405293936422105,-11.583951278338956
460,-11.36369220243613,-294.1252510069247,-25.39826548168367,-12.89508199730774
461,-12.105232035224237,-307.1931550900323,-25.245229299111088,-13.892641175056493
462,-12.459709476027166,-319.56580489766776,-25.030883659328207,-14.592851642898728
463,-12.545815848168592,-331.2442400818296,-24.732551197399317,-15.06000342359568
464,-12.537570806975603,-342.2293301850952,-24.299861938359516,-15.386192044984737
465,-12.511357599192966,-352.52193836912005,-23.72669955678806,-15.636034438168227
466,-12.491272264795318,-362.12319561118295,-23.03976652439384,-15.847382760901024
467,-12.400935277314396,-371.0344054563139,-22.339013340111045,-16.028609482375177
468,-12.149285631462774,-379.2570516911267,-21.733016375917032,-16.170699578925962
469,-11.833735956965572,-386.79274365127793,-21.223581744934112,-16.27470686524265
470,-11.592138695795173,-393.6431904341175,-20.765728168203253,-16.347969851474094
471,-11.394414937159977,-399.810193643247,-20.335943999460437,-16.402489690470397
472,-11.173589094182967,-405.29563557365486,-19.909496416017134,-16.448523035777054
473,-10.937037348117299,-410.1014832919635,-19.470524687921134,-16.477911372709624
474,-10.703430204530466,-414.22978541050514,-19.010807400557162,-16.474776731426314
475,-10.513477843785983,-417.6826789057686,-18.495625008780284,-16.427830206376687
476,-10.399761670667921,-420.4623798328947,-17.895950045683797,-16.332748525393608
477,-10.265129084757529,-422.5711791863099,-17.236304098483547,-16.199157278588412
478,-9.997630258293174,-424.0114696692639,-16.56368034443299,-16.04558736585552
479,-9.666066775353416,-424.7856594961596,-15.902486564744216,-15.891777592201807
480,-9.372116175560059,-424.8964375412938,-15.276065998268107,-15.753251609546766
481,-9.05935040463827,-424.3461541326689,-14.746255975246505,-15.632630376476245
482,-8.652496313864741,-423.1376972461457,-14.354732093614327,-15.524713491282933
483,-8.181251389541517,-421.27377044540555,-14.042380108558655,-15.420792167248113
484,-7.699086377609337,-418.7571564784114,-13.724138016514257,-15.310584773499011
485,-7.276213626594365,-415.59076018885554,-13.377622035325157,-15.20093638540781
486,-6.963080726325266,-411.7786365653248,-13.001815880571131,-15.091007935739102
487,-6.647758033055398,-407.3353072415596,-12.593913041911833,-14.95959614130832
488,-6.2068623574550035,-402.31291687656744,-12.154510374998674,-14.779223155954455
489,-5.738635869377994,-396.7973711602513,-11.65912300034125,-14.555020436916996
490,-5.399198541082173,-390.87190375200765,-11.088504626386213,-14.343826701793443
491,-5.227018175203971,-384.6100189282667,-10.468292724504366,-14.205748317392116
492,-5.2131193901353665,-378.0602587679958,-9.850164112869324,-14.13772938310647
493,-5.321991704851602,-371.2408284166326,-9.311051246757827,-14.076646134181448
494,-5.492071355455985,-364.1679902599654,-8.911638600721794,-13.95671631382292
495,-5.6894557170425495,-356.8460305267473,-8.631614558726879,-13.779884089221504
496,-5.902165688565952,-349.2636163763165,-8.406551862745738,-13.60590157457456
497,-6.121240314542062,-341.43703093531855,-8.168019315039928,-13.458288148195495
498,-6.346808654294585,-333.3947478491973,-7.857221722933206,-13.299962165786045
499,-6.584402394254945,-325.12031267123047,-7.466181254886925,-13.112266753121139
500,-6.839213808238684,-316.57643129417664,-7.020968615522344,-12.925323752706722
501,-7.1094599987417775,-307.7739375555505,-6.534142317869811,-12.771771395458451
502,-7.392722586691735,-298.78205455683644,-6.029275841027058,-12.650124059763744
503,-7.6964235876454286,-289.68733755920186,-5.57373925766493,-12.530406266462633
504,-8.017817622249108,-280.5521168255842,-5.227689660189501,-12.386311392304455
505,-8.343348497290235,-271.3835619060942,-5.0002555970903515,-12.205621122664386
506,-8.638821614787702,-262.1473521587701,-4.866380953871089,-11.989718220358412
507,-8.793655733962346,-252.8055301193505,-4.760612632958428,-11.736421790289949
508,-8.718191292551285,-243.34715902848708,-4.6157693460591105,-11.449079128898441
509,-8.485729535587597,-233.82522651471237,-4.43828859757655,-11.144026887938566
510,-8.221805267104669,-224.349436912775,-4.257657297225667,-10.835751746446126
511,-7.995165187250757,-215.0347298254521,-4.059932537381368,-10.529459014422518
512,0.9528062813519805,32.04213189822788,-15.934412311556132,-2.6181004451757115
513,0.8370892691656726,32.50088423523818,-16.228370983585762,-2.774337638899454
514,0.8708230731748641,32.97981861134656,-16.624288232499513,-2.864988995810044
515,0.9389260470973358,33.471159812849265,-17.10015835847663,-2.906249160504281
516,0.8991472192267224,33.93950983555335,-17.607855652550903,-2.9323223611700997
517,0.8304001309636567,34.355260296796516,-18.120903589916715,-2.9494733615768625
518,0.8380254790770213,34.70761231678139,-18.617690670977076,-2.959852988454092
519,0.8832642004728027,35.00179113609801,-19.07901045404977,-2.983565752253859
520,0.9118138717597213,35.25047031222487,-19.495277782110495,-3.0282231997252556
521,0.9132135502640011,35.455190863612515,-19.855319612836883,-3.0733035741536376
522,0.8860756975260503,35.603798372408896,-20.155832311617026,-3.0896709727803398
523,0.8872875124257739,35.690702520828566,-20.419731728027855,-3.034201100689787
524,0.9706460510186565,35.71989347835709,-20.669858876573247,-2.8850163696617956
525,1.0433350981303955,35.69577207643786,-20.899021650334916,-2.702916711356938
526,1.0225095019956953,35.63434302184164,-21.090097740486023,-2.555522543833877
527,1.0449057746348893,35.56399615453191,-21.236631990155086,-2.4351483605560285
528,1.2504150613954106,35.500449406588416,-21.328605745915716,-2.3107261446684157
529,1.5734971524967092,35.43566184406684,-21.34730764650869,-2.1531714198311867
530,1.9033378623077706,35.35051678000552,-21.279508932572615,-1.9447269608229956
531,2.1707996090878483,35.22557060937948,-21.11901253250968,-1.7274355420581013
532,2.3404712249805124,35.04909634243663,-20.88393544115948,-1.5492853261284032
533,2.50530200783521,34.82064619817629,-20.631620751920014,-1.3908740847855847
534,2.768805104124014,34.548419858045136,-20.43335848789748,-1.2160081438918904
535,3.055508600533745,34.23837535803852,-20.363384847066406,-1.0161955569993215
536,3.266688828156691,33.890268851197426,-20.457063902772283,-0.789708618945459
537,3.4413362328083386,33.50066230753998,-20.655296539994012,-0.5364119228815769
538,3.6384006218854092,33.065906476352374,-20.858345960228288,-0.2676601130523375
539,3.8617949009782766,32.58447619043051,-20.990892965539977,-0.0037101027814626236
540,4.103510315470127,32.05456961653021,-20.98778553132772,0.23474830657009832
541,4.33814698296155,31.47589597829515,-20.83867131214863,0.42743686902012595
542,4.535229348898191,30.84773621005285,-20.556456614891676,0.5638139789774632
543,4.6990001490818525,30.169124788143925,-20.17513280293867,0.6641290600852382
544,4.845773097630899,29.449179797891198,-19.78885866597632,0.7542879545454094
545,4.978132952710574,28.705914212239865,-19.525950877082593,0.8227087237930291
546,5.096991201413489,27.94481274405962,-19.40841605757667,0.8635893739633025
547,5.204638392856865,27.155136148111975,-19.355558671853952,0.9275117013896086
548,5.299991990755124,26.322191551666243,-19.242361904609794,1.0629266538002622
549,5.386633982986208,25.43466874608529,-18.99840486886503,1.2715273073948228
550,5.470687889077275,24.488252933239536,-18.598916864947952,1.5281792775583498
551,5.535300814903436,23.49105604925127,-18.07569383962326,1.7743690913527688
552,5.573886408808835,22.456713805332623,-17.478333840680655,1.955135402810061
553,5.656948224317199,21.39455259406227,-16.883841525671222,2.0786533884300975
554,5.83726045767974,20.30868051888317,-16.31768053409068,2.1737628262413153
555,6.0374883524685945,19.200497336813147,-15.747390777531962,2.2486720557553888
556,6.164443497033611,18.0618311956002,-15.177495641695327,2.3082374536399675
557,6.190175894209159,16.876037014572866,-14.63185026301249,2.3434465111049545
558,6.12310403658018,15.62624771601316,-14.12789020715551,2.348612416950761
559,6.069674506883777,14.29930372982317,-13.595140002047703,2.3684007086173473
560,6.113598948446275,12.892006054705963,-12.963230615467781,2.4418614671381897
561,6.0958137789535405,11.408023655312713,-12.25466425989638,2.5360725589138378
562,5.849489312722478,9.854078614171055,-11.51526845080789,2.6027007226087306
563,5.4764608558259,8.246389273678753,-10.772379400666063,2.6283705959558685
564,5.126448538120773,6.607299169719545,-10.037692964634838,2.616743359331765
565,4.81543684419307,4.945527681306203,-9.270476416613109,2.578397964886083
566,4.5326203620589345,3.2568526768847224,-8.437521373216203,2.5430453575962444
567,4.2551476237216965,1.5363123642577328,-7.532836105158713,2.566652271907948
568,3.9578767211600416,-0.22179853701824104,-6.610802307593628,2.689855158692097
569,3.7153403667304743,-2.016956041955284,-5.72625848984603,2.9075974455958673
570,3.5986245650638296,-3.8409423885794376,-4.9177290922322285,3.181402326936545
571,3.5191419509270543,-5.694059054896545,-4.12489103410649,3.4307716504588153
572,3.353762337865998,-7.478051358373341,-3.3277509746540264,3.59442645185214
573,3.23872083610505,-8.974216107018394,-2.593840215203513,3.7232498663439744
574,3.2764571925640946,-10.095392794184919,-2.0028225705722367,3.89335945204265
575,3.3943474867090786,-10.939959566090373,-1.5890964736352327,4.131810054265481
576,3.4707989332001676,-11.622504886431422,-1.2680910273352315,4.431562751408955
577,3.3969725099399817,-12.21043029684706,-0.8771333655906055,4.736653721115957
578,3.1183220334187802,-12.741807088098007,-0.33192788004598517,4.985757394962657
579,2.8139831341813677,-13.239927276578083,0.27667184518661603,5.1894570081680795
580,2.8156691574467314,-14.119509489276922,0.907286575235315,5.2887299438107265
581,2.8583507437822924,-14.93017796255935,1.513468914598826,5.426513715570006
582,2.7401794112575852,-15.663898978629401,2.0397234727365925,5.6116114886821205
583,2.469902428655675,-16.317010809682355,2.4393066183622314,5.800822227102643
584,2.1217152426447248,-16.893044700408357,2.7148622444956376,5.920617143680667
585,1.7576208549216283,-17.41132608619794,2.987175367500387,5.8859051618250495
586,1.4433747469124585,-17.90830338230579,3.3792743228627007,5.648519119981783
587,1.149794411289431,-18.416354272707764,3.9214582747113167,5.270793610021285
588,0.8211285318712904,-18.940802101066126,4.539316043846145,4.865885443946862
589,0.5362241854162251,-19.463136241195222,5.153554668565607,4.519096267801229
590,0.3857844855632332,-19.959902452960957,5.672871815545129,4.288156910851603
591,0.29790385689720744,-20.41826252133979,6.029700077185251,4.19049163732787
592,0.17836983256885472,-20.851466272027363,6.206166484102811,4.200179938118257
593,0.06469298043362726,-21.291013153440854,6.253794936153852,4.262211633447254
594,0.015410723823973849,-21.75845295074517,6.246646449363045,4.3160407033176185
595,0.03516542146102565,-22.23633032747619,6.230975817213337,4.326304512511131
596,0.10505229289254668,-22.677211136940446,6.221182482620525,4.281910847690574
597,0.1301467427211388,-23.04408615032773,6.166066866121445,4.185824288411501
598,0.021211434283731942,-23.33498489947342,6.019538519929944,4.0565356153253305
599,-0.12844213055884507,-23.570897494612304,5.788692502199113,3.929336352089732
600,-0.19016105865888208,-23.765031050015207,5.5449892194896595,3.8337446756881772
601,-0.2056293726441107,-23.913521612543033,5.348625823620621,3.7685443473960185
602,-0.2543192413188586,-24.0201022777006,5.20717705724399,3.7182689659989863
603,-0.3301552407666042,-24.104494186923134,5.119547312485542,3.664977416742959
604,-0.40866165377286606,-24.179148076114966,5.060903275199312,3.598511217218079
605,-0.4502074541611054,-24.238353889540754,5.016834711449655,3.5456357522931
606,-0.41744994381934797,-24.268427183405816,4.976758793646373,3.540737135447226
607,-0.37293712689853226,-24.26215444934923,4.9187407498979505,3.58072775893678
608,-0.39111226522963954,-24.224368811807448,4.824468786085691,3.6475931735376217
609,-0.40974548035401165,-24.170315135392354,4.689462168045978,3.731192966836141
610,-0.34452351456477676,-24.118080168251865,4.520715814167952,3.8213659278360823
611,-0.22062207880446752,-24.072539390535177,4.33878033405098,3.9079866733007353
612,-0.09223393480689016,-24.024513657772008,4.1734762231707245,3.987267245549082
613,0.007685092772004548,-23.962896911454727,4.044700061171056,4.062790442551555
614,0.056379262979671815,-23.88777886090554,3.963968766940425,4.138313179162667
615,0.0899002549038011,-23.80952607544229,3.9668935679230652,4.215177020405308
616,0.15835517788060405,-23.73285103404964,4.041871986328168,4.286962487793898
617,0.2185642920583587,-23.639895871192138,4.141732230350475,4.324458768528068
618,0.21450551703598975,-23.49987148866091,4.164867405656631,4.298277010790945
619,0.20297070618597485,-23.29965117787759,4.004999938159005,4.211485708967068
620,0.24625661759154177,-23.059411153677182,3.6986652699556504,4.080006068054378
621,0.2920671387076883,-22.814269141387193,3.418042578137761,3.9147166493343106
622,0.267243484821133,-22.581039607885963,3.269692198021062,3.725204253725606
623,0.1349674211829064,-22.353231731319063,3.2594115978035427,3.507004266481263
624,-0.11039714615044185,-22.111797469908645,3.3177161393508605,3.25518445133618
625,-0.3559836526135155,-21.83533256853562,3.3898824737010083,2.9997124663892456
626,-0.48223209056493177,-21.520073794420966,3.4262523876315667,2.7763292670088187
627,-0.5903965030498122,-21.18472743888285,3.407240221990587,2.576663235641221
628,-0.8117442679925153,-20.848666585196938,3.333421802538487,2.3880952142604754
629,-1.047907640325803,-20.50885067063661,3.1816883092117685,2.2469976771675118
630,-1.1584529294207853,-20.139575921926596,2.9364548517689704,2.1901209862177455
631,-1.1219998212316284,-19.718805806718926,2.6182635117611195,2.208600027360776
632,-0.9678402441454833,-19.255360105925842,2.268489547826365,2.272743575922917
633,-0.8180434030840962,-18.790830932685708,1.9562736622757846,2.3380723762598996
634,-0.7964681741595903,-18.364972810502074,1.7439285713220638,2.3641535682670605
635,-0.8022719071304985,-17.979573048118763,1.6273651668229143,2.359971121232785
636,-0.6863302103851929,-17.60584531625662,1.5718372700331247,2.3562382447075385
637,-0.5146074977507615,-17.215678286397665,1.5589084886557294,2.358913612939842
638,-0.39443065027618995,-16.796346911747815,1.5714968983461857,2.3705181246887475
639,-0.2950294286229179,-16.350459987383864,1.5917352868871966,2.413463692205764
640,1.5438987996105997,3.7187709401800926,-10.393982357170882,-0.04419940008900226
641,1.4705237866607173,3.915245191494277,-10.648258281370401,-0.16361294358192463
642,1.4907258712211968,4.10902369631532,-10.888073578601052,-0.26541588523691395
643,1.4919891090218154,4.308798214985265,-11.133840946425751,-0.3663234813172458
644,1.360910486549888,4.517898737633106,-11.393963894655043,-0.488366557715636
645,1.2114304694522195,4.71248837742267,-11.681100907109219,-0.6340691783407564
646,1.1722041635186617,4.864503456889408,-11.994421228160771,-0.7982650472480148
647,1.156523170620156,4.9625735074642225,-12.298586145702386,-0.9830220016459827
648,1.0569888339574767,5.008081152295561,-12.567148841075602,-1.1836950242993804
649,0.8833717031083208,5.021412565375219,-12.83305286222972,-1.370654845276797
650,0.678042548508935,5.026158263054528,-13.139521456006497,-1.5217141449128029
651,0.5358671703402159,5.02574477467677,-13.490862417169796,-1.656605630192949
652,0.5321063715906247,5.015480997041253,-13.872914013866438,-1.805342911710362
653,0.5439293731156521,4.992171476526298,-14.272141755303743,-1.9836650313895183
654,0.433893573968323,4.954376077091641,-14.662904733516722,-2.197636094857438
655,0.29922329866272285,4.910120391557408,-14.984820126488458,-2.430186864942953
656,0.2570444074927007,4.871057399742664,-15.197694490029061,-2.659353395373146
657,0.22918016493844123,4.84266224534801,-15.354556261806486,-2.895650236951427
658,0.12586406697522587,4.828111852932899,-15.520166434430354,-3.1488408048666408
659,-0.03625207165323874,4.830437084366301,-15.68397922176936,-3.3890603155145596
660,-0.21537289176920174,4.849151636027041,-15.817005822490732,-3.5859911063340557
661,-0.3179144908002861,4.881435827037748,-15.906780185653393,-3.7378612519727534
662,-0.2823040674325413,4.919882502357638,-15.945150511321021,-3.8576104616054265
663,-0.26651570527892227,4.9477347419672535,-15.954942970498026,-3.974931497168386
664,-0.43785092150638016,4.948556284556159,-15.961564478319545,-4.1178904926552855
665,-0.7124282497073897,4.916891899770044,-15.93027474016635,-4.282318389007962
666,-0.9597370219538454,4.85550994437552,-15.830720741499654,-4.448477990815842
667,-1.1812645574429896,4.7693547626742046,-15.71239238578583,-4.602299031238804
668,-1.3968315317042532,4.668693955373093,-15.627557814959438,-4.727945862643181
669,-1.6144688206285849,4.577429019163768,-15.574957596721628,-4.803554642985428
670,-1.8402284877414752,4.510770573365408,-15.523821884045072,-4.819286536169315
671,-1.9949312650091935,4.45061214579206,-15.40349091620405,-4.788607500592596
672,-2.01282475849783,4.370728405453795,-15.154762994963543,-4.738049670244105
673,-2.00172798670542,4.2554799422518546,-14.798476955209814,-4.703508513826695
674,-2.079145200929146,4.101623356837343,-14.396674586320136,-4.712874810567712
675,-2.1990039702553053,3.932337089766794,-14.024815702759808,-4.765174307738273
676,-2.2865233683536097,3.7737453903775955,-13.744573507854554,-4.845502414565721
677,-2.3235766665872646,3.627041944668299,-13.548903327342838,-4.931763341977453
678,-2.3144450865613875,3.4795563198069814,-13.3940697191934,-5.00858529895845
679,-2.3380157283291,3.3075355820018215,-13.256262907610378,-5.100670915808043
680,-2.465176095073168,3.0905484711241034,-13.105102493626443,-5.232937786110561
681,-2.6000095867978756,2.836129461051281,-12.86840933282426,-5.379294883333471
682,-2.6349799398631815,2.5641706258370274,-12.502994321277749,-5.5049491887841615
683,-2.635122051118645,2.288791451737941,-12.056150336085906,-5.6030878903296095
684,-2.6873725170863323,2.021065457533398,-11.601604333519688,-5.6797560008736525
685,-2.771619431776478,1.7688444588553838,-11.20834473098243,-5.745531736053306
686,-2.8486469491957656,1.5309387886192232,-10.908232050720917,-5.816610503215721
687,-2.894380688895279,1.2936102555877624,-10.614727470968852,-5.918777597464687
688,-2.8808590700738947,1.0439501816154935,-10.229020462235864,-6.053557534135416
689,-2.82735576745859,0.7799598798285406,-9.769017260453136,-6.166129592640967
690,-2.749415450470206,0.5092792240414279,-9.285980782357138,-6.187423175846893
691,-2.539532419556725,0.2551528702573068,-8.8110998979806,-6.056677679879157
692,-2.1164183034184214,0.037311724234729726,-8.3556645862828,-5.753687609127696
693,-1.6106582590566874,-0.15417872363075755,-7.86416352367243,-5.356204521816091
694,-1.1752334365994452,-0.3407877600711291,-7.270492110351162,-4.962218813486999
695,-0.8203514892511403,-0.5354149975191842,-6.570034906108393,-4.609445784181809
696,-0.5089245424970908,-0.7496123414475355,-5.791755658725075,-4.2977129520919775
697,-0.16059381836974632,-0.997813445490769,-4.987524804595834,-3.980472770006876
698,0.28737746792922836,-1.2856561644776296,-4.209478966057279,-3.6082607009807606
699,0.7018777463899711,-1.6033406353904445,-3.466265976984304,-3.2091418457000858
700,0.9270672732546005,-1.924154522365745,-2.745680243772645,-2.8375614452476716
701,1.1466814363654227,-2.223545562305146,-2.1063857213630732,-2.478457115675494
702,1.5276661565530618,-2.480673700586486,-1.5830942406146618,-2.1311442675902486
703,1.92754626549455,-2.731140028467414,-1.1260363636150095,-1.8601648954491223
704,2.1533178179762786,-3.0121395329781953,-0.663323741714754,-1.7362953097279514
705,2.181744959450506,-3.3232900767566704,-0.1790534923152739,-1.793336337590316
706,2.0547741710391767,-3.6349592723484947,0.31256692808447684,-2.023270698060813
707,1.888350352163646,-3.91694779422175,0.7659218951048528,-2.3444575218069152
708,1.764669999009702,-4.294851281272848,1.069693996812602,-2.564697289791059
709,1.6729337181307988,-4.608778425638997,1.2632715363587768,-2.767424147905088
710,1.5058655109216157,-4.859534347937694,1.3629887023824117,-2.9563998593707503
711,1.3136831322908844,-5.063938180056765,1.397967508112611,-3.1106001226208435
712,1.1813854556470638,-5.250091811996696,1.4116099005067897,-3.209087733616977
713,1.1299728916397027,-5.431561675542792,1.443903112304726,-3.2393315472615383
714,1.1575540237734874,-5.614873248254616,1.5215486039758048,-3.1988132706333383
715,1.2015813732938794,-5.811061717733305,1.6478483684716771,-3.119611659829545
716,1.1919132587541212,-6.023476445570665,1.8113973632821838,-3.036527226786518
717,1.1989760301583667,-6.241262253870914,2.011546225762814,-2.937991724626332
718,1.312777699597101,-6.4470979340451695,2.2363655364707604,-2.7972654219617175
719,1.4467219035468664,-6.615592373835906,2.44433422208276,-2.6071818063184473
720,1.4911387462325638,-6.736344781228677,2.5955133862002,-2.3718531712906694
721,1.498977021662503,-6.809016841040502,2.6355561011453728,-2.1025033630739616
722,1.5490736182211553,-6.864487045582189,2.5532648533201514,-1.82425153616573
723,1.634864450709264,-6.943299196333439,2.5225170268755663,-1.583537080510961
724,1.7258437337930272,-7.055921308103538,2.7227203569356226,-1.4192994539914479
725,1.745529880897086,-7.193492084202526,3.0935548852063053,-1.3280548104306493
726,1.6318782093934208,-7.331977283635828,3.5227036049727385,-1.2829742255301906
727,1.5093555841181983,-7.460516584763991,3.824457171899457,-1.2523497037901203
728,1.528312508701172,-7.575595017148764,3.9736961573207465,-1.2076629357243687
729,1.6153519026674938,-7.6732295267468835,4.03378282094103,-1.1422710648984833
730,1.647407270643962,-7.754824464803725,4.12070192047733,-1.0654423908546609
731,1.649630507574526,-7.829330768372277,4.2144788285124095,-0.9933546251039113
732,1.6730953025035085,-7.906157297241858,4.253867592832781,-0.9417154508887992
733,1.7193372790222268,-7.988573087516476,4.250741922030817,-0.9072902451184524
734,1.7807239255811291,-8.076439061308259,4.236713286274928,-0.8804932539316691
735,1.7933642868368616,-8.16910948292755,4.240556201549135,-0.8683099051195942
736,1.6972178503878048,-8.265334250713405,4.293933579775911,-0.8813820518178339
737,1.5894746792738375,-8.363555210075644,4.410878864816807,-0.9170363720616345
738,1.5873998938141272,-8.462956224333253,4.579047377094877,-0.9715527156954288
739,1.623080819293379,-8.566890005678864,4.757512373825044,-1.0560204951863539
740,1.5937038467849034,-8.676411026750623,4.897502744011418,-1.1780914552814519
741,1.5236472665293979,-8.779785743939604,4.955714437017359,-1.3207723274072183
742,1.4634728756679598,-8.866083769278926,4.913817893460138,-1.4612969017531012
743,1.4416592159075656,-8.9115919659471,4.826142470070211,-1.5866290033160289
744,1.4693279962671675,-8.910427718201262,4.757915570896083,-1.6914183008108556
745,1.456777436783795,-8.865182359467207,4.690985727956697,-1.7894190357772652
746,1.305397518736163,-8.771281783147945,4.583568436709201,-1.8975474047515164
747,1.0793490603258913,-8.636427393849715,4.429502753796557,-2.002049623342659
748,0.8807534466600816,-8.49126621558662,4.236921183582273,-2.0833387670021826
749,0.6903217875129235,-8.340768611209397,4.0405716106444425,-2.152037038103844
750,0.4680381876977101,-8.181659466620065,3.875606964200439,-2.2229901521087174
751,0.22712848163469823,-8.001193305688156,3.723221545968937,-2.290211241088597
752,-0.010342370158653746,-7.785113682686337,3.5481412041482,-2.34444730856138
753,-0.18276810816957978,-7.534498461007537,3.3269800785357218,-2.378174737151508
754,-0.24105910743438835,-7.262891546562643,3.0579364520734345,-2.389444866183085
755,-0.2968237366298489,-6.992548751745579,2.809538056809734,-2.4054134335989863
756,-0.47602059330198276,-6.747089316542892,2.65500454755721,-2.455094929649766
757,-0.6935907210676802,-6.5411081481351925,2.576258401788764,-2.5251134020124106
758,-0.8246560707196939,-6.377882340628381,2.5154196112582214,-2.5914782849151616
759,-0.8901598885568198,-6.244687711445666,2.4187651692725036,-2.6539453153155925
760,-0.9504053859502068,-6.12490392307878,2.2445079238486847,-2.7199175948322623
761,-1.0674444292641285,-6.013496445428482,2.0051070285096557,-2.80141975051572
762,-1.2883191876740003,-5.912529682708348,1.7420982939586187,-2.9085756833020824
763,-1.5077947401317264,-5.833352915526191,1.4760827410771131,-3.026842949640591
764,-1.600718610245035,-5.783200085806309,1.2182043708340946,-3.133158984116577
765,-1.6682975335578878,-5.740660024108448,0.9859582008192519,-3.221719870506799
766,-1.8464408984918401,-5.675755837953644,0.7848186000929936,-3.29433722719757
767,-2.0599692814885904,-5.57157411367518,0.5831672309618376,-3.3455517248475144
768,-2.635935591348546,-8.41424029637412,-11.75722099119326,-4.231487932948226
769,-2.780543001194649,-8.592296663895787,-12.405413776881131,-4.371239307768641
770,-2.916089542410732,-8.742579979061937,-12.99804273909483,-4.491246712733165
771,-3.088458532349079,-8.871159418594011,-13.450795752090515,-4.616727622139359
772,-3.332765401718143,-8.988363523958618,-13.755988067972527,-4.781145924248618
773,-3.561193137012254,-9.113275303907422,-13.958946023402596,-4.98509450394391
774,-3.6835239011505774,-9.25999548664684,-14.096181849420567,-5.21601747660776
775,-3.7846562065353204,-9.425408121528562,-14.228381428725944,-5.4593749245405805
776,-3.964429381276126,-9.600275268137183,-14.378975640145784,-5.698951081930793
777,-4.174572967293735,-9.77402175605664,-14.564891448690728,-5.921544435293091
778,-4.349334040654806,-9.939634833807817,-14.75213329607401,-6.1301448424089955
779,-4.48459988711614,-10.109259173290917,-14.877297065628259,-6.33291641806532
780,-4.592357605881657,-10.28823340069201,-14.941464102180737,-6.549622414118858
781,-4.741076000954184,-10.46780814476393,-15.016265759821787,-6.778788523796608
782,-4.978696633978281,-10.615894539194082,-15.1223236739941,-6.985711354771785
783,-5.177122763794015,-10.711885959791408,-15.207450145419319,-7.139530923867561
784,-5.203155698221155,-10.745743426236581,-15.270961512038905,-7.214241442143854
785,-5.12128035464654,-10.735308912135832,-15.381308670004024,-7.208704102257789
786,-5.033737875864605,-10.71039674139036,-15.60806440997584,-7.140188417297888
787,-4.950606373425592,-10.690719848633329,-15.917794662763683,-7.036195535044991
788,-4.865584981331108,-10.68877471995947,-16.25065116568584,-6.9231435612747205
789,-4.752416916288663,-10.710242477580188,-16.523739587217964,-6.808873768338342
790,-4.586581629432655,-10.750429464281842,-16.688497863634375,-6.691143934911357
791,-4.460298317519878,-10.798712964551262,-16.741581171446555,-6.57044750480251
792,-4.452859360319911,-10.841854955893474,-16.665648754574196,-6.447182411144173
793,-4.4325344332165715,-10.860611149123882,-16.44002021118343,-6.317075372659344
794,-4.265287498070637,-10.85009310274717,-16.066054434582277,-6.182188953549169
795,-4.036522518303433,-10.814906420669294,-15.646812756087435,-6.064426290835432
796,-3.8655805524050395,-10.777405550412963,-15.280937779190683,-5.981523062258291
797,-3.7763570598334524,-10.77159636913011,-15.00866386843604,-5.9260258129819565
798,-3.755199339747859,-10.793377902979199,-14.81849009687014,-5.876367177431162
799,-3.70598636881849,-10.796295301750362,-14.74401686429335,-5.79745398065278
800,-3.5371877666579534,-10.732918831524787,-14.86103153813128,-5.661364381060296
801,-3.3425451424916854,-10.613399173694008,-15.119440470075272,-5.474267479933929
802,-3.230176486501584,-10.470113859378767,-15.30621935158845,-5.255669913269743
803,-3.1204564498706993,-10.344725376112098,-15.234396870735175,-5.031556786025188
804,-2.912210729732269,-10.254292284871992,-14.878374825729491,-4.80649972300883
805,-2.6092872667872227,-10.178111586440567,-14.328542570708855,-4.572297782828168
806,-2.2489856051277775,-10.060368055025165,-13.702980555302442,-4.300593394213245
807,-1.8996280989180203,-9.88230633288334,-13.126234619981064,-3.97450060319122
808,-1.6220449791335267,-9.681531709293049,-12.694342499030082,-3.6438939906294636
809,-1.3910304649104694,-9.499203318820381,-12.38315718770114,-3.404792488665689
810,-1.1532008261728917,-9.33689622048649,-12.073890792618013,-3.220754903262987
811,-0.868699448424669,-9.151991383151252,-11.777090287029193,-2.914585104036283
812,-0.536378085208379,-8.904978322209663,-11.65856470157479,-2.450409456614012
813,-0.25155597925825807,-8.562536149729713,-11.77296244634377,-1.9907263704752713
814,-0.1212402317341656,-8.157136560471722,-11.964473101857422,-1.67418077141236
815,-0.17894605357934035,-7.777119938030009,-12.019175584230426,-1.5283675007699802
816,-0.38664787104444015,-7.460254388168475,-11.842730381026378,-1.5014539099717639
817,-0.6234706617175227,-7.1676822598574095,-11.506674114596313,-1.4896734721066198
818,-0.7515766219650817,-6.846127265505478,-11.12498955964149,-1.3905247517179975
819,-0.6615275944104891,-6.481960976307278,-10.752217513698536,-1.156554020815262
820,-0.3333242043167941,-6.080625806309959,-10.326075000542845,-0.8171028941563264
821,0.041891259653155044,-5.651683375822129,-9.748160945989497,-0.4274862484306182
822,0.2545590563120424,-5.209068056160304,-8.999531680606042,-0.035888088869931695
823,0.31963756242018326,-4.761122624352708,-8.067310469629502,0.30856565939092095
824,0.3227112813495136,-4.3036353630303195,-6.8832909371376365,0.5937502775778156
825,0.2863669154467112,-3.8109270469859893,-5.611532843130932,0.8488854473024392
826,0.23871247607186644,-3.2607319423382015,-4.651637737850516,1.121193145734794
827,0.1969736744649797,-2.6539975126995508,-4.14626563916401,1.4162786231458708
828,0.1685961934311183,-2.025288614158724,-3.9440032716634335,1.6789912231243784
829,0.2638809907049804,-1.4452145097184597,-3.92399126191244,1.8578255737251412
830,0.5457961440730864,-0.9572045514594182,-4.026940006141206,1.9737524668856001
831,0.7907171598507979,-0.5125204482168343,-4.179395131346621,2.076312809472851
832,0.7631132877338658,0.002444193823226748,-4.255203132472656,2.1449456372675773
833,0.5525341589312018,0.6352510490860412,-4.241839332117062,2.109122011946676
834,0.3269335333716721,1.3718645018289584,-4.255148414618963,1.9706701960769095
835,0.12210890912413341,2.170378653593966,-4.325488243075862,1.8323887973487265
836,-0.26227607405558717,1.7602616995663025,-3.7380374565821337,1.4320868955580335
837,-0.6239086876288666,1.370614234497512,-3.1682811018738772,1.064009465935493
838,-1.0170815211244983,1.0091182915721186,-2.622527377280997,0.7234339773348192
839,-1.3677596475785565,0.6825222359314996,-2.1059679393188566,0.4122397285360651
840,-1.5926029311616505,0.3871319841770047,-1.608799814328611,0.13259861792088914
841,-1.7703828618233763,0.11333696353976658,-1.097984661005424,-0.12596911377254977
842,-2.0047890196971383,-0.16563179614363654,-0.5400208577937525,-0.3730360496135908
843,-2.2908393908781943,-0.4636258174761772,0.0824072629360727,-0.5908811699223846
844,-2.586724988095514,-0.7847948850731863,0.7621225269471752,-0.7758174367130464
845,-2.8201136806336313,-1.1139682429620414,1.4497032565873555,-0.9317570765225267
846,-2.931074884127146,-1.429394656590505,2.0858686548384604,-1.0973420193965993
847,-3.014386188256086,-1.7223346342755177,2.6359448394077156,-1.3251138664570885
848,-3.194057627717522,-1.994231704050923,3.092801867468904,-1.6153036757171415
849,-3.41901949855697,-2.2557023985235807,3.5007631133909958,-1.9137400898559447
850,-3.6021556863014674,-2.5214954492828676,3.9117957565797776,-2.1862154735897272
851,-3.776223776896937,-2.799799270216803,4.314913385516444,-2.4270279275274085
852,-3.990727395332538,-3.0915717603682173,4.675636101083805,-2.653381852498881
853,-4.256806423889637,-3.3918954458522013,4.974419732218966,-2.872449174069494
854,-4.567649948414932,-3.692386574442861,5.204487997437477,-3.0940009679432854
855,-4.831234289722721,-3.9823072288084034,5.389865784148863,-3.332853910354496
856,-4.958454147077346,-4.263758368729835,5.564727763276723,-3.6000108580901853
857,-5.044177594598893,-4.5331436641074445,5.749758478483428,-3.913465849152738
858,-5.216617876881396,-4.8063784430880565,5.9297778429943016,-4.268234779305124
859,-5.429567083498653,-5.121459877010633,6.0854508889583725,-4.638859511804996
860,-5.6001784841656725,-5.4809797265772815,6.1693360554804295,-4.96917459369373
861,-5.736176148156883,-5.8414380700524395,6.129625256321896,-5.214953358470728
862,-5.862868604191799,-6.169784036165466,6.017141466383836,-5.385684227509359
863,-6.025748869025106,-6.468609222558017,5.951086543445016,-5.526567547110814
864,-6.262446811261881,-6.752277174561412,6.0505394826604935,-5.671937906555145
865,-6.46511470767441,-7.028939188507424,6.261739044571587,-5.816835351740476
866,-6.518410547204724,-7.2921001066245825,6.489780870311147,-5.9447850436987775
867,-6.540367762064258,-7.537739313963748,6.672762753789691,-6.043314379937239
868,-6.68576932574582,-7.773674023923167,6.835839342469288,-6.1244696814943635
869,-6.897005746580535,-8.011806159121358,6.98685976163901,-6.217266425915455
870,-7.0719153124998835,-8.251641065636369,7.1434517027258195,-6.32955964450842
871,-7.202800227605922,-8.478684799404032,7.291697079687856,-6.440381934040738
872,-7.306595210761819,-8.68631292877678,7.399348141193289,-6.543439662398271
873,-7.456192489277691,-8.868214424329869,7.426114244752485,-6.659050443547664
874,-7.717917623592509,-9.025323575907642,7.352493565175035,-6.788530206421521
875,-7.965871893953096,-9.167049847144561,7.246579317111478,-6.902129349249792
876,-8.050587756116602,-9.303690952334005,7.191873764000647,-6.990326687429384
877,-8.054475715266832,-9.442182461684387,7.184070511267084,-7.062488103375
878,-8.113287048827557,-9.58201866969585,7.185908420859171,-7.141146933009504
879,-8.223498757314688,-9.699575534153013,7.173749003318675,-7.243457717470905
880,-8.35039766350256,-9.775881351722164,7.126509090128068,-7.381365566791545
881,-8.476176070621701,-9.813121027300376,7.059362482533971,-7.557646038985008
882,-8.58127942359619,-9.835185591353545,6.997424340078144,-7.764815300075382
883,-8.72671582554993,-9.860389941944806,6.9050192988072485,-7.989336053695249
884,-8.972003604388338,-9.88661273795675,6.762783739446457,-8.208957577627846
885,-9.19352393478873,-9.898939769708385,6.5909975520386235,-8.420667276067372
886,-9.250550038315648,-9.892443533892893,6.477163243988935,-8.613977178403927
887,-9.215764625877153,-9.880346979043322,6.482893089434681,-8.766438850267333
888,-9.208697272767305,-9.883956352860293,6.640290751805303,-8.884554450876061
889,-9.229861448800554,-9.90788776451463,6.887347287106905,-8.992620760642613
890,-9.247254594346895,-9.948334417140268,7.134151580770618,-9.114098377017218
891,-9.211606128902377,-10.002477719110118,7.286192955115291,-9.22434252902846
892,-9.07708546248732,-10.062077825298116,7.316653519082603,-9.285400763188129
893,-8.924466207343182,-10.107743373097444,7.25331101939657,-9.288837282196539
894,-8.851817713818344,-10.122132454700628,7.12071834474838,-9.239730497322315
895,-8.783258955986113,-10.10386629861755,6.9750294504833334,-9.146866211689133
896,-17.420070508392808,-236.97276825173577,-11.418073397092249,-15.800564552031377
897,-18.04629275987664,-249.27963155438246,-11.649145261640882,-16.50550127915399
898,-18.802607590492485,-261.55202958901003,-11.999317812793297,-17.24435210296449
899,-19.67726383420937,-273.771462383727,-12.477317897595324,-18.015251654557535
900,-20.60777484067891,-285.9197562391593,-12.997619737847742,-18.795220232946605
901,-21.439430619781877,-297.9790602861811,-13.55033266123316,-19.497397221208313
902,-22.035790153015032,-309.9318441282759,-14.235016754645006,-20.0427688802724
903,-22.49964232481925,-321.7608951956047,-15.05280881035608,-20.449405800951837
904,-22.979304765828704,-333.4493158058641,-15.859001198519225,-20.7707613359255
905,-23.427980458864155,-344.98052033630836,-16.525229506006777,-21.043846750494836
906,-23.78383952729729,-356.3382324205033,-17.056038450879544,-21.301839529707774
907,-24.119185939059236,-367.50648255837785,-17.397339788562952,-21.554561172024687
908,-24.505750266993417,-378.46960453169373,-17.564517394144936,-21.79866883358564
909,-24.964142890899875,-389.21223261629905,-17.661557192427352,-22.061173666869653
910,-25.477908094992017,-399.719299379124,-17.795415745074106,-22.359010981160914
911,-25.906393655456583,-409.9760318073344,-18.038274139632385,-22.63480070047821
912,-26.124342233381572,-419.96795962850786,-18.393607461047907,-22.84308805660209
913,-26.24442602765979,-429.6808739085319,-18.72235006613437,-22.974876364293234
914,-26.403143704013182,-439.1008884894254,-18.870360922269825,-23.060226850206234
915,-26.528216443998843,-448.2143799848138,-18.799784474309078,-23.102915095942382
916,-26.516055243184002,-457.0080076913945,-18.548745192112182,-23.04117444621486
917,-26.3503126479129,-465.46871393699405,-18.233400313992526,-22.80908657845022
918,-26.04712295921078,-473.5837162587527,-17.96597955026532,-22.419059762083055
919,-25.691837885549855,-481.34050360239206,-17.740235928159777,-21.924222947173174
920,-25.372889373115743,-488.7268356242117,-17.491958363899094,-21.40141802184927
921,-25.042829433258408,-495.73823938257135,-17.129905995611278,-20.888833660280905
922,-24.63069340314217,-502.4284112129956,-16.60200135020724,-20.393958568511554
923,-24.188069268270343,-509.1898161160293,-16.010102224770318,-19.893768652153103
924,-23.77079146874855,-516.9393624941085,-15.497951772156103,-19.35886152110569
925,-23.327288656536226,-526.9215187629712,-15.141668360114469,-18.789283125880043
926,-22.816269253530226,-540.4723655939612,-14.96002452286835,-18.20975177646644
927,-22.273753432163765,-558.1094578987917,-14.87102605032993,-17.664835539898533
928,-21.76481526441161,-578.6089235913732,-14.769933462404623,-17.20447137215903
929,-21.42209307264912,-599.7465817622265,-14.657178971029394,-16.86241339033459
930,-21.33018307991539,-619.5780714295419,-14.567941209152504,-16.647012992168758
931,-21.323642085285886,-636.9344469468717,-14.49875045155958,-16.538757944959375
932,-21.206014053476014,-651.3583930448964,-14.459012860404801,-16.49555904524524
933,-21.003692403299027,-662.8333275987874,-14.483897754589963,-16.452091925771544
934,-20.789507157120628,-671.5313231868981,-14.609945893481543,-16.35670442249333
935,-20.552950191280623,-677.6544090319185,-14.89107594726964,-16.21324278611832
936,-20.273818277409624,-681.3655630640279,-15.342209211596245,-16.048364181989005
937,-19.90445655038687,-682.7765554433056,-15.875106471149165,-15.889694241922228
938,-19.409402122891024,-681.9608597284483,-16.36800828785613,-15.754823444238163
939,-18.88499665430301,-678.9716194664143,-16.71469557133328,-15.617261436117285
940,-18.44883196271526,-673.8546937975476,-16.867387865509375,-15.455019178709342
941,-18.072028760140764,-666.6561370783929,-16.907673632114957,-15.295790333256821
942,-17.726450755549177,-657.4244790915336,-16.977716807183256,-15.193280519086116
943,-17.55090302325228,-646.2105286579674,-17.186331577570584,-15.238423282727105
944,-17.661430282047945,-633.066317285622,-17.61025015281134,-15.487765078874252
945,-17.996823790923095,-618.0441287444095,-18.2996546613735,-15.860973404153796
946,-18.423984706769325,-601.1957274971126,-19.223418225084153,-16.231758363756594
947,-18.76993518408863,-582.5722203868459,-20.230281876228055,-16.518480649976034
948,-18.87945931484637,-562.2238343787441,-21.132600853195495,-16.662454533741663
949,-18.763997633838354,-540.2000996963106,-21.773807777705116,-16.64209642859787
950,-18.48029916614573,-516.5498535868726,-22.05922117959401,-16.4580454114892
951,-17.948696365019178,-491.32131457991443,-22.011146248280042,-16.083221679963984
952,-17.109527514294722,-464.56212217894296,-21.703839404995502,-15.499007330262799
953,-16.064798746934745,-436.31933942637966,-21.186953339460572,-14.731179439629404
954,-14.937971304081994,-406.63946384752757,-20.49176841014372,-13.817019393046893
955,-13.804182563432924,-375.5684209714622,-19.609554904928693,-12.796722811004834
956,-12.677905136296248,-343.3102551261738,-18.53400692869518,-11.71167798519336
957,-11.474073518210238,-310.2578431125619,-17.42448112032657,-10.569806235543348
958,-10.086325197971965,-276.6327358853485,-16.377117466496514,-9.376554793520453
959,-8.644440306052328,-242.40505920476264,-15.561658918602234,-8.187352523017276
960,-7.287854542793421,-207.54327338668477,-14.951257469541881,-7.042592547030318
961,-5.86710320832071,-172.08609412204274,-14.193273573207714,-5.888590015790443
962,-4.222273786714081,-136.06112740563978,-13.187779260206966,-4.662118994778345
963,-2.4366686954822754,-99.43320148098312,-12.00443439414297,-3.3802097037594407
964,-0.04014908582965093,-50.29488402013888,-10.172130875584875,-1.4735042610480793
965,2.218024954484719,-1.8918522468714745,-8.433271956365365,0.39717264347065195
966,4.283492963686542,45.662270570184845,-6.665263051280826,2.2415381897780864
967,6.338518589613565,92.34518168582002,-4.852571506218371,4.118331670682356
968,8.588556546731933,138.19976496966984,-3.0197903869075566,6.083431514983204
969,10.955359629124827,183.20926890242978,-1.2231937425942336,8.106933486557061
970,13.261946367958044,227.23292268969638,0.474807922467839,10.116381739910125
971,15.419602607943398,270.06368287722233,2.0736249733824925,12.05000312913285
972,17.374425055877154,311.5655579178785,3.563172472806468,13.851656136152142
973,19.11081411027054,351.65884907829303,5.11569445463311,15.464350783603802
974,20.673429775064047,390.28048909886616,6.731451526590444,16.86935474431773
975,22.149120227475105,427.43816657513025,8.183008444050264,18.138232225962238
976,23.613583736109376,463.1416872444963,9.234037317102015,19.360262283696464
977,25.083325656062065,497.2513892683493,10.020819257142103,20.5505512699412
978,26.519616496964094,529.5131165242533,10.808357946061708,21.682595861284764
979,27.816789265437958,559.8202866576809,11.790069613112085,22.72548425925887
980,28.868873680180094,588.3416760829671,13.059561607394496,23.638719103233722
981,29.67337014996576,615.3647569760063,14.425641661736256,24.36980169493331
982,30.288355105140784,641.1267209380696,15.606119904798089,24.914526267783963
983,30.776924880875637,665.7656199294952,16.520090002361993,25.30745693134736
984,31.2187745414304,689.3355882560136,17.204958664177475,25.666600428612526
985,31.68814545288941,711.8414348829456,17.809972044378206,26.04664566946034
986,32.24137920232834,733.268441679217,18.50025798800103,26.48097511557013
987,32.94792421011175,753.6001111186106,19.21282494707485,26.97071963608648
988,33.83759007953084,772.8253584291355,19.8190424146178,27.49844615786655
989,34.81058698345934,790.9393334528772,20.333415435026925,28.09033657228144
990,35.732265751537625,807.9415715266721,20.829560821907215,28.752462206533203
991,36.561840192642805,823.8339649500421,21.422864396609732,29.467968401646676
992,37.285060304553255,838.6189612949331,22.21115135839524,30.144336996235687
993,37.86183490285113,852.2991717639927,23.164436440096186,30.729210099294086
994,38.27200422273332,864.8767011665118,24.170157038492896,31.189432919717593
995,38.467629493522594,876.3535448031074,25.026708914256723,31.53069887005147
996,38.44497636183851,886.7315411361441,25.63085637239895,31.78434224508187
997,38.459078974643155,896.0125338309423,25.97494769985329,32.007357583105815
998,38.759191186575016,904.19846199348,26.249785226617703,32.212690725523096
999,39.19584037877802,911.2913613897123,26.7188130883802,32.38987825272639
1000,39.52203331132548,917.2933890834123,27.35098213682218,32.46332711333845
1001,39.70106491812579,922.2068014144899,27.80038861915276,32.42606096370578
1002,39.77459091059208,926.0339489525625,27.865462172795084,32.403943398837065
1003,39.90152838670015,928.777267686276,27.718183126065856,32.51989388128505
1004,40.22736236918481,930.4392725987747,27.696597297162118,32.78408620246377
1005,40.50578779854753,931.0225569634017,27.978254317003547,33.057022957346504
1006,40.43305417199481,930.5297891023637,28.60861981898547,33.174392762385466
1007,40.145603854446016,928.9637107606478,29.416352719353704,33.0796188399988
1008,39.88501420514475,926.3271368009795,30.1298879940422,32.850527067449775
1009,39.67283696530351,922.62295549535,30.59286717865817,32.571290228679274
1010,39.468077254960676,917.8541255883304,30.75459769673198,32.268359542468865
1011,39.16521043910243,912.0236727694614,30.695613074521365,31.93045407628173
1012,38.65723359169066,905.134689203759,30.554780514124516,31.58107111153105
1013,38.10453727663736,897.1903326654825,30.37726959477629,31.250370643615987
1014,37.714971599563334,888.1938247212943,30.1600928186568,30.976280290555383
1015,37.370809318930384,878.1484497299341,29.88279309051732,30.744820376838277
1016,36.90340640246004,867.0575525961243,29.523560596208043,30.532402874964635
1017,36.416544931029634,854.9245358270698,29.166424549063148,30.356862381818104
1018,36.055477272251615,841.7528589537188,28.880380617617337,30.240470762512963
1019,35.83550838685617,827.5460382709306,28.69557163718876,30.194142004496822
1020,35.717050996284975,812.3076445720022,28.54310205617586,30.206554324626964
1021,35.551317454725286,796.0413010032701,28.42286739239234,30.193881544014488
1022,35.18289983960351,778.7506820037694,28.452848263228624,30.06589653658532
1023,34.690976492756946,760.4395120243952,28.662918626137106,29.823107009878775
1024,8.932262240201776,348.84303838536334,0.9674876362309941,4.436092983273879
1025,9.110847385524094,353.7486295884484,0.8962818098674492,4.450639405438874
1026,9.221951311279566,358.18418940925284,0.8785393519203526,4.480341260719222
1027,9.287197908258886,362.1199035314771,0.8055875791256631,4.498974900294028
1028,9.351783083326518,365.5487622233317,0.5619155897320742,4.522216960201478
1029,9.461433169499065,368.4712507369218,0.14631428734036794,4.582260279169125
1030,9.640631024682158,370.8789625641822,-0.3865383476952161,4.662662544731151
1031,9.752420624329833,372.75583593110537,-0.9337023196764912,4.739077131125974
1032,9.672492056760836,374.08661079486006,-1.3985610948496465,4.78290253928653
1033,9.545783848439358,374.86853902247736,-1.8086782347960166,4.817254989893395
1034,9.537493045314912,375.11587110247325,-2.2215768552630903,4.865545762732084
1035,9.58323336234473,374.8441270033004,-2.606757954510995,4.888507325485766
1036,9.574387676868348,374.05597349328593,-2.9314521652949286,4.840247901041737
1037,9.45868989675559,372.7513725534112,-3.218695517352285,4.712077184315629
1038,9.218307114335657,370.93810933407684,-3.5103211062798096,4.515044186605528
1039,8.969295509534895,368.62723937013504,-3.863130738824399,4.284191849843374
1040,8.830493597868717,365.8248969664964,-4.3236951085459445,4.060013875375396
1041,8.704653276549577,362.523394057722,-4.900335980410545,3.853518877176757
1042,8.469501064114645,358.7103081221584,-5.5593290267514,3.6598949123438005
1043,8.183059047482816,354.38290198416354,-6.201944212808938,3.4774992510288407
1044,7.930685346124636,349.54004568486636,-6.7396071833103575,3.2972346262535375
1045,7.7181648882450595,344.1807860348094,-7.184428038632421,3.0951006504216894
1046,7.53750675332279,338.30854231520914,-7.594197701911442,2.8547631492509167
1047,7.362792454086777,331.92805721702024,-8.022311996960543,2.583197095050521
1048,7.161377681884944,325.04938321094795,-8.512284512890984,2.300112930664825
1049,6.975201747434864,317.6891144832681,-9.077184113225341,2.0372489454920504
1050,6.841359909629606,309.86047314343165,-9.691926313230992,1.8168588338885505
1051,6.656578195643954,301.57148893021315,-10.291171425400554,1.6217333488016834
1052,6.329510498326065,292.8262309156353,-10.81182492263621,1.4195972166485615
1053,5.957955019123418,283.63073895735835,-11.229341030360121,1.189435262182082
1054,5.658736865733793,274.0007238101113,-11.55185005684888,0.9206760502251992
1055,5.4191547088248635,263.9606035299523,-11.849194655693037,0.6128342994390281
1056,5.1901450449614215,253.5286596820045,-12.18272476912252,0.282053867153848
1057,4.918048058270235,242.69030954674304,-12.485186517454082,-0.03035949873942824
1058,4.559200332926761,231.40713238049705,-12.68714835068897,-0.29244091866783384
1059,4.161652111179933,219.65436384699143,-12.855889668319149,-0.5154973544353354
1060,3.7927631975578158,207.44041895545612,-13.084525586583084,-0.7341198910653979
1061,3.425826119056712,194.79894500784022,-13.419681921933979,-0.9952511053332919
1062,3.0256660128034025,181.7587515333043,-13.870899757019288,-1.3371871914451912
1063,2.639755232759665,168.3267548641258,-14.36796968158482,-1.7558177805761483
1064,2.3065903973058255,154.497412765702,-14.819663838389966,-2.225127093906895
1065,1.9897600634815193,140.2704067727152,-15.200937412366267,-2.721899717026275
1066,1.6348541813418453,125.65277252383288,-15.5183613885436,-3.2247035871967933
1067,1.1798907740262625,110.64429112102901,-15.778681590725311,-3.7191379743083686
1068,0.5896441458441699,95.23604986845655,-15.999415448132227,-4.2029960197229945
1069,-0.055548863564508784,79.42377052743484,-16.210249777445483,-4.682877022242388
1070,-0.6584218553206288,63.22092555055631,-16.425507965793624,-5.166082366138692
1071,-1.243546126005149,46.66322689182005,-16.61209479071233,-5.664239896360438
1072,-1.844737887778469,29.785205365720227,-16.736404974697624,-6.172924821472097
1073,-2.4018057343822568,12.577742372436077,-16.810620440316743,-6.638827009706481
1074,-2.856599479948605,-5.002270716110621,-16.8627646340851,-7.012926733949085
1075,-3.1841556757194636,-22.97271398624362,-16.9319963671375,-7.301845590241629
1076,-3.4070957706125737,-41.31502987365246,-17.042633752114227,-7.541358667395044
1077,-3.689029691688212,-60.00002080918201,-17.146997028025044,-7.7900039296585115
1078,-4.18030934904529,-79.00015701202368,-17.196234714435793,-8.097514029464508
1079,-4.818467308937862,-98.30057099420227,-17.212691666636616,-8.450070758941687
1080,-5.480444586804318,-117.89994441951127,-17.247670668349848,-8.809718627688069
1081,-6.121630153415905,-137.80250552610866,-17.370993886862596,-9.160258957393124
1082,-6.721907572668942,-158.0107533897035,-17.63049871407991,-9.490889461131443
1083,-7.28465361911309,-178.51891946521314,-17.976908002393902,-9.794203223787527
1084,-7.738104626699497,-198.23073804328376,-18.339563374719198,-10.026135250727267
1085,-8.039748447822753,-214.87704919818742,-18.636687149000117,-10.088033052823988
1086,-8.102616860178701,-227.49054510241697,-18.807726899729694,-9.972472156322018
1087,-8.066313392323304,-236.93383790780956,-18.78586608000627,-9.794910652758835
1088,-8.120712918488643,-244.4454570668747,-18.54393629007315,-9.713993511459442
1089,-8.21639112663056,-250.96991075685918,-18.100707721153054,-9.714223511617222
1090,-8.241702897334932,-257.0091226271332,-17.530057337753945,-9.74373037352289
1091,-8.205768468984985,-262.7190176070194,-17.02908959631491,-9.731035517915865
1092,-8.187475489951494,-270.51824040844383,-16.4835456255739,-9.667010741320375
1093,-8.186884408087488,-277.65421746967235,-16.155891714807204,-9.578039840711666
1094,-8.253070383132876,-284.05521309843766,-15.893399731641969,-9.489976224654304
1095,-8.297118968724286,-289.67471074708493,-15.526794795279292,-9.399542890260605
1096,-8.222311105228362,-294.49163008175503,-14.929644774417856,-9.304126228692521
1097,-8.159275218537006,-298.5016739259262,-14.16082673633762,-9.256416279498048
1098,-8.264645583048654,-301.7089360424708,-13.370909963250464,-9.30464463823055
1099,-8.475271262872017,-304.11998996679347,-12.660105915014897,-9.422920413994689
1100,-8.66910415369301,-305.739841361057,-12.089899992968201,-9.576207609921966
1101,-8.784852922763738,-306.6095642902148,-11.662101457918892,-9.688511087903697
1102,-8.791380495435272,-306.8667188133547,-11.326420959669253,-9.75277443937091
1103,-8.767905568721542,-306.7023689959825,-11.030083484526632,-9.79870115308957
1104,-8.816089284255066,-306.2636059671197,-10.723460675186438,-9.872502834149172
1105,-8.850977333444076,-305.63763701567234,-10.369824163249106,-9.954787583116234
1106,-8.758570570606174,-304.86298720353597,-9.951139396868445,-10.004648831574917
1107,-8.629928057287195,-303.92189353265184,-9.458027817771564,-10.015323491213291
1108,-8.584398303456116,-302.76241000053045,-8.89536388857133,-9.991325057480779
1109,-8.578008869912438,-301.3321401052839,-8.288402657092098,-9.931422909511506
1110,-8.538290473924633,-299.5881974068334,-7.670220309984059,-9.845184371747498
1111,-8.449827496021893,-297.5140939558718,-7.071507344747738,-9.764424144228476
1112,-8.3187514048894,-295.1377284727446,-6.516718376212133,-9.715255778286076
1113,-8.241283938862507,-292.51117221167453,-6.012815703338546,-9.69255955816401
1114,-8.30621143776564,-289.6651228590096,-5.556612245608571,-9.671091480668066
1115,-8.380253906310212,-286.5998715794498,-5.156371462886876,-9.60758734887683
1116,-8.296053126867935,-283.3201072141063,-4.813516265907452,-9.463934058998834
1117,-8.113166814316285,-279.85178548659695,-4.493047668184465,-9.244937929489227
1118,-7.950286577133243,-276.23329933866734,-4.154356814008878,-8.980716463098815
1119,-7.821062953545579,-272.48663230051346,-3.7891496006976726,-8.702596685748473
1120,-7.71698579310346,-268.596218497242,-3.400043631463781,-8.440546451932024
1121,-7.623211608111942,-264.5453244896013,-2.981625303099546,-8.21542178363388
1122,-7.511006365291397,-260.34253553703337,-2.532149298095276,-8.029799955189661
1123,-7.418933869689183,-256.0080002252066,-2.0504432473279417,-7.861883913781041
1124,-7.383565777850047,-251.5551086104766,-1.5424733370622206,-7.68191305040821
1125,-7.293941694915636,-246.96752240313853,-1.0412045769797007,-7.468738309248472
1126,-7.032656819125686,-242.21496364382455,-0.5797629281795599,-7.214108840448394
1127,-6.661743604881558,-237.3098134512507,-0.16709848175365655,-6.937371874273302
1128,-6.290390308084479,-232.3268838196303,0.2073527880999611,-6.665056187163165
1129,-5.952082411341479,-227.3339751965053,0.5910572723731321,-6.3954679038387106
1130,-5.65435711409117,-222.3358931820075,1.0255261924681938,-6.119838073818214
1131,-5.358620094553201,-217.3227404116938,1.4801933562998006,-5.843816698865182
1132,-5.019928324329814,-212.30185475649967,1.9010440128466493,-5.577664267693648
1133,-4.717082181470206,-207.2725045782567,2.2504605179176487,-5.340586993036401
1134,-4.54578933142475,-202.22475850329238,2.5156846366563195,-5.148276135037244
1135,-4.445887081262069,-197.148067140559,2.760694100880748,-4.984619775832051
1136,-4.327041749607376,-192.0289220021059,3.059086860982969,-4.8231126652389005
1137,-4.219070739218578,-186.86451225547415,3.3912743852723346,-4.655630926376936
1138,-4.164160135721915,-181.6697714344367,3.701068984617188,-4.477895253960808
1139,-4.134667002804826,-176.46088710159268,3.9417280860386876,-4.283901677252616
1140,-4.088358513382488,-171.24800324885638,4.081483385733511,-4.069023166840481
1141,-3.9495323553862614,-166.03541794370278,4.1514839294144705,-3.8107309074769904
1142,-3.666134688583884,-160.82182558057858,4.200430672461324,-3.4942076938363766
1143,-3.3681365396654606,-155.62321587676115,4.232307774486147,-3.1651349601492687
1144,-3.2087213443740716,-150.47800845533132,4.230405491725737,-2.8788814952583524
1145,-3.1216397274059084,-145.4032173622152,4.141852360143067,-2.627486584665041
1146,-2.9913420179080514,-140.38052233731065,3.9343709114601335,-2.4011800658367197
1147,-2.8329872642472584,-135.3916074438807,3.711741676441743,-2.175938199607745
1148,-2.6905249457586016,-130.43800018886625,3.603765819193988,-1.9688832897649977
1149,-2.616203720147777,-125.52812577627101,3.637431124359226,-1.817909435835106
1150,-2.647662971845422,-120.6607355394849,3.781495339272191,-1.7141010725987806
1151,-2.6524164632350242,-115.82462683977859,3.9448211312310266,-1.6376972348611283
1152,-2.1060061544056814,6.1423831149883386,-12.89399016907066,-3.8464776400490313
1153,-2.159761183167572,5.9536598352997325,-13.19554514958076,-3.881871416927617
1154,-2.25824277635713,5.738604716534699,-13.518975846192209,-3.901263537975462
1155,-2.341228161568524,5.512233004631426,-13.867861680101027,-3.9094457181637043
1156,-2.342070087674121,5.292324564110322,-14.244494380250012,-3.923161969094687
1157,-2.2761122607065976,5.094489932028724,-14.640368531564198,-3.9460255367379165
1158,-2.1796915793375176,4.9322916305767475,-15.04185185462729,-4.014318423481889
1159,-2.130978210956466,4.817512084182464,-15.42773892022579,-4.11104463438788
1160,-2.1869200311689156,4.756188005851476,-15.781816200432216,-4.208784336869039
1161,-2.241244855325455,4.739765917041592,-16.119969089811157,-4.279044125194708
1162,-2.179659419399522,4.759862323729857,-16.464523900241446,-4.30038626655544
1163,-2.0748160365863355,4.8280111217553605,-16.796851976970473,-4.284117209278758
1164,-2.025777454519503,4.954283468188337,-17.101714336183274,-4.255542861083126
1165,-2.017919687294226,5.129200020948628,-17.434185463672485,-4.221737167470468
1166,-2.0156019568900048,5.333196377600751,-17.83594862778556,-4.191975282927175
1167,-1.9878287802031498,5.537734685411734,-18.24361021229586,-4.198126495602784
1168,-1.9115111143346963,5.7192019699711825,-18.57873557704362,-4.264469822909011
1169,-1.851491525562195,5.876746615103477,-18.821569665301688,-4.38809602940769
1170,-1.8696360016388947,6.02488671938274,-18.980803452492076,-4.548571964242208
1171,-1.882371771297973,6.188808729970761,-19.093354572211542,-4.705058905278128
1172,-1.7969882966751014,6.391375605870167,-19.200073763379024,-4.820480417696041
1173,-1.6564159660088853,6.634348841669335,-19.306545020840083,-4.894460363516058
1174,-1.5240533073334641,6.905848935424167,-19.393100236900306,-4.944366076742499
1175,-1.4049731663459606,7.191112659973261,-19.414241578394375,-4.985886561544488
1176,-1.2923638879650727,7.473201938475885,-19.337500813273135,-5.032503757991866
1177,-1.142896004541135,7.734506980212524,-19.18823861740507,-5.089724441877069
1178,-0.9214184818132619,7.968418783741413,-19.01809551307465,-5.150258885829747
1179,-0.7283212641774701,8.188712911333837,-18.89935662885939,-5.191269844473817
1180,-0.6546878280513942,8.416954568908336,-18.87549452542457,-5.188418490218519
1181,-0.575572759045644,8.67379705483414,-18.869168408935728,-5.132021626922429
1182,-0.35970246666814903,8.969891615330175,-18.78626010531222,-5.022602994304678
1183,-0.08751957342231323,9.29023747869616,-18.637691258294854,-4.865553289555889
1184,0.13002945388028278,9.61089432254141,-18.46050857277932,-4.670690686899385
1185,0.27188614125467014,9.918721148275564,-18.26614616118597,-4.454382358230168
1186,0.3504920265703301,10.204949397125977,-18.055280910448335,-4.229261762134837
1187,0.4634714349258007,10.466243681532935,-17.789982390420942,-3.979108691852167
1188,0.6963010062069946,10.701769305503579,-17.429927286862846,-3.689479188838218
1189,0.9259639614106439,10.898527509965923,-16.985497219148726,-3.402381617254679
1190,1.0169362002004434,11.047730138601548,-16.487402347839623,-3.1416147616033934
1191,1.051001785958157,11.166806900424506,-15.971932190659862,-2.9009150200335685
1192,1.139968983661861,11.276335158564658,-15.464832718817293,-2.629182595918908
1193,1.28688224525622,11.377506014501169,-14.942039789042125,-2.3117170586072313
1194,1.4615564537585533,11.46358834438009,-14.370837585312032,-2.001175793506364
1195,1.578809591920003,11.528250778819308,-13.755072701967388,-1.7240558799303207
1196,1.5672206958658186,11.560262122135796,-13.117562843669463,-1.499136681931248
1197,1.524611209512011,11.543123122918267,-12.495634161023212,-1.295928472913754
1198,1.5684619451609931,11.464374200084713,-11.92422212186642,-1.0671498919442743
1199,1.6530462230478171,11.31942223849994,-11.406254374123375,-0.7967780350476529
1200,1.7045874610622531,11.11340705186894,-10.919345513008182,-0.48661746092727404
1201,1.7355148402710447,10.86593837273231,-10.43150799796384,-0.14658501340168803
1202,1.7674494750983933,10.594773157748547,-9.902943493649321,0.1992796937343565
1203,1.8009129238235548,10.304526170632458,-9.278278998746506,0.516134608990569
1204,1.8421856349728807,9.986418924831641,-8.528806888625764,0.7752798018718997
1205,1.8793386668694472,9.60429298881873,-7.70096579946656,0.9675111853478849
1206,1.9034489498898477,9.129593387935012,-6.85693513244005,1.1003253895352776
1207,1.979408994758646,8.589174915883953,-6.029615803850394,1.1975570738478731
1208,2.1549895008107325,8.025493910159048,-5.223819657322677,1.2895400205332195
1209,2.3306164278253303,7.454219293442226,-4.378334287006239,1.3941258893055195
1210,2.401949216614361,6.8826820143892125,-3.4382416325579537,1.5238981849627458
1211,2.40745508544375,6.321565819770021,-2.455685171326433,1.7014614233098084
1212,2.4274238103195227,5.804241709872595,-1.5453825342191632,1.9266570126548825
1213,2.4623528559371133,5.361431703122879,-0.8117043251383048,2.144403928690246
1214,2.5055511103434274,5.0288641700191015,-0.3322887275846481,2.2929214541485465
1215,2.404527881526006,4.765300595684672,-0.05247147044101394,2.3408077563366674
1216,2.0422093689175806,4.5042464775398185,0.15590671659135286,2.292511311187728
1217,1.6678657911004136,4.242025055652862,0.39471276630301066,2.2148470111712264
1218,1.5482311213747575,3.990403147377504,0.727931338588277,2.1832837708745547
1219,1.5574028122514108,3.7377760354857714,1.160411433079375,2.2045952684601593
1220,1.592440420348274,3.304968980989313,1.6903286562662672,2.3007392450029025
1221,1.5645934569045061,2.886896704140063,2.2875434285992675,2.4121913489404485
1222,1.5214973131449299,2.4846179332550085,2.94181704275354,2.522952287949727
1223,1.5025679580465539,2.100821488461036,3.6201820789391013,2.6155231991359544
1224,1.5370920594577557,1.7338527237619616,4.2811083875578975,2.6784331099177847
1225,1.5589634007785649,1.3752483451958537,4.9062988988207215,2.694967770060984
1226,1.4940907252176128,1.0185320995041827,5.480582740827412,2.659734868346923
1227,1.4250184846716734,0.6681736086452029,5.959829445462119,2.609277124363609
1228,1.4590879633323715,0.3324737950158284,6.311578593498829,2.5731307360900004
1229,1.5655133223713513,0.01691076080960899,6.5428576658765225,2.585189751071095
1230,1.6786869946278469,-0.27721484937950863,6.697860429486327,2.618929296194203
1231,1.769591633359379,-0.5573377607752864,6.880297640963944,2.64120937694732
1232,1.823655610618885,-0.8351863532764816,7.18926407039525,2.618419197573315
1233,1.8988996996074607,-1.1200912273011283,7.639476369487589,2.5798861095495598
1234,2.05723430364611,-1.4172103221049592,8.181747896301959,2.568866335824108
1235,2.210508213862341,-1.7253844022392701,8.713988078675417,2.5667054652400343
1236,2.250058749487054,-2.0386519567786987,9.12695099866497,2.540641621167519
1237,2.221919438328665,-2.347647186620923,9.373064780751381,2.488247163139959
1238,2.2088991794638284,-2.645914905979155,9.463179176213044,2.4192399261764876
1239,2.2282670918629406,-2.938130004323372,9.468431624948265,2.358948211397694
1240,2.2767491245993123,-3.234762934059919,9.479876289474086,2.337000406912466
1241,2.3051567619370097,-3.5470691092333375,9.536672178928908,2.3559663031778806
1242,2.259514040613473,-3.8830083187680344,9.64250229479134,2.4033899161919465
1243,2.2173251684585087,-4.238988923713374,9.794127737803038,2.473550410683258
1244,2.271204195296606,-4.605483185250346,9.972039358933971,2.5558400268722683
1245,2.3271022688563434,-4.975445601600665,10.13721325077872,2.6214557732401773
1246,2.271599015130938,-5.343467028026516,10.25874902152067,2.6462636505222137
1247,2.184874417187301,-5.7075229495686735,10.347707169602836,2.633664070629575
1248,2.17766013482671,-6.068627974451564,10.428693708354105,2.600054396439955
1249,2.249261078287288,-6.425097677454877,10.500456701767893,2.5647031986531985
1250,2.360807378966232,-6.775956463028512,10.55507390504487,2.543430798382576
1251,2.4130885498868757,-7.12984957796227,10.594698255707794,2.530837567044171
1252,2.318042167903906,-7.493568680080845,10.619482573443042,2.5124351642557263
1253,2.2061281477574206,-7.857427086662342,10.626686812405811,2.486611341082033
1254,2.2394564906378203,-8.20950207183732,10.611223873205311,2.4566872365705366
1255,2.316529883777005,-8.544413634994731,10.560173288073216,2.4193919961917962
1256,2.2873755551780914,-8.86584941176456,10.465657861738492,2.3776755402857237
1257,2.192556851440711,-9.202992255020167,10.330054906493977,2.350366687970715
1258,2.1149986407427392,-9.583033914244886,10.173542121503885,2.3536858887118077
1259,2.0973386369666596,-9.994536199667058,10.058247334985092,2.399217603816524
1260,2.161216910750982,-10.407928417707069,10.04228295259325,2.477345614735233
1261,2.212839406017338,-10.787672815076244,10.11959695753167,2.511737771794283
1262,2.140937203826332,-11.107531162134476,10.245090119450584,2.426463562740136
1263,2.022817519274864,-11.386148259401583,10.361887681394416,2.2370156772775744
1264,1.9712829802410743,-11.658612158413442,10.40874574032429,2.0007387295403687
1265,1.923100393367668,-11.936141508095098,10.334941095139312,1.77046483297066
1266,1.793012073872584,-12.215737214598752,10.119900350897586,1.5929613267559153
1267,1.617159418519853,-12.484531238000676,9.796288753268245,1.4780349336495728
1268,1.4611739940454165,-12.719970437609684,9.418227590773904,1.408568832232794
1269,1.3973105558705903,-12.897887154815296,9.016560825576422,1.3752550237781835
1270,1.4767693928843904,-12.999996253817207,8.608756716295726,1.3638524428423675
1271,1.6026290319733763,-13.025139742431865,8.207374547981738,1.3371176525442072
1272,1.6492315097242025,-12.979336452557222,7.81585387765697,1.262734061487407
1273,1.6693646376715836,-12.858144967327119,7.432701927645314,1.1467642603405188
1274,1.7501470706832563,-12.657616680672676,7.058039811669029,1.0105578631975662
1275,1.8356328877526649,-12.38604900187979,6.701054475107215,0.8567951032525749
1276,1.8527633904128402,-12.05686143304487,6.370666847218722,0.7018084883134216
1277,1.8054309555811852,-11.683924590266038,6.065051190176526,0.5505456635597434
1278,1.7220110514386116,-11.281545236170867,5.775915995051633,0.44421696956207124
1279,1.6819779806524993,-10.864616304345331,5.484829714285074,0.37286260066896115
1280,-0.3446478743643424,-6.544013042175789,-8.657268502274473,-3.8298542783529586
1281,-0.0806683218976767,-6.78216480745363,-9.0073164471796,-3.8222277280915633
1282,-0.006039465051839443,-7.045191611679645,-9.266052534429578,-3.874728896768264
1283,-0.0064962308504689925,-7.317088551379616,-9.416811660282118,-3.990023569821603
1284,0.06972422423902343,-7.575966543423375,-9.476184760650723,-4.157324116205223
1285,0.14850433553914708,-7.816831923026518,-9.479249291011692,-4.3829307760806815
1286,0.13903672058458158,-8.03818294258596,-9.484596282634579,-4.660232274333271
1287,0.058789122305744373,-8.22659945723187,-9.583324061691044,-4.94823969963146
1288,-0.05162976667530571,-8.37232076328692,-9.830829825002487,-5.203747174368964
1289,-0.0978482107656985,-8.480789714106354,-10.174075520766475,-5.403508533257965
1290,-0.00871489326562392,-8.561681456354844,-10.521992990495148,-5.5396988003824195
1291,0.08817993590262803,-8.623896013695955,-10.797933501055931,-5.627908709217417
1292,0.053309305149638386,-8.674452259437397,-10.955627224398688,-5.690869853671674
1293,-0.03656187847422485,-8.710076535585355,-11.042947077515777,-5.729330929213197
1294,-0.06849935858602146,-8.727199179080586,-11.126481014693107,-5.742108749873991
1295,-0.04414281887680239,-8.737181146346392,-11.174044422732832,-5.746727907647936
1296,0.011564193452904693,-8.752787645974868,-11.144615838647702,-5.76085874432937
1297,0.06496355053269398,-8.775056054457478,-11.079185109829659,-5.796461245979295
1298,0.08083161703121078,-8.802244199213929,-11.025484876562093,-5.856782230726086
1299,0.11239600429367039,-8.833091584156282,-10.995784525417529,-5.917475542362601
1300,0.20882907604584755,-8.866576621963336,-10.98983440407096,-5.955708938497371
1301,0.269925774779535,-8.910083368874032,-10.973537062177407,-5.988732374368234
1302,0.19647579679925603,-8.968904450029207,-10.920569579293353,-6.0417918233244485
1303,0.04577576950422749,-9.030399682758054,-10.883999057768454,-6.118679240908566
1304,-0.09308486472310565,-9.08178650941691,-10.922303584845471,-6.214473123679037
1305,-0.18570689536977744,-9.126329841840152,-11.027367693073572,-6.319445967769291
1306,-0.21956911114957436,-9.17494507012607,-11.158225859501286,-6.4205720163728905
1307,-0.23478956739660012,-9.242876724319014,-11.252295180674482,-6.504977868224142
1308,-0.2838883552434329,-9.343567290926249,-11.244983636630385,-6.567406296407017
1309,-0.329123972305862,-9.479024756266567,-11.114163646080527,-6.626630426276608
1310,-0.33150684563448685,-9.640937437055602,-10.868856668181104,-6.698311499062841
1311,-0.37486534801942833,-9.812480779102469,-10.522143542323104,-6.759234936661329
1312,-0.5328694646581341,-9.974961261383488,-10.109035304686332,-6.7806403397664505
1313,-0.742716941102764,-10.113237905470147,-9.707237107736047,-6.759276908865148
1314,-0.9163248911532076,-10.219578515038139,-9.38459151680869,-6.703069864157547
1315,-1.0015394094221377,-10.304606247152297,-9.148215785172114,-6.6246984485711184
1316,-0.9799730191631556,-10.379361696475302,-8.977176351313734,-6.538512656385201
1317,-0.9439172244153604,-10.429122153518227,-8.84296575302944,-6.457194690670801
1318,-0.9894652404539253,-10.4386959550053,-8.715373693144553,-6.381592858805076
1319,-1.0397047048360886,-10.415613688845387,-8.59930969686396,-6.280302621034853
1320,-1.0023566878077186,-10.374595279392246,-8.50314411307039,-6.126419250019117
1321,-0.9447596644366576,-10.3341131264734,-8.377781568811843,-5.939463003828048
1322,-0.9452781844204626,-10.305943109259438,-8.184351424355176,-5.749987582694698
1323,-0.9914331767949827,-10.273487030981695,-7.966911503735237,-5.577440714505235
1324,-1.0432523057652143,-10.213593518142822,-7.780634255611753,-5.42323707598563
1325,-1.0104941284376017,-10.120326690771675,-7.639080246397406,-5.243178701241577
1326,-0.8231441876946727,-9.996649680332034,-7.526879301718574,-4.987264290668606
1327,-0.5920336532719629,-9.853426380465441,-7.384529491982358,-4.648055286501817
1328,-0.443832308945273,-9.7047845864958,-7.143002286586352,-4.240964113863762
1329,-0.2965197442206616,-9.554187210630003,-6.781994708316033,-3.7930512534319707
1330,-0.05458567150266212,-9.401319256689996,-6.310209368616045,-3.33629295433427
1331,0.19340372766737535,-9.253363508410066,-5.732954545438971,-2.886000086422367
1332,0.3490710145334961,-9.11420563918567,-5.081062851898156,-2.445788271151553
1333,0.4228330146314058,-8.974550880927005,-4.441472962590079,-2.019434629225162
1334,0.4550553522791123,-8.824210800151526,-3.8941494175040114,-1.6032502646287428
1335,0.5279247448618533,-8.660642136096829,-3.4478244868274786,-1.181751111581869
1336,0.7035715831563446,-8.486316236952998,-3.0781079248778433,-0.7416928651245032
1337,0.8723079774399728,-8.311531883433892,-2.7601958249508507,-0.2809113177359732
1338,0.9127480362731246,-8.146688721976608,-2.4552102404520553,0.19019839608299677
1339,0.8991924537322706,-7.988494824170783,-2.126918227400981,0.6444894149311526
1340,0.9412767406594751,-7.833542787135512,-1.7454147508915803,1.054366132115894
1341,0.9903230643630806,-7.682617613147501,-1.247271484693098,1.3737223126476898
1342,0.9931878612416857,-7.537962682239157,-0.6099204119632474,1.5798725109061122
1343,0.8903947174360927,-7.391405998245039,0.061667383079981444,1.655104578052127
1344,0.6531598802363314,-7.234087595095717,0.6417002249083678,1.6161118564328447
1345,0.45695985219061247,-7.062690559384119,1.0804852504172593,1.5732902521905479
1346,0.4725712665565292,-6.878795349000441,1.3703326258062563,1.6289900016831886
1347,0.560872710562617,-6.68573799077088,1.5399295142205855,1.7600785737379374
1348,0.43905753872683995,-6.418388593795262,1.823846008596269,1.9011759089407951
1349,0.2426236811685215,-6.164073186194704,2.0115936199660696,2.0450931008761635
1350,0.061916574939652844,-5.933442603372713,2.0969468487625407,2.1840436950503452
1351,-0.05307821819254417,-5.717403880309228,2.1202012348212724,2.327216963185187
1352,-0.07646113957969627,-5.503662586367301,2.132478045166602,2.4862087897129217
1353,-0.08824798226091053,-5.2941895411912565,2.1650741631742116,2.639935610210043
1354,-0.18394275248361594,-5.092613771718792,2.2286696928139005,2.7647769229761803
1355,-0.28557635921894925,-4.898860559498193,2.2912413810658507,2.8736202925386856
1356,-0.2834868481413277,-4.708110654575688,2.3115056773078924,2.9893993753676056
1357,-0.22709676403706544,-4.500243600554117,2.2994913160416552,3.121860920768198
1358,-0.19927724223480195,-4.25665251858132,2.2832398842106008,3.2745480515220415
1359,-0.20154999006301888,-3.98083998840994,2.2641539125824215,3.4390254179965165
1360,-0.22365918822810338,-3.693238963482967,2.2417043732380235,3.5991566249100275
1361,-0.2544152822587919,-3.4270795828176235,2.231836996802864,3.7513616718349736
1362,-0.28408733370935524,-3.2163861938629186,2.2451780479715717,3.8914485895093747
1363,-0.3913827029691412,-3.0859351342758,2.2786315601416547,3.9893418847134767
1364,-0.6462504918831719,-3.0385058596951873,2.3173157864591274,4.016389868916534
1365,-0.9334408411042945,-3.0303927617665596,2.3253236587263015,3.981223713172906
1366,-1.1078727586511585,-3.0084414431377615,2.272451425586807,3.904680540851035
1367,-1.188839242949309,-2.9594796004118775,2.15910970747452,3.791155696806994
1368,-1.2434992726318428,-2.8920818245337565,2.01275034443638,3.6452532167986305
1369,-1.2984541327647896,-2.8233763837643777,1.904012611583995,3.4823587574461956
1370,-1.3675494760069316,-2.771952214468012,1.8944211886687534,3.3190596191665342
1371,-1.4011958218497667,-2.735172929005316,1.9608469244434028,3.1760989828916335
1372,-1.3401066309487137,-2.696918968827203,2.0376693747475527,3.07073908313358
1373,-1.2468384943571216,-2.6397330832289017,2.0622826052183902,2.9925229332227237
1374,-1.2075195771958585,-2.548727266062606,1.9854412720789323,2.927087706823882
1375,-1.186684515078435,-2.4239032384359844,1.8006553547862199,2.8968693265082317
1376,-1.1281196733685759,-2.2748094359590816,1.5425364655817813,2.9263511510798392
1377,-1.069210512892743,-2.107566436618553,1.2691809437030583,2.998724839877902
1378,-1.0525667190205874,-1.9296002062923148,1.0468531634191038,3.084059100765027
1379,-1.0586741856123714,-1.7560174929282784,0.932727913060493,3.1650192586903425
1380,-1.055602183417448,-1.5998552891793125,0.9532516531567657,3.2258964737700464
1381,-0.9877079516258661,-1.460626909636771,1.0786977168786591,3.2551589587391723
1382,-0.8196935479282492,-1.3334046686817496,1.2419682024026322,3.247785045011414
1383,-0.6744215264757648,-1.220355405516785,1.3841148863408892,3.1873992408579706
1384,-0.6835538693944567,-1.1230584459787876,1.4470811679199636,3.066878878687581
1385,-0.7532305589109068,-1.0369775598960567,1.336058063574,2.929339398941877
1386,-0.7417908093426742,-0.9558767653999151,1.0016746395038862,2.8235384506944823
1387,-0.654144572874018,-0.8689696584568796,0.5389889092132945,2.7450203791896985
1388,-0.5389617134042752,-0.7682946819153358,0.09284659521473276,2.6741449750162842
1389,-0.4614069290281366,-0.6653309604890013,-0.21958575510734485,2.6068308945441565
1390,-0.47898929833765935,-0.5737777551828073,-0.3353893974015266,2.5438668885111038
1391,-0.48577630606667416,-0.48708295567412696,-0.34299457602044925,2.5127511410028394
1392,-0.35670555560713957,-0.391763317909568,-0.375126589301239,2.5353943530015774
1393,-0.215640355785236,-0.2778706360952143,-0.4282778827829129,2.5590805700108814
1394,-0.2198594712367582,-0.14062253749785253,-0.4550239612203724,2.5179133816405894
1395,-0.2835762821226417,0.012559909942137612,-0.4624190229129197,2.4123180554423063
1396,-0.2788657246492865,0.1670505200021451,-0.4604720423427126,2.264617870104113
1397,-0.202083733068698,0.30569356737420983,-0.46083013590197214,2.087834047023975
1398,-0.09261565178992849,0.418729276171366,-0.47571004719722626,1.893018874382067
1399,-0.07610338363095491,0.5192166877717068,-0.4624623171767892,1.6618140353410165
1400,-0.2657704541703718,0.6296352518024213,-0.38185244834330356,1.3752970449374562
1401,-0.5015323855783818,0.7671748009370978,-0.2869135588741487,1.0727091174268581
1402,-0.5750352641848486,0.9407489340593972,-0.2556540906858467,0.8084814342909034
1403,-0.5799499030182443,1.1389345835287037,-0.3187341303831602,0.594942621317632
1404,-0.6687660926684977,1.3415247142865776,-0.47478633184881514,0.4311243652468261
1405,-0.7748926018833198,1.5430105221881973,-0.7007727741216576,0.3336179797647114
1406,-0.8013439628170135,1.7407597436810833,-0.9430131151144474,0.3069641188700948
1407,-0.7524836720925259,1.9188220723660114,-1.1026948654777984,0.31813501217984796
1408,-3.1977125730978853,-8.04612056637007,-8.135423592050254,-3.055788718043147
1409,-3.0952484538294947,-8.296171764691737,-8.485245654544675,-3.0155726137691787
1410,-3.1012365752664137,-8.542743325406146,-8.739523378198436,-3.002807471566121
1411,-3.081834535965488,-8.79474600653516,-8.908780728370825,-3.032444881526449
1412,-2.8881519229777033,-9.049062429719106,-9.024714034161015,-3.106282389974319
1413,-2.617773196502339,-9.300353867929987,-9.105526047751015,-3.218196003829268
1414,-2.4047257570140665,-9.541749302973102,-9.146610173575475,-3.355130911458616
1415,-2.2749645452698757,-9.773896935676062,-9.167800994987351,-3.5044927679642885
1416,-2.22158703065231,-10.001847811455633,-9.21891093803221,-3.6550108935399725
1417,-2.168906991869393,-10.229786443549783,-9.3207100445059,-3.7885060261480525
1418,-2.0423806658818915,-10.45991349476111,-9.447979440265,-3.8996217574371776
1419,-1.9445482021351697,-10.689375826839164,-9.56456237627586,-3.9977403517023387
1420,-1.9814389822481047,-10.91294211413251,-9.676186347216712,-4.106025724540577
1421,-2.035772502730027,-11.125668656412108,-9.81798048884894,-4.22772713759535
1422,-1.9762099436309706,-11.325828595149606,-10.028673853257372,-4.341305442737792
1423,-1.8509376949375886,-11.51892861110433,-10.2800886650568,-4.4584793068875
1424,-1.7452618250601533,-11.71284881007054,-10.536463803478174,-4.631046812786981
1425,-1.7062903183508489,-11.913993813846705,-10.76617685168563,-4.871547411055309
1426,-1.7658303314408565,-12.124820843750747,-10.968815925201634,-5.13079384830185
1427,-1.8724960504211814,-12.338709429525656,-11.165594337003153,-5.352203554362271
1428,-1.9632517369319815,-12.547415756242147,-11.350326166891891,-5.51627261047211
1429,-2.11815580100527,-12.749507872332154,-11.483093347762658,-5.636177263701448
1430,-2.4089970733846964,-12.947925726812066,-11.56218799915206,-5.728604041716653
1431,-2.6991135065043,-13.148755137374055,-11.62266743897043,-5.792479342804255
1432,-2.8490708996460063,-13.358695799415058,-11.691694871335843,-5.825725864306659
1433,-2.9231245023920263,-13.58150126111507,-11.738829332186606,-5.831630355064989
1434,-3.016271412371883,-13.815484798228796,-11.714980677625825,-5.828712685041097
1435,-3.139895552731261,-14.052207500707523,-11.629644984981827,-5.835988855033328
1436,-3.2814677662262315,-14.281107076543844,-11.547903137850678,-5.869845363122599
1437,-3.356208985527503,-14.488481572460083,-11.50493125771189,-5.91789433116583
1438,-3.300539017003652,-14.666513618355566,-11.47991950651026,-5.971306004614344
1439,-3.268067665883295,-14.833166022597887,-11.41283298457956,-6.030481093077964
1440,-3.4156503322450886,-15.003407489727515,-11.27853976597252,-6.111737400112279
1441,-3.6512674432742993,-15.15333503335521,-11.13331097721571,-6.208038213310592
1442,-3.8365136801137463,-15.252894692878133,-11.098981649709643,-6.277908722042676
1443,-3.9462545584226096,-15.294527621929115,-11.20675519602819,-6.288882978254404
1444,-3.9883056667440906,-15.281640458213532,-11.361630246821301,-6.246991803950849
1445,-4.017242967624744,-15.228320785173215,-11.456694899781438,-6.175848009600853
1446,-4.0911901627615705,-15.15303515132749,-11.449004313754727,-6.109773446221374
1447,-4.139745018719855,-15.062291486971972,-11.352763635077181,-6.055316856330987
1448,-4.084827564779443,-14.956030285077622,-11.20121954679464,-6.0138766244768
1449,-4.002161134941718,-14.837494993933054,-11.044214333124199,-5.982909511252705
1450,-3.9773561192206732,-14.70583885695402,-10.918368425174268,-5.969438573502776
1451,-3.977835889467134,-14.547393813159406,-10.83791879101506,-5.985101816327247
1452,-3.952051078950981,-14.35178427491131,-10.789573733900669,-6.021098066153874
1453,-3.869275065205186,-14.1285444688276,-10.725097948415893,-6.05023007562355
1454,-3.720482634071194,-13.892059236216436,-10.600704856149855,-6.04153768583373
1455,-3.594601395311973,-13.648715542383751,-10.407380322222018,-5.985498598728152
1456,-3.577838890440088,-13.399817827624458,-10.16482019168696,-5.885847729664708
1457,-3.595704352904607,-13.140843929139894,-9.946881687309935,-5.752481503630463
1458,-3.5524569165856335,-12.863759493372838,-9.792274102321722,-5.601550388192023
1459,-3.4876214648291732,-12.558913730002132,-9.671175690592628,-5.451940465420276
1460,-3.4518280857721098,-12.221495157159623,-9.484555402257751,-5.317009496963161
1461,-3.4105422365286473,-11.86392820881023,-9.143390199765083,-5.196952763241018
1462,-3.325647724767089,-11.499319079410304,-8.658386799712607,-5.0856965901105315
1463,-3.1748263486711936,-11.120288945923168,-8.109002348944092,-4.977055636520215
1464,-2.956745945117888,-10.716922018926088,-7.597155845629124,-4.864756027086179
1465,-2.7731707103644925,-10.290786667715267,-7.141604571533128,-4.749172183011163
1466,-2.7135109223757654,-9.847916372118563,-6.716547608576207,-4.629335242671631
1467,-2.671718436540333,-9.4018272614348,-6.27986935742692,-4.487405023416697
1468,-2.517959309167866,-8.976046089533801,-5.8214051938443365,-4.321644502244689
1469,-2.350378198866181,-8.583066942662358,-5.409689124575942,-4.167637787965958
1470,-2.2762938200629588,-8.235676757978947,-5.1073149784335925,-4.047140780822857
1471,-2.287260802067139,-7.943276069859712,-4.910978740025565,-3.956795996942827
1472,-2.3393133269968023,-7.70355260769746,-4.776992634833859,-3.868184163208808
1473,-2.345022187499216,-7.502641078467401,-4.616416049656803,-3.7602530678679833
1474,-2.223836053731861,-7.321989824944966,-4.403926504735086,-3.6167477739494593
1475,-2.030833203209555,-7.140160630476306,-4.1408420184127035,-3.432086211416758
1476,-1.9616504421233314,-6.9260118394443415,-3.803551830005921,-3.197821983390914
1477,-1.8389174314163608,-6.691280184559598,-3.4786043068241814,-2.964109819221873
1478,-1.600998122756663,-6.442172277428174,-3.1547062431487314,-2.734640196639657
1479,-1.3117963512709847,-6.187901806370201,-2.8549412949860264,-2.5082470284035723
1480,-1.0644236249264474,-5.938137986475324,-2.605695406987936,-2.281760430356637
1481,-0.9147201209830988,-5.69619483154438,-2.4156421951255207,-2.054770130990887
1482,-0.8832190541546981,-5.460667706638256,-2.277395221808341,-1.8282308009651387
1483,-0.8645732458483723,-5.2292019922645085,-2.158174217685244,-1.604794487627402
1484,-0.7401970561954625,-4.997862584515822,-2.017185637847082,-1.3862129963094776
1485,-0.6133663868183001,-4.765244077324906,-1.8179082590030868,-1.1681288651184532
1486,-0.6147435058155465,-4.528747181532879,-1.5581247078906724,-0.9445115989309368
