,TP9,AF7,AF8,TP10
0,-7.878355797147668,-12.52626713411272,-8.271616391360773,-9.200299507895808
1,-7.909796316767863,-12.882925199768474,-8.417492271027431,-9.317671912440895
2,-8.057896055728525,-13.23283080401073,-8.56460189443066,-9.462641203859814
3,-8.125848091233566,-13.573321819451309,-8.68556028836535,-9.59033698051621
4,-7.94238795645677,-13.90657527099345,-8.802110582050233,-9.660235718103667
5,-7.776551845688349,-14.246513463272997,-8.922120881222352,-9.765929350319123
6,-7.924058142380958,-14.604460650482562,-9.016117096647765,-10.001839245998363
7,-8.17498957729307,-14.976389010738794,-9.090593114758025,-10.304563186755704
8,-8.262758120869156,-15.34832336396744,-9.169473673235153,-10.583338936582441
9,-8.263129350383432,-15.694323876928598,-9.343968594343744,-10.838102614787761
10,-8.302195271061846,-15.993332223281,-9.672831170428108,-11.079081300419308
11,-8.447480084530936,-16.25278475868063,-10.164780537641532,-11.290149152266105
12,-8.728370424606478,-16.49076699308599,-10.721343082577647,-11.464526036412622
13,-8.921907341283251,-16.719380129305296,-11.169916577928579,-11.575895769620308
14,-8.831029369476227,-16.946762287226118,-11.403000177575676,-11.62244807584448
15,-8.7456085558853,-17.169818784064834,-11.47404315973662,-11.733031269272482
16,-8.979577597057364,-17.381627158180983,-11.490715613672139,-12.022975825125693
17,-9.361313563726505,-17.586034436422413,-11.532632671314635,-12.409597067897714
18,-9.644125445454016,-17.786507889928913,-11.610636532372975,-12.770929060618961
19,-9.801331613226322,-17.978686477786113,-11.715279503293637,-13.1063564291543
20,-9.864481822599727,-18.155843149315977,-11.809321298734462,-13.42584655392594
21,-9.990119557739892,-18.303055934968047,-11.865969878019131,-13.689957100017754
22,-10.313925855845524,-18.413665048762233,-11.874897520129274,-13.864712480767098
23,-10.570967912090236,-18.51407112951989,-11.858037433029587,-13.89288455708764
24,-10.497488019894593,-18.635026525527167,-11.83246834701407,-13.757649818168508
25,-10.360532757008924,-18.78340516309874,-11.812277230494644,-13.618169865708182
26,-10.468409896128573,-18.951916585297592,-11.78976130332773,-13.63398550136156
27,-10.721915239232851,-19.122880486067746,-11.74200920938688,-13.762930267361103
28,-10.944140525074241,-19.273978379491023,-11.706701532776009,-13.908850858170213
29,-11.008441257526277,-19.38763288240468,-11.783439382440287,-14.030194258155987
30,-10.848617440054795,-19.457910413863438,-11.976828132754353,-14.103233544860252
31,-10.748576953768092,-19.500548133747834,-12.167321880869501,-14.1718502098429
32,-10.980034674917132,-19.536712074486108,-12.235832061922416,-14.283151323265722
33,-11.212466767413998,-19.569331728673657,-12.17732915118435,-14.348608026265381
34,-11.080139429381884,-19.593196115399138,-12.07624537598065,-14.275318306964952
35,-10.818085698432217,-19.611350690318982,-12.01572915383084,-14.124381138975455
36,-10.725193625997509,-19.61610041474746,-12.01513500204762,-13.977522644645767
37,-10.750844488634167,-19.569820435615373,-12.063310923260211,-13.821240629743984
38,-10.772880227230509,-19.437579159533307,-12.116691770602042,-13.633937021673827
39,-10.608260194352633,-19.21349331972287,-12.152017754315809,-13.413803884102295
40,-10.12506080882015,-18.91377574333158,-12.15332578749288,-13.165666094686163
41,-9.656356905661207,-18.57762821238392,-12.1148466009775,-12.97694698294599
42,-9.5325302157045,-18.24785154355505,-12.027168788015617,-12.905260289042943
43,-9.406634101883025,-17.947374514922863,-11.83638482921714,-12.78298860184862
44,-8.88677308337445,-17.677737882859912,-11.51099408182705,-12.441715047282779
45,-8.185731858038336,-17.414420009277524,-11.060037615440248,-11.97087554992184
46,-7.5991106935469475,-17.12524168232338,-10.560654814522934,-11.505771664583309
47,-7.166191712128262,-16.791561090164095,-10.085931571800431,-11.058220620258176
48,-6.8508328147061235,-16.40789726139216,-9.697110906365413,-10.610673732615503
49,-6.422570816949526,-15.989807689067396,-9.393417631566056,-10.10608836713253
50,-5.683774970510538,-15.55459100153542,-9.151431773752856,-9.497311288006324
51,-4.974581452434548,-15.092526560497673,-8.927773551741346,-8.902025819025367
52,-4.658460476008783,-14.588069462608386,-8.707359741014093,-8.441012827692031
53,-4.479512844605089,-14.03845501129621,-8.508632139454466,-8.024037229279664
54,-4.115684970501394,-13.44992427280839,-8.328908686408441,-7.536973435640366
55,-3.6554433833475914,-12.839567001885062,-8.13371538596413,-7.011100135023019
56,-3.262817422685987,-12.228081706443168,-7.891281870926177,-6.5052615771212565
57,-3.0754226054703016,-11.637137378637105,-7.565039175465558,-6.057897403207806
58,-3.168550726294655,-11.068818483183353,-7.113847161262774,-5.6897708202693575
59,-3.2551212760331927,-10.507101090291293,-6.533524536967354,-5.325362857036261
60,-3.035750901892115,-9.966989679848643,-5.876783956943601,-4.911893050522594
61,-2.922644817119255,-9.541647435945753,-5.235484791750352,-4.577541176957388
62,-3.3021538697540254,-9.2959609957448,-4.6849760697730805,-4.455159167417251
63,-3.7735158967606335,-9.19408208371422,-4.315279884268246,-4.4102656705469085
64,-3.8136721448879136,-9.139667559536631,-4.268059796942707,-4.257691864815969
65,-3.4828007079359997,-9.038544816909882,-4.545851416790522,-4.012770940737081
66,-3.014517337545171,-8.871544205458518,-4.8862888895360665,-3.7400002192179636
67,-2.648713595910133,-8.695973193911556,-4.978007188188403,-3.4674138170598945
68,-2.6718978666570483,-8.379770658881561,-4.687717185284823,-3.280625037524646
69,-2.717782229830766,-8.053769405022592,-4.390320763824119,-3.0617331578604055
70,-2.42261915591986,-7.687340529780688,-4.123691560038348,-2.744929866299662
71,-2.0422741013012855,-7.296792578135203,-3.9206847725011187,-2.461212301977866
72,-1.9457059881113463,-6.913616189770943,-3.776811056102518,-2.357494134011961
73,-2.013296598995139,-6.556601339724362,-3.6288956808362762,-2.3668257304377383
74,-2.030719452516365,-6.2403720374520715,-3.379804867075873,-2.3702008988175596
75,-1.9616972464660145,-5.96843708661136,-2.994601922610934,-2.3323182112891767
76,-1.8208011380811762,-5.734343447509729,-2.5297700243362,-2.252856828780825
77,-1.817978918942631,-5.537154470351834,-2.1136861475120483,-2.2159063695628514
78,-2.1587866789050856,-5.371247436907783,-1.862622430455968,-2.3116883565334305
79,-2.53578841125722,-5.212163673021892,-1.789537088677001,-2.444875367683602
80,-2.572848775552923,-5.03429371478643,-1.79445586539613,-2.4818717004227437
81,-2.488748038451787,-4.823422665949527,-1.7878046693047274,-2.4657791545342893
82,-2.6151547888153552,-4.578729837636597,-1.7146336998802054,-2.4763814282963392
83,-2.8806209629690223,-4.326269188688047,-1.5807137397189943,-2.486670403220847
84,-3.1250027105779137,-4.097338162704214,-1.4532620966101022,-2.4581974757067444
85,-3.2489528410441575,-3.8950813749442164,-1.4394492423735994,-2.3896489902353375
86,-3.186920121258587,-3.7100609111626146,-1.5211156233327818,-2.2878744936416706
87,-3.1635973819753263,-3.5363102204340735,-1.5316840308303252,-2.2151223359999337
88,-3.425330868907803,-3.368303688173764,-1.3766324673254533,-2.2254377848870157
89,-3.6979672611965904,-3.205310230673373,-1.0928190064403873,-2.2161282800249067
90,-3.629663670437149,-3.0499564279848475,-0.7646552182949736,-2.067179024014144
91,-3.3800291414238215,-2.905466587382907,-0.4292720501819815,-1.845010020431732
92,-3.216987293036133,-2.769512516837673,-0.07332541145022986,-1.659179139942479
93,-3.1560586217038016,-2.623637451386689,0.3122416994551537,-1.5068211117494408
94,-3.1464442836061197,-2.446396125870588,0.670261551477835,-1.3632567432583318
95,-3.0507958065636402,-2.226326652979964,0.8994577801221337,-1.2236767109578683
96,-2.7372723035759146,-1.9627084890664448,0.9334602081874341,-1.0855405168830614
97,-2.43350991429916,-1.6751997169516997,0.8155233454431785,-1.0138797957955772
98,-2.409041382329016,-1.3865026562560099,0.6746002073726914,-1.0643399610944035
99,-2.4711828537867437,-1.0956565005457857,0.6437349165046423,-1.1330538538366535
100,-2.3368228279117753,-0.7915339515739939,0.711439664625104,-1.089844391062697
101,-2.02910292409175,-0.46525532150349447,0.7277685385706029,-0.9392977387223304
102,-1.654460006275638,-0.1123434827928341,0.6223009369862522,-0.7355245238927733
103,-1.3299824447501165,0.25618636792523614,0.464540105594731,-0.5320127785040243
104,-1.1569490880522662,0.6210343019967883,0.3705513470720048,-0.37702322664953614
105,-0.9356131150632826,0.9646272739282415,0.37519392391728096,-0.2351701025061183
106,-0.4379797212927272,1.2718905585869331,0.43733511397876335,-0.0495693198819909
107,0.06726639997069697,1.5403631641846525,0.4903335485381335,0.13777990613654845
108,0.24680195278225558,1.7616776646924477,0.5082352199735494,0.2653783148468217
109,0.2787090752698098,1.9365570574560653,0.5278788967149113,0.35021315437904865
110,0.43665323238580955,2.045319776260154,0.621932242917101,0.42192635231967107
111,0.7003475386057981,2.0732511572927512,0.835061305591758,0.4694656831566526
112,0.977845790781988,2.041418342688075,1.1749421611763529,0.48226580797289403
113,1.1234172967107021,1.9866641024182712,1.5844277250613032,0.4515839681486194
114,1.0133404375444626,1.950744336479692,1.9817179610233313,0.37926229509841186
115,0.9345387860554808,1.9415583445450721,2.2797734277100705,0.3508966849531348
116,1.2057265243396498,1.9495605178278625,2.449517133130331,0.4420867340422816
117,1.505552002184308,1.9692211903660943,2.4852232220597656,0.5554183387121648
118,1.4189702601473146,1.9939258939881381,2.4279039765733748,0.5617198332556265
119,1.1259519737145371,2.020111080788922,2.332988687624794,0.47759931202843164
120,0.9336759853091102,2.0469876947255345,2.266543552962583,0.36158995622408996
121,0.887329954099913,2.0694213238115435,2.2411359805796214,0.2388575465512235
122,0.951479533386751,2.082662521966773,2.205948108263525,0.12697532931485944
123,0.9327203225176713,2.084079850346365,2.131509004997347,-0.018407111323062622
124,0.6315168519492173,2.0758779172815083,2.0368412033132395,-0.2446231227389773
125,0.29473921304337414,2.0734446936549498,1.9294705054465298,-0.4608126653631651
126,0.2431968838204337,2.0919261213899585,1.7777142903158565,-0.5591206907243625
127,0.3017620473852388,2.1321111317261714,1.5837132279417094,-0.5856102657639964
128,-5.8809858235258,-8.290068285175678,2.0906890960345805,-8.159729496268785
129,-6.303095854821116,-6.885352157825616,1.7028452146016224,-8.500754881777633
130,-6.639060539297042,-5.282227079978616,1.6823270224779932,-8.685716630519206
131,-6.619933207352276,-3.492235832692731,2.1624848029217034,-8.624413557114702
132,-6.090014483228343,-1.3976239521377827,3.128933402976543,-8.304424774290409
133,-5.448192968543798,1.0963256167244821,4.572703752705604,-7.884305084562137
134,-5.1293626453853,3.9999358405017356,6.358566083645319,-7.539447970664398
135,-4.98370046334209,7.332922449912909,8.160502397909692,-7.324875004039011
136,-4.7333717024520165,11.220224907489047,9.687957526843308,-7.212007632748116
137,-4.350838251743141,15.894961023962523,10.871237401722336,-7.0696564028606
138,-3.8723442675221906,21.462316296225296,11.780680379967547,-6.7797753817202935
139,-3.3785641758462055,27.643952979477426,12.571055286789,-6.378926179666217
140,-3.000896290189795,33.86990224120186,13.40693324919728,-5.98780138096543
141,-2.7729148885605257,39.582907373589364,14.372548629550558,-5.788069179262004
142,-2.6753276902481287,44.42257070981215,15.428259094673104,-5.898108350355615
143,-2.8292140463126523,48.23492235755,16.36813719391359,-6.200702811604652
144,-3.2512924446801588,51.0088291981417,16.979333277923157,-6.483761002876794
145,-3.469140224053749,52.79422974861084,17.16852100382247,-6.555608792341365
146,-3.0693497000912533,53.66513177000552,17.01909590364861,-6.306800358565905
147,-2.2863644823548466,53.68724923729997,16.90675855181342,-5.841579077345893
148,-1.5132389829578692,52.907029620831224,17.235632920036238,-5.340990748676597
149,-0.9741047828508371,51.36434841177666,18.1525526056368,-4.909384475051302
150,-0.7621971648900496,49.09031791667812,19.584020248697446,-4.590051275245238
151,-0.5625905780772988,46.11269557513825,21.24987277903049,-4.3127635996899745
152,-0.05025375987365077,42.459111145655,22.783326536953613,-3.991109443851086
153,0.4706491514618021,38.157217184360114,23.853340236616486,-3.6878481908682472
154,0.6061979494565657,33.235338018385775,24.30433981184745,-3.503136495130308
155,0.407215959574625,27.721833326158023,24.37083508267039,-3.4680447751004997
156,0.01805499117149445,21.644993586137982,24.379974876931197,-3.603705334865815
157,-0.456945177461491,15.032798286167367,24.392035008527042,-3.911507185179811
158,-0.9529162240564579,7.91278392039894,24.366508873514082,-4.394258597444024
159,-1.7207202174149347,0.3120625880490433,24.268652007769745,-5.156984455536458
160,-3.005422338006865,-7.74270346233634,24.04929405042956,-6.272952565915244
161,-4.53688797005254,-16.225267692120966,23.735919897770597,-7.614873051934778
162,-5.998889462269544,-25.1097794843853,23.393653481714342,-9.024043487425555
163,-7.529498915197527,-34.37075760286355,23.009570456579603,-10.449505943071793
164,-9.331404415847539,-43.98309844337364,22.567701346308247,-11.902884902658766
165,-11.391238784393838,-53.922100698175115,22.17955726282896,-13.482273768989062
166,-13.657251662652964,-64.16343502525072,21.894535349230676,-15.293881593721842
167,-16.02617074410918,-74.68311282692208,21.495428192133236,-17.31560328049676
168,-18.396251372819265,-85.45751067283088,20.749157153576444,-19.46980392261182
169,-20.927525528719894,-96.46339149701942,19.583027062082483,-21.715166618789237
170,-23.758927830342685,-107.67788625100081,18.063658918487974,-24.001992083111553
171,-26.561693438833046,-119.07848064286179,16.519740436163648,-26.225823506962875
172,-29.00778581939532,-130.6430182021291,15.281801997156343,-28.315616846991812
173,-31.30441481915717,-142.34970274866507,14.293223619763209,-30.338948218017997
174,-33.7131584561076,-154.17708718292297,13.384411794944846,-32.37773538507505
175,-36.15654950577514,-166.10405355393527,12.578063957946172,-34.385474445301035
176,-38.49640975505436,-178.1098359693087,11.898433678089514,-36.301664922701605
177,-40.573700238146856,-190.17405655169094,11.235130161841264,-38.148070332042245
178,-42.31499324874947,-202.27667964983314,10.506230681700226,-39.95788587707219
179,-44.10803040670242,-214.39795879716928,9.745596634791601,-41.75792771833189
180,-46.342263347697724,-226.51847628212758,9.002026462705157,-43.55901771834166
181,-48.79654981885417,-238.61918178193508,8.342040699359643,-45.29064789624237
182,-51.137778743020085,-250.6813641488204,7.778746111263384,-46.88172990105662
183,-53.38255470562263,-262.6866117130793,7.057968561711622,-48.375765312275014
184,-55.60251568684665,-274.6168565664534,5.957042921217268,-49.83743802000812
185,-57.8278708922868,-286.45436855561996,4.705016855017099,-51.255934939972676
186,-60.077543409727326,-298.18172351670455,3.592489636253006,-52.61533852194739
187,-62.146608934961186,-309.78185252741855,2.549349219359042,-53.9390777526427
188,-63.90586564664423,-321.27064779311115,1.467435775922399,-55.27778015370777
189,-65.7531992356428,-332.70175845516246,0.3668449851990923,-56.69148777213357
190,-68.07764458928087,-344.08132545541446,-0.7235573699465281,-58.218961909452304
191,-70.46577309237053,-355.35184976232193,-1.8444132898637715,-59.721823834175574
192,-72.37386979327547,-366.44983824887794,-3.045668329444159,-61.02910800710311
193,-73.88642836104646,-377.3477843952055,-4.437110070292137,-62.13664443628354
194,-75.2585880923238,-388.058351612663,-6.061339484885138,-63.112688173932746
195,-76.6458866001479,-398.59764188725023,-7.734030671858043,-64.03136384806172
196,-77.31350781490644,-411.34924144935115,-8.924190031296279,-64.27901733696372
197,-77.9400034326191,-423.5811772473289,-9.849296039968879,-64.53516552283128
198,-78.21669652236719,-435.25363709663446,-10.483642280099179,-64.70864062279732
199,-78.34990250667353,-446.28887275761184,-11.24081430793445,-64.76322234953166
200,-78.64925298203555,-456.6536202855375,-12.420930185781518,-64.70338203927837
201,-78.99710271318276,-466.40015558476017,-13.928543703374805,-64.5631992877075
202,-79.20062892226466,-475.6459445576293,-15.274728811331075,-64.39958773358214
203,-79.28445124257516,-484.47218885568515,-16.120006843967168,-64.29106391099113
204,-79.31247164675135,-492.8449059269015,-16.60600608050829,-64.28337613120566
205,-79.39890414457595,-500.65647451542134,-17.171476404722746,-64.29405273570997
206,-79.63973660762777,-507.866375942281,-17.85550148521553,-64.21864277694822
207,-79.78975916169857,-514.5332946469244,-18.454377570646344,-64.06422821760235
208,-79.58124388882207,-520.7044938165384,-18.634846152751294,-63.87984147852744
209,-79.27343902625458,-526.3569032792057,-18.488124417041682,-63.72920553089262
210,-79.20034234348537,-531.4392094321721,-18.27547124138846,-63.648075536045006
211,-79.22366076145387,-535.8947970676179,-18.169530119353432,-63.52014041574944
212,-79.09127802554926,-539.6973127233374,-18.299016125459136,-63.19534717977968
213,-78.69213698568137,-542.835831150758,-18.667046063636253,-62.65300066924792
214,-77.98833912662573,-545.301065517655,-19.181792660499518,-61.935990986755016
215,-77.20066817121287,-547.1082643043496,-19.76028797026106,-61.11215765597243
216,-76.59262360536955,-548.2997205648551,-20.33547660001385,-60.26113653320159
217,-75.98174811808745,-548.9181175784948,-20.900860797625345,-59.394418987416486
218,-75.10181007721611,-548.9739885415091,-21.457324111405892,-58.492162727679236
219,-74.13495484980969,-548.445885109968,-21.92524179635698,-57.59136466324369
220,-73.31988527088461,-547.3247560623198,-22.19295827420903,-56.72531168501836
221,-72.53631386417796,-545.6347609987903,-22.13548642694494,-55.835548675513905
222,-71.60163515214506,-543.401157691954,-21.678133824415127,-54.86419619329928
223,-70.45264882724922,-540.6252798979357,-20.920233560136925,-53.849653125640216
224,-69.07596190622237,-537.2719155418954,-20.04929051792378,-52.842647564708265
225,-67.67185946380424,-533.2853355146725,-19.1941332160609,-51.8837866283671
226,-66.43954627208888,-528.6214799570902,-18.462974598073934,-50.96318347339363
227,-65.09447189535739,-523.2520583711552,-18.018439259396526,-49.8527850547716
228,-63.30373238938776,-517.1829281459327,-17.936383414895495,-48.33798101564035
229,-61.2701762731669,-510.45803075707465,-18.054719887291714,-46.55597329367081
230,-59.32614653987117,-503.13612368156726,-18.136640975977894,-44.75971919062499
231,-57.604088176027766,-495.2412713698981,-17.99497946658925,-43.09446026095274
232,-56.11997941357409,-486.75476767371583,-17.537359122748647,-41.623950645370726
233,-54.58748272459211,-477.65644699193484,-16.940880451331292,-40.21961092994166
234,-52.67006412095915,-467.92502881181986,-16.441015271345563,-38.68553759377224
235,-50.535901581361216,-457.528834998495,-15.99094915698003,-37.02605579672671
236,-48.46991198536044,-446.4965518212697,-15.458848900709786,-35.30421195243066
237,-46.328248758326545,-434.9262884000753,-14.806262021314621,-33.47462649067621
238,-43.91901414017335,-422.8563213642091,-14.034256635544581,-31.49827687183101
239,-41.330103915337226,-410.24228626341494,-13.293684635796845,-29.3640606577814
240,-38.72053087778711,-397.0293616917396,-12.743217555163497,-27.104006793447954
241,-36.31644526947222,-383.2420775674569,-12.208619691911919,-24.94440982677377
242,-34.28416609914245,-368.97166552931986,-11.463507697610288,-23.095540213682266
243,-32.337233697185994,-354.2726819523726,-10.631051734638612,-21.433374075965542
244,-30.09162745366896,-339.1677895166473,-9.877135676817641,-19.717951847904573
245,-27.64567612567118,-323.70968290576144,-9.14904962683469,-17.838323135996287
246,-25.205927087819664,-307.94503372806224,-8.308353420462272,-15.745382707806785
247,-22.63573462736475,-291.9183657397352,-7.0692247801919805,-13.444490174990989
248,-19.794165435427583,-275.7270753733371,-5.220972811151889,-11.020105217964323
249,-16.776441283676654,-259.4524403905277,-3.068322854141961,-8.583751744394814
250,-13.749732307452927,-243.08897462634806,-1.0918616371774765,-6.245159131524656
251,-11.018145243920264,-226.68238374903467,0.5125562136894346,-4.127962203281839
252,-8.812475950272484,-210.42135630597014,1.680850231755547,-2.289780711298076
253,-6.794183760149697,-194.49555181973238,2.338659142945608,-0.6083595297961355
254,-4.521271107670798,-179.02685553933856,2.543219188446641,1.0814450130001867
255,-2.1108467510064086,-164.15792923187192,2.5760260003934565,2.84373463591341
256,-2.1242035746266206,-30.330199891555225,35.638074418331904,-0.6483782823005243
257,-1.6950497391942683,-18.60919850781278,36.53365053654198,-0.5295363062254398
258,-1.244834574330251,-6.505217722803124,37.510794304576734,-0.40243940178068704
259,-0.5723429701627039,5.956639402976588,38.53207404496444,-0.17634810531890627
260,0.456074487805879,18.751643144051442,39.57617633768274,0.2060838473947308
261,1.5311400938819613,31.855449765254317,40.614307188134,0.6558583884162803
262,2.3309044871246334,45.244086005798,41.635048589876945,1.064719008406552
263,3.1595129878006865,58.893888927861134,42.64257150472035,1.5103486737196734
264,4.358039772845979,72.78161843501995,43.64645712719191,2.0813709821359425
265,5.6967415706995626,86.88441694394032,44.69885843000605,2.686182438797811
266,6.877888456209889,101.1799721904256,45.80805750096877,3.2318805099198857
267,7.856452910381168,115.64586643966408,46.82046757770119,3.747236853161427
268,8.68467909825941,130.2594135861658,47.57571191365977,4.301781826538176
269,9.644045097700936,145.00154715181495,48.043167596663594,5.023286716181104
270,10.989118481274812,159.8488849588614,48.28222267031724,6.001102705875685
271,12.432536588699701,174.78125495441108,48.45810648701803,7.095361364438337
272,13.62854246122363,189.77881040220532,48.74435208531231,8.124621083925552
273,14.774616165530944,204.8229428128171,49.176875798327714,9.101044044532614
274,16.111864715187508,219.92441079528567,49.71178812314349,10.066841036529677
275,17.49047886423962,235.1500001494117,50.288711523911026,10.954012309300147
276,18.719819989504185,250.55452603033595,50.82534653745427,11.70687260590881
277,19.712956638933246,266.06022334594246,51.23282569996327,12.325785714119657
278,20.451887790275567,281.494497259913,51.45794155595867,12.839945812765976
279,21.20988276809586,296.7430333872747,51.51956348117492,13.375832305049757
280,22.23529367161431,311.78018869664106,51.45384701455052,14.02946777646001
281,23.232500607429575,326.6139969762077,51.27057056114933,14.661729762619887
282,23.85987494380722,341.27764320731126,50.95928895037824,15.108350570297526
283,24.281508411505627,355.8647023385774,50.44650358600031,15.411622358346206
284,24.73549652715904,370.52116093744013,49.679072654939574,15.660121322419803
285,25.222085566080104,385.3669263543632,48.76403653163526,15.875394202744973
286,25.694169088989796,400.44085674110624,47.82315583195547,16.071260717806265
287,26.017636103062785,415.7076025329372,46.832234486489824,16.22641917041064
288,26.08509234529658,431.10060587780714,45.74063515608933,16.31243835827896
289,26.16258762845261,446.5314875396919,44.547037950393936,16.406688312854822
290,26.51086039515177,461.9068934713025,43.269689529845195,16.57247287604693
291,26.868890524673393,477.1496323718778,41.987437462777905,16.682388034041075
292,26.93338446902031,492.18819675202735,40.76659664772963,16.609509813714045
293,26.821494084124385,506.94787472874833,39.54454415312158,16.43138432521151
294,26.718339087491557,521.3837564044992,38.22678604365776,16.259857721091354
295,26.700425758798325,535.4742340597975,36.77991296372832,16.11276564923109
296,26.790512878231464,549.2002072579287,35.19852783570275,15.981744696655035
297,26.746337531389774,562.5165858337953,33.50010976027414,15.818689213316762
298,26.35639950363226,575.3274774410077,31.71664508216786,15.57998646984235
299,25.967330293079307,587.5039703581349,29.873565203774707,15.344770980401593
300,25.947849902455108,598.9253677373646,27.97313597213568,15.200761950093783
301,26.067305754928714,609.498072620358,25.96744726242436,15.099182968529782
302,26.016502399248154,619.194045637665,23.80994976050161,14.969322916599852
303,25.821598945433003,628.0546099847861,21.51417380122594,14.817251813553048
304,25.575611071994675,636.1127170437529,19.12679434508397,14.653264628962622
305,25.429859613743183,643.3569799154443,16.702896574940414,14.476046943176494
306,25.489528779862624,649.7768363698926,14.294720470978932,14.277670440295203
307,25.414270488404544,655.3614851925104,11.945046643946409,13.967603639214769
308,24.874772665310747,660.0789489125533,9.653844081215203,13.484604675333697
309,24.205831673360738,663.9102093301266,7.325373094066293,12.978676220104008
310,23.79718041185811,666.8654775953057,4.854130473822748,12.605624585399308
311,23.472915321684347,668.9418719068058,2.2335121731240752,12.301575494694116
312,22.978913046393544,670.1029180109665,-0.5149315275870328,11.957134263630454
313,22.28750279461335,670.3367803950757,-3.40569541615519,11.541191107119005
314,21.43841095928733,669.7355710963899,-6.440757262071054,11.04988383593714
315,20.677220872967915,668.4590874844296,-9.599831552479877,10.554309589626161
316,20.099129297060628,665.524233140228,-12.838075258567526,10.048143290650811
317,19.233067841841763,658.6328150461977,-15.94607358474904,9.384395859355699
318,17.568061599315293,646.7293385944663,-18.75207066294616,8.375950924628825
319,15.643889397628405,630.7037912273069,-21.2079664791032,7.189893213278819
320,14.150415024137882,611.9425590488382,-23.377610871064434,6.0563600107572135
321,12.843441852594145,591.584219088163,-25.48396912967041,4.894254639161928
322,11.328274384183587,570.3894297164672,-27.723486692358087,3.587276848309762
323,9.676063581925076,548.8000227498409,-30.00270798460521,2.2283767136799435
324,7.709557308932019,520.979087964673,-32.71171222041382,0.7961310733651938
325,5.964032333190691,493.63742464970954,-35.21619487818432,-0.4939387916042184
326,4.6238957732715,466.50298052337206,-37.52706032744255,-1.598400482200755
327,3.3698006186050504,439.290859013784,-39.613691625019406,-2.5854774196328147
328,1.8087422215708981,411.9564414415708,-41.464051703759374,-3.5504416614853596
329,0.06479408729289315,384.7805261025414,-43.10960693375738,-4.503469146646502
330,-1.5993860984555959,358.0957061163634,-44.59635871297948,-5.415322656001809
331,-3.122393582433796,332.0036612506221,-46.02028355984451,-6.2305224249662565
332,-4.496271326053417,306.4951273974247,-47.442437083966006,-6.899517305828903
333,-5.845476082616283,281.5388838344498,-48.73104376903864,-7.478741181156046
334,-7.313301494846059,256.9600658884143,-49.73277547350904,-8.052578853676179
335,-8.652378031055298,232.54965056306628,-50.4571399422357,-8.602911240206955
336,-9.587325148254603,208.26835786063265,-51.00529187406011,-9.085495839443947
337,-10.423796037669984,184.2341443459817,-51.58826450122626,-9.532669468565446
338,-11.548051995281462,160.56027230781368,-52.3870056473263,-9.976149551368621
339,-12.804999638827375,137.10416588327686,-53.29563909813167,-10.35332189518903
340,-13.928200270447004,113.50238411980172,-54.103146396440245,-10.611150870297429
341,-14.911359445692513,89.53168667263955,-54.68246701331462,-10.808117039584147
342,-15.808044223289619,65.23541165058151,-54.98253559262198,-11.034402257727425
343,-16.7679822059266,40.853572193041956,-55.15075666344568,-11.385422975747872
344,-17.927558621523634,16.730878260646865,-55.37275590861274,-11.91504133322647
345,-18.977644029563905,-6.775358953085629,-55.58136331760918,-12.476633699543456
346,-19.576475781566298,-29.239502114205024,-55.62959565351859,-12.894129508757873
347,-20.034654929808443,-50.179059264021156,-55.473241311521114,-13.250397524815918
348,-20.771119058048274,-69.19744543130999,-55.12373837100486,-13.683590233237904
349,-21.671578296990173,-86.1437966029111,-54.67877365125037,-14.135965329138712
350,-22.49111417832033,-101.25179025743938,-54.28207397130988,-14.516481057529019
351,-23.126351958351957,-115.01076962342049,-54.01103181306004,-14.823021121639325
352,-23.530226322820845,-127.88219581943324,-53.89008770199266,-15.074201214762917
353,-23.920217543708716,-140.16417070835524,-53.93428952548518,-15.337068051235438
354,-24.550292212219887,-151.98950975920056,-54.11115978215838,-15.67984140878763
355,-25.171143250902603,-163.38513045731722,-54.277323896991255,-16.005433098557553
356,-25.46076515575121,-174.33095063910503,-54.293951780575995,-16.200767090571023
357,-25.651081641779406,-184.79178408461797,-54.194265869535755,-16.38899672235398
358,-26.053740107141884,-194.74590009492238,-54.061070750091574,-16.71498676093471
359,-26.57742156180439,-204.1776424991974,-53.86890665821736,-17.095473833758195
360,-27.030480716715374,-213.0831590205542,-53.57132997552196,-17.38741726963672
361,-27.241586268451165,-221.46274889185162,-53.1741341541351,-17.50228792409034
362,-27.09167438401122,-229.31847667858196,-52.68639214948861,-17.400609077388598
363,-26.84164700935896,-236.65298091480454,-52.11105316474605,-17.192633798597218
364,-26.801483443128635,-243.46799528557096,-51.461597518464664,-17.02923276415683
365,-26.7478426336801,-249.76491344828491,-50.72183673231751,-16.916300752203554
366,-26.35482583589412,-255.54470803999195,-49.88841498481544,-16.796672971605968
367,-25.68665437592807,-260.8082938448752,-49.08209239613282,-16.627681529250935
368,-24.918215139870984,-265.55666384727147,-48.40094789584644,-16.36962201725799
369,-24.203530198882174,-269.79087988470593,-47.737038078388295,-16.02264577576882
370,-23.66918373576709,-273.5121675616236,-46.91042330459914,-15.621757785319655
371,-23.1402917282271,-276.72192032964324,-45.7666992120392,-15.19511440283562
372,-22.383143992266238,-279.4216645722969,-44.224520762790696,-14.764707504790572
373,-21.608128291696637,-281.6130097710075,-42.417409002075566,-14.37648512486
374,-21.07338527476605,-283.2976555855612,-40.56311284761453,-14.043085635378882
375,-20.53940053658707,-284.47740166167074,-38.764915709997254,-13.642790926664034
376,-19.702871220831213,-285.1541366365782,-37.06250684935468,-13.048478534957859
377,-18.61439537508381,-285.32983963763076,-35.45968196909272,-12.28757833589294
378,-17.43240131472916,-285.0065803138324,-33.92077648348953,-11.450034923917043
379,-16.373253098008025,-284.18651450577266,-32.42701374192503,-10.630899773265797
380,-15.616313948527765,-282.87188032412524,-30.972231749112442,-9.905190179488283
381,-14.886803878542745,-281.06501243869786,-29.53970863181406,-9.20045111859267
382,-13.845430223122998,-278.7683285089131,-28.12759416099819,-8.409325146666301
383,-12.775991096043452,-275.9842649875364,-26.749756469394317,-7.6078769637568255
384,-3.5163424910081758,32.74682033371267,-12.496795597654105,-6.211198762741033
385,-3.5591541045445143,32.740866652569075,-12.845653746430036,-6.066365704729961
386,-3.5977003408684247,32.59825567074823,-13.176682878327124,-5.92429646202477
387,-3.5545968349932164,32.305326078394366,-13.406843319326123,-5.789082179867684
388,-3.3904493791541115,31.83586756093742,-13.495743889307972,-5.665386532584154
389,-3.341573397119137,31.18307983548091,-13.500490536807384,-5.623820442098274
390,-3.620530744266706,30.360644703826548,-13.495058918247649,-5.717830745543877
391,-3.8990310369640864,29.428563406232605,-13.49144681491417,-5.838299295997876
392,-3.8279276890900027,28.452630512462754,-13.484903494531338,-5.865861977609123
393,-3.6311497149502974,27.453107262511427,-13.444830839771486,-5.845097125632621
394,-3.602968654506495,26.435548616824995,-13.361163649189779,-5.848471043319203
395,-3.7109245014760335,25.387235400896056,-13.379890840044764,-5.865095904612519
396,-3.855346473059528,24.299715112371747,-13.624366544635432,-5.877785028828828
397,-3.876608382318577,23.16283663624827,-13.956564659804002,-5.8755923254271645
398,-3.657713506069107,21.947499313424018,-14.202290512266902,-5.857884345864551
399,-3.516750368915678,20.62193313916852,-14.373105333597165,-5.909465193041279
400,-3.753763399679315,19.203863442743415,-14.529009293636843,-6.098713279991185
401,-4.007495306788792,17.758985436803705,-14.69233318796736,-6.329850257036032
402,-3.8627589711086685,16.33616128269373,-14.889039792098755,-6.481674178377542
403,-3.4646338363142775,14.94239949189125,-15.132483780457536,-6.555952116866795
404,-3.0584180019631724,13.563352168212935,-15.404463933229035,-6.576908118863034
405,-2.7028855368201183,12.13905873347363,-15.677217105318064,-6.522119304239147
406,-2.4156163029274538,10.57313320415433,-15.905415090704183,-6.380931488381466
407,-2.044926796208512,8.831674164571007,-15.997236842622009,-6.146167283627672
408,-1.4540868187204443,6.9608954080177625,-15.89472714195289,-5.830008130363556
409,-0.9529449689620915,5.028707174638776,-15.649869761898865,-5.559835178134732
410,-0.8448397630513029,3.092932733036265,-15.365426974258614,-5.436619039994887
411,-0.8553592362938176,1.1867900272528753,-15.160292397245119,-5.329681236237044
412,-0.6526803497096119,-0.6810159378312508,-15.115800852170873,-5.090364514459817
413,-0.31742128187770885,-2.5265207914269396,-15.197692010783372,-4.777412035968326
414,-0.015058849588440476,-4.399499064451367,-15.31077851576462,-4.494215461993247
415,0.14198512999237628,-6.352322109059242,-15.356430239243222,-4.278533035816727
416,0.08215248342171294,-8.384012765640515,-15.262259778628385,-4.148635800270393
417,0.00026750598517250035,-10.418413800869347,-15.02594800223291,-4.063373202916253
418,0.10744981810126927,-12.384505825169374,-14.699208316563976,-3.9666272839359507
419,0.20169777270067937,-14.231252595124332,-14.371023621401754,-3.905944237961631
420,0.0663945811007716,-15.996526828584797,-14.118111804021417,-3.9241766447790267
421,-0.08633522840539762,-17.78323251805407,-13.940289059678232,-3.9200949964869167
422,-0.017146546345039537,-19.64535066312241,-13.796844722760985,-3.791562811618772
423,0.24961286812231612,-21.564202049422047,-13.63907216824328,-3.561705401443466
424,0.6044910069136719,-23.503130947978534,-13.42373068419601,-3.2897881278099668
425,0.8105136310011917,-25.42909940204137,-13.153761242862508,-3.0392035310775203
426,0.6847347239069059,-27.32367574084597,-12.84529207986111,-2.86016954208516
427,0.5099824955561257,-29.193892167032757,-12.487487957295256,-2.691777489719079
428,0.6057977365628002,-31.05879300691159,-12.069509803050329,-2.4669546977425196
429,0.7812957495298926,-32.97026026418172,-11.578452130386868,-2.279465831213965
430,0.7834349183546818,-34.94900126403277,-11.029278670559812,-2.2193958898616235
431,0.68684427641331,-36.97585737257795,-10.520438880448514,-2.2060790089379045
432,0.6162938914818967,-39.02919247294233,-10.153094096415488,-2.1308516222118388
433,0.6699613723688573,-41.07913316328518,-9.95403472369313,-1.9399214241592473
434,0.9072967150388126,-43.08033150770031,-9.893804206584859,-1.6189888854915446
435,1.083468998622897,-44.98101019616955,-9.882247166776368,-1.2720690708412556
436,0.976930994493823,-46.725159276392986,-9.812608497152745,-1.0046994609948354
437,0.9197019485672273,-48.28318604861395,-9.629239531980648,-0.7277394205872878
438,1.2617678740172376,-49.67927019286592,-9.317465548460536,-0.33182770980532295
439,1.775325415317842,-50.96734027319118,-8.885755559742426,0.11941768962411452
440,2.1567483693990854,-52.174665722575035,-8.369593390692403,0.5422003315365799
441,2.4048295371932533,-53.30633208458484,-7.832543590693715,0.9388163179908542
442,2.5925359534596817,-54.35280200418583,-7.320378900846027,1.3312439794002404
443,2.9051832097014527,-55.32198706561661,-6.821474941815929,1.776039438996863
444,3.4298904194657225,-56.11530538549416,-6.306449137449853,2.2727350450587482
445,3.7663039764488246,-56.48996792329142,-5.731732899337534,2.704088999793017
446,3.5118863993825418,-56.40164347092561,-5.1005289544938,2.926817120561082
447,3.202606057317604,-56.07024635904462,-4.559039845025209,3.0850776517274996
448,3.465676413550705,-55.66608602766162,-4.276454336970388,3.3552668928778333
449,3.9770496963823776,-55.20809198969615,-4.30435063741126,3.609898167758711
450,4.2597611093253,-54.66668349864991,-4.637205268715412,3.6862139785391737
451,4.370220013356209,-54.07769920134518,-5.236198764781395,3.6303367103612563
452,4.565916184137569,-53.26474800599864,-5.695865739160467,3.6716648579795566
453,4.869294476062453,-52.29132363356275,-6.353242443158421,3.7662501302568754
454,5.412400345303712,-51.173753383139186,-7.154130020511033,4.001303496473874
455,5.921127687756481,-49.979097523110475,-7.812896930936027,4.320575707795319
456,6.072770754252218,-48.8032410757724,-8.050159855165026,4.619671256489776
457,6.047719138733257,-47.69655204408404,-7.895325152458007,4.889041105943589
458,6.13622273213868,-46.642222952533764,-7.523500061232053,5.14123616487704
459,6.317695303001678,-45.59380940571868,-7.089842528168038,5.353262748281854
460,6.496126836315687,-44.500261674950266,-6.750112752171854,5.505254172641553
461,6.58134839364857,-43.272207355355924,-6.62072655451854,5.566146679294564
462,6.495227548624488,-41.822057626355004,-6.7338674781390395,5.5168821319555725
463,6.438188013085287,-40.11259992459169,-7.03130805190435,5.433051742141917
464,6.630799096772262,-38.115862782068916,-7.407636630778052,5.401465159834379
465,6.800026582817013,-35.80057578632903,-7.760949479380086,5.382426793388799
466,6.617138477859511,-33.16360190381285,-8.01966556119944,5.312763301744445
467,6.285561923171392,-30.319210117073375,-8.175431357977741,5.240206086780657
468,6.113503992100781,-27.511483758302745,-8.264874225155248,5.227841523972314
469,6.113719147937938,-24.954795060801118,-8.338032850345277,5.263338421731111
470,6.2131517108470895,-22.714061026813038,-8.4394997377963,5.321712876616096
471,6.2489814935957275,-20.723630319411214,-8.578120629929275,5.386186377526475
472,6.065576427229099,-18.87829182761411,-8.734236043244149,5.446000795856633
473,5.929019140584732,-17.119408741894393,-8.88117589832911,5.570055844961091
474,6.149492282094647,-15.403423572931306,-8.99132095271858,5.8192660766590265
475,6.41664222842097,-13.676558169348436,-9.039805878836594,6.071624318053248
476,6.334012470960059,-11.866240833675947,-9.027345806388066,6.185098622119097
477,6.090653750780803,-9.958302582223872,-8.99770109400672,6.216527677728758
478,5.983029365320914,-7.9714093674226705,-9.005086141192999,6.272377583717881
479,6.023656638389054,-5.9618741595477145,-9.10959352011921,6.374885466776446
480,6.135200775335116,-4.004066449381374,-9.327784959649911,6.519268510679954
481,6.049846482257869,-2.1661415210946338,-9.528837644468009,6.640804205951568
482,5.529828678376678,-0.484911122039146,-9.563345281769823,6.670733965500693
483,4.955730514317425,1.0684808677695792,-9.427106477320589,6.711528666169265
484,4.805573015480827,2.5534489644602876,-9.185184381606671,6.8827653187826305
485,4.8804088314380945,4.015543431187211,-8.934651884016327,7.078073704469152
486,4.824751592427572,5.4816024082787544,-8.763539038274102,7.155150617739612
487,4.664020733963651,6.937747100434274,-8.616323300878058,7.144804627377429
488,4.506679117506264,8.34830317588218,-8.395877293639149,7.125345974168673
489,4.440295711342019,9.700497555296266,-8.131364876313645,7.153560929129722
490,4.546165924516625,10.983512690384275,-7.876579916349456,7.267853470843875
491,4.638767825082205,12.162388657516326,-7.614055856664913,7.394449508153652
492,4.4988971184554805,13.202538541507085,-7.31089551813635,7.433364678456775
493,4.347484768249996,14.089945342918975,-6.930550938025579,7.426184177485426
494,4.461998008099717,14.825828445597383,-6.45112876111141,7.447689983006722
495,4.656882163810265,15.418564204443255,-5.918870286604932,7.4649746106915025
496,4.672791570503249,15.897183153643203,-5.41855233993505,7.437301566502065
497,4.54522506322191,16.299038577095843,-5.02491694304915,7.39551160246635
498,4.385784067230375,16.669172424319356,-4.792210043547273,7.379372207854033
499,4.352785028645704,17.02739585656647,-4.760913332449545,7.440072622806128
500,4.564422267282899,17.34741116079594,-4.913031460584067,7.598934355335834
501,4.726406975635143,17.578432173625767,-5.097587820836238,7.713303409821469
502,4.500488478423815,17.691743599283452,-5.14640026865866,7.626715292556806
503,4.1117003464946436,17.688091753398588,-5.026553291883752,7.402003086467059
504,3.903819804498946,17.593965514520942,-4.779139806853416,7.163006059344594
505,3.834443912646723,17.42992913321233,-4.449544465229143,6.914414694420631
506,3.770006315449428,17.22787554079175,-4.103925391747808,6.639087275083177
507,3.6271421302738043,17.010910024885625,-3.832142055831923,6.340509058423174
508,3.3497949068631723,16.819227864188385,-3.6927289766890246,6.023487200711169
509,3.173298184912192,16.677933377833927,-3.6468237536729777,5.765372216930753
510,3.3481763346743425,16.592849392446535,-3.6288361483378115,5.637750381320738
511,3.577301069562136,16.518949683418956,-3.6283474084786933,5.546385587886517
512,13.257506996371394,37.03788928514487,-13.121267150447398,10.084585618977949
513,13.586769692455588,37.82542864934264,-13.42815138728468,10.608972198684508
514,13.996234066304423,38.53410885618831,-13.774950408788811,11.204866902992924
515,14.49000830005956,39.197202587509494,-14.136764117965749,11.83400803749466
516,15.03323272724435,39.850899174034126,-14.474590060314743,12.43717240571944
517,15.471054135362714,40.50255835039571,-14.75449599610519,12.959565041545119
518,15.683886572237746,41.14792104367927,-14.958212875996127,13.369846180924768
519,15.973122127542233,41.79733275158716,-15.105494282450431,13.740614012917662
520,16.63017498339559,42.45873241564503,-15.232665831485505,14.154014463388746
521,17.377043555175284,43.12792284111492,-15.366013086852936,14.563650564451276
522,17.881832403676892,43.80308924700504,-15.52622384566329,14.90695214357082
523,18.226605963831606,44.478659305386465,-15.718585246344425,15.220351460005132
524,18.577944513107976,45.15701957072865,-15.939646001267807,15.543989511490999
525,19.07783215417485,45.88876300992795,-16.205298656433406,15.867655019479766
526,19.805580364334432,46.70506829867362,-16.510369633173013,16.16835742141542
527,20.44916221058852,47.52517404885538,-16.793915280363493,16.379843060486834
528,20.70154984597726,48.253491521946,-16.98490837849654,16.460625085964494
529,20.874948512338072,48.81738576364443,-17.007176255822472,16.52985804023252
530,21.330967315136114,49.184718979837506,-16.838382853908183,16.71563435451842
531,21.865856858854045,49.323543517137814,-16.613475812533117,16.96509648466071
532,22.212636379669995,49.15942501178923,-16.482748216708252,17.20050651611657
533,22.39887479449532,48.66744769930564,-16.464604285698012,17.456036289766857
534,22.516893312568193,47.8533007978091,-16.515179770541877,17.774676346262037
535,22.759999476333814,46.786358485670284,-16.54634367888004,18.182285750505205
536,23.27535292496772,45.55503985778099,-16.477462844949688,18.67704050179562
537,23.746565208703824,44.221846930914054,-16.353497486180984,19.121530304517325
538,23.849343381987484,42.80960864193635,-16.248546678759823,19.391803798462462
539,23.86336473986314,41.274173158629296,-16.148233278657603,19.598189270713164
540,24.128313600269074,39.552916450590416,-16.01724014781945,19.878466657826817
541,24.525759826271212,37.61917031390595,-15.840882303435508,20.180772295765184
542,24.864254876640288,35.48243668791499,-15.602936076384712,20.42379484803005
543,25.077907910070106,33.203993096102366,-15.304083806476905,20.60055638656696
544,25.152340760512832,30.861079469845652,-14.956162357301967,20.723388720987025
545,25.29968199907895,28.497076988703885,-14.537145239991348,20.855716611949624
546,25.724178514565768,26.136159434024034,-14.042727933179801,21.060486562441625
547,26.18428412880505,23.78268687862798,-13.566271493110012,21.270295794289446
548,26.404069351202487,21.43731846796016,-13.192707010590363,21.408243222701433
549,26.572210100364863,19.140918621147932,-12.886670214558666,21.558448006822985
550,26.906184987566107,16.925963785163358,-12.576934765549888,21.802797664812005
551,27.270953920893426,14.76857857791724,-12.222293845499923,22.049865958081288
552,27.48651858528162,12.63046680537078,-11.797766811293338,22.19648233134991
553,27.46669658810535,10.464127647173557,-11.306330401185974,22.24777972133152
554,27.189727611352872,8.255189499652769,-10.775310805921226,22.241007696562182
555,26.879875311914795,6.105589876833739,-10.246107565468042,22.25169560566529
556,26.755671211405552,4.123958319976589,-9.746443186562857,22.334810546012065
557,26.619080427704862,2.3067421422473875,-9.252970371143567,22.38046955864745
558,26.233029556593266,0.5986582838439308,-8.730674645780867,22.26948864935733
559,25.721873436745344,-1.0735170188293277,-8.169017539872375,22.066412254298204
560,25.262120609456836,-2.7815030297140795,-7.5756025660801924,21.867406157038378
561,24.898987719706657,-4.545742032263195,-6.989552021951797,21.679326155676968
562,24.62488125674221,-6.352243275025855,-6.445560286659645,21.48514437173161
563,24.24896041256879,-8.170807143916438,-5.928075437634093,21.233428905124
564,23.59772471276833,-9.977077696804045,-5.396163572350726,20.875915731804337
565,22.915433213591708,-11.791497770963,-4.8022181650486635,20.48203013600101
566,22.461414044179445,-13.651946546863577,-4.112271808225958,20.12578031833364
567,22.004763917655925,-15.583310425040066,-3.3294905601054534,19.730541652240966
568,21.28439685063683,-17.60079523202583,-2.491964235104609,19.212587231368843
569,20.416632339537248,-19.696743491835655,-1.6775648317277145,18.61712844394828
570,19.5803572325747,-21.853565376373446,-0.9531946614730142,18.01093914870072
571,18.90787606036442,-24.07342640555271,-0.3195607603445454,17.424993562545197
572,18.388760697350502,-26.31134832533431,0.19996250280813535,16.86162538909124
573,17.709209744468,-28.4095929883516,0.6274404367915926,16.297212801916533
574,16.55432149534256,-30.193488254577083,0.9522658422872695,15.697993880236659
575,15.565990390929091,-31.572332800900153,1.2151055413759893,15.183824101319967
576,15.426966371780924,-32.53783961408216,1.4653188536994475,14.870933472691261
577,15.622468425211474,-33.16149163384192,1.6773508634738579,14.645467216519561
578,15.461033552301553,-33.57407128846364,1.8031927450258,14.356041218231544
579,15.075485920006262,-33.852874452182824,1.836112510424625,14.034000980799929
580,14.54266965519602,-34.45301338087044,1.8739143800981575,13.61484596803582
581,14.183351644960235,-35.00330103222376,1.7840785826760426,13.24934472241959
582,14.059640918069281,-35.50395868705714,1.5729393746636298,12.92133936674912
583,13.92388055513635,-35.93891890013331,1.3552969427041321,12.557266784970437
584,13.488297484687605,-36.299681335401786,1.260492565240481,12.083477516694522
585,12.94334993776276,-36.61736834837464,1.3109397464129877,11.589267067519653
586,12.571125203699687,-36.936884148305516,1.4717596049974306,11.186376561035223
587,12.246936870057642,-37.28070252302981,1.6927509194926356,10.794246654849092
588,11.77543006456075,-37.65405463059592,1.912783811103249,10.299925231773656
589,11.161051200367682,-38.05138254271331,2.096923319177659,9.721924184972353
590,10.461977680035835,-38.44535809307636,2.241415287622516,9.11590931941608
591,9.848180003031821,-38.77857854355899,2.3576176257541714,8.551075548454548
592,9.474886806715661,-38.99425472243606,2.469922932966694,8.083814934420015
593,9.099083039530441,-39.06395801964995,2.624477857826098,7.619341332063574
594,8.43070945378263,-38.98986285140981,2.846703340833471,7.044269565456856
595,7.678297884194564,-38.81829866510516,3.0808328390017397,6.452708152815267
596,7.142409839689221,-38.608055079781145,3.248427146856851,5.977382861610703
597,6.783115530750414,-38.38020150777523,3.3171420071813134,5.596710462422154
598,6.472093702212804,-38.13215509100351,3.286401637153363,5.250205027117327
599,6.069428758453224,-37.856898806282516,3.189257341436111,4.8954239043536925
600,5.466068177986193,-37.53520952821579,3.08014613554173,4.502377450091116
601,4.935545984003361,-37.137310200910235,2.990929569435654,4.158890254343147
602,4.780094009983189,-36.63867753481122,2.936948685382103,3.9577073165923853
603,4.674363443023841,-36.029193872181786,2.95210284483626,3.781259641731384
604,4.2034320578734565,-35.31586748274731,3.0469507793197996,3.478110276062915
605,3.553385753553932,-34.52846920907246,3.134634805930939,3.0801156824051654
606,3.041246376160974,-33.70323838403947,3.122279664038685,2.6755257078248897
607,2.7164854332710497,-32.86354474773028,3.038843300310638,2.315729705866312
608,2.5477729946162526,-32.017252318170584,2.948031158849746,2.039700571711243
609,2.343783066330192,-31.15281318761484,2.8528152950570926,1.8199708819493234
610,1.902027825118352,-30.251026070397092,2.7462998421665237,1.6011486536659334
611,1.4932107449557424,-29.293775620433337,2.6298147242516925,1.4121868388442143
612,1.444352114056298,-28.27697357613364,2.513661135225544,1.2893176658375245
613,1.4669571878432979,-27.239396923389997,2.454956529610006,1.1569168465175235
614,1.1780894357993288,-26.221902788102177,2.5172636021609502,0.933944986097905
615,0.6973478407615699,-25.21759261733133,2.715779537615913,0.6540664110632972
616,0.26099888622792183,-24.19530991148822,3.0255776161669967,0.38082303216357577
617,-0.03768429204801743,-23.106932689708042,3.3892482609889165,0.1405631267984213
618,-0.15901198284038648,-21.918740676104118,3.7283291813230726,-0.052888107268339785
619,-0.2982534861055395,-20.667823209524148,3.9526323075414194,-0.22900345685878593
620,-0.6802960482389506,-19.42352747764786,4.002303493628907,-0.4229017596112823
621,-1.0640415057361863,-18.242176833920606,3.9102526456272626,-0.5678014908489941
622,-1.1450559905174114,-17.15567794586541,3.7457619442846926,-0.5924544440879844
623,-1.1408976063341996,-16.15047940222974,3.541605910184453,-0.566773535987172
624,-1.352670869731983,-15.178896858765748,3.315124064380062,-0.5884413161953478
625,-1.7226256801135948,-14.166756498552608,3.0674277281828104,-0.6639629650778972
626,-2.100691836945461,-13.058285949708276,2.793423445611044,-0.7699252542888041
627,-2.334411605563278,-11.884500462994625,2.53240600192959,-0.8739204970142312
628,-2.3106373418216526,-10.710911250146875,2.3263936294994516,-0.9432179865105106
629,-2.277744441924828,-9.579276758356862,2.154779940306057,-1.0191256282716927
630,-2.531978012392889,-8.506139773877106,1.9833790977281742,-1.1581977499517624
631,-2.855546624798513,-7.45315069284925,1.8115436597674188,-1.3137951026602215
632,-2.934394749638245,-6.363665473264883,1.6513395006613145,-1.4281736070799742
633,-2.8750500967736166,-5.225225600658844,1.5267577909453194,-1.558858965369522
634,-2.8663716198828677,-4.052710123961547,1.4580814019089088,-1.7732377365555827
635,-2.926024735049532,-2.878814714587936,1.4283887947440186,-2.0447082065447435
636,-3.031279710254334,-1.745078619479215,1.4017800094002424,-2.3182498593673326
637,-3.024027614241215,-0.668393506430508,1.3413358587901771,-2.5337217913601036
638,-2.757344236550994,0.34495178406421245,1.2209880661480277,-2.646491066060735
639,-2.5188035114060767,1.2727153143831977,1.0521380310199917,-2.7183168101480457
640,14.18912690251529,-15.375567143574056,-4.8584166590753055,8.982451623449192
641,14.235371364189474,-16.344758003520962,-4.841124024036171,9.043279157306522
642,14.485034815530206,-17.286931446944322,-4.8673292292283605,9.121412824242535
643,14.848767396915546,-18.207863337685716,-4.89681208099689,9.207421803918741
644,15.166091113900322,-19.120920888182912,-4.8922841545183084,9.269864195036037
645,15.295892575881531,-20.034318739518284,-4.831210440327641,9.2812017560644
646,15.158791753965529,-20.957731801425428,-4.74406757047575,9.220965277602646
647,15.013446001527681,-21.89926464901515,-4.691010246788079,9.16263364020966
648,15.128321928481146,-22.86857913890347,-4.679496404326654,9.175977176076596
649,15.30306505585381,-23.89325007135518,-4.685448010537299,9.167930413018127
650,15.279251399065043,-24.987927566505377,-4.674098228848068,9.040470446967255
651,15.143546608317493,-26.120484155355722,-4.661280702308194,8.864162844952995
652,15.030655555691775,-27.24189450369258,-4.6669647932730305,8.728237425889585
653,14.983631514524742,-28.308597253900352,-4.704286713992477,8.630216511294364
654,15.006219503560649,-29.289909487006575,-4.7505372740492895,8.540624794471213
655,14.886824565122685,-30.18932348975451,-4.741420497469035,8.389841349371743
656,14.447434094290182,-31.02812421925346,-4.617833978443459,8.12379483369287
657,13.989222241795456,-31.819449626143676,-4.456386236889369,7.83543761177559
658,13.834219065200038,-32.5787063722329,-4.464864382688703,7.632432410515422
659,13.78613132272557,-33.33102672142033,-4.764932799262851,7.467199997987563
660,13.58282214537267,-34.100941622056865,-5.282226696950772,7.270665103793063
661,13.27297395825139,-34.90415613549446,-5.865901562250891,7.072809228492731
662,12.956338161267244,-35.75215500910492,-6.314295550626741,6.909795984353562
663,12.729601172719457,-36.66199620613311,-6.47078782711351,6.780357662467005
664,12.650798871402571,-37.63838661576655,-6.316048883974585,6.669149009306179
665,12.460991700048346,-38.652890116569374,-5.994717984515037,6.516001670402817
666,11.918968184878786,-39.67040483361756,-5.751206424034571,6.267561657033473
667,11.311666490471305,-40.67372957951073,-5.711700635596011,5.966579140718479
668,10.966774371220968,-41.65788786544846,-5.846932118687546,5.67557245753276
669,10.72811834535836,-42.630150674776026,-6.076250185622714,5.384490290503334
670,10.379891071233589,-43.606151839371094,-6.317204198501631,5.0774238922253465
671,9.943873427765933,-44.59984692224723,-6.466022672066281,4.789112326851793
672,9.489840894170001,-45.620424854251084,-6.467611421857507,4.5416493483551434
673,9.193517205852475,-46.66950422948149,-6.3465568373934325,4.325148708951687
674,9.178693631072308,-47.741127022502766,-6.159342385424779,4.109298679068831
675,9.097248952348162,-48.82589982698473,-5.941968276610687,3.7804108460065096
676,8.604520350713141,-49.91236599983024,-5.716463362079218,3.26437465235938
677,7.994287805850532,-50.98215766620353,-5.4900318230364284,2.723797350239195
678,7.622855904303728,-52.022193923483336,-5.253810657185088,2.3349248678875667
679,7.3535521076443455,-53.04353491592016,-4.992537245071711,2.0404404307840536
680,6.968520607144173,-54.05324678625213,-4.7030989071602125,1.7283030834855646
681,6.389453057318689,-55.03201282747912,-4.400161884464305,1.3585995663207222
682,5.590840199177188,-55.95015707044706,-4.118453395927454,0.9117275933509486
683,4.779228064705541,-56.76418250684295,-3.9369227748012197,0.4358035016899322
684,4.154583540596667,-57.455111014049876,-3.910369258579774,-0.012941905954004601
685,3.4534249964456536,-58.07910434359146,-3.9804174328539417,-0.5175314288164743
686,2.394692276145381,-58.71748932317345,-4.061385179713077,-1.1610762194915139
687,1.2053653126237873,-59.431720740607034,-4.074048165172139,-1.848497506274434
688,0.16547992953884752,-60.254060957652314,-3.984025546734789,-2.4756003906534585
689,-0.7646267300987115,-61.16290876617612,-3.7783413620986344,-3.0800167081454464
690,-1.6938896516134585,-62.10468508253189,-3.446028176441708,-3.724406759015144
691,-2.7514571367385616,-63.026524472805306,-3.0290373211620585,-4.450178422429052
692,-4.032911937947929,-63.8854171954765,-2.6423381000243307,-5.270645979682987
693,-5.311700944005942,-64.65912655580038,-2.380102130043796,-6.072489878013562
694,-6.355909172773265,-65.34662731472957,-2.296385284289953,-6.747712268808097
695,-7.410710410133848,-65.96863361580263,-2.3548402314788275,-7.385656719205219
696,-8.738686234255965,-66.54213895216743,-2.435625979286463,-8.105297897647713
697,-10.14410427100185,-67.0489710359837,-2.4396750174151443,-8.890398604390688
698,-11.374708958618541,-67.45794851321772,-2.261571050387275,-9.692280111722784
699,-12.374418847547236,-67.74567520720777,-1.8204146109996724,-10.480267522427999
700,-13.251566316524656,-67.92200680182583,-1.2445264841769623,-11.24359233543568
701,-14.230120505941478,-68.0088514594534,-0.8295723050848399,-11.978196546408002
702,-15.545246687383036,-68.04906471342308,-0.7678696266348142,-12.700815735352062
703,-16.644855116188943,-68.04434704057,-0.9664807392379597,-13.286216634431922
704,-16.951641228478593,-67.97404501346348,-1.2195810421201343,-13.6249128947047
705,-16.984904597522814,-67.82698892257633,-1.3552115869550445,-13.872814153804411
706,-17.41584124996423,-67.59178560172779,-1.256477412381927,-14.21338418881067
707,-18.066223974887095,-67.25677740371661,-0.9745811030111735,-14.588780410669175
708,-18.7382884720484,-66.58428251126702,-0.8937364952247261,-15.02506906264231
709,-19.207511581345123,-65.82877634062719,-0.9947229995995779,-15.3656666009119
710,-19.463113968801554,-64.99964216130228,-1.1680615220209702,-15.622809309373244
711,-19.719370612550698,-64.12355424650345,-1.3408067777358288,-15.855083496621246
712,-20.218463662459204,-63.232949875621976,-1.4428118180592955,-16.12668236761107
713,-20.7671032523639,-62.37216395458968,-1.4339844825301664,-16.39396914985937
714,-21.088590193117756,-61.5703747337335,-1.3255949278996995,-16.588754308152037
715,-21.321571206077838,-60.7833634219666,-1.1875527863291786,-16.750843648487557
716,-21.668797404426982,-59.951076775508284,-1.0973551243813955,-16.929057401836396
717,-22.075567814394375,-59.08612622692448,-1.0725824860976936,-17.0758428751652
718,-22.424264457544453,-58.21746122996908,-1.0903270044665037,-17.128361125157234
719,-22.548056839763607,-57.32357794157441,-1.1173875820683423,-17.053789860215797
720,-22.322700721340127,-56.378326642456834,-1.1103406720169047,-16.850934451578706
721,-22.00988101832568,-55.38718576019007,-1.021431849511777,-16.613293208976803
722,-21.93141155330386,-54.362835386019675,-0.8440402118375439,-16.450591354510284
723,-21.934839043444704,-53.31728397119001,-0.5956065492393563,-16.351700878223156
724,-21.770360176971543,-52.26396368611342,-0.3636186074090581,-16.26520302754594
725,-21.524315225414192,-51.20012420469774,-0.23819465591624042,-16.20220487688665
726,-21.34074552918122,-50.1212453485194,-0.2832177885123232,-16.174844832733047
727,-21.26508657887545,-49.05503236692117,-0.47574869600659997,-16.15433451371521
728,-21.299330754920057,-48.02961417335116,-0.7339488489433582,-16.111746202763932
729,-21.215821802972773,-47.02676057821265,-0.9462584360920148,-16.017289357463152
730,-20.78484940101589,-46.01858807123401,-1.0171334671527472,-15.857516904392378
731,-20.27228765729763,-45.00958483783644,-0.9336262761830753,-15.707150806767501
732,-20.014370747347417,-44.00939856991934,-0.7434047724800709,-15.644042909224703
733,-19.80780922440111,-43.015138637650146,-0.5237346291582615,-15.609258392511444
734,-19.35812824182341,-42.018110929153046,-0.34159869286867234,-15.51510988227648
735,-18.724034316927874,-40.99358759491484,-0.26546916448325675,-15.373187019334232
736,-18.05543989539113,-39.91916335374338,-0.28098940506870823,-15.218536011411752
737,-17.543527614018263,-38.80190974559924,-0.3336166773840674,-15.07017537364055
738,-17.338596725889822,-37.66419053898119,-0.36173068777779244,-14.935756247050557
739,-17.128671241785064,-36.5359267665662,-0.38411072484077036,-14.7424760154357
740,-16.551390262862654,-35.43841090093916,-0.4413913844965806,-14.413278151161702
741,-15.921996251163314,-34.3556043587477,-0.5798924503898992,-14.019307415275934
742,-15.6655015719244,-33.25478030685779,-0.7971943786551418,-13.660967225411428
743,-15.605218325546124,-32.10879625548888,-1.0469575703008351,-13.300670526696681
744,-15.443485807841743,-30.905516195437094,-1.279239682317441,-12.8839897344632
745,-15.147385446748622,-29.66601623391644,-1.4215815157473484,-12.455750190570214
746,-14.758038720339163,-28.42714064262542,-1.3785813169769574,-12.077870125819107
747,-14.486090182970068,-27.225649212039308,-1.159237084425835,-11.808272626108458
748,-14.532014595042936,-26.079980016459043,-0.8298404974891543,-11.673370014847341
749,-14.566754183899898,-24.953542801963913,-0.5161762422151281,-11.548504997792689
750,-14.187766255450638,-23.795378244832953,-0.33504312457685326,-11.288573000472242
751,-13.611983195036402,-22.591474212692628,-0.2916262983136147,-10.940227667004557
752,-13.188072136078748,-21.351339962248208,-0.3210153382726316,-10.604290844508274
753,-12.87166159732592,-20.111774118352745,-0.31864053147536014,-10.271871908687904
754,-12.533945553245298,-18.912038372952075,-0.19467811037544028,-9.92101121359931
755,-12.112856664768008,-17.741495552071456,0.02006348746577568,-9.573184746261603
756,-11.564161249099488,-16.57003988856552,0.23847185231098422,-9.251101098307773
757,-11.071881177604205,-15.388284359488468,0.40411809661210424,-9.014213169967537
758,-10.839730656827319,-14.1958370667391,0.4852646126260208,-8.903584889293374
759,-10.62800714584486,-12.997597388574047,0.4926917584846332,-8.800281744720634
760,-10.142889367691383,-11.80814643567322,0.46709957565061544,-8.568189980810828
761,-9.589267211672789,-10.64943970161324,0.45294191954383417,-8.263960259339111
762,-9.251901412650481,-9.539816466551846,0.47688162965614767,-7.991188803009019
763,-9.072704296943058,-8.479422096907172,0.5026262422172909,-7.7455806782221
764,-8.903385716295137,-7.459488048112475,0.4904314065775788,-7.497679941482031
765,-8.589770992844212,-6.474742191860509,0.4099084040143929,-7.216933841278238
766,-8.019042907776528,-5.51696869280538,0.28371463539296715,-6.875381655543118
767,-7.429070678672078,-4.577917126367337,0.1714216582806542,-6.542935746697349
768,-10.8141675121526,-31.185348986012013,-6.959693363701776,-12.55704781210465
769,-11.430317572172227,-31.572089569958823,-7.518973252152442,-13.019410503779907
770,-11.782593465121044,-31.867870673209627,-7.9960299366576315,-13.382618880382728
771,-11.997511202376932,-32.07342249390664,-8.349782908950182,-13.706312396646874
772,-12.270107618281376,-32.20053293551536,-8.597527279141849,-14.068271628797023
773,-12.673546273953868,-32.27566694786028,-8.787506961144217,-14.471905204479679
774,-13.231364054784201,-32.32683067874459,-8.989755702705612,-14.898288337390406
775,-13.740596774683286,-32.366450687191964,-9.248237326048436,-15.284131814304088
776,-14.009510956746885,-32.39210615291148,-9.57215819447684,-15.577025420936387
777,-14.308144467469985,-32.38877083267385,-9.938766141927616,-15.864219929848772
778,-14.915799703524382,-32.33435588406942,-10.3035397541585,-16.237175100164816
779,-15.590898977630177,-32.206947677619894,-10.612497244677842,-16.62375682271838
780,-16.0368383742228,-31.997944844250693,-10.830126295855154,-16.932665821526815
781,-16.274027708864956,-31.721346659135715,-10.968130729922397,-17.170834374684777
782,-16.41062612467734,-31.411782634756488,-11.059081008173246,-17.373997914976677
783,-16.629383623640305,-31.105541526390052,-11.142176876113828,-17.60529320503213
784,-17.07920829881813,-30.83847571965262,-11.242675383793317,-17.917228950667884
785,-17.53631654144909,-30.635363834090686,-11.321248093597163,-18.241910005690926
786,-17.747465722436257,-30.476157086899153,-11.340456716851055,-18.496706285751852
787,-17.90416680076672,-30.303846008876242,-11.344933698440732,-18.732633556041897
788,-18.233473032562223,-30.07074659580168,-11.396046360299977,-19.008039965694135
789,-18.613809610606793,-29.767959995794087,-11.529029843453563,-19.263739490844134
790,-18.87814726502353,-29.399907257599214,-11.750120688825355,-19.433020589689317
791,-18.957756868334496,-28.976702862503956,-11.995254726452888,-19.512287124232607
792,-18.838548757020682,-28.497335690904436,-12.186294160809066,-19.518262885142924
793,-18.744365404937934,-27.963625542269295,-12.317157282506683,-19.509894773292714
794,-18.879010447203314,-27.39639975447597,-12.403934973064139,-19.539130726044906
795,-18.964634749780682,-26.831012576717644,-12.428695912327479,-19.529481161515463
796,-18.706119595207063,-26.29814453611764,-12.391404094974472,-19.4081225388017
797,-18.342184803102917,-25.790203285078327,-12.340987189689164,-19.28385507890202
798,-18.16643322279901,-25.282687789422237,-12.331715688888986,-19.27474653941857
799,-18.123964163157467,-24.754610308077126,-12.415221906473201,-19.34204097840084
800,-18.09517771869002,-24.186788494061698,-12.607552020302196,-19.41377874916574
801,-17.962513786851265,-23.569478797428317,-12.822281833418902,-19.451486252119356
802,-17.6465482939578,-22.905989782554457,-12.961127083068245,-19.43198297074077
803,-17.42366876165233,-22.18748355952526,-13.019784106042867,-19.413126145265736
804,-17.543216463327965,-21.42534112030875,-13.029715514881353,-19.453093596009886
805,-17.619204357453246,-20.64084980559364,-13.014974771610262,-19.459950168724347
806,-17.250222032811283,-19.85380495246475,-13.004086622455954,-19.340149034368334
807,-16.693912556968307,-19.06643012980211,-13.009209102940078,-19.167866293122636
808,-16.30108679420092,-18.268749068241434,-13.027724667967902,-19.03740857966821
809,-16.111372719576256,-17.442784744685465,-13.070757806816001,-18.9498202822006
810,-16.06395912324062,-16.57149764352382,-13.13670409443546,-18.87773721704723
811,-15.89635418593851,-15.643428451422372,-13.166953049299952,-18.757331899650907
812,-15.382550491009793,-14.661473232494393,-13.107175183723273,-18.53032341290038
813,-14.87287054985607,-13.661794151491584,-12.984800948733909,-18.2677291014261
814,-14.751228534323944,-12.672455364879212,-12.839375563963529,-18.046329601002583
815,-14.752486182462969,-11.69233321132469,-12.647028682447315,-17.769014251546192
816,-14.532969125331544,-10.68881958454318,-12.383954188417201,-17.33606274185646
817,-14.172302755481276,-9.627036685655819,-12.073446899601292,-16.824986509327545
818,-13.816136989131616,-8.492742793963098,-11.74682758636289,-16.331486985016504
819,-13.540863775215684,-7.290757164770911,-11.434800282543794,-15.854798629314303
820,-13.38622995371445,-6.028460224677513,-11.152948895745373,-15.369245611350241
821,-13.122921710169823,-4.7330286251303,-10.863990018460807,-14.812267276810825
822,-12.539581985361316,-3.4255126170416204,-10.523794891788082,-14.14198943941253
823,-11.922038850304611,-2.116574421595731,-10.132179368276322,-13.474898296900992
824,-11.584928489284305,-0.7978497380870218,-9.717864166963379,-12.935725233837559
825,-11.362267962748701,0.5431682570197777,-9.318133931670143,-12.47535256706387
826,-11.017339682798035,1.9167093933769521,-8.97376454579083,-12.00656205962896
827,-10.5230240504256,3.3392625141491385,-8.754890884001712,-11.511766795809953
828,-10.051838897511745,4.714000457154369,-8.683276987919964,-11.055995727895139
829,-9.840223084299751,5.782782457612761,-8.559656883461397,-10.694628024719465
830,-10.141935532953285,6.39299242661058,-8.194562317120253,-10.512395273475338
831,-10.36390289850099,6.668002184552233,-7.582851382133994,-10.376489031168354
832,-9.85252366557939,6.896278328563593,-6.815738610684626,-10.112164938716665
833,-9.103969060406374,7.297316870368184,-6.056234796916081,-9.788524372838904
834,-8.785301475800201,7.878207482058234,-5.452349579968148,-9.522700174728971
835,-8.665826180065755,8.494107462811218,-4.982676759080191,-9.261090033599269
836,-8.378601319135598,8.916477963018153,-4.418468944706216,-8.85428074206273
837,-7.91551447078228,9.185201958327514,-3.9477783188207676,-8.424363390692157
838,-7.327534036868759,9.303554213990857,-3.5881221955036375,-8.02093040448978
839,-6.86946116460381,9.308960296325031,-3.366328412915649,-7.700750339956154
840,-6.79125792546566,9.245885947891718,-3.2746860863567964,-7.497142456195766
841,-6.804425704745393,9.139055311291976,-3.1918851910886294,-7.301215253381128
842,-6.531602714114053,9.007494764876197,-2.981529279089536,-6.987905714649375
843,-6.180220062943752,8.878932503068214,-2.5950405889512105,-6.6234272243270915
844,-6.0653173206810225,8.791917802885367,-2.0575344818536028,-6.316236196002772
845,-6.11109289298289,8.761071949151853,-1.4861269073249843,-6.0423508456417325
846,-6.1556472328686835,8.761507671159093,-1.0175340704048559,-5.749793009002137
847,-6.081976395589352,8.75077549269433,-0.7087700446563997,-5.419522064434997
848,-5.809099301054838,8.699402621726176,-0.5445868596820002,-5.044338276778605
849,-5.5597070407623805,8.599077101849572,-0.4093054632734499,-4.689516151521961
850,-5.5907640780846535,8.460335375178964,-0.17656082738793147,-4.426442719472089
851,-5.66630813828578,8.292618063938352,0.13178134461629026,-4.186004755756986
852,-5.469324685442842,8.106707509039175,0.4362725298390786,-3.876495303243869
853,-5.145827978801187,7.9137853515254415,0.7058389585543962,-3.548430055005964
854,-4.926438041418785,7.720719382784312,0.9244664865405773,-3.2758868659290084
855,-4.792164036521763,7.529145144425403,1.1132893422023207,-3.0440878271517433
856,-4.6616994655379465,7.336897448396825,1.3038586926222289,-2.8147761821139428
857,-4.383591190143031,7.140375114716211,1.4484166819380324,-2.5374308061696644
858,-3.8281765497637714,6.934394579751657,1.4955672576917776,-2.173184806764354
859,-3.2403314157470318,6.711828950521188,1.4830432674399143,-1.7936308649447106
860,-2.9170965299317384,6.466663277767466,1.478825986315283,-1.4932258758701986
861,-2.6695441521293413,6.195946430294435,1.5539456484820144,-1.2405906267530655
862,-2.2250243098040534,5.900494177339543,1.7510947294407648,-0.9798182439770399
863,-1.7009614233501182,5.588764603246692,2.0023593450330455,-0.7511021781203383
864,-1.2851322833256902,5.269457170578026,2.201348544048347,-0.6041571932742439
865,-1.0302779243645581,4.955971631033882,2.3076493577096566,-0.5376423124728856
866,-0.9323315476822047,4.655450278797015,2.3215040621630285,-0.5306323596456832
867,-0.7455670048184663,4.382050797348093,2.2550337573298846,-0.5160533861109932
868,-0.23198046276670842,4.160545498857514,2.1473510497424932,-0.42872120298667127
869,0.2838969701603738,3.9936819725555903,2.0873103600371072,-0.32771140980205304
870,0.39865927969049053,3.859160661870642,2.137842445503539,-0.2912445463940131
871,0.313075350014077,3.7391049552515714,2.22986231532569,-0.2522130794021631
872,0.3541057783665955,3.6334018259311667,2.2550223681357426,-0.12546220474747943
873,0.5199887808098435,3.535816105178316,2.1796002627575897,0.05561232035799178
874,0.7191316895232653,3.446265404596149,2.0110828565953303,0.22795688483206966
875,0.7651227290679834,3.3617064125157623,1.7781385575623525,0.33783696894212356
876,0.491026082091273,3.281243979229045,1.5379548340789289,0.35293206022271656
877,0.20623138767923974,3.2200428204787706,1.3611460607311086,0.36285540594733096
878,0.2806862130242516,3.1936881243215476,1.3031486363337308,0.4741657252247673
879,0.449208409577784,3.2011733008718,1.3685274078755645,0.6232819618381672
880,0.33638832264425783,3.2333833778473386,1.5253655522131815,0.7100299773271963
881,0.07846923900663462,3.2742539920775444,1.7546612556811425,0.7634318793078119
882,-0.08356569121942596,3.3105246239481625,2.0185067417620663,0.837362381688673
883,-0.09345243009167575,3.354132943295396,2.19420271196128,0.9320628968724739
884,0.04601905816057475,3.424273265758956,2.1831594176057374,1.0380637296106567
885,0.12909353627397746,3.519908390126088,2.030000963081553,1.117425616321735
886,-0.0630781416745228,3.635806928140665,1.8447279461938697,1.1327658461649128
887,-0.26871032669811046,3.758916211581124,1.7627804291287377,1.1520789496429718
888,-0.16011417496103109,3.8806652960878742,1.8791087245423703,1.2523355574235735
889,0.027215138874044354,3.9874175245238783,2.104873580939332,1.3559998985803159
890,-0.03477285075063809,4.051826392749474,2.285999055581743,1.3655345949607594
891,-0.2515932753434638,4.0658616409364825,2.367936666407848,1.330570561799873
892,-0.4350179761415066,4.032853509466527,2.3512576730745085,1.3299949715283739
893,-0.4959047593595595,3.9733874826283593,2.271731458063392,1.3755151819954299
894,-0.3848998600843531,3.913810720374535,2.196137948766512,1.4559048729470796
895,-0.29249528297600574,3.8682603142997314,2.1748420041229477,1.5091124148216384
896,-18.253549631731158,-18.289845156040382,-8.541229717958608,-18.702015907577838
897,-18.775745197580036,-18.752738624708098,-8.718435760713731,-19.274032379048283
898,-18.941547046983626,-19.177833227467044,-8.914840108152594,-19.731795771560968
899,-18.918253821473527,-19.55307017478574,-9.152201090114863,-20.140541469725807
900,-18.96056173001382,-19.873659840667905,-9.433604025847968,-20.592614564348654
901,-19.165088994663343,-20.14313615814007,-9.668280763610802,-21.098730861743306
902,-19.56032400067369,-20.369688068560183,-9.77257976191964,-21.643267621384236
903,-19.919222394397423,-20.565091624279038,-9.783695346265604,-22.165020179399995
904,-20.01562671014379,-20.7394019452894,-9.774014836162445,-22.599141499866313
905,-20.11349715166534,-20.896021022982804,-9.799420742722518,-22.984870653515223
906,-20.504667562423236,-21.033289058043152,-9.89655916242604,-23.37798663722861
907,-20.950937155201654,-21.143946974683548,-10.012492713021572,-23.724848234948517
908,-21.16854946431944,-21.225859847019045,-10.092563345838212,-23.97898430373898
909,-21.25183086155313,-21.279297172909864,-10.21378021823234,-24.22143404890805
910,-21.34981025201039,-21.318740818487186,-10.454083480412937,-24.53679288972066
911,-21.52576217630916,-21.36586059852277,-10.788106758275244,-24.919523953485534
912,-21.80304221363637,-21.43047522959762,-11.142538188996708,-25.331582711189817
913,-21.974021926323534,-21.51180740702126,-11.377033547385993,-25.701500099598515
914,-21.856019328655925,-21.60457809698049,-11.390598598245905,-25.968160141149074
915,-21.74126768128213,-21.689196416483142,-11.280175521042148,-26.192566784333756
916,-21.941170636941937,-21.73598758908665,-11.203932810599788,-26.447033739427027
917,-22.267803940360164,-21.729468703736092,-11.252907130484447,-26.662617912265816
918,-22.46661765620184,-21.676231021462325,-11.460085105462879,-26.763808307845164
919,-22.543398260572122,-21.59161740618065,-11.764841194594476,-26.794687033332057
920,-22.56856534205403,-21.484489818404338,-12.058339393025774,-26.815788142297762
921,-22.709328213740925,-21.354277088376442,-12.256528551950094,-26.851666492461028
922,-23.090517952795352,-21.20605579879677,-12.317083978913717,-26.902773924977463
923,-23.424586628704844,-21.05526279012936,-12.264144242067962,-26.894391426136785
924,-23.40655314010596,-20.91028598716381,-12.163512924479662,-26.753787484896467
925,-23.231141620233313,-20.76551317515903,-12.085953015314132,-26.530216562968885
926,-23.158558127531155,-20.61028823298933,-12.08244665732885,-26.299572513083838
927,-23.11578200791772,-20.43257053767893,-12.157045598144274,-26.06653404522437
928,-22.989640326118135,-20.21477255238225,-12.280489228536494,-25.829206343760674
929,-22.74417545465504,-19.940398595055317,-12.396533011937791,-25.603356147813447
930,-22.38075122342886,-19.614091137644962,-12.459723443595283,-25.404974722459265
931,-22.136749746982186,-19.257809251615992,-12.493947785855255,-25.293489483093506
932,-22.20967139244509,-18.899275403888378,-12.534775035832862,-25.30161037087926
933,-22.278204774980107,-18.5556429809602,-12.576989789097075,-25.315198360616396
934,-21.995845192117372,-18.22641486054371,-12.59766004790617,-25.20822377758451
935,-21.566699174979572,-17.903209744061257,-12.53754075968731,-25.000600064285916
936,-21.26074855900918,-17.559443740864115,-12.359729768927433,-24.74199223943276
937,-21.020369449196128,-17.16021160967846,-12.144247205436534,-24.414140138291675
938,-20.73068468048777,-16.694944875047444,-11.988459786779709,-24.00308920610015
939,-20.245771960440482,-16.174499484715867,-11.915535484993526,-23.511322942843297
940,-19.47174085723573,-15.61835513941194,-11.90859260283937,-22.95578340297167
941,-18.74694063519329,-15.02950498883338,-11.893171685409628,-22.437696941964404
942,-18.385692600130074,-14.405675373823343,-11.796791970520665,-22.03481374337979
943,-18.007286122369912,-13.743447561905409,-11.664303177655874,-21.641629015502954
944,-17.189541556279504,-13.045281207284347,-11.555062246812327,-21.129226625628245
945,-16.143896557791088,-12.325762406611899,-11.432485700790195,-20.51574275081405
946,-15.186678353209901,-11.607037372338002,-11.245520953091802,-19.849540604156243
947,-14.402072722422409,-10.89052921602249,-10.960049129695333,-19.136301948409617
948,-13.791213401030776,-10.163473060196273,-10.572379229123388,-18.380560012410694
949,-13.11185867597623,-9.400699333901928,-10.186036180877961,-17.546914560146682
950,-12.135057836526123,-8.570654149928133,-9.902120953734958,-16.614810991560926
951,-11.167078833571507,-7.640664676279499,-9.68317525419626,-15.704746301651518
952,-10.546414744650399,-6.594922013612739,-9.448705476536045,-14.92874289154203
953,-10.044877869745914,-5.455676472127604,-9.145301262181764,-14.210331773057835
954,-9.363157028289335,-4.2622533390262864,-8.742318612134957,-13.436210372047572
955,-8.532173274889598,-3.0464829694768785,-8.277556618364908,-12.587570088538584
956,-7.8021222300951,-1.8882962466373683,-7.812081898398374,-11.744400409986177
957,-7.324851956779206,-0.9293459720811778,-7.408147065447174,-10.990907387622224
958,-7.300737537985419,-0.2443400075024053,-7.105869804614323,-10.44816873896077
959,-7.247072785489393,0.20654350414506423,-6.958284518861204,-10.008302389527852
960,-6.642208144166892,0.5015814065583157,-6.9812051317892685,-9.518805211885251
961,-6.015628589238367,0.7065631521651525,-7.107659561634628,-9.096358219156789
962,-6.009120267286183,0.852708444053612,-7.244770185337761,-8.871488530957317
963,-6.307522886120024,0.9468183970459603,-7.331852363440351,-8.715628016037986
964,-5.835960358371907,0.9623890627260087,-7.170361253339155,-8.150949773810062
965,-5.263035374781374,1.0078491916453025,-6.930783831820627,-7.532862576644873
966,-4.687195583553547,1.0894329850186713,-6.630379844556923,-6.899703346198015
967,-4.273627912972398,1.2015277225170744,-6.325093581231608,-6.318121840823959
968,-4.162683815141661,1.3232275971734326,-6.058860010997433,-5.844289343033324
969,-4.076776882954861,1.4256185749821344,-5.785034805092698,-5.4108090083138825
970,-3.688376369346662,1.4968606022194368,-5.443485747750399,-4.924570475297352
971,-3.24961075171179,1.5509396979895318,-5.041226322965366,-4.436600114079238
972,-3.1045571487054784,1.6141306391536587,-4.626519900888758,-4.016290689600683
973,-3.1050035094131108,1.6955706903878787,-4.30692447379337,-3.595958632979706
974,-3.0014319224317805,1.7951837479206674,-4.182650103686008,-3.090252651493377
975,-2.713510330548738,1.9160192770744304,-4.217188019802172,-2.4908754439156615
976,-2.2348382859396936,2.0490842889061844,-4.317427892214674,-1.819533318904769
977,-1.824232594175845,2.1695667542883954,-4.446546495500718,-1.158760139477574
978,-1.7558986963454772,2.245466190257712,-4.570038991786551,-0.5903454411294131
979,-1.7481591149069753,2.2581540313816197,-4.62436457927547,-0.020319016771102046
980,-1.4301505614806374,2.2118791614732456,-4.555059814845717,0.6608633407511024
981,-1.010835376470861,2.120275172109481,-4.311113006209861,1.323164324833118
982,-0.803757433902876,2.008201139404982,-3.881212500667262,1.802967107606957
983,-0.7585421807492025,1.9047044213218824,-3.3537579101403994,2.1316013766228354
984,-0.7338095083954159,1.8320285675679222,-2.8553228972362614,2.4000760242283103
985,-0.5754562500059051,1.7966278953211572,-2.4917270727272345,2.6877853418183526
986,-0.15783842152179656,1.7903479550070187,-2.321351484451513,3.0577836903266338
987,0.29519629651734375,1.7920459051090831,-2.297787019994849,3.4335069782611565
988,0.5045128250907573,1.7802972815200286,-2.31966002798221,3.708411479286721
989,0.6648653237466942,1.7365519794774908,-2.312533558474012,3.9635496732706037
990,1.054097837967743,1.6616392464513747,-2.223729210254097,4.309413802795264
991,1.5484243700336906,1.574225750116662,-2.0236758764670473,4.679227307165585
992,1.95160412133663,1.4934174192375427,-1.7228417971273022,4.980214652857554
993,2.2548647964949455,1.4329748087882346,-1.3610475362068966,5.2273483701509225
994,2.496055868000405,1.3787929943602057,-0.9961476940642031,5.463497092315763
995,2.8137795367925116,1.2823308084574148,-0.709657995086989,5.749668356714385
996,3.335343383891372,1.0956756952871765,-0.5571460372022176,6.135284588006221
997,3.8189409507965104,0.8063916131836335,-0.5036159646689099,6.530565474755837
998,3.9831569715834267,0.44190775035608165,-0.466391931138185,6.821965250923592
999,4.033156567113519,0.06248810724057208,-0.3756332492024054,7.074527399311518
1000,4.260148511053308,-0.2722858414308343,-0.17474259125859348,7.381769056408945
1001,4.587537581522515,-0.54319644097729,0.18612214944887787,7.6770568182965
1002,4.858159388654098,-0.7660829549337927,0.7024834365541573,7.871254638400014
1003,4.99100994519095,-0.9640615949210816,1.270960230553958,7.968116953037779
1004,4.948361570609393,-1.1407246576588286,1.7597759207843924,8.00055943963143
1005,4.971702536750261,-1.272802322425917,2.0599439320108486,8.038159059347471
1006,5.314223362371257,-1.3421332369861836,2.12779622952345,8.14503595207094
1007,5.681771402428729,-1.355461274608618,2.0780933924341847,8.24593908717693
1008,5.706510163683654,-1.336271099182913,2.069452786565118,8.243016278722175
1009,5.596122534672485,-1.3097279734913032,2.152751552321597,8.198970633181657
1010,5.6707538338338495,-1.298276967048305,2.31427968374119,8.20597521693786
1011,5.937146172653902,-1.313993261934066,2.479246442877602,8.25142804058567
1012,6.305828379872618,-1.3539461444969172,2.5619086249956275,8.295402759935083
1013,6.562121215353465,-1.3913899482318308,2.5983413110222675,8.28497340110873
1014,6.502664556382451,-1.3997870022434236,2.66350488433978,8.178201163665305
1015,6.415334805426893,-1.3727439568193973,2.744590220786597,8.069955752664107
1016,6.652033643661262,-1.3252441447865269,2.8139048380638303,8.069019392448835
1017,6.927303408960051,-1.271474458928751,2.8843815866842593,8.081271500433658
1018,6.853105072665902,-1.219987733916912,2.970232823282026,7.980894289886271
1019,6.552096295011806,-1.18561378017783,3.0991254647075133,7.821978731062392
1020,6.267218341658454,-1.1776327235581652,3.282745068394413,7.698501895430185
1021,6.112952518426075,-1.1975082599658247,3.4320562091900833,7.631957336302734
1022,6.148155108466639,-1.2414649646805813,3.450134077237184,7.618040724873131
1023,6.1615650400809345,-1.3007826312196602,3.355730997047487,7.601185835232369
1024,-15.538037518052189,-18.783619364436188,-11.602713838320511,-17.174226303432597
1025,-15.86852875423083,-19.09987553951971,-12.19581499977268,-17.524672525659188
1026,-15.77300112732411,-19.444440898143537,-12.681453230813892,-17.676182416389747
1027,-15.574593683966953,-19.83276723752461,-13.01135946630462,-17.78524897446981
1028,-15.653570193635357,-20.20723007431864,-13.228743751046682,-18.02914641390289
1029,-16.007267443423054,-20.510515822311763,-13.464014217963285,-18.42204012787809
1030,-16.502936182741323,-20.739073242730377,-13.829370683766692,-18.902389378658818
1031,-16.85631217773593,-20.927521185193292,-14.21550033323544,-19.340138293099606
1032,-16.834937203906076,-21.097485475817386,-14.443023663155344,-19.620030228986664
1033,-16.762075736665423,-21.230668839330697,-14.390677974512757,-19.826709240619486
1034,-17.012177507275595,-21.295534600334882,-14.041516653513275,-20.08436048362208
1035,-17.345725514305947,-21.29639341232377,-13.579024355180696,-20.349414539684393
1036,-17.46165931528558,-21.269792637896987,-13.261470519175223,-20.562018216836343
1037,-17.49588333028547,-21.204991703026003,-13.309204257306588,-20.76855305152901
1038,-17.64151962306467,-21.035648705299824,-13.798694019512693,-21.02112911563123
1039,-17.980728220887855,-20.747966673214208,-14.511686847882794,-21.34292334731999
1040,-18.530340466683302,-20.397802146994145,-15.11614208316387,-21.731123612831706
1041,-19.035822132112173,-20.028972011430927,-15.372340304252392,-22.103591090077902
1042,-19.24478780966486,-19.592093685982594,-15.173243354356753,-22.3737312048333
1043,-19.370843490778856,-18.98492310438787,-14.57786268018911,-22.54912809606439
1044,-19.67967341763828,-18.203671397494894,-13.809382959813286,-22.67142776508275
1045,-20.008443021420604,-17.244656119694262,-13.262940375990475,-22.76600347206622
1046,-20.163308006724773,-15.923197538415431,-13.242866014169786,-22.852731451908664
1047,-20.251192102624017,-13.8926933390582,-13.718887708419587,-22.938606232141108
1048,-20.409206790283946,-10.73035546301033,-14.455958889951631,-23.014150720560316
1049,-20.67981742876703,-6.2608998749680485,-15.01914639570517,-23.044384118391054
1050,-21.053049418237663,-0.7476448617147451,-15.06865326515845,-23.007113406062462
1051,-21.352904512033376,5.429987889808719,-14.813358561822826,-22.948279237340262
1052,-21.393915221173586,11.954477039758626,-14.54043039428605,-22.91077811387496
1053,-21.254964600227364,18.47032397535628,-14.507771995105923,-22.876604570991347
1054,-21.052793893683663,24.599657983822667,-14.59672798538273,-22.79258529482408
1055,-20.68347607424463,30.03059248886895,-14.608434341343138,-22.55159787512623
1056,-20.05332787965034,34.5712439984085,-14.318589862488942,-22.075655387754754
1057,-19.233814133344133,38.15079286332524,-13.853346815670166,-21.436299825232627
1058,-18.34906725009041,40.77850501516491,-13.413289290977,-20.75429250692941
1059,-17.611570844432105,42.50095975212081,-12.976384541551903,-20.09756224639412
1060,-17.177778020555852,43.372405508683094,-12.476393707269995,-19.51000128842631
1061,-16.840829299019003,43.44407337004028,-11.8083055769909,-19.005552375270888
1062,-16.361412070675136,42.75563696633614,-10.934849064512475,-18.568825867604172
1063,-15.901022127893057,41.34202431450173,-10.197712833132199,-18.192142454775155
1064,-15.65432940163967,39.2331471751003,-9.901824707983467,-17.856653172941996
1065,-15.517172416245144,36.45710434544003,-9.866038329404379,-17.51353465983442
1066,-15.355124080301568,33.04176804324896,-9.76176692758368,-17.12249884720038
1067,-15.077637809699699,29.01484261459067,-9.267833921851663,-16.642571026914496
1068,-14.655260819711701,24.404275248069016,-8.23784557690668,-16.065002945449407
1069,-14.437569405294303,19.237905001474356,-7.075366558110166,-15.5417738913935
1070,-14.698449128270095,13.54334972657394,-6.223176588536921,-15.190081149980942
1071,-14.913441720607869,7.347793959091878,-6.018563014391365,-14.795284229655529
1072,-14.537237672887724,0.6780135818640982,-6.279097917269071,-14.142225741293304
1073,-13.848717005354588,-6.4394692464889705,-6.589349351042419,-13.374918429472034
1074,-13.291388126805852,-13.97854813494909,-6.451665048884793,-12.71709519939675
1075,-13.006264206054443,-21.913677243414693,-5.844580400217771,-12.260689802333472
1076,-13.02778017548404,-30.21971777345267,-4.828853032043954,-12.047958727027728
1077,-13.13076763652652,-38.871806251307966,-3.479729948617678,-12.037007937143171
1078,-13.067529387617814,-47.845435167904554,-1.7556118980811601,-12.138938807949854
1079,-13.121853568227603,-57.116471952183126,0.06319845688177983,-12.357359678758067
1080,-13.61191516896631,-66.66117291291688,1.3616989505698172,-12.701439460004318
1081,-14.235889014791232,-76.45618447910756,1.915824610313418,-13.045029866245162
1082,-14.670500223891299,-86.47850966517818,2.073723069380909,-13.29401280627999
1083,-15.138469365494728,-96.70556101013773,2.1333628646166867,-13.551308649742047
1084,-16.026153810222407,-107.16611703804861,2.4319578857852657,-14.021596054913475
1085,-17.356241409339205,-117.95203563757171,2.9435565724318478,-14.779415192324949
1086,-19.107557064701968,-129.09718730543582,3.4752540330178983,-15.866239715146573
1087,-20.753622405302487,-140.54591291667043,3.863122523162687,-16.937456479030658
1088,-21.80280209807045,-152.22065896913688,3.982605884519221,-17.63996595666195
1089,-22.83050304672321,-164.05604341384628,3.8621932442336173,-18.272911271022103
1090,-24.516356385306125,-176.00388493566305,3.6419793155776974,-19.095630141295743
1091,-26.485311942799004,-188.02829306271187,3.4498567297556204,-20.199028457927753
1092,-27.7265598970108,-204.44541146081917,3.869545626602065,-21.100358845693165
1093,-28.75298003968195,-220.38832618144053,4.35278523823754,-21.952583297838913
1094,-29.683923911669208,-235.86709575863983,4.840002934692585,-22.783617096502496
1095,-30.663228844167868,-250.89659868494704,5.215873692575071,-23.62383477874131
1096,-31.816039507928146,-265.4884596376409,5.3973793889156,-24.496350089790088
1097,-32.90746289254873,-279.63417155962077,5.44584974119733,-25.324834359683443
1098,-33.66664606442837,-293.3155590627716,5.477810084567287,-26.024171586447736
1099,-34.39662151282646,-306.5172877558656,5.568271761257532,-26.669386105642698
1100,-35.471025708899035,-319.2266339381736,5.752387260734248,-27.361425119764913
1101,-36.68810204937973,-331.4408261955801,5.991222121119025,-28.049981452505016
1102,-37.72610419988433,-343.1631065696013,6.205155773149143,-28.66027902539643
1103,-38.53089609464935,-354.3862261462125,6.340943442567261,-29.20518121276316
1104,-39.139904917361875,-365.1093164308798,6.369403859925234,-29.718860027579254
1105,-39.765831303965676,-375.34733029201055,6.295226204583641,-30.26289986180288
1106,-40.63185896657298,-385.12395235131356,6.145657573251237,-30.883872761792333
1107,-41.47069725168297,-394.445726263836,5.937485591025033,-31.466949256666435
1108,-41.947771876277756,-403.2975521823917,5.6964929919398894,-31.878120418188523
1109,-42.339206629276305,-411.6677188245979,5.447615649639887,-32.198924048785884
1110,-43.01107089349809,-419.5575656745607,5.22938740892714,-32.55364591521534
1111,-43.831441369560515,-426.9734246021206,5.186993943585109,-32.898413938922126
1112,-44.555929886454884,-433.91979502952097,5.429663490815015,-33.16129195803551
1113,-45.0713536959057,-440.39787049054326,5.80354948827265,-33.34905592452407
1114,-45.32624766411245,-446.4072181293026,6.086220296212782,-33.48611913477807
1115,-45.55284922901435,-451.9474059305366,6.2203224277236515,-33.63986654779409
1116,-46.013528773477184,-457.0187099771533,6.213853653232256,-33.86695178554994
1117,-46.4422477062531,-461.6135204035016,6.089162999758467,-34.059588237891994
1118,-46.494402206526026,-465.712520172644,5.898116116598359,-34.09008305810479
1119,-46.367285002401076,-469.30247129271845,5.629551735649013,-34.021992558231034
1120,-46.36297453057363,-472.38578406479735,5.272682187466626,-33.96889600116103
1121,-46.48284385073029,-474.97766946358496,4.967250092101258,-33.94979019298526
1122,-46.63931636060975,-477.0970611755565,4.840619984430993,-33.953021166390776
1123,-46.67266886613778,-478.7531576799284,4.836741897354608,-33.95593082600786
1124,-46.430302128055224,-479.94384500254927,4.832404011813959,-33.918774755400925
1125,-46.092776505058566,-480.65343182342286,4.652715279030659,-33.83086321064109
1126,-45.914084511010444,-480.87186310568956,4.197387021224003,-33.7042838348426
1127,-45.77585248024187,-480.62624933485415,3.7342257374625505,-33.51902413536737
1128,-45.49361689161265,-479.976072759214,3.598985151163074,-33.27400530978115
1129,-45.19081823987579,-478.9390462286815,3.791130584531537,-33.0924487349865
1130,-45.0104871129304,-477.4576242352453,4.153946808306639,-33.07944250499932
1131,-44.88957802191251,-475.45465477712384,4.5196500225410325,-33.14182997274192
1132,-44.70983395472458,-472.89701350352976,4.717017923371875,-33.12382520383605
1133,-44.26375518517176,-469.7968824885316,4.672166961614589,-32.9153460233013
1134,-43.404781645939906,-466.18100980636643,4.423033089182449,-32.46695767194216
1135,-42.45501137452161,-462.0719151440994,4.1032366487691645,-31.900468820670792
1136,-41.80138994855454,-457.4870086845843,3.86142628451746,-31.386371052568506
1137,-41.28810866532724,-452.4373858840197,3.7654454643684754,-30.929593155120163
1138,-40.62291097986214,-446.92600768432715,3.7914829841127795,-30.470901475578096
1139,-39.80283633546881,-440.93262436848926,3.7960626341850703,-30.01340150224292
1140,-38.89632322102971,-434.41801548467464,3.627231407836674,-29.552585028754734
1141,-37.99808465235113,-427.37128735340184,3.237767906295975,-29.026670129099745
1142,-37.21532634936409,-419.8316450040212,2.686174393571784,-28.39625646509024
1143,-36.38480851155333,-411.8515287611107,2.243711346316915,-27.691191853398323
1144,-35.32267973674672,-403.4538847089792,2.1648025157820943,-26.973930408723295
1145,-34.33844123747582,-394.60422988129125,2.3017158910431155,-26.362473644963686
1146,-33.76577839930539,-385.230135507326,2.388202557024158,-25.935007980265286
1147,-33.328582204326224,-375.3065977740835,2.3597768617452317,-25.555675922580743
1148,-32.63641990874066,-364.88452868602593,2.241535898775203,-25.040526800486422
1149,-31.647948133518316,-354.0239500951195,2.159270290382832,-24.35141348457209
1150,-30.45978498754928,-342.73665718857745,2.2412339823352565,-23.527877778260088
1151,-29.35315228196961,-330.994289309205,2.3957771835203676,-22.69269916302267
1152,-7.171676351022012,-318.6565141461702,7.926792579058995,-5.927270565389774
1153,-7.2148416986109165,-311.884494229787,8.107232215467048,-6.018374416796366
1154,-6.8081684658520105,-304.1422346477663,8.19052496860423,-5.876584421156022
1155,-6.185543468550038,-295.4642577911591,8.148242681391277,-5.540736993993585
1156,-5.664227742906923,-285.88470989788266,7.982916933323139,-5.1033560745252
1157,-5.217977015297489,-275.43730061791007,7.699487445442055,-4.57232709162589
1158,-4.75658000878896,-264.15525540616034,7.344632566088381,-3.9693307361376617
1159,-4.1753889055673055,-252.07134028759725,7.1141776757043855,-3.374992125659781
1160,-3.3941543683163897,-239.2178595617901,7.165483170384691,-2.856429117479189
1161,-2.6756005831996426,-225.62666859354928,7.3972960828546315,-2.469276650111273
1162,-2.26120257313342,-211.32918890679767,7.644750635723517,-2.221105856711913
1163,-1.789029188543401,-196.3564255142249,7.8256410285191755,-1.9521995854669332
1164,-0.8855712318209135,-180.73897053330617,7.908826083852015,-1.5164270838203384
1165,0.17978866937460192,-164.50691320310057,8.009538017520962,-1.0228003148746811
1166,1.0650071964295713,-147.6898878584181,8.23317729722364,-0.6136441205999752
1167,1.7822651398407636,-130.31741784490143,8.412545170870759,-0.2600123030570737
1168,2.444235727600463,-112.4184401065622,8.354882709560375,0.11188718700851485
1169,3.310955373922506,-94.02044655432192,8.091806761902093,0.5935365290643885
1170,4.58006183427897,-75.15072577379874,7.72646202870469,1.246821475404513
1171,5.868816914375967,-55.837732046467316,7.357928664570173,1.9403220199340094
1172,6.752517394761238,-36.109907286055936,7.07332893482817,2.519328126680972
1173,7.468135732818583,-15.994785056342423,6.856593719714292,3.046286214756937
1174,8.334143454836397,4.48089922017057,6.647381275393139,3.6085190174626485
1175,9.208854689755878,25.29160095106256,6.437749306223502,4.128516118025745
1176,9.900783524298376,46.412459063831925,6.23238270045771,4.52273551072951
1177,10.387664677714902,67.81845860362075,6.004445256553271,4.803888966551888
1178,10.691506193222082,89.48475964108478,5.744952644483158,5.015119349322723
1179,10.995187426491583,111.38697180514015,5.522185602911193,5.232889560006835
1180,11.468392708862194,133.5010028653423,5.384234420946963,5.532631178789295
1181,11.885916951920834,155.80310229466625,5.254373344469997,5.893875922235729
1182,12.012449171785825,178.26992199111754,5.035194121783875,6.27355780733888
1183,12.092932176255227,200.87850103618567,4.683358848384067,6.720966932027199
1184,12.402207185269827,223.606257241388,4.196198412563639,7.271992328193541
1185,12.837431518390922,246.43099484711996,3.666511077412078,7.833303892973292
1186,13.229949583663029,269.33087385858124,3.1897108884412395,8.312440871489944
1187,13.473025416809,292.28440287746133,2.7042288722178918,8.718942591200857
1188,13.519364243198467,315.2704953530445,2.1349553443749834,9.09569220944879
1189,13.629143441300227,338.26829210973864,1.5514297893007167,9.521130946650322
1190,14.042042637993948,361.25778516873225,1.040752165515361,10.045715022665728
1191,14.459648524421388,384.2182233625818,0.6200633097165315,10.542346324695716
1192,14.54015252093775,407.1305028652378,0.2757258536122531,10.87616246066661
1193,14.420796230824921,429.9751144812454,-0.0518361647403536,11.120722403747125
1194,14.324918312645949,452.7329404556977,-0.4327574778565277,11.383913078332764
1195,14.312579163523916,475.38536051377537,-0.8707810822610449,11.659243605525896
1196,14.397695839183982,497.9160742408686,-1.34461429682228,11.917562567918912
1197,14.426223863816,520.328401211846,-1.8721385177910892,12.121297190847597
1198,14.256598841486767,542.703069414445,-2.4556596474109598,12.244245210086616
1199,14.156635066452829,565.2042738005101,-3.017439987589954,12.369002792970774
1200,14.398060028736491,587.961357433609,-3.4909877482421754,12.582577086091622
1201,14.749826340530351,610.9757260860366,-3.9124206406664253,12.832802403956663
1202,14.930578443856055,634.1364269289134,-4.341282385828993,13.04498785996016
1203,15.007303879253023,657.3101872574633,-4.801440319131108,13.229829642609198
1204,15.104074329761477,680.4370189261407,-5.299760947949297,13.407139542734212
1205,15.311878407017916,703.4983303148264,-5.805011299719234,13.579035198594816
1206,15.668936704480924,726.4155316371555,-6.282537644178707,13.740588908312644
1207,15.870026473204952,749.0757082013494,-6.762955289409975,13.821047439688046
1208,15.642590786396696,771.4224036797325,-7.286895736799375,13.764959921088254
1209,15.337254622963329,793.4541512506014,-7.841125491806381,13.674552586874002
1210,15.346888381090187,815.1558371291236,-8.407569331781211,13.654254089241967
1211,15.474136658936471,836.4288687291776,-8.998445353810691,13.630222056260926
1212,15.37611867577379,855.9832207695075,-9.64756928374446,13.45220571513829
1213,15.021512216567137,871.3664215742212,-10.272580594256928,13.061612584003308
1214,14.391622343888521,881.6348472225112,-10.81780330903166,12.409610857630224
1215,13.72376820417161,887.8287997935353,-11.281053529329919,11.569137884411548
1216,13.253947734096434,891.2540244630762,-11.684740450005396,10.663482678582454
1217,12.575962435178903,892.7346089033596,-12.020566191126733,9.674767180862744
1218,11.285012411514577,892.6098003423413,-12.28962206379909,8.576272161826624
1219,9.826734808091121,890.9530550402875,-12.532278784317956,7.519819947528637
1220,9.020334324739853,881.919649154243,-12.949364549972358,6.732635130391094
1221,8.49630699955065,871.6601879415099,-13.396841725376529,6.079070469866554
1222,8.014231357802013,860.1015556048133,-13.89092403655424,5.463277465407062
1223,7.424129297113221,847.1938305790773,-14.411969776057946,4.842385704232472
1224,6.634197316153345,832.9166730387041,-14.914868123695479,4.2027612336954006
1225,5.824268431179295,817.2656247679577,-15.360225426902929,3.6309034844594397
1226,5.232739124888698,800.2437414054017,-15.705665473542018,3.2085880940251204
1227,4.672892556306689,781.8611864499743,-15.839127371051166,2.785715052582768
1228,3.8949370805608927,762.1753306542363,-15.694857543956909,2.176029125504
1229,3.112362437704457,741.432665663326,-15.45152140464451,1.4277776230263346
1230,2.5856115718126222,720.0165542894445,-15.32498599277349,0.6542617708485317
1231,2.199310154608449,698.1226214619926,-15.313511769881885,-0.13182650090219644
1232,1.7481997210191758,675.7586555570286,-15.33203682831426,-0.9326349117654702
1233,1.0649622235343337,652.9496860543709,-15.300088437564447,-1.7390725382400507
1234,0.0520737712392601,629.7408174829955,-15.16068093823471,-2.55062039514903
1235,-1.000190383637765,606.2324939016447,-14.999116298988001,-3.3272937145737176
1236,-1.7419990984446023,582.6301082884082,-14.95041026317584,-4.022902207288136
1237,-2.3934941065552486,559.1297267529932,-15.054635794059454,-4.677717215993993
1238,-3.268750115203249,535.8246642657806,-15.29686363206997,-5.335418705424668
1239,-4.133422872023794,512.7620656904058,-15.613800737612948,-5.9104455588451525
1240,-4.6866069156815415,489.963466037998,-15.91309186223713,-6.315731939291459
1241,-4.992259203303564,467.379926334392,-16.164918914340976,-6.601780458002403
1242,-5.22237107390627,444.9428270577291,-16.352752987293663,-6.863013242225003
1243,-5.649510499287307,422.6256438750303,-16.38140076689469,-7.201276584155019
1244,-6.490823546857276,400.43491650718624,-16.16922715507527,-7.68252255026491
1245,-7.400124930674491,378.45046657714175,-15.742755688909476,-8.180587217481262
1246,-7.934344970555064,356.8125563693254,-15.186674265462692,-8.537633282425288
1247,-8.303422800970168,335.6142426749663,-14.604605306391159,-8.82326503428917
1248,-8.854599745532926,314.8633421181635,-14.106909338826355,-9.164698348153388
1249,-9.488216902733475,294.488908287593,-13.779186297706616,-9.558738116599972
1250,-10.02142552439269,274.4142298910383,-13.653548994773944,-9.968911811994877
1251,-10.402810383135327,254.63380321497525,-13.696599182628512,-10.365651330933527
1252,-10.614573124794086,235.15204396993008,-13.828899147018841,-10.711381622862836
1253,-10.843702447576673,216.0166981705772,-13.930003153779058,-11.029138735215245
1254,-11.282716116753047,197.54040133076188,-13.904100541066159,-11.352014918360332
1255,-11.658132240773678,180.20924058425908,-13.772420362231392,-11.603416124656617
1256,-11.64662952811303,164.27741618568987,-13.606274977249747,-11.709176177747787
1257,-11.447529074264379,149.68778906111885,-13.460122149262764,-11.741955828129067
1258,-11.379375050246102,136.26271692074653,-13.361222798914598,-11.811059699846245
1259,-11.514123308447708,123.77239129270463,-13.246063734696179,-11.96789392713187
1260,-11.824597939559418,111.95737930163526,-13.031976214172253,-12.227546876328338
1261,-12.119561301540418,100.60542333780987,-12.738590423532123,-12.523563591950246
1262,-12.175439253292906,89.59496768557085,-12.420810440887193,-12.762480703099001
1263,-12.13878665115054,78.87977485944843,-12.108041597076086,-12.972580105281065
1264,-12.224706449752304,68.45742385775628,-11.814726958334203,-13.197937376671117
1265,-12.221589222522717,58.34226535725471,-11.51001615581335,-13.312256058721225
1266,-11.875164387784455,48.550375687220495,-11.154069716324644,-13.189107029229989
1267,-11.325270801271344,39.09434889747925,-10.753620417786742,-12.916298162431817
1268,-10.786778459649213,29.979073441015984,-10.34521644092703,-12.62416321490295
1269,-10.332741719149725,21.206994371816048,-10.001546385336734,-12.32944468283152
1270,-9.971479190204287,12.778222808728668,-9.78427326596121,-12.008667027757877
1271,-9.47736945523892,4.691876369693807,-9.655566594212306,-11.580980071404008
1272,-8.629525956870472,-3.0526735337219684,-9.53434671929575,-10.980880350909356
1273,-7.74675451538404,-10.455988266804386,-9.377063493254965,-10.348492340466931
1274,-7.2259618099258915,-17.518378413748067,-9.146352758324648,-9.868968744324022
1275,-6.885203730036568,-24.24014034696804,-8.798188661952642,-9.53500924550264
1276,-6.4158261566112165,-30.621623366304966,-8.31587004823021,-9.277014544051196
1277,-5.828175596214541,-36.66328271008357,-7.684081064845224,-9.103320904770769
1278,-5.205370965109919,-42.36572896306849,-6.931999269326997,-9.00731787914632
1279,-4.661363492464616,-47.729707710523485,-6.2575603677736185,-8.91585478499116
1280,4.304282528121017,21.583474916530367,-0.6212220012596101,0.3271658008450002
1281,3.931709227411316,19.668737184093835,-0.845110132301385,-0.11703375400821117
1282,3.83850348987307,17.8410637417689,-1.1288554034696578,-0.48895288747795773
1283,3.7932314837015113,16.089360678009353,-1.479993871131406,-0.8055544702671227
1284,3.5237527336589203,14.421364424504088,-1.8883333051560718,-1.1017466702539471
1285,3.122093728561606,12.870464421856566,-2.339796744915416,-1.3418958318258305
1286,2.7355549734625435,11.478712407601387,-2.8085472747682845,-1.5021870179657915
1287,2.3938277989222985,10.281147226313577,-3.239442279557992,-1.6251459524287464
1288,2.0881723882695873,9.288913193350554,-3.5811554496604856,-1.7694227081521214
1289,1.619117826248231,8.502149650664,-3.8151972798888822,-2.0135334979996093
1290,0.832111511774184,7.900092259766229,-3.9586797900015758,-2.403693879408219
1291,0.06990290319707726,7.453836186221302,-4.060617928828995,-2.8425810709733956
1292,-0.31596867366946485,7.1830187733845925,-4.191240052036031,-3.2190145556167535
1293,-0.5477176867044382,7.147821504882345,-4.451375058781666,-3.571653189405301
1294,-0.9269879794271983,7.345297781130366,-4.903727292339223,-3.963253746282259
1295,-1.4233781253757523,7.719523965645714,-5.476502179312481,-4.3683137281147015
1296,-1.9348725083454705,8.202971056165383,-6.063773732101056,-4.745594849971559
1297,-2.319522005555923,8.761723194370273,-6.642659994703939,-5.068981895421476
1298,-2.4657793772242105,9.43371248362713,-7.2077154733316116,-5.312300305816685
1299,-2.632235607443045,10.400791893641337,-7.71819669896391,-5.477996814705243
1300,-3.0748651410212506,11.860137433020483,-8.143011975719972,-5.583474970937875
1301,-3.481697634373141,13.738744908873702,-8.486954039388982,-5.608137189019801
1302,-3.5201748402583033,15.696790563691223,-8.760777406874908,-5.554394221549852
1303,-3.4210410591564333,17.394943848323123,-8.952641038314118,-5.532402123043032
1304,-3.4832453951646034,18.689138371147223,-9.063207942522657,-5.6492074249733015
1305,-3.7172611794727644,19.60802181896491,-9.146798665984056,-5.899883155464924
1306,-4.055173462329539,20.215377639765205,-9.267004561318696,-6.238368962344942
1307,-4.296976391704151,20.56471190905212,-9.440706022181347,-6.608937981757293
1308,-4.27605484182585,20.73999799397941,-9.67786392639534,-6.955312982177305
1309,-4.302955405628798,20.869362466675295,-10.034761357283292,-7.306947114988472
1310,-4.696528365769521,21.06303135926772,-10.545266724584161,-7.68837424417762
1311,-5.147731469926823,21.363475670792372,-11.145228237244462,-7.9569857865130125
1312,-5.300183069533629,21.75243963345209,-11.751223011504164,-7.989051702131449
1313,-5.3147704450539575,22.19110860905066,-12.339934868347857,-7.889250128602856
1314,-5.426724515226124,22.620889975898923,-12.899374611487866,-7.805348290335866
1315,-5.691309912768894,22.976988586546383,-13.39593752465945,-7.7768089193795396
1316,-6.098201522765504,23.29346673380023,-13.808588324741924,-7.810829515431013
1317,-6.411223975755253,23.715535017333032,-14.128140821174796,-7.874223603981502
1318,-6.417153363165388,24.324516797792647,-14.362210685743289,-7.928053849211484
1319,-6.408427936645427,25.04031114800093,-14.578533511687265,-8.054196687232006
1320,-6.709628039480222,25.735852328671065,-14.829580347966651,-8.325691576446951
1321,-7.114694005207184,26.30504506229691,-15.060833973624705,-8.63024569931016
1322,-7.355332302449877,26.726458133762318,-15.204852132838772,-8.83916067773597
1323,-7.483215959314593,27.050372425266264,-15.244184826057692,-8.965884638991254
1324,-7.609814268043953,27.344873309243333,-15.210759878552533,-9.059105088918963
1325,-7.857006476534331,27.712886064172583,-15.24538641334031,-9.15231799258368
1326,-8.309003252886246,28.270047880539124,-15.479831437957472,-9.275267185351892
1327,-8.728820726813051,29.01240086165665,-15.880590085989478,-9.386225972698114
1328,-8.879540940811609,29.762954181803877,-16.351927775547825,-9.44490282064402
1329,-9.003589296179628,30.286416616748678,-16.82237926609582,-9.547014623943934
1330,-9.376935797378271,30.4750111447795,-17.226241569198486,-9.78478923582535
1331,-9.852288371714343,30.413740978978907,-17.552462166477977,-10.089531952518104
1332,-10.226856455433383,30.25997314341796,-17.80885178576215,-10.36768144142904
1333,-10.463705265749418,30.049600848594466,-17.92181979808143,-10.607193677363721
1334,-10.588228167980926,29.682371124117424,-17.852320652808725,-10.8167080885975
1335,-10.825159710742634,29.05740614729791,-17.719210609927558,-11.031122890965595
1336,-11.364015440010519,28.083095511384013,-17.669807776726017,-11.27725802193029
1337,-11.904168768270809,26.744235087069185,-17.795548753263056,-11.471929665936138
1338,-12.117397261137029,25.10660009520805,-18.11882696256409,-11.53141765574225
1339,-12.204078988090417,23.253002750560768,-18.51443958252782,-11.51373138529704
1340,-12.469276901741278,21.462227059951935,-18.82661308600003,-11.508388731865896
1341,-12.691497721036432,20.242141095602335,-19.005096247262575,-11.465756746407507
1342,-12.676934211848533,19.777817920228742,-19.052351383556594,-11.342871986298027
1343,-12.334235581800781,19.849805584994176,-18.956034271752078,-11.138396682892912
1344,-11.700103597662276,20.19544213764658,-18.735442372266228,-10.876720791368554
1345,-11.257456003059474,20.651244427113213,-18.447835246082366,-10.652669733675461
1346,-11.434791803313676,21.154443643062937,-18.14049584874428,-10.547179331250385
1347,-11.861059570172097,21.73992837901848,-17.80674567606572,-10.488729083240244
1348,-11.720035915616036,21.283318202897675,-17.52262474947321,-10.404578552660869
1349,-11.406380534819986,20.881568644402382,-17.34501932791664,-10.282726696217384
1350,-11.129948524046512,20.548782979030204,-17.37153618585964,-10.16711650616008
1351,-10.93023033799906,20.24542023106808,-17.43615019584599,-10.02778755139508
1352,-10.811483502475443,19.952918883758407,-17.31319896111721,-9.836301327345032
1353,-10.690233958299693,19.69858117756559,-16.99202042508014,-9.617775708954747
1354,-10.47035106746846,19.507377264687296,-16.547340617997214,-9.420129483153646
1355,-10.360146598598048,19.36464596634635,-16.020014989771592,-9.341074470761413
1356,-10.57538709952687,19.21011723442977,-15.471692761465789,-9.455748570492352
1357,-10.845180017106351,18.99797007660827,-14.98211442868452,-9.672570370444006
1358,-10.828762895361663,18.727794413903293,-14.599465388653982,-9.8570517448555
1359,-10.602194815428302,18.396424721589227,-14.338592238246544,-9.997955202421647
1360,-10.351531845344073,17.959744857080228,-14.170052747868011,-10.119984251423324
1361,-10.184570569830758,17.373758582699693,-13.975314479212328,-10.221333553854615
1362,-10.158765120606006,16.648157739522706,-13.639092809259237,-10.298080295468873
1363,-10.033503808455714,15.819025751159915,-13.172357445135283,-10.29478068083723
1364,-9.54126838014723,14.879445932753796,-12.652974878060768,-10.155646728994435
1365,-8.958932547791203,13.777164123907665,-12.156676820470452,-9.955010558538012
1366,-8.647704631323847,12.479842280504823,-11.752203330231957,-9.783757225187449
1367,-8.406894218740476,11.014589978198346,-11.495307917192383,-9.579072372944351
1368,-7.944105694245973,9.438068337904557,-11.386628917237545,-9.258215714450763
1369,-7.3387785300323545,7.785081149581869,-11.295155609436566,-8.861546868718728
1370,-6.753371261284894,6.080023991196294,-11.079678706457344,-8.461689701986074
1371,-6.346024286482146,4.335319585769619,-10.770527462623782,-8.119697934862304
1372,-6.227858675353986,2.5459929011460583,-10.453535113014114,-7.876241632165405
1373,-6.09792717438597,0.7034932018462704,-10.134515576813262,-7.660435850558329
1374,-5.614291295325903,-1.2103679149855093,-9.800355839483446,-7.37753180119262
1375,-5.074779451607163,-3.2382633025799406,-9.444805919952366,-7.0754478900141065
1376,-4.881776396749349,-5.421207792221207,-9.054137328920001,-6.830349957258598
1377,-4.853905527623419,-7.770666524895851,-8.636281569793779,-6.592398171643937
1378,-4.697647154800082,-10.277278547376902,-8.210757741241633,-6.303001456467175
1379,-4.4022503729365505,-12.918541007977554,-7.77827768217171,-6.0003916159955235
1380,-4.035639020926752,-15.671992648242238,-7.347946807549002,-5.7428664661352276
1381,-3.8132517334423013,-18.4946893440682,-6.951720931850668,-5.594747256745438
1382,-3.939504415569081,-21.381090257833545,-6.62942265769998,-5.596207812203895
1383,-4.095823117996583,-24.345926840208655,-6.455414207500979,-5.628286934748324
1384,-3.901135247850666,-27.415097678902406,-6.46642056438623,-5.560050305532844
1385,-3.650999362669257,-30.593327375101136,-6.546461442783947,-5.498506464137191
1386,-3.7529584199988433,-33.86979197602947,-6.538445831067464,-5.5926630958637835
1387,-4.085545049348649,-37.223115667188026,-6.36498754792563,-5.799670754756905
1388,-4.400938762071442,-40.613468441825205,-6.016065335912574,-6.023064918379061
1389,-4.571325681739767,-43.957604989300364,-5.571070763810881,-6.203881751597893
1390,-4.525590785601779,-47.155985379952895,-5.148703206764223,-6.298650622083839
1391,-4.489870277024307,-50.077341168683745,-4.824988360451789,-6.35391966203463
1392,-4.730308223104742,-52.57064369908072,-4.621868361721699,-6.440961191990804
1393,-5.0001743841562,-54.540403209033755,-4.481303840495534,-6.500295775799804
1394,-4.9657179125807085,-56.001372714093144,-4.31776368240863,-6.454622397822999
1395,-4.78905866369592,-57.0355589448685,-4.087963268838957,-6.370422962206013
1396,-4.7266606694387185,-57.71257943754525,-3.793337250685473,-6.330792242797081
1397,-4.7511513952100195,-58.11274014060459,-3.5180857683140023,-6.306241600291004
1398,-4.7775896451054,-58.292208669809696,-3.354408304449784,-6.240202909154248
1399,-4.719089801648456,-58.29443559327198,-3.270097524157349,-6.096771525549991
1400,-4.509037293915563,-58.13826357539719,-3.186870969201238,-5.85877386190994
1401,-4.359198929963678,-57.804721703322144,-3.0789051969696533,-5.586746341950751
1402,-4.503140373715049,-57.26209830192231,-2.9326161964834094,-5.363057619696198
1403,-4.73924739222692,-56.49091167933314,-2.73116663509354,-5.179853943761318
1404,-4.78394027967768,-55.48994664636249,-2.4748199138295606,-5.007617685108993
1405,-4.701092631739382,-54.28690757810839,-2.168935024668748,-4.887895057761765
1406,-4.628183728713577,-52.92470250530537,-1.833319466962559,-4.856076522549683
1407,-4.599604844777543,-51.44647861466652,-1.5235867865642774,-4.880556779800503
1408,-8.44057033327304,-13.68077887565113,-11.60363156327204,-9.441441086555225
1409,-8.718022930408072,-13.640184790933796,-11.921730667337373,-9.911788038380326
1410,-8.755451297700727,-13.520679091365935,-12.130278581942973,-10.334237556415827
1411,-8.872302701892297,-13.351581682556276,-12.309166236030158,-10.734822582918632
1412,-9.390944220284274,-13.17662369757738,-12.557288616347785,-11.144405715650354
1413,-10.080999447584357,-13.001284851454512,-12.895583562494378,-11.515246695213307
1414,-10.628707423257168,-12.817416346225842,-13.296929863776652,-11.805033690620622
1415,-11.014249912687823,-12.606853676329363,-13.695849366123618,-12.041267352868207
1416,-11.286220891452361,-12.348962628892648,-14.023089608228842,-12.263014486026195
1417,-11.541241382606906,-12.041371463791252,-14.276750786756898,-12.500375539530665
1418,-11.875614713387773,-11.701933453639182,-14.488806404532538,-12.769175614477048
1419,-12.108523597461055,-11.365224778246057,-14.67092909855198,-13.009618433078314
1420,-12.071151152535133,-11.076983504592992,-14.85002386113536,-13.168724676787084
1421,-12.047503164513717,-10.890925021836392,-15.095867878441355,-13.337583912379179
1422,-12.332068543474742,-10.844216446020535,-15.455864388867417,-13.611192968228881
1423,-12.769439058051256,-10.927981206879371,-15.928046873598591,-13.92484684270777
1424,-13.137425661135381,-11.11024620961864,-16.45481925006904,-14.19860872680685
1425,-13.394200568535958,-11.360167632408933,-16.879104389368614,-14.451125958412085
1426,-13.561314047331367,-11.640956760919254,-17.100952505852447,-14.719062181546038
1427,-13.859418127090327,-11.917027441461805,-17.048190578620304,-15.059591359864863
1428,-14.465383961547406,-12.149889827853553,-16.843953569740926,-15.499456481315981
1429,-15.021024778938063,-12.286731551311842,-16.759153296493437,-15.889299877780706
1430,-15.151606595298093,-12.289042186831802,-16.948719149745983,-16.084940287071753
1431,-15.097071290566806,-12.145442791246504,-17.307767643027663,-16.18008505332495
1432,-15.177069805299668,-11.886247482136772,-17.66519224158846,-16.31155198660255
1433,-15.341402930543007,-11.616608073022027,-17.912055960355584,-16.48471891415075
1434,-15.46899624096236,-11.446186222151415,-18.055002695074595,-16.672837775702032
1435,-15.41900016762616,-11.407195673474105,-18.126541245289292,-16.837351383476587
1436,-15.098643623562877,-11.484190740987447,-18.098494278271836,-16.934759788307172
1437,-14.820581602244463,-11.644532299843114,-17.95316377716011,-17.018242711365506
1438,-14.889825860302665,-11.828528957709723,-17.688114446639414,-17.137393661437166
1439,-14.990840764407308,-11.949687268936017,-17.424339099818297,-17.171370450255036
1440,-14.756559482288921,-11.93823491330295,-17.289280668053454,-17.00620183664141
1441,-14.367537504089505,-11.78286324463167,-17.292626271649386,-16.728724324893438
1442,-14.07028404928775,-11.503300393340806,-17.38628405305492,-16.457048930285215
1443,-13.849515129491637,-11.123447744549809,-17.498042763555283,-16.209447363782274
1444,-13.634807571779893,-10.675941354463681,-17.548566595560768,-15.975478723943937
1445,-13.230531919055455,-10.193398501265268,-17.498131698555458,-15.703855062081947
1446,-12.493166173528612,-9.71013968631905,-17.34363397595581,-15.348197332782238
1447,-11.788244502267004,-9.267928032332929,-17.111980498392786,-15.003698638593141
1448,-11.481760551777404,-8.90639648414629,-16.836709565741753,-14.767765854481137
1449,-11.274049806923838,-8.669193136993984,-16.52511343019216,-14.543366505546164
1450,-10.792822921821433,-8.580189249218481,-16.169000782030636,-14.221777267014962
1451,-10.147201546908661,-8.595457990137398,-15.751944727434404,-13.869187378077523
1452,-9.531990820900658,-8.678150764448,-15.266796235290592,-13.569206628767171
1453,-9.043439226407902,-8.80091772615777,-14.736949029944189,-13.314149309127414
1454,-8.726709572117192,-8.989604465225701,-14.204472710054828,-13.069669664532965
1455,-8.356536387184264,-9.241535872958016,-13.726439151573608,-12.762164742230325
1456,-7.707185152244213,-9.501721402140868,-13.340893871631424,-12.32925932631583
1457,-7.0150662670647925,-9.751064912104084,-13.023736499215577,-11.837177058758183
1458,-6.556825809083862,-10.044823249497343,-12.71842774870756,-11.369244173037877
1459,-6.17884504154679,-10.430820629603248,-12.37076274643021,-10.888933242177394
1460,-5.679667591125743,-10.93649749789748,-11.936908305087663,-10.341714163953844
1461,-5.095370338526718,-11.48401263814255,-11.381642225820139,-9.734973340115168
1462,-4.501814609656432,-11.965948128053093,-10.706759818142244,-9.084515672952865
1463,-4.007735555876308,-12.326285341760949,-10.003822629389479,-8.411903580073371
1464,-3.6812475813950645,-12.549226919467484,-9.343773304621143,-7.733796364999128
1465,-3.2772019037346842,-12.675642140710181,-8.743955526184259,-6.9963801530023515
1466,-2.551896866649253,-12.773593950368015,-8.14417904098714,-6.152518328049809
1467,-1.7042344981026971,-12.877113115174431,-7.505569736948611,-5.279109821213048
1468,-1.0089191769573067,-13.045555749157957,-6.910744556890129,-4.491377203083143
1469,-0.2920537126534385,-13.457775113343168,-6.402693675845515,-3.7720552970321988
1470,0.5939838527746033,-14.295350012358282,-6.043388942719756,-3.108002781120229
1471,1.5322428692574241,-15.543045207050183,-5.8365814735833625,-2.5304917076825353
1472,2.3326729455808364,-17.005464519232834,-5.699711675190785,-2.0559603655825165
1473,2.714053982380763,-18.512115500879183,-5.587175119618038,-1.695463475044384
1474,2.514083812902863,-19.917798260380607,-5.4166902032462865,-1.434324432399894
1475,2.16711569282262,-21.170379600506152,-5.094326790458291,-1.1369862111994893
1476,2.7406764461832296,-22.084051524767172,-4.757685868113559,-0.45180129269316494
1477,3.4872088223611226,-22.983055641271072,-4.387774217091859,0.28712608221090635
1478,4.088769390332729,-23.958721432448954,-4.00506276344781,0.9382994833574013
1479,4.568105587154274,-25.046574215010043,-3.624892664957394,1.5091442634247019
1480,5.021956818891653,-26.219062094657797,-3.2619636445807476,2.0408684286749588
1481,5.511393018128094,-27.373122058428514,-2.9399396237097015,2.5169084317184445
1482,6.086166671437346,-28.386237801718753,-2.673415713353622,2.916696029057706
1483,6.535324917302889,-29.252430536230655,-2.436484167721178,3.1851854048439763
