,TP9,AF7,AF8,TP10
0,2.753034517942021,-9.195726575019721,-7.39191883146172,1.50490603722467
1,2.8704080160607734,-9.37498312968377,-7.565130248938213,1.5845817801687014
2,2.905781843350969,-9.58687801138201,-7.70819088796198,1.6575621280713448
3,2.9276873393717198,-9.829191418163022,-7.831800628403605,1.7161448919537263
4,3.013778172797849,-10.089953479901027,-7.950842415397597,1.7609591993648155
5,3.094984040566157,-10.350467560833227,-8.062062626918896,1.7921503553126807
6,3.094553753696243,-10.59132865435975,-8.159123112238873,1.8145888400429766
7,3.0535215771412982,-10.795956413635903,-8.239847569549461,1.8336636337378633
8,3.0308975268164673,-10.95760731629523,-8.309872118440767,1.8513793147601796
9,3.0586953515033892,-11.092620122241126,-8.396117158248398,1.8716377749617885
10,3.1497609231441315,-11.219420581245306,-8.528219995487285,1.8912531160606603
11,3.22895734881449,-11.333193130597696,-8.715094182732395,1.8814891745553468
12,3.2243881575196545,-11.42547127189095,-8.952710285576666,1.8177765288360543
13,3.2274941732599567,-11.496802277376943,-9.231805579223469,1.7162129234722672
14,3.334775188989937,-11.555495709002187,-9.531744845237789,1.602390087701257
15,3.4618279995168244,-11.629396310029083,-9.821167979842116,1.4811173872183974
16,3.509638376802039,-11.744815909262098,-10.070439711965085,1.3526883517605726
17,3.497300983157621,-11.898707931749671,-10.254172423313067,1.2177197752714468
18,3.4692996994687597,-12.077054797142086,-10.364872532756511,1.072278286885875
19,3.4927429584614704,-12.267772806201693,-10.437457012364797,0.9232141488879402
20,3.6089710876430585,-12.460881983558552,-10.514763205757335,0.7646953830263434
21,3.6764482509822547,-12.661004539001812,-10.602219186919353,0.5868646831453923
22,3.5606978531073565,-12.87200736494341,-10.696706352462686,0.3657533696895048
23,3.3943938374734515,-13.077442276321788,-10.816491970253217,0.12091552494141275
24,3.3417827272929035,-13.2555577419719,-10.97352967011671,-0.0808951653515519
25,3.368148871568791,-13.385930786077978,-11.154756726475917,-0.21071906674749824
26,3.3995517445205943,-13.458469494307169,-11.339772061118556,-0.29328176055330524
27,3.40917753973038,-13.494940836474223,-11.508459995239614,-0.3571834747807877
28,3.3790908484700473,-13.52468957646455,-11.643287266914612,-0.4102147569748052
29,3.3627454881647223,-13.551168887531054,-11.74008131546351,-0.46448831486259057
30,3.412142220957905,-13.57209906739192,-11.797580979722301,-0.5284843515696072
31,3.4255493270567348,-13.601033853834771,-11.807713414942294,-0.6386391004131781
32,3.302245463064717,-13.646211958945454,-11.761839602636213,-0.8250730400730294
33,3.127125118867564,-13.693902949122268,-11.644399025613483,-1.0738727462859485
34,3.007185462896592,-13.727809309897061,-11.45437644126389,-1.3539401292049624
35,2.930144785797951,-13.742739997412928,-11.23651560802549,-1.6335754625099854
36,2.8567391172417844,-13.73949558733575,-11.043355963409182,-1.8880770159219555
37,2.75215384148089,-13.726262876136728,-10.899016516471619,-2.1212370454900635
38,2.5842087052954588,-13.713340255237489,-10.806627594138739,-2.348638469564761
39,2.396826218078233,-13.701966003628641,-10.746052034899463,-2.575546959770821
40,2.2356500178930685,-13.689955340839294,-10.685913387441307,-2.8027420825752456
41,2.0148179316660886,-13.67859594443393,-10.602164210324846,-3.0267683766106694
42,1.6563370393232113,-13.666729046167271,-10.480386912877226,-3.2409095713162457
43,1.2473592509840061,-13.647871082175357,-10.324940667937858,-3.442319013008306
44,0.8938835886031111,-13.61311355128921,-10.142984174288182,-3.630814603776297
45,0.605528288779853,-13.551083728161911,-9.917592262353908,-3.804626448450062
46,0.3582944207537558,-13.452122347040905,-9.629073738737947,-3.9626854933691344
47,0.08886804570510987,-13.315380785538878,-9.280663594841837,-4.112495555827362
48,-0.2595364880217085,-13.145180262363988,-8.880849038850643,-4.2567993216209565
49,-0.6177190497854003,-12.943035505765515,-8.425065939533683,-4.3716172589600335
50,-0.9026669901837855,-12.714984653727372,-7.915854289532113,-4.43474623282869
51,-1.1735020809551635,-12.482133289818746,-7.380736659415805,-4.460760969790404
52,-1.4973108884801967,-12.263376168518267,-6.848982682435752,-4.4718163150262304
53,-1.816609193269015,-12.056786407041677,-6.333495423986569,-4.468455290914648
54,-2.068863911108652,-11.853034080773744,-5.835800867652846,-4.450195042482727
55,-2.259873705530372,-11.647134050759366,-5.3441598295614225,-4.428124196358876
56,-2.4175776056414,-11.433145045157346,-4.841073855501634,-4.4124300498199664
57,-2.625437854674967,-11.204132779789205,-4.317479615118538,-4.412583632632678
58,-2.944598924399822,-10.953521896595866,-3.768843257415677,-4.432791720414766
59,-3.2522499768391566,-10.673705458787039,-3.1901722046973227,-4.454357040332707
60,-3.4040191341430246,-10.406074672388407,-2.587160419370904,-4.460047849876128
61,-3.562307184150328,-10.248878791833832,-1.9781144313742944,-4.451931002546358
62,-3.8775073663335586,-10.246837186131346,-1.388821140674483,-4.436227004317139
63,-4.271826318822939,-10.376037464550606,-0.8375887825615527,-4.365161671057173
64,-4.608160908454387,-10.554373124927446,-0.33992134326947726,-4.2163863033037146
65,-4.80105358764808,-10.735744818010884,0.08291901629528424,-4.013901811733711
66,-4.814892008821859,-10.887675897028915,0.4206096557805583,-3.8319122919486066
67,-4.774131584713949,-11.008495010943589,0.6877858449056459,-3.7833290135342788
68,-4.808303329664984,-10.994739267223805,0.8601816382376047,-3.7577074244089026
69,-4.880314158236525,-10.972164654418595,0.9907324439442102,-3.8184156127611484
70,-4.878901878222367,-10.950371453140363,1.0864650298453704,-3.8660555876600946
71,-4.860604187811347,-10.923885955272752,1.171068689181715,-3.8638061578441754
72,-4.908968682520003,-10.875696844317488,1.2686626398460374,-3.80938347863495
73,-5.005940500347808,-10.78472421745478,1.3808684072100283,-3.7143485444334163
74,-5.111231361248843,-10.63649241420142,1.4973095577556852,-3.601970160220639
75,-5.176403632816088,-10.43830688614889,1.6062531665738808,-3.470266737740478
76,-5.16165296329583,-10.20978860681092,1.695471064672142,-3.3117041925304087
77,-5.142889440407255,-9.971076088305114,1.7582660410678617,-3.149493447094922
78,-5.208316737336322,-9.740474904411291,1.7963117459072533,-3.011989296979268
79,-5.276895114193082,-9.522473380994022,1.8175494414043618,-2.914068709122244
80,-5.242987281847064,-9.315202152726815,1.8332642165788908,-2.858427311312062
81,-5.144034812680494,-9.13079912092033,1.8611586401199887,-2.821643163482972
82,-5.052897486137806,-8.976263711405226,1.9116091588839321,-2.7706099084634856
83,-5.02160048046752,-8.831736837948498,1.9640141215170404,-2.693468665837742
84,-5.076095795445956,-8.670806329493377,1.9930692297054868,-2.58686713448227
85,-5.106956170140627,-8.470599112027422,2.000204211335626,-2.4373388975408257
86,-4.988319857010414,-8.223559482355947,2.0004125732886737,-2.236145396267894
87,-4.800947270757228,-7.965497185688591,2.016563455454707,-1.9949512339295554
88,-4.66857283624531,-7.742689354089088,2.0690816675344044,-1.7290540236202583
89,-4.541366329023099,-7.571376276978832,2.1533856965124833,-1.4380779022372763
90,-4.341239205001347,-7.445892649886064,2.250608457837885,-1.1200166450973084
91,-4.091235438504025,-7.335074927732849,2.341574489721797,-0.7844091675558746
92,-3.8302733859909575,-7.202105078037519,2.409889391934742,-0.4438725015095721
93,-3.6001500875761767,-7.041937766680387,2.4518046090293315,-0.11241340876623258
94,-3.4307493365862496,-6.867125898302354,2.472688617043422,0.1995011607846583
95,-3.21669277906846,-6.692684770311277,2.479814067356966,0.497501846683419
96,-2.8487225766008004,-6.534090115215458,2.4812318150229236,0.7927540642038351
97,-2.4589046766420855,-6.3898540282089344,2.4789448355192376,1.0869990545111619
98,-2.2124898652253466,-6.250116377436362,2.4737893884586875,1.3759390897739094
99,-2.031639970862795,-6.119800652579454,2.4774479625829113,1.655090175335083
100,-1.792288081116531,-6.001136168942839,2.5016590963472853,1.914991017766854
101,-1.4975609839720572,-5.870224780422161,2.543846562781681,2.133781013808309
102,-1.190372441834925,-5.6999520675043085,2.5968217883145748,2.304246640353475
103,-0.9782277598217984,-5.484721325170135,2.6593505400820385,2.4091096580394065
104,-0.9550169308394465,-5.229521285975911,2.7304827291222873,2.4691315678460604
105,-0.9802432894143744,-4.939179019534997,2.804584468818605,2.5429729038719295
106,-0.8713495058623478,-4.6243100713107985,2.8760916445591254,2.6541679236469093
107,-0.6934895373027147,-4.306573720686475,2.9442707882930828,2.7916386386414205
108,-0.5699857762702192,-4.005150319080761,3.0076014077581057,2.925627139696211
109,-0.48574793120381393,-3.7197614488943294,3.0578959744729888,3.055260075059327
110,-0.399784696910435,-3.442876751628989,3.085243970562025,3.1872777133716177
111,-0.2867427051333368,-3.1767587893574087,3.0817077009007883,3.3207215013257456
112,-0.12479915984294354,-2.924945721803291,3.0426758799732623,3.453356202873276
113,0.015424345866831848,-2.6821163355015605,2.9719443583394924,3.564092134065384
114,0.05785597452960765,-2.4448644036741323,2.878398917213157,3.6351194937278795
115,0.09562654608124675,-2.2228672461504986,2.766316004705587,3.697634843124145
116,0.24416693461597527,-2.027554731727597,2.641389336688249,3.7795965399846776
117,0.4518385014665218,-1.8599548902172742,2.522461847229876,3.8958292485672548
118,0.6279004968405714,-1.7149720958101065,2.4248827677761757,4.0101187554132665
119,0.7490754078082494,-1.5860309408629654,2.341937463803225,4.096099554192323
120,0.8171708464560895,-1.4620256138378054,2.2571410446751585,4.129893691945547
121,0.8915452458311108,-1.3250546563637053,2.151561837319517,4.121623226312188
122,1.039966537980121,-1.1598537021773523,2.010035750376698,4.096901605144469
123,1.2011308162053478,-0.9628658268308071,1.8395286224008502,4.063336699690122
124,1.292534625829764,-0.7409847749791246,1.6531163435491307,4.020845473433656
125,1.3772387142924771,-0.510032052178736,1.4466225114699542,3.9698418993711395
126,1.538153519625521,-0.2895802554742182,1.2119041558484611,3.905659645236835
127,1.7440514557667461,-0.09950032429752204,0.9441177041474559,3.8222718120233474
128,-20.19353131017126,-24.947878293708538,2.364178184419381,-16.687901967051996
129,-20.79125165537589,-25.90925192559625,2.546870075990146,-16.93982891108877
130,-21.41079687792538,-26.83894490354701,2.7090937438268092,-17.152338309028533
131,-21.967686230358396,-27.72817591116201,2.9216972630976152,-17.323215853321354
132,-22.384720432134117,-28.574131649061684,3.2201943438884744,-17.45011280836294
133,-22.77976498764816,-29.397050632479516,3.591045587568296,-17.55059861272127
134,-23.277293665457965,-30.211690576293385,3.989160578289415,-17.633634946189044
135,-23.78569156201377,-30.987285368056906,4.361533222049183,-17.695087246221544
136,-24.186547192974412,-31.689501283529477,4.6924587741819135,-17.712917741109255
137,-24.482621579215106,-32.31867834541978,4.9846357640677486,-17.669996333989758
138,-24.70510146958065,-32.889762907511184,5.2902336356239745,-17.579148599705242
139,-24.920377545016127,-33.42990236365893,5.693451232909699,-17.47387981505953
140,-25.174028219276163,-33.96199494210332,6.183403809541344,-17.353981217177907
141,-25.330598845665598,-34.470782745452574,6.6101558760489265,-17.154247732842627
142,-25.2561177967588,-34.93025690133757,6.844005053531349,-16.817268547133175
143,-25.05161337213935,-35.33575238363771,6.892661112206843,-16.352242115995022
144,-24.859769420029448,-35.68885258530775,6.889214931716619,-15.819257747352042
145,-24.69140735778397,-35.98905949582601,6.97309991711721,-15.276779098669797
146,-24.527073294407373,-36.2392971893469,7.193741794316673,-14.745535422544389
147,-24.35035052238112,-36.444705077451076,7.530536849007565,-14.233383889761821
148,-24.134917926254587,-36.60807270197411,7.898567046441484,-13.730746753389013
149,-23.913433256888535,-36.729250300491046,8.219485864778617,-13.244109350546397
150,-23.720769553742237,-36.80943741321106,8.440976364496654,-12.78623554664616
151,-23.46512912324282,-36.84550526955174,8.585243304602997,-12.350336925895325
152,-23.074538899075414,-36.84271487071672,8.71523156134422,-11.94210849103321
153,-22.68473613412304,-36.84013890747119,8.932904964706891,-11.57622021378118
154,-22.430224978212674,-36.86701839238462,9.348360006663912,-11.269776494698284
155,-22.258957790331554,-36.89993590428368,9.86938933865878,-10.98771683901112
156,-22.062671533640746,-36.89421540948408,10.169298522321572,-10.63713322035863
157,-21.70853653651904,-36.79730051262958,10.016360119036122,-10.15757658491456
158,-21.111432299724573,-36.574804908244744,9.476197469200049,-9.579798757519239
159,-20.43590657679284,-36.25842650588478,8.794872601007352,-8.994010160168685
160,-19.87573930071472,-35.90171656554845,8.201126303091437,-8.478608660677537
161,-19.34274896369066,-35.52670115899918,7.8476474376862715,-8.05212474461841
162,-18.714815762330662,-35.141828714629426,7.762388681633105,-7.695499205829973
163,-18.090746080961907,-34.75249738048342,7.867855783557245,-7.393978918033718
164,-17.572328693800667,-34.35020620139877,8.027341495077863,-7.1242305911669765
165,-17.114875032838295,-33.9117682162079,8.114793431809376,-6.863007799153552
166,-16.64680776828368,-33.416223055458644,8.049621412318034,-6.587099652597422
167,-16.077980570078026,-32.85755491846137,7.8330586501933075,-6.255672604977816
168,-15.348115997924634,-32.23926353790174,7.519755817776889,-5.835346678431405
169,-14.598671640877399,-31.574826343761533,7.178294783341689,-5.3297017598758245
170,-13.968866321941702,-30.875948729230714,6.870373203444186,-4.755265462858087
171,-13.306321240093109,-30.131773581246755,6.614084344103455,-4.120681983838581
172,-12.437237323286015,-29.32719278480044,6.399645585205032,-3.4351599520705713
173,-11.435481099508166,-28.465204098690716,6.223333134422022,-2.7078046689976056
174,-10.420859195665987,-27.552452770797217,6.064020610612688,-1.9497686418551354
175,-9.442125715829896,-26.586909188217533,5.899351138264795,-1.1788755704112976
176,-8.519441157097134,-25.56726763693503,5.689774353514809,-0.41458880529627234
177,-7.567514364328455,-24.49868885822994,5.417357438260576,0.31700679903246914
178,-6.497062416088483,-23.384313755488748,5.094615183508521,1.0038047991767407
179,-5.409511462475834,-22.220263018610826,4.728182951070441,1.6794267747880605
180,-4.420771444014768,-21.000117192181488,4.307617763068194,2.382940411167262
181,-3.4547510432399404,-19.715811654430635,3.8570504088867543,3.117923526256523
182,-2.41660549081781,-18.36225536653165,3.4388375864909655,3.872845499669878
183,-1.332873731518112,-16.94494611884128,3.0815880568316008,4.627087215723508
184,-0.24845436646998073,-15.473079308015363,2.7466077007991725,5.362186944294925
185,0.8000522664833972,-13.952213658955953,2.365944565278917,6.088532352313598
186,1.7931545696339624,-12.3863121751401,1.9092195911030312,6.815838222081463
187,2.8247754062931376,-10.776777536046446,1.4001953737311974,7.566089794171404
188,3.9973407392111704,-9.148716299073751,0.8900255056025678,8.324431657608923
189,5.158946132049676,-7.5580208764971495,0.4405994207068445,9.05987869375855
190,6.173881447983372,-6.0259365131527165,0.06935344193880207,9.745501004017425
191,7.158595985750148,-4.545430523667879,-0.2745301913151417,10.408894471547613
192,8.27109704650579,-3.080336215588349,-0.6600597806654116,11.085531488687746
193,9.517246696141223,-1.603795027134083,-1.1241918334020335,11.76517880262178
194,10.843333866125993,-0.10285371700116822,-1.6989691628689587,12.435250236575039
195,12.121271457885134,1.4125777656904377,-2.419255643752702,13.052500164693251
196,13.369394025494167,3.0817623856398266,-3.314226918979857,13.71566327213007
197,14.594437008683983,4.758982875431267,-4.240197208408611,14.327248803296843
198,15.994411611429047,6.464793216453156,-5.210126555510448,14.92330462595136
199,17.527696797546263,8.1818471772722,-6.241809920882359,15.57577405492121
200,19.072845538388417,9.875816514025308,-7.318550006492422,16.325358620324373
201,20.58268878226371,11.52052196915745,-8.391682747916205,17.141426131111217
202,22.015586039828992,13.090569732924195,-9.369070980119378,17.91815371841777
203,23.34094783659699,14.55737354151438,-10.18508641754706,18.566466366524
204,24.546055712876942,15.902617947503066,-10.849495822060437,19.05056134964472
205,25.562814018145033,17.12647216421004,-11.410764806735035,19.347077450325617
206,26.329111619758695,18.238973704811166,-11.91256227901629,19.46674781115809
207,26.9118544306349,19.25708460129807,-12.402039964533582,19.451599813398108
208,27.390430401729997,20.19317640318589,-12.933261253617493,19.336994056834598
209,27.69994055818069,21.033382379817336,-13.506952319355689,19.09790752744143
210,27.751614477504486,21.756100635301657,-14.068861579672374,18.7065447617408
211,27.549689788382377,22.358151889366976,-14.553393596882167,18.147733660713822
212,27.135988430633653,22.84511625687734,-14.939399260344675,17.464640890379474
213,26.58959349113281,23.22249193045613,-15.258659375876052,16.72368650238298
214,25.994424182294317,23.499395455819563,-15.609155954599805,15.993586302069719
215,25.325511390550666,23.6919527172159,-16.064798548094714,15.28383514891639
216,24.53550003482201,23.813742376100095,-16.551470620553605,14.569655214623499
217,23.70758326289336,23.85706568452918,-16.875842590544345,13.817088189605187
218,22.936384948485138,23.814661426992533,-16.94887651408079,12.998806679524632
219,22.18318137138468,23.713294886667025,-16.841591386725824,12.131167384940868
220,21.387019681270896,23.585142599125053,-16.692301626973567,11.254171976027083
221,20.552680418174592,23.43541136502031,-16.605919383835385,10.400056382853295
222,19.708686915487743,23.25688568202068,-16.593392342659435,9.591187932507545
223,18.936220416269776,23.039591217195227,-16.588409687367324,8.83139951895993
224,18.305878653768435,22.770598292591238,-16.53377743548658,8.108026275554147
225,17.725306927632747,22.442945416675734,-16.40453888114155,7.3964597206256215
226,17.07272105918994,22.060620191193795,-16.20577384749083,6.676730313295911
227,16.388059154655252,21.634537283699956,-15.924453249277834,5.96100021086427
228,15.752966413596404,21.187505476177215,-15.558599079533248,5.274836371678706
229,15.176773533339892,20.766649788232268,-15.137248856371812,4.630700859030183
230,14.655082086546328,20.415575741409484,-14.700631618753752,4.038819104869333
231,14.163706143431568,20.13902179336451,-14.292977018289873,3.5092301668443824
232,13.672827252328695,19.919074823945596,-13.947803742879545,3.0505336308462865
233,13.256357820355825,19.732586388869407,-13.663717469496643,2.6850907708568594
234,12.984665743822713,19.551983202754307,-13.41564739053719,2.4285644514551894
235,12.723372728111435,19.355130982697183,-13.170951978985975,2.2574535093007997
236,12.320798051806486,19.130034137152396,-12.897439079700844,2.1351193602301994
237,11.849969450094743,18.871429174822744,-12.573293515277298,2.0414690741320265
238,11.438196141145282,18.58220799616894,-12.193465680029353,1.9640390641469545
239,11.121193067243313,18.279980344368205,-11.78530217077826,1.8963480238788963
240,10.89603584021275,17.98052438365188,-11.379026231467144,1.8391689010156513
241,10.667219886257989,17.672983644655705,-10.992599448810045,1.7892289849928473
242,10.328717758218122,17.33938105858356,-10.627870627249802,1.7432247569649892
243,9.981933238431212,16.97927650136509,-10.315027039127958,1.7130082628210117
244,9.760169649995689,16.599402594854002,-10.108606821049616,1.7079340352754657
245,9.556250748706479,16.205592694813422,-10.013930895293893,1.70564344406802
246,9.228418250885975,15.806120799995782,-9.945994516831144,1.6809147327431915
247,8.828942856100353,15.411889905285006,-9.777111687593049,1.643955787637005
248,8.451446554444228,15.029105155903565,-9.434560507952712,1.614484237935428
249,8.131675835788052,14.652198879780682,-8.950100400135408,1.5962980110274692
250,7.883619194674545,14.272519037093952,-8.418160095726316,1.5898137958314658
251,7.626866466746795,13.88241718600918,-7.911749058867824,1.5916609764788676
252,7.274511383319777,13.479280809546783,-7.477998670527123,1.5977652406491827
253,6.9373391018033885,13.085058172984127,-7.117913730864132,1.6250737795656633
254,6.753137411658705,12.71938163987889,-6.797101843097255,1.684109243405632
255,6.647545392183508,12.355359414923523,-6.465628554788819,1.7727822747260442
256,-1.5225305527232178,-11.650203306869896,-5.591211117346423,-2.317825808521267
257,-1.5216074920284983,-11.970138041784102,-6.124293587233447,-2.3212434453062265
258,-1.5470715457865458,-12.330535569061151,-6.573620345547163,-2.364451857282962
259,-1.5222772071676252,-12.715344686811557,-6.992634193731927,-2.4637483535712663
260,-1.4027137381793442,-13.120646956283881,-7.461472788030745,-2.6299636851339057
261,-1.3407263596226184,-13.565064805139256,-7.93367822521054,-2.890043041554301
262,-1.4868023856822306,-14.04354935316162,-8.331573863764442,-3.2579490881223743
263,-1.7146984444142617,-14.521028075485777,-8.591226398723334,-3.6878338614930883
264,-1.853494696154942,-14.973874995957628,-8.675884389038172,-4.116302308072877
265,-1.9247401307497625,-15.385334535146525,-8.703549490885456,-4.511235655513196
266,-1.9771816295576274,-15.750535232119034,-8.749388709850967,-4.852650394195605
267,-1.9742628593933882,-16.07709180980707,-8.78768158519546,-5.1065540893169254
268,-1.893299470724795,-16.375895730161083,-8.680568326134734,-5.265824999402693
269,-1.7419276396591488,-16.649343465969817,-8.452841067735713,-5.397158768078092
270,-1.5472007737161422,-16.895572165241497,-8.36413264964471,-5.56971821685565
271,-1.4302893571790452,-17.111876481573542,-8.473352567593532,-5.784282424628768
272,-1.484310734446598,-17.29951419525527,-8.792416772143818,-6.0146046332831204
273,-1.5896311655233781,-17.46529653548291,-9.245347958153813,-6.234157677441394
274,-1.6075083331430222,-17.630033696916875,-9.69788592518941,-6.420031952793276
275,-1.5736658800060777,-17.812911874745037,-10.046366803813186,-6.572984947434855
276,-1.5664773066002702,-18.039682376705233,-10.237381872754062,-6.709684520989973
277,-1.6534654560167925,-18.30923338974736,-10.29069375479293,-6.857452316174687
278,-1.8655131135766851,-18.58248085775669,-10.27125863644287,-7.031579222901636
279,-2.0706391396937027,-18.816039047237737,-10.23637119264958,-7.204322905934349
280,-2.1277550102806626,-18.978181344171468,-10.229070744363502,-7.34158277159954
281,-2.0858134188630704,-19.078555990635238,-10.28041951921947,-7.421603236820914
282,-2.0457402959741287,-19.150642449929602,-10.381002348023008,-7.449992356633802
283,-2.0483345242332622,-19.21302240666738,-10.462701366865486,-7.511380214010215
284,-2.10854894074277,-19.262109155822113,-10.492155139310997,-7.65442685494686
285,-2.200066434442131,-19.323143161601976,-10.300772914096731,-7.9061569557899025
286,-2.26468460574225,-19.454926339398945,-9.912590127183027,-8.18027630376835
287,-2.2576617008359956,-19.642678241462864,-9.567826096566488,-8.320593078678264
288,-2.1633876953453024,-19.7648304313591,-9.41272070838846,-8.292061844684582
289,-1.970601731644403,-19.7115465753627,-9.452985995578464,-8.20136291839688
290,-1.7151776993020833,-19.485441955693922,-9.688815393870332,-8.129398185027673
291,-1.58780202631635,-19.158434552815077,-10.109690599084914,-8.121872015426057
292,-1.7331975213507913,-18.80946124826676,-10.538158878662337,-8.153223898461405
293,-1.995177541752044,-18.47374992363422,-10.670072387526359,-8.168636326998222
294,-2.16350445614057,-18.07885489671891,-10.511241691735766,-8.078928481266754
295,-2.2020204864802984,-17.43799051921905,-10.407300137823647,-7.883313184032763
296,-2.139526045917837,-16.411372696026614,-10.545956229362258,-7.680822395438916
297,-2.059990039427879,-15.024850381120544,-10.827299935252494,-7.520234074208784
298,-2.0454831413867085,-13.3513232633929,-11.019284578506449,-7.366358288393479
299,-2.016203118660536,-11.423248310405235,-11.068986431533927,-7.190365812563808
300,-1.8651647121681985,-9.340352367597374,-10.90609367483016,-7.01380569265424
301,-1.6265761784025288,-7.24747292977991,-10.479415687668457,-6.814144337136343
302,-1.3621983795635777,-5.2085134475744175,-9.711827143989144,-6.5788549111161
303,-1.0751906511251854,-3.1942242801623864,-8.706901535117504,-6.283565561825515
304,-0.7625665699748232,-1.148839374566034,-7.766764203619097,-5.9070439757351005
305,-0.4213022882088975,0.970850204024504,-7.118592550696641,-5.483974089370619
306,-0.03446546213608492,3.2997093869827463,-6.748712685372812,-5.026485381757661
307,0.38847346243103587,6.088422731169755,-6.55081110382241,-4.507880764903712
308,0.841818500905575,9.489634054914834,-6.391723734896602,-3.8429612622520923
309,1.4197218518983914,13.41912202055752,-6.266886608039791,-3.057468353027105
310,2.1743504904703492,17.66476447997823,-6.235841101947038,-2.2074973570953675
311,2.9218237948833115,22.05258274569543,-6.169683884863176,-1.3670898065913872
312,3.4683597080219313,26.4404018153835,-5.751398833732803,-0.6038096471414074
313,3.8192979363273096,30.705065620167517,-5.172595173890903,0.08058313387898908
314,4.040835401971012,34.78098086772383,-5.16489901237139,0.6955685989563862
315,4.241828810989236,38.58347780254269,-5.9322832462857935,1.2326624533298425
316,4.474499886742405,41.892477979163864,-6.91780220234934,1.6549173345853996
317,4.421110463106937,44.42635724134008,-7.507079766822696,1.7892460266959174
318,3.798837020433357,46.016494626614424,-7.6095539287568625,1.539286040777813
319,2.8367628671242615,46.65654406829138,-7.519463016634505,1.0023916885612223
320,1.8972695027178346,46.40433350536128,-7.587521182422665,0.40325718814859535
321,1.1103932206715768,45.34910296937464,-7.668956760979791,-0.05671519857630558
322,0.48308487551743273,43.553183970311395,-7.297059448403973,-0.38900657304885455
323,-0.12400713938785879,41.041939851405786,-6.444087683246354,-0.7473385246303892
324,-2.278045943987018,29.51656168404949,-6.484316612649188,-2.6331698416078417
325,-4.395555810782256,18.218234957135735,-6.351133365886242,-4.5242547215235955
326,-6.354689522464325,7.157151599198289,-6.160310681926439,-6.339472239220447
327,-8.253342554153138,-3.6653924640872777,-6.044913627430398,-8.053156827531947
328,-10.221533334647544,-14.250997858609928,-6.104904666438779,-9.675353022391613
329,-12.173501664043425,-24.59702446498936,-6.349689405977436,-11.23369287982378
330,-13.992112943498661,-34.705330708508875,-6.711983513134128,-12.764435465721471
331,-15.691661092725237,-44.59372379870992,-7.027969569770308,-14.273748887751728
332,-17.32325840546337,-54.2786327670283,-7.150907794769429,-15.753211600141544
333,-18.980249170264706,-63.75542190410874,-7.155973620579915,-17.215058876535966
334,-20.734317686544372,-73.00773029128737,-7.184671173623397,-18.667254031965
335,-22.43425745648368,-82.01533761068247,-7.226015553679099,-20.085447564331485
336,-23.89638376743433,-90.75823158866164,-7.233567566584163,-21.439432928040528
337,-25.197868253799403,-99.22466292622464,-7.225070723786071,-22.718606455042746
338,-26.47951586607822,-107.41304105311629,-7.226519454730709,-23.918347531902103
339,-27.73798065570764,-115.33488924980624,-7.262998893980962,-25.034662859602857
340,-28.936199557723985,-123.00540021435442,-7.364087006204994,-26.066503223745265
341,-30.037731496583895,-130.42883702013086,-7.545393451341591,-27.002776741515156
342,-31.010002236453364,-137.60564665382867,-7.800209970689347,-27.840631266170202
343,-31.932746102339504,-144.53831081879196,-8.094870118046817,-28.613201359044258
344,-32.905060072340206,-151.23214420475134,-8.387270295206823,-29.36574182968089
345,-33.86890194871289,-157.70299376196087,-8.636164413300923,-30.13246604980152
346,-34.74064628101111,-163.96737612650944,-8.82112348824644,-30.93241127749978
347,-35.58059498636096,-170.02894400054947,-8.989977572071698,-31.758068306281277
348,-36.46913278379665,-175.8831733502877,-9.193501672908576,-32.583969754051296
349,-37.396533125721064,-181.519137414245,-9.398172935491448,-33.37974944701955
350,-38.328583448752816,-186.9249232606584,-9.534079621939947,-34.122315928742786
351,-39.21280620349885,-192.09904194085348,-9.537513659666848,-34.81233738009725
352,-40.00200079347531,-197.045344002399,-9.3671320348331,-35.465844572242986
353,-40.7644190938027,-201.76570654730696,-9.037667814877166,-36.10363453114391
354,-41.5786213009532,-206.26091599032497,-8.618397304821965,-36.74053154151975
355,-42.353576088435176,-210.53192534328795,-8.221970387302374,-37.37180657433165
356,-42.972607444928336,-214.57824273146826,-7.958526386752752,-37.97915593368943
357,-43.46223198810435,-218.39100882372782,-7.893978822813006,-38.53141215815408
358,-43.89035581625766,-221.9719569848748,-8.025926981725094,-39.00722357615602
359,-44.295689742650445,-225.3265464662264,-8.246156465483233,-39.42846778778987
360,-44.70303305537621,-228.47839229398434,-8.4253962921236,-39.83376620681671
361,-45.08101235391577,-231.45510249348914,-8.481592264513374,-40.25488436443553
362,-45.37692065259728,-234.24798562157278,-8.404124069480526,-40.70501791381459
363,-45.5904655838916,-236.83090237952143,-8.368321784556045,-41.14758978517335
364,-45.741119535700676,-239.17162302222852,-8.506885316468296,-41.53006006916879
365,-45.83359446999558,-241.2695214200137,-8.802040531181381,-41.828558858645174
366,-45.87275972608481,-243.13742122604762,-9.006205855272704,-42.03703761806879
367,-45.863694331220316,-244.78744539484066,-8.998473207715497,-42.18154340233678
368,-45.80546343544122,-246.2163885973752,-8.741394527596665,-42.29086955973227
369,-45.69937583538671,-247.41361494981592,-8.430257213196304,-42.32655859421263
370,-45.55202585909986,-248.34813454298308,-8.32378878151,-42.26665046261216
371,-45.350407823524485,-248.98151462764324,-8.501565274686167,-42.10017220579491
372,-45.09191324163612,-249.32674112999894,-8.904471446965196,-41.912921118971134
373,-44.870527007263945,-249.45478160557533,-9.299433666575963,-41.77967616656835
374,-44.767863894187755,-249.42515211518867,-9.432141735982585,-41.76089385505629
375,-44.67976424681022,-249.23272732386005,-9.304341085756807,-41.8167167748154
376,-44.47040523189972,-248.84716784350027,-9.037908615962332,-41.86689579615372
377,-44.14389861104052,-248.21773524401763,-8.73114691962298,-41.88563329836741
378,-43.75154967701539,-247.32117032980284,-8.460783784439776,-41.86200320736104
379,-43.37239034414998,-246.1669994471164,-8.179017744351302,-41.77402218191126
380,-43.06403858806951,-244.75374926006273,-7.800261873383373,-41.602260308668164
381,-42.678986525499,-243.05563115616724,-7.362161355136727,-41.30709385667075
382,-42.045639479622565,-241.06870782898557,-6.943654099786336,-40.85719381050917
383,-41.26517882321764,-238.82176753755726,-6.62240140016007,-40.28229876244154
384,-40.58890419961542,-393.27892570508914,-9.604679688513396,-61.388211374823555
385,-42.40933370564332,-404.2747135043445,-9.984529544155517,-62.6254916147625
386,-44.22329492798265,-415.0163333526661,-10.27199118903786,-63.76977933677977
387,-46.00894727101585,-425.48929688198564,-10.509191988062259,-64.82730837300224
388,-47.75193042519949,-435.67940615835727,-10.749663188133065,-65.85741469142367
389,-49.56572042660799,-445.5732505681386,-11.05606594390478,-66.91003371540002
390,-51.54252013973332,-455.15816432846805,-11.461323589564067,-67.95362403751093
391,-53.522428372762974,-464.45400156485954,-11.937925498509845,-68.94365153192348
392,-55.31658537501487,-473.5883808350092,-12.42960098133975,-69.82091857984935
393,-56.947781372898106,-482.81206572853574,-12.890202640264578,-70.58134748536058
394,-58.46703854956315,-492.394626622314,-13.27639699741933,-71.20697030565837
395,-59.83063907844651,-502.49188721782605,-13.534835761704331,-71.67763417983883
396,-60.983640645803256,-513.1150976464735,-13.636617941056725,-71.92120441827316
397,-61.829127896814654,-524.2839020688598,-13.615944734844545,-71.85407447699637
398,-62.31030460479819,-536.2011419053597,-13.517057319713562,-71.49205050404632
399,-62.605516864230225,-549.2377468218764,-13.34985821011042,-70.89479073573081
400,-62.910630354067436,-563.857925655269,-13.116477148412313,-70.15140522531351
401,-63.15115654666623,-580.4267106995677,-12.797297724796637,-69.29287091840855
402,-63.22537100818865,-598.6960538604607,-12.416600691119525,-68.33865347151058
403,-63.236027286456284,-617.5725901543112,-12.062890768375901,-67.35765386283099
404,-63.29674478450812,-635.6391958550455,-11.8695788238096,-66.40112958252477
405,-63.43855286232634,-651.7817348818718,-11.903226634786584,-65.45513429966759
406,-63.643522672458225,-665.3944805336948,-12.097968831617111,-64.47801724737796
407,-63.73412898505921,-676.2889392737777,-12.378463523927843,-63.40240676304298
408,-63.5548457131513,-684.5150275291118,-12.645440653471603,-62.17529355272247
409,-63.274731450664895,-690.2127515920113,-12.83411655388534,-60.833070481171696
410,-63.08755186128371,-693.5262853579032,-12.913668643294333,-59.4257955658628
411,-62.88808846214184,-694.5706713101363,-12.893368065135153,-57.9379887585695
412,-62.51817886095316,-693.4293925088408,-12.7820331131897,-56.33869377536771
413,-61.9252004518133,-690.1641544174349,-12.604589340380157,-54.590153848678376
414,-61.11178853651184,-684.8257909529104,-12.36707522365833,-52.68280940126415
415,-60.2125418919088,-677.4618235072666,-12.143382725414261,-50.714428558472335
416,-59.38112478610393,-668.1201804472826,-12.093832476367208,-48.77727131232528
417,-58.58459006849835,-656.8502200893518,-12.306347499752198,-46.94547680993555
418,-57.74006776262824,-643.7024083333854,-12.736833054167738,-45.18234787579174
419,-56.880721853246015,-628.7276127575772,-13.284566745793754,-43.39666936992393
420,-56.01728549520882,-611.9764997550068,-13.800646941616009,-41.53540244381255
421,-55.028590538201044,-593.4991784495386,-14.18199958883311,-39.515770252814384
422,-53.79066068290115,-573.3450592246452,-14.3613010728291,-37.28432084760901
423,-52.242655786410744,-551.5628409901191,-14.278937488477903,-34.81833665211542
424,-50.37677843253737,-528.2005513025916,-13.921284658623033,-32.12326219145516
425,-48.31123485352764,-503.3055924079447,-13.341030487821103,-29.247668956258543
426,-46.162816163661006,-476.92477594447627,-12.612381299114082,-26.238564950435222
427,-43.84252210559139,-449.10434061083663,-11.804417864668238,-23.082783699274113
428,-41.2356134536626,-419.8899601399788,-10.951719412633544,-19.75159011065374
429,-38.40789649075716,-389.3267440581659,-10.020932990233485,-16.24198080491534
430,-35.4473046544711,-357.4592393375033,-8.949716470246557,-12.561970406821175
431,-32.341190580642525,-324.3314294535242,-7.673855503535046,-8.735423543615646
432,-29.073318535429745,-289.98673613267454,-6.174772931940594,-4.790924112461422
433,-25.646495159859814,-254.4680222041781,-4.542142646994087,-0.7360131234957379
434,-22.08172353401992,-217.8175939609639,-2.9054646464487983,3.4271068625220993
435,-18.500676940573427,-180.07720461803524,-1.3708042377502234,7.685970630699438
436,-15.010488580370259,-141.28805746694871,0.0038729745441546393,12.023495265806762
437,-11.52019299443345,-101.49080909607554,1.258736920081126,16.41942371397534
438,-7.917390636055962,-60.725572653860475,2.4779714955055825,20.852140347569858
439,-4.272466792334479,-19.031921003663896,3.724260600041224,25.30084261354686
440,-0.6654772637396408,23.551110107163467,5.038232201324037,29.75716764688303
441,2.950394067231425,66.98501877856381,6.413712511190912,34.23621946340741
442,6.643685617229623,111.23183446077547,7.8289269089278966,38.76440702021272
443,10.49118838511627,156.25411211165573,9.302960432205767,43.371496921357476
444,14.538941843511394,200.90192901753147,10.87413961986175,47.89436012261105
445,18.651549121190616,242.81562173611408,12.571866296423233,51.91403730801265
446,22.696712846586074,280.9621664188614,14.246805337604762,55.19219223966995
447,26.80783685374758,316.1830907847825,15.540534342505975,57.844636905534635
448,31.13946310013764,349.70801727965335,16.348450251374757,60.097070189125226
449,35.61050404484134,382.4734675273977,16.9506322167864,62.12319383746374
450,40.10381816106642,414.9732596980181,17.762849933163103,63.99999818166831
451,44.600021848134865,447.3568249663944,18.971226469595976,65.79054158974782
452,49.601050638891785,488.14398641391995,20.479290188432813,68.16141288802133
453,54.57802542386117,527.7321818636535,21.89103236024261,70.65136802844495
454,59.53077388207984,566.0473242483234,23.035443204961318,73.24281979070146
455,64.40074898679755,603.04137228525,23.819924797275593,75.8532183044072
456,69.05354491555016,638.6925546600031,24.319386624933014,78.41442402767034
457,73.12050142134332,672.9964333508815,24.849031667395096,80.78127022715957
458,76.30283509077195,705.9566742743901,25.71726290474973,82.71760909392368
459,78.82231449584336,737.5788929505467,27.02863418385205,84.24015140208795
460,81.08262693956016,767.867755010495,28.66236306682571,85.6913625713696
461,83.3111914874469,796.8262750229239,30.433538936035827,87.33216847981785
462,85.61773464812178,824.4561666063399,32.19226981088914,89.16043294689945
463,87.90317652021648,850.7584567750511,33.8807054598818,90.95162664050054
464,89.9777268392294,875.7339882226514,35.428750273058384,92.39023921190832
465,91.82769030075713,899.3837024031839,36.70841995231032,93.44814884736236
466,93.51560347440486,921.7087464122407,37.554806808791604,94.42433478169768
467,95.08770935812944,942.7104764171122,37.839046468902986,95.52426897154591
468,96.57799476768152,962.390420212169,37.80512837683111,96.65836474516328
469,97.92456733702008,980.75024067783,38.05933825385478,97.59010984491816
470,99.0376401557748,997.7917040172675,38.899511899519055,98.18042734919982
471,99.89945677056014,1013.5166693535997,40.14451422170589,98.42051963571824
472,100.54026789126648,1027.9270819162207,41.48202134239128,98.42538935086655
473,101.06419603280784,1041.0249729083816,42.698934648587226,98.28334879998943
474,101.5732366587921,1052.812459207483,43.68077982238773,98.07142095438468
475,102.01145052487941,1063.2917444604693,44.40864628899435,97.8348086376401
476,102.26890978968669,1072.4651183654282,44.95648554610364,97.55521767198714
477,102.33321098312238,1080.3349547078215,45.416090554413486,97.2603777669965
478,102.20463147683886,1086.903710145381,45.85084777562165,96.89484742750194
479,101.82460401646824,1092.1739220430863,46.24604462748886,96.3326259516057
480,101.14312217173979,1096.1482066073936,46.5379371115922,95.45581566927872
481,100.13685298642334,1098.8292570273582,46.654339049862074,94.29126936350896
482,98.82506862664313,1100.2198416609192,46.58156415808658,92.93066434652881
483,97.3354583745265,1100.322802329676,46.27567303451691,91.43586355030853
484,95.81691273940984,1099.1410526028326,45.81338701242792,89.85882287264026
485,94.32175874373934,1096.67757613379,45.411960634484366,88.24862541288037
486,92.84879317039196,1092.9354250017768,45.150615685489925,86.6260842367193
487,91.36857722286385,1087.9177180695115,44.89532119976293,84.95118404836806
488,89.83589639659878,1081.6276393588578,44.49515165991874,83.1861113397917
489,88.26363965394113,1074.0684364391252,43.893202813560244,81.39373804492843
490,86.67970112741794,1065.2434188350219,43.11803466419275,79.6394431481554
491,85.02367856522287,1055.1559564510642,42.30367057304611,77.95797478132059
492,83.23832304339962,1043.8094780151168,41.585093275401675,76.29443209744895
493,81.40329419639902,1031.2074695355564,41.00254181495494,74.61210678988157
494,79.61433709284361,1017.3534727779329,40.483478840815586,72.87031978185
495,77.84440566566582,1002.2510837928647,39.91257014983335,71.03693047283463
496,76.03735774248429,985.9039513785766,39.22973581860542,69.13718867115621
497,74.16542040232798,968.3157756099379,38.44837620207298,67.20717055210572
498,72.21552089063275,949.4903064252156,37.597505305963224,65.33435255802134
499,70.2765109734646,929.4313421153661,36.7193831386942,63.58889441950496
500,68.4304330488865,908.1427287022299,35.9102655197472,61.92868962032287
501,66.51852254077437,885.6283558659327,35.21286822990771,60.23196846629709
502,64.35758353688729,861.8921598806556,34.624447114729065,58.426161123134506
503,62.045872882995006,836.9381185197535,34.044464175934294,56.52545413575762
504,59.75018808339125,810.7702511094261,33.35092638298404,54.59466311490658
505,57.48712699941335,783.3926174353903,32.51954311473817,52.632248921413876
506,55.24374938348615,754.8093161132264,31.58135656346422,50.6535310717727
507,53.01098328057866,725.0244832096292,30.56978160951381,48.66899404279901
508,50.785081572378964,694.0422910916245,29.537181305730044,46.748116655775775
509,48.69953686307173,661.8674902887568,28.555035106597316,44.96116533269491
510,46.886022630668485,628.5054556874067,27.674135165187177,43.30007495222716
511,45.22143448256908,593.9968163313223,26.886813350087525,41.738961164331194
512,15.65358590353289,236.53117612880513,3.0523061237237212,11.705296681376598
513,16.2136766536929,238.86497210288974,2.979614610460438,12.01815376845355
514,16.73664210841802,240.92742018612205,2.76820086912965,12.36443468186557
515,17.197896469297067,242.72502913203678,2.490925001896227,12.727127069772921
516,17.5611007830641,244.252945054647,2.2523239649207487,13.065066070653687
517,17.762590026711337,245.49915093272134,2.1482787144796087,13.338192066568936
518,17.771466630519487,246.44997290843762,2.217728523122996,13.519741087309116
519,17.703704128307468,247.09455232932035,2.3435530683254298,13.629310775694133
520,17.683231693498723,247.42122833385764,2.3748363379911948,13.707086685851564
521,17.6620784033071,247.41714528657192,2.265576648009919,13.771008506302595
522,17.570071344342995,247.08466477147527,2.0296542098448804,13.843428327546782
523,17.456245830903086,246.44619093020168,1.7241868181265771,13.937140326169503
524,17.379054995737715,245.53407726018884,1.428502991037382,14.0736737037618
525,17.35976579392485,244.37892473353287,1.1879954413282945,14.245308256008665
526,17.398487832769874,242.99721387761957,1.015871916088157,14.411448032645993
527,17.400465995431183,241.38430269742295,0.8991128156213658,14.555672739693533
528,17.28644471116402,239.51908251654746,0.8070507178594986,14.702311529171906
529,17.180741639820667,237.37889464429637,0.7174918515027903,14.87267573431058
530,17.218176900009745,234.9533868376345,0.6190720723673524,15.04930004524642
531,17.32312976692499,232.2554175282655,0.4944223825218182,15.200645886837481
532,17.389561621735364,229.31154697418947,0.34647819755599296,15.294626889051248
533,17.419027036729364,226.13024605771764,0.23860787701179975,15.347322242832144
534,17.43536651855337,222.71070708526773,0.21843633740291168,15.388894747912524
535,17.49444753751894,219.06770227577442,0.2497283390843363,15.437727092612464
536,17.635904259140606,215.20333668881133,0.25708908462649177,15.496911733225954
537,17.73276334181228,211.08781368197486,0.1364842853103438,15.528077169475889
538,17.658340097093824,206.69021118721852,-0.18245794787452718,15.495707562679373
539,17.516659201476045,202.00248111788812,-0.6356794575770439,15.38723850966924
540,17.43255900421763,197.02404896976407,-1.1077702895948423,15.232575203726451
541,17.34478503430471,191.7409454248653,-1.537381826997882,15.042409170010666
542,17.16748621603592,186.12794664023204,-1.8798991633127946,14.827220298539082
543,16.882730708910795,180.16702111924337,-2.075610645779512,14.585621313953405
544,16.499305703259424,173.8655920834549,-2.1148050438005983,14.311981232184086
545,16.11248863292552,167.26250567364832,-2.074130927675564,14.014698865739604
546,15.809750996724805,160.4044757943587,-2.059388091392193,13.705837926114313
547,15.49012885737029,153.3096326542495,-2.182056311532798,13.391995754105752
548,15.037979746191535,145.97139630405297,-2.4992465771646324,13.076225985971561
549,14.532963345565614,138.3772128602905,-2.9305739185551736,12.756726994960243
550,14.07446756813782,130.51145418490302,-3.348559625784432,12.428571933083868
551,13.631493879522367,122.36410136563315,-3.666230524695326,12.083475038814548
552,13.1561247127416,113.93093476931286,-3.8515121895457938,11.718645656084481
553,12.622672670165759,105.2041347517082,-3.96236402560939,11.348228487678178
554,12.021913322222494,96.17885981397824,-4.099653970090574,10.986841862072412
555,11.448750628749307,86.86759639371226,-4.360850013835083,10.637153580325212
556,10.985224980229821,77.29508742042026,-4.793395531056782,10.288942514508673
557,10.51049908673382,67.47370497928355,-5.3150966169113705,9.909421877249306
558,9.891487257705576,57.39594512976801,-5.810094916742234,9.465211782731163
559,9.191731240042454,47.04765630349429,-6.245296562520893,8.950598749427686
560,8.506441120374623,36.40348562076191,-6.621132133433219,8.37375065576552
561,7.845132526332805,25.431071280573192,-6.948150531711747,7.745022726234799
562,7.195921767230341,14.125914820750104,-7.248359867094006,7.079164279401075
563,6.498692237763551,2.514949403569924,-7.5088090241882215,6.387332955744661
564,5.7020358166483724,-9.376811567459304,-7.713241650666067,5.677757660603013
565,4.9104436826331925,-21.53840432890335,-7.911604014984982,4.966304627501234
566,4.231059660398196,-33.965455352229185,-8.147046323990619,4.261213024020851
567,3.5711392393253423,-46.65926581376673,-8.362496747312798,3.5438232919571533
568,2.822902732289857,-59.62020762847402,-8.507653869751183,2.7936751580715744
569,2.032159845624186,-72.83372220783056,-8.63242077995635,2.0095933910376975
570,1.2681771686628667,-86.27965442888309,-8.810865547354561,1.2004004917729532
571,0.5732214405065787,-99.96060125029022,-9.120844730856103,0.38839658674413
572,-0.023614018788857577,-112.82206566908091,-9.600539788791467,-0.34702238744510666
573,-0.5785185866865332,-122.6270740179118,-10.070852820591625,-0.896205066541063
574,-1.143912743352098,-128.438498417742,-10.348128926070736,-1.2434456533199134
575,-1.5957606194197118,-131.2178619239941,-10.366633957076017,-1.4648870606355442
576,-1.817506892839834,-132.35720208501652,-10.15632582302119,-1.629578148875621
577,-1.8962455058869374,-132.92911124067,-9.906986588961072,-1.8127387581888657
578,-1.9651523668647375,-133.51452132238245,-9.822174472991833,-2.0407907502578158
579,-2.067514586335762,-134.3123634929203,-9.903936646228496,-2.331874780844753
580,-2.5155920487667607,-137.2976120278792,-10.043496451117226,-2.7819249658296625
581,-2.937470934356141,-140.19740975534364,-10.274716336348606,-3.2533042134849803
582,-3.2824870874854652,-142.9216537091819,-10.57607576462076,-3.7439600664656925
583,-3.618066433821555,-145.4130352274325,-10.962395112042746,-4.236329657106044
584,-4.02508907247065,-147.6696085534693,-11.43188018237167,-4.710697663721546
585,-4.40511155079323,-149.72751333984638,-11.855671144301947,-5.140197208728532
586,-4.6432700387329895,-151.61818769391098,-12.097212526853857,-5.513317309733977
587,-4.801307243748995,-153.34843296529752,-12.162210217469015,-5.875067246300886
588,-4.985693820286899,-154.91828228516758,-12.123439282690022,-6.282918202002172
589,-5.26421948486122,-156.3542971212481,-12.03303060581554,-6.758907558266901
590,-5.667617908520998,-157.68319000641705,-11.952750895987618,-7.297239159055641
591,-6.081382432532552,-158.87591157173878,-11.992549523907437,-7.851106718622469
592,-6.366592957690777,-159.87059045699618,-12.212581181798514,-8.362484294275543
593,-6.594296228131289,-160.65423846331964,-12.508193415078432,-8.822129629518605
594,-6.880845698934571,-161.27568271007001,-12.72902334154316,-9.231678407699384
595,-7.167302940795409,-161.77092737095222,-12.794898873725334,-9.601410204462182
596,-7.370158766294256,-162.1314040049574,-12.693704995146417,-9.921214100041265
597,-7.514774520637613,-162.33655934114663,-12.532012332279146,-10.171302119598549
598,-7.6459256519237275,-162.38077200023037,-12.451986109246029,-10.361275517460221
599,-7.810857878701166,-162.26893825156267,-12.495631240953504,-10.504749997395379
600,-8.042699327390244,-162.0117389988968,-12.639609017353685,-10.621189540113978
601,-8.236812483660836,-161.63549915795343,-12.820904440496527,-10.706348241794833
602,-8.28033078160294,-161.1633693542358,-12.959683011209973,-10.752785537797605
603,-8.289436471350658,-160.5972661745662,-13.02494200809493,-10.780959071193188
604,-8.414333844098683,-159.9229450115891,-13.023859867025942,-10.81551112890617
605,-8.585568683355113,-159.1194729294925,-12.97697066654334,-10.864077688028207
606,-8.689027098534623,-158.1791852725899,-12.916042097690447,-10.923869024634909
607,-8.71737782137175,-157.11577450952913,-12.870304794997306,-10.979152950056974
608,-8.695020225384837,-155.95248484284295,-12.852937347806307,-11.011868159925124
609,-8.698114903099238,-154.70761745688404,-12.851650619450082,-11.016707709189424
610,-8.800214821171785,-153.3944635450217,-12.84303222958463,-11.001845160235854
611,-8.898476803730244,-152.02682131340504,-12.806434771588531,-10.99428573411912
612,-8.861022796374806,-150.61728961177946,-12.733810426419454,-11.021810544213489
613,-8.763675584527597,-149.17977184334848,-12.650578389861248,-11.08829351815804
614,-8.71734359233597,-147.71600710498868,-12.591715721361936,-11.178740415028573
615,-8.672184350194469,-146.2010206699573,-12.563691270515227,-11.263461968953372
616,-8.549799189759415,-144.6116045966179,-12.555162964583559,-11.308479020406969
617,-8.325202137393996,-142.95334487618086,-12.559212348476606,-11.287847208147385
618,-7.995215127181536,-141.23900076332268,-12.557991163460109,-11.188766039666953
619,-7.653188835911408,-139.46505774315372,-12.4901863058968,-11.032651728016715
620,-7.391962507180472,-137.6181735837092,-12.307137633926834,-10.839090187050934
621,-7.092683899791366,-135.68330940294626,-12.052097288275808,-10.602343286575946
622,-6.615459448637906,-133.64725311199084,-11.79250170415106,-10.301040706069912
623,-6.044880718219143,-131.51378872135754,-11.549384139426987,-9.946904695678263
624,-5.535351574178688,-129.3188800164374,-11.322371725949456,-9.602235921074891
625,-5.188929391534623,-127.10670986189835,-11.07607981283274,-9.325261961961367
626,-5.066893793913336,-124.89066567191541,-10.776784308653424,-9.125658302050608
627,-5.118072752475286,-122.65581775213167,-10.484236238437278,-8.98271537860489
628,-5.236866654824833,-120.37793346631642,-10.275511354987591,-8.873402690119947
629,-5.382314827559182,-118.02521967378865,-10.13178147148082,-8.77892222151659
630,-5.543622215613492,-115.56508138334247,-10.000987107098059,-8.671377539266407
631,-5.702189540871524,-112.98480489585637,-9.880286230089792,-8.512796953263882
632,-5.855399445002807,-110.30163477534799,-9.760650387442535,-8.311499861109422
633,-6.023202458354328,-107.54917759896965,-9.557389391193212,-8.109191875283988
634,-6.213161312041881,-104.75381942832703,-9.20745803207167,-7.951837088984226
635,-6.399328371944962,-101.92777410520031,-8.766346870113127,-7.830013761410988
636,-6.538518466428093,-99.0722530998167,-8.335146860300451,-7.7057292915038635
637,-6.550872477006305,-96.18007730578033,-8.023432650654446,-7.535286099177881
638,-6.3796347734164005,-93.24030302189347,-7.896745154029872,-7.282137070878692
639,-6.120068298845822,-90.24260751934024,-7.860043242075549,-6.954616899237198
640,4.478435561806425,20.363224037045168,-10.864377709781774,2.2716599551783023
641,4.583223319404238,20.778406620505294,-11.370936102157568,2.253807676816395
642,4.738197478359684,21.17701823512692,-11.783125597397325,2.261630804211499
643,4.91228026697107,21.564004476049444,-12.106179480550919,2.2964550134723045
644,5.051665671558232,21.936245645872145,-12.36706850351475,2.343994224281909
645,5.112665746133745,22.282145954032128,-12.596062646633612,2.3763353039408264
646,5.073310830561847,22.596578267079444,-12.828375783680201,2.370392131067907
647,5.03402509518342,22.88712726927317,-13.104610836709071,2.3439021296671356
648,5.099312282169916,23.170629815931196,-13.450088938518842,2.327895887104496
649,5.194517324996083,23.46141143656869,-13.85963029172258,2.3355687710720336
650,5.226384257432496,23.756713848087983,-14.304059493094488,2.3705444287242528
651,5.261170479537105,24.037250761179827,-14.741874791099539,2.431484490713855
652,5.370796387996083,24.270716855377763,-15.130852286282124,2.5066758963462012
653,5.516111311404598,24.42650123241716,-15.424483047893611,2.566457568602278
654,5.6392324932488505,24.502639594717177,-15.611034939823284,2.58827778220677
655,5.678407564061908,24.520749317805027,-15.766387766779195,2.590550626668445
656,5.599671083722735,24.499822635014922,-15.97724305711288,2.5973832764974474
657,5.51507463714763,24.44783356203129,-16.267716370688273,2.5992718807784896
658,5.53671264198531,24.369836909301632,-16.6241849905527,2.578457176742226
659,5.577384587756882,24.27258189920565,-16.988153732462887,2.5282402804962194
660,5.523310105463499,24.160147682532735,-17.297619026741803,2.4418558281299267
661,5.394192784600634,24.027867014448503,-17.57118217476052,2.3119757234768765
662,5.237168982220021,23.86281513329903,-17.842401018843884,2.135107636453606
663,5.098170138455256,23.654959297558232,-18.0768734173219,1.9095712681607886
664,5.012641225785131,23.400732309273106,-18.24220550879991,1.6401491011626665
665,4.887756962785095,23.104916924018912,-18.357210024047866,1.3412104376897647
666,4.643226884954921,22.78272331618256,-18.452778832800227,1.0343241824853395
667,4.439642940959905,22.45619945472069,-18.57296796096846,0.7486943407012785
668,4.437682001784438,22.137872059090736,-18.73994683823922,0.507722811178682
669,4.533480230310875,21.82523173543847,-18.88602937937922,0.31715819204472606
670,4.577234137576789,21.509158199116044,-18.929217525878776,0.16897631394588725
671,4.542686290629116,21.17429428376611,-18.857703301174265,0.03817024622053869
672,4.4371373648382955,20.806500684449237,-18.690051117721545,-0.09867134490228097
673,4.313516181895423,20.399902120589463,-18.451157783829498,-0.23362983808798965
674,4.233646443179906,19.95557113057507,-18.17717302464202,-0.35058623778355913
675,4.1189828129267045,19.480042305592345,-17.898186124011044,-0.4562826071411624
676,3.8988827237795443,18.980414357149318,-17.63598971937665,-0.5573435142585346
677,3.7336254085354543,18.465154314328153,-17.403432828927823,-0.6348124428043267
678,3.7788544960004105,17.935352196438764,-17.204012017706773,-0.6722835179828821
679,3.9402697135688243,17.386907085472824,-17.048528256600232,-0.6860332704709602
680,4.080642381327972,16.81700971699578,-16.92763159272973,-0.6938488124361147
681,4.1630831757485085,16.23383627990691,-16.77589073018283,-0.6855331019711353
682,4.186484130259882,15.647221265283246,-16.523647860212236,-0.650029073786835
683,4.237951128831799,15.054744340004238,-16.139188256500145,-0.590284825369421
684,4.393227460138329,14.444380434748675,-15.62363718946288,-0.5191382888100204
685,4.515114931052558,13.804438864713372,-15.030239281930925,-0.47090086734312026
686,4.4544248334308465,13.122663220487013,-14.422719582205568,-0.4742534235634235
687,4.279490524732479,12.38771830585942,-13.806446601757006,-0.5192041370413812
688,4.108366912476175,11.597567581776627,-13.174925869681045,-0.5777019906843821
689,3.981163696281138,10.761531196315167,-12.559926703956675,-0.6173751838232268
690,3.9220130626672836,9.895107846072612,-11.98746809199225,-0.6122006291570565
691,3.9278526128777775,9.013509726211618,-11.45779416553319,-0.5664206852927447
692,3.973082964450134,8.118101873323793,-10.952834193755967,-0.49842926605805493
693,4.085042149511097,7.1980393821326425,-10.415231475495698,-0.41710266215524217
694,4.276532089409783,6.244362186835252,-9.794175128372936,-0.33211842681831294
695,4.4305702585348286,5.256416904364518,-9.106632041547416,-0.26269820085558554
696,4.440238641183089,4.237012648448886,-8.391453279036837,-0.2252820486912363
697,4.36682372567238,3.187394086248266,-7.6695909222790215,-0.22265805491756882
698,4.294738571280284,2.1048863846459898,-6.952660787618127,-0.2574243280443245
699,4.216056724364811,0.9763566978977262,-6.228375935779851,-0.3437301551232423
700,4.097929884340607,-0.14768923426047306,-5.474006236485922,-0.49588414844549633
701,3.8651685909119893,-1.1330256332979953,-4.757830072292033,-0.7187516314879987
702,3.4658594676686545,-1.9007182060908574,-4.135364928295224,-1.007793176898885
703,3.0308149468078445,-2.47925606837791,-3.566837221191699,-1.3281628120711926
704,2.698050615862547,-2.9253142194993185,-2.9999583913519325,-1.6424094715211663
705,2.376622680446467,-3.2794054601973217,-2.4714129988163682,-1.9552056462347356
706,1.9536309989229699,-3.572302209093159,-2.028624714101888,-2.2743532036890555
707,1.4887037182313574,-3.8277691243839636,-1.6903898232175307,-2.56095528516564
708,1.0737830113534093,-4.272277979181733,-1.2261864022584639,-2.6632476377901475
709,0.7198643365255506,-4.718177576408268,-0.8367983956124596,-2.7187869472763104
710,0.43772306857158494,-5.158854366281583,-0.4517142290075046,-2.751149346349634
711,0.16749160771534574,-5.579064119328764,-0.11324851680158708,-2.765827407523558
712,-0.14956652348978433,-5.963914674678196,0.12566554998372734,-2.760266068341548
713,-0.4254805861092155,-6.305615572396037,0.29596965610208115,-2.715386065357229
714,-0.5605011475339706,-6.6083642611167015,0.4636300878733365,-2.6171379166181157
715,-0.6388930175790296,-6.884447316344915,0.7285963574893061,-2.499124158005828
716,-0.7783925420355432,-7.147154587850109,1.1744408379962599,-2.408137773857061
717,-0.9700518067950162,-7.403220431873274,1.7647862233901672,-2.3625924035958876
718,-1.170269522208591,-7.649002532404571,2.40599563948666,-2.364809418215162
719,-1.3386748125050365,-7.874637264297447,3.03624422009827,-2.40337161163018
720,-1.4422015397793562,-8.070802662488939,3.6080012947021616,-2.457922559722173
721,-1.5526772218612563,-8.234448066455426,4.073478014821787,-2.517664545376573
722,-1.7526084219774687,-8.372141598091444,4.4177179458854665,-2.5785647285912314
723,-1.9570170581103676,-8.500178997627351,4.702285797395416,-2.6371223895184124
724,-2.055556594994229,-8.629508033832547,4.998258591912626,-2.6925206506489787
725,-2.0905254383182377,-8.76555943058191,5.283512805832554,-2.7469540302704907
726,-2.1414793918686383,-8.916441130766682,5.524107540004296,-2.8009554655753313
727,-2.2323824107701356,-9.082964787287228,5.761693905783459,-2.849340737234905
728,-2.3711658495053305,-9.25547184100446,6.057672077529537,-2.888998985715029
729,-2.5230664564363545,-9.422744836076289,6.486143162199548,-2.91901374991904
730,-2.6437450678943466,-9.575877780130279,7.084510973640668,-2.9468516712791537
731,-2.7886807227740924,-9.704930273885035,7.7345021833009655,-3.012801375369496
732,-3.0218441474542037,-9.804932755626018,8.276650864299528,-3.1510522645475434
733,-3.2708721310720414,-9.876472064747254,8.66563454618624,-3.3327552866762367
734,-3.4440762660089286,-9.925599155161613,8.906030027714444,-3.5074615259113524
735,-3.559267455016028,-9.959191749661136,9.019203886156616,-3.6478995686270212
736,-3.662232163479786,-9.983834133580723,9.045137249664915,-3.740707600384649
737,-3.7842442863955243,-10.006149137164792,8.957628340865615,-3.7906009725636176
738,-3.9430026855333935,-10.034832883572196,8.73916096286781,-3.8156744090129626
739,-4.063689916774325,-10.080879450818657,8.528788577563743,-3.8303080462962105
740,-4.062178864207863,-10.138060396657998,8.47605837323972,-3.841671039048279
741,-4.016649010361745,-10.18078827370154,8.57588465079028,-3.847366699936115
742,-4.030001068433701,-10.190579255367611,8.755180688088664,-3.8397350116234583
743,-4.035092098550492,-10.166292986486129,8.9152194246891,-3.8071590073728623
744,-3.9460014241808388,-10.119205048871342,8.965552546677603,-3.7477405252430236
745,-3.801150050431592,-10.074825528032921,8.941678278677731,-3.692713057087389
746,-3.672357375069869,-10.05313512417709,8.922020449302629,-3.6783193454945606
747,-3.656580116948771,-10.05784359720093,8.888238680034414,-3.7140318210646686
748,-3.8196236828804273,-10.082694852233866,8.799210315634776,-3.7883720270569343
749,-4.011081619876749,-10.111013907289031,8.66617624127613,-3.865341746930655
750,-4.0473836183529555,-10.109188281461181,8.503837073237465,-3.9027863083699317
751,-4.007551719893896,-10.044196281446155,8.304271097330869,-3.8845823271262017
752,-4.031378591086543,-9.910305892530566,8.063844934550822,-3.8145877130345296
753,-4.0828946574624965,-9.719730352701768,7.7894811278710065,-3.7062583160443023
754,-4.097985478245438,-9.483087180684425,7.497723311128288,-3.5830291981842426
755,-4.080221612788843,-9.213378192264575,7.226745545218182,-3.4741195089363877
756,-4.046614633781579,-8.933062905835245,7.016148526125976,-3.399598121684987
757,-4.07158832916331,-8.669343930333211,6.879487716035413,-3.3603034112807584
758,-4.223458963300694,-8.439361204802722,6.8084871243807825,-3.3426823503250995
759,-4.397415571343757,-8.239275171790872,6.7793251690020995,-3.3125381836677685
760,-4.463290869196216,-8.052662117233728,6.754056571742219,-3.2422212410075084
761,-4.485277225564227,-7.866767609276889,6.684531747206118,-3.156880998591973
762,-4.564751432484259,-7.681205821684263,6.531485173214489,-3.0951559589919815
763,-4.678052709862143,-7.502967390223066,6.287333713577745,-3.063302060035591
764,-4.772039369254442,-7.331306045126675,5.967935687363494,-3.0512573751648446
765,-4.795251167629764,-7.155915158945017,5.596492994767799,-3.032017924012385
766,-4.711554659777815,-6.9716019025892315,5.2062740329328,-2.9790373949437132
767,-4.612809763480421,-6.786079881025301,4.842405045484579,-2.9058168024578475
768,0.36577926795806665,6.658570022415424,-8.28345157371494,-0.5904106608323356
769,0.25578674687813,6.722383748370111,-8.571699999708354,-0.739100715072586
770,0.2565655134306322,6.774359005065278,-8.924583048603887,-0.8492271182433339
771,0.2989427134909698,6.82509386981385,-9.311146650072782,-0.9548924428899577
772,0.28576342422256007,6.886438729439009,-9.649677644099672,-1.0906626138937632
773,0.20741671966321598,6.969058586888088,-9.921919760470317,-1.2310768247404325
774,0.07649142854198109,7.078174815668385,-10.190466362176142,-1.3455601984529135
775,-0.039643549335073254,7.211781651592227,-10.482193551325505,-1.4469619648707672
776,-0.08068652901342235,7.363056827688005,-10.751693059341168,-1.556652528433122
777,-0.13255152521739724,7.520980432299365,-10.956333151332187,-1.6953957154580714
778,-0.2904443040127903,7.67698350668217,-11.112833690256398,-1.8725080061183261
779,-0.4976699081433852,7.8311471122895515,-11.300402356537797,-2.0473828743908573
780,-0.6693145884035139,7.985625517635558,-11.60344528371894,-2.177154735426594
781,-0.7911339225865802,8.144079615972512,-12.011911060079429,-2.2751286225770873
782,-0.8670631088682844,8.300339626680369,-12.469073800711657,-2.3716838772248794
783,-0.9092556076893671,8.420520440865772,-12.893637001460338,-2.4860600053369044
784,-0.9413332253562318,8.467534084287546,-13.216112272931378,-2.6319864682643646
785,-0.9723903128682452,8.427687462899447,-13.45548660144313,-2.8008787479771393
786,-1.002473633527955,8.303557415246631,-13.65137431123623,-2.9770814192899433
787,-1.035429232970686,8.10929801720541,-13.831211679596963,-3.17007587598388
788,-1.0726930311326872,7.8717129868548215,-13.981696761767465,-3.387819328745653
789,-1.1071986191063228,7.6259188422527515,-14.102532940083744,-3.608099848170571
790,-1.1360223827940594,7.403869543834939,-14.196114523614385,-3.806097594491182
791,-1.171179137597016,7.2238063292039785,-14.294888339567331,-3.9726613237583197
792,-1.220337214628857,7.090791119992124,-14.432348316485992,-4.107048599259258
793,-1.288728354214818,6.997450186751914,-14.624649539868907,-4.226367754294453
794,-1.3684127993498332,6.925287084080345,-14.847478202125581,-4.3497507554907235
795,-1.3777872892667409,6.853315741841041,-15.04077719210791,-4.462363836425234
796,-1.261739960641642,6.756681044414104,-15.13080477729271,-4.552165580918351
797,-1.1446794144338455,6.599664922528013,-15.073247743242375,-4.65738533770654
798,-1.156067355253536,6.3582411269830486,-14.92434418743434,-4.81601873874178
799,-1.2466297803223465,6.039379390887213,-14.81323846712643,-5.022469903012099
800,-1.32764110661781,5.6683429349599,-14.811247731932214,-5.2543427580455555
801,-1.3491839912700538,5.283175965084261,-14.898363423339573,-5.4776465631576645
802,-1.2935978789025055,4.914952313070638,-15.008715518925113,-5.662763565490266
803,-1.272278855413688,4.563347261217869,-15.105742630869983,-5.825755620556486
804,-1.3947746547710143,4.21056029870258,-15.167187315388569,-5.989745622089246
805,-1.5541794017096127,3.829782249012691,-15.20777548136846,-6.134456455989808
806,-1.61864912791376,3.4021171893091555,-15.23402570384391,-6.236338239319453
807,-1.6452324523448691,2.9456535819864493,-15.221153819099204,-6.30032159431784
808,-1.710888343044464,2.4905710797398424,-15.116586535920952,-6.340538759134313
809,-1.787425571716623,2.0493694974436574,-14.886946101553333,-6.378305346421278
810,-1.8363488234489147,1.6270651525511035,-14.571511998374362,-6.433728606043155
811,-1.8162561299554612,1.2267601001421433,-14.2865811871228,-6.501550888184191
812,-1.7117190963220912,0.8450624415240406,-14.135815235396214,-6.568782540802933
813,-1.6498772831588127,0.47084292774569625,-14.165117893590883,-6.641920561831165
814,-1.7497777616533658,0.09660364684447775,-14.327940954098102,-6.724467912994518
815,-1.9264394892639227,-0.2691942979010166,-14.529316826165482,-6.793346786233639
816,-2.053351582428325,-0.6162469412265947,-14.735717425859297,-6.826209299935693
817,-2.111923636219089,-0.9425038192170827,-14.990032851306974,-6.8232632917050156
818,-2.114267431419495,-1.2523764627159317,-15.302840236797593,-6.792628036950971
819,-2.075489135269804,-1.5669981543734726,-15.642058044433433,-6.746078443643896
820,-2.024953997981096,-1.9030214992533017,-15.955172526220553,-6.692685580478172
821,-1.9757755460595794,-2.2413866405227583,-16.215981754985584,-6.622778133437238
822,-1.928619962371299,-2.557804802077797,-16.409484482201403,-6.5248756941421995
823,-1.8868522285836302,-2.8518372056071657,-16.529172153864742,-6.402024936684197
824,-1.8513694847021473,-3.133749425664371,-16.57864678922431,-6.26632870686538
825,-1.8163009021666057,-3.421409945571166,-16.564382816460064,-6.1433898900181205
826,-1.7773077767694674,-3.733146221971602,-16.490168265286396,-6.0557674061145645
827,-1.744738384556143,-4.073495980961305,-16.352777582931036,-5.996225908437687
828,-1.740982281553061,-4.4235694613085785,-16.170081270040242,-5.941465726815853
829,-1.7212477457371356,-4.741340777790999,-15.98473124079919,-5.86665363338257
830,-1.6537219347802088,-5.0070643464907265,-15.801073117422531,-5.749962985480553
831,-1.4128676126938318,-5.227520140518509,-15.587585408718624,-5.5907725111185425
832,-0.9222805530164091,-5.433707933939417,-15.34310542326499,-5.404486392017103
833,-0.4440928998937288,-5.65787181578952,-15.08761242136461,-5.200281424997912
834,-0.24915185949034901,-5.91169810074493,-14.80250801768726,-4.984552762401421
835,-0.21317540786753678,-6.204277644702616,-14.435196349709589,-4.766699764472039
836,-0.006106491177332057,-6.5735086993035345,-13.791381949654737,-4.549100585981996
837,0.24620648984495513,-6.918713700851171,-13.059990400150209,-4.327506876935435
838,0.5107888950655064,-7.209621579768153,-12.325696286128387,-4.092685043238707
839,0.7064492885820507,-7.442040641042267,-11.646552493392191,-3.8312330647815385
840,0.7592096665401602,-7.627445811265388,-11.019384792364455,-3.5370553958091877
841,0.777130071500643,-7.785319143981952,-10.432737836753226,-3.231712507944935
842,0.895779007711585,-7.939732913394094,-9.853910759178254,-2.943397655845563
843,1.0309392410459572,-8.110957246691022,-9.271526701003092,-2.681155944456219
844,1.0619050671981998,-8.306404984378002,-8.69135808766852,-2.4418160820979975
845,1.0361540007488228,-8.509774814850955,-8.118853061349263,-2.214584591489679
846,1.0367306804171255,-8.695534525035216,-7.56505387973608,-1.9836735517040074
847,1.1071982425898428,-8.846839455081373,-7.05305646847948,-1.7352570418802866
848,1.2645173126743219,-8.955511212611869,-6.593785104608947,-1.4664820856297918
849,1.407339190351754,-9.028748499000555,-6.163839000236267,-1.1937036072370006
850,1.4169600174172494,-9.081054738283733,-5.723197694651604,-0.9445413475379442
851,1.3622450920560696,-9.111462043588963,-5.225234193088794,-0.7487580280491577
852,1.3519240237259278,-9.11703412476131,-4.642857369522931,-0.6272789196977095
853,1.327578846860407,-9.118273325833217,-4.0016303207227635,-0.5804637196349052
854,1.21321029817179,-9.126068756538967,-3.357825676384728,-0.5887146480907758
855,1.0592282103740491,-9.146692723304266,-2.7874845892239635,-0.6143143147409376
856,0.9389549362973311,-9.158841854095085,-2.3389180467161275,-0.6192281589240496
857,0.9079453983278629,-9.137457236211555,-1.9937993066194446,-0.5781378522956613
858,0.9935144255027468,-9.090660095876983,-1.68021260577433,-0.48682295904170525
859,1.0839202317146794,-9.040315106837035,-1.3298021808146434,-0.3922618419143882
860,1.0504795842708066,-9.014560554511085,-0.9201055102536773,-0.34457641633904657
861,0.970243299397096,-9.009246808670913,-0.45209407763539877,-0.3163454876648275
862,0.9619836099745586,-9.007699314861053,0.08348052760276384,-0.26051490566846636
863,0.972044638304473,-9.005638496866526,0.6651378142108372,-0.18306832013161187
864,0.9194758979929697,-9.002510931843599,1.260764189229942,-0.10338574019438657
865,0.8187363572133927,-9.000920259107755,1.8178115282898633,-0.027441540013567925
866,0.7056501629168049,-9.004511955160178,2.2837748616870766,0.040430910399741296
867,0.6418316160512527,-9.009905558021003,2.6303159093330257,0.1097349503673663
868,0.6782793625892024,-9.008485844291425,2.8562740670310944,0.1947462225134255
869,0.7163244385179122,-8.984866629805682,2.9930355734660097,0.2853742614968315
870,0.6409065003019732,-8.926962336377079,3.0908361515392095,0.3677188290435261
871,0.5374169414771983,-8.842593805117783,3.192393165451004,0.45651133759800105
872,0.5286528172879925,-8.747528521563368,3.3273338322562527,0.5671771248198049
873,0.5883049710905899,-8.651807393344841,3.5201676111549887,0.6845195432069685
874,0.6513852355580787,-8.560616643071096,3.761535079103047,0.7853814657157692
875,0.6800797724825762,-8.470335746066684,4.014894175598186,0.8571556050476798
876,0.6459128516204422,-8.37223877110211,4.218786017695111,0.8935754928189326
877,0.5981529364704216,-8.259939193411359,4.344370190575528,0.9000729814813123
878,0.601956502419112,-8.1292921808822,4.428744274436549,0.8897203311266535
879,0.5870101823939606,-7.982741894612795,4.532364285209841,0.8697420160637518
880,0.4726880131753226,-7.824271417664965,4.720506806652735,0.8459730013692276
881,0.3513874023443878,-7.645125721179577,4.9980483554003445,0.8318891999951062
882,0.33466871379747964,-7.437582397204153,5.331437572004765,0.8382996236888614
883,0.4001603901261621,-7.214862616999354,5.6857468213379585,0.8594897860872239
884,0.48218236184532415,-6.993956267686774,6.020686661886026,0.886096014743444
885,0.48673633602590083,-6.779278577810201,6.2951832935350165,0.9214681206681339
886,0.3415008065336472,-6.567565727212291,6.4896540741944655,0.9690535236888197
887,0.17571835711182832,-6.346134982962885,6.6121656723705575,1.024088899244186
888,0.14815956505950528,-6.100560955142247,6.690055058442646,1.0781407632854703
889,0.15742439207712727,-5.829498640494713,6.789642205609665,1.1075009704034988
890,0.05389251608677338,-5.540524043014287,6.946474790757687,1.0930509794140026
891,-0.10655227616483234,-5.244067209276644,7.138982223709913,1.0649952717274198
892,-0.22671950772891106,-4.953750167702333,7.285876417268596,1.0596521680691022
893,-0.2876570165665099,-4.6841210796390556,7.3606921741980695,1.0542751659839058
894,-0.2920501950575571,-4.445997713413324,7.4209843059981075,1.0163833207130917
895,-0.3034587759884264,-4.2437234142186835,7.495966451436695,0.9552304465770491
896,3.0260744712188936,-5.05543233038622,-7.416924606268832,1.9626130792116379
897,2.919929660211114,-5.399907760159138,-7.525252144926604,1.9933500312959238
898,2.939116979847255,-5.723092512242605,-7.681585781245173,2.0068219355751085
899,3.0161457022410545,-6.010115556848705,-7.890206771446746,2.005363002595014
900,3.0432345337088487,-6.272762183011412,-8.132745993699464,1.9891806415176263
901,3.0079205478731676,-6.548873836310576,-8.341803043031135,1.9622204386526185
902,2.9208179486098986,-6.861981348078462,-8.460298873818118,1.9259528435924935
903,2.8214375201007083,-7.204291915455144,-8.508425693564424,1.8703533240199106
904,2.754738215511098,-7.553259481131741,-8.534955713524976,1.7943635968407436
905,2.670945284452225,-7.8872617196343935,-8.597218327037668,1.6905335276475686
906,2.5121711293160143,-8.204677929688398,-8.729420716796579,1.5733672729777477
907,2.3563873120872714,-8.522986220300742,-8.865917478702395,1.4791408860839743
908,2.274506145664887,-8.843205510794766,-8.939207034908565,1.412292860097944
909,2.155301740628908,-9.149120211916118,-8.982204295303843,1.3238359041223287
910,1.890946654325892,-9.42697335178887,-9.062688685679275,1.158895972607158
911,1.5526887018938151,-9.681546286929347,-9.274848986793113,0.9136431557316675
912,1.2430042769832934,-9.935041467117212,-9.669889242502224,0.6339269303288589
913,1.0147891783204663,-10.216902380347948,-10.12034506257719,0.3672073793662715
914,0.8851735270516728,-10.533139288914787,-10.475669038298882,0.13024902556674406
915,0.7438365000721345,-10.865995663314944,-10.72268101809112,-0.08480230356165057
916,0.48794520653445594,-11.195044926720207,-10.904953928654903,-0.2869493726475425
917,0.24097618594390885,-11.4790045704689,-11.11444879503946,-0.4763061118088856
918,0.14733031502920807,-11.659018078887181,-11.420192323218519,-0.649151702018034
919,0.15389634395979254,-11.722573497200989,-11.714218377710312,-0.7892075921960309
920,0.16384943614929168,-11.682673485053092,-11.863106537077762,-0.8751345914796005
921,0.13719597595132776,-11.52561729362644,-11.878739764399157,-0.9258686096991148
922,0.04197598741902814,-11.2473659685849,-11.825887385440156,-0.9986596948763369
923,-0.10693020046375012,-10.846083275221226,-11.770700085930546,-1.1514653419362342
924,-0.28404178985235573,-10.285012825016487,-11.777919638419744,-1.426493495784458
925,-0.5752844510942857,-9.530467949186006,-11.857398103127885,-1.8327444494144014
926,-1.0441355605718696,-8.574778607492483,-11.98102108328489,-2.326218681415336
927,-1.5457151824137882,-7.444842949784634,-12.12963907995801,-2.8171507778080334
928,-1.929220925020504,-6.169984410900439,-12.276140938674207,-3.2125259126760604
929,-2.236349559956227,-4.680157632331616,-12.35232127627268,-3.4991393202683505
930,-2.551114196132474,-2.794332094369422,-12.316970106596475,-3.7572436422697413
931,-2.923589621620744,-0.37235855905597637,-12.243234142182235,-4.080323921633946
932,-3.373157817014752,2.5872118525089953,-12.218236120024526,-4.47588005953032
933,-3.777545835208522,5.979551403547057,-12.228234727354248,-4.874196626815948
934,-4.023143334917668,9.641129547981711,-12.23928402750974,-5.236630242346312
935,-4.236100681877217,13.43437856589967,-12.265627841141567,-5.58746487552017
936,-4.5719512997430165,17.293323009209615,-12.315795458287738,-5.970100906631386
937,-5.009164256015243,21.128685215589286,-12.378060303481732,-6.4115868271763174
938,-5.485080968123546,24.771232457975128,-12.431270458909411,-6.887976998943685
939,-5.947893042298636,28.031277568628408,-12.410247895346341,-7.338595947021988
940,-6.362440447498834,30.754735588561694,-12.268291466773663,-7.768619343085469
941,-6.823937044155004,32.848165121835876,-12.068737405053477,-8.278150376139124
942,-7.420542047065034,34.33372903446265,-11.888620470628055,-8.937177975631192
943,-8.037873428315912,35.406447582182544,-11.735611677866153,-9.72101697665349
944,-8.53245914788265,36.32672907870046,-11.591563478024964,-10.514598702083994
945,-8.890550002290073,37.19137038888323,-11.395172328017734,-11.132158350409357
946,-9.150431555073501,37.855371641094635,-11.11437750039919,-11.417755053476558
947,-9.374825117581839,38.07156215931708,-10.870632706874307,-11.430697804931045
948,-9.643907138115903,37.643203248917445,-10.794452476359236,-11.417721282395007
949,-9.995987071690287,36.469377114527695,-10.901491817813772,-11.581026590237675
950,-10.424765808856723,34.529610879002576,-11.130893936647542,-11.961036824308211
951,-10.935688095184723,31.850433050103735,-11.299270486957035,-12.472959653198796
952,-11.491376474017832,28.475857384081728,-11.239955870364879,-12.961303408104206
953,-11.8818070094205,24.453085001534962,-11.02321005002222,-13.262313195598297
954,-11.956660084891453,19.820963877036842,-10.778644298322961,-13.344407090678168
955,-11.908683346095621,14.614300623325962,-10.510746659590229,-13.337681594810437
956,-11.996820689924391,8.86291328385278,-10.242528769489178,-13.408235674005228
957,-12.243643412946033,2.5875790844518027,-10.022600537658283,-13.598153419506419
958,-12.585481875044671,-4.195744591159956,-9.905701821550958,-13.803908767006282
959,-12.753865506263049,-11.471459559000778,-9.921838116319686,-13.891304107771854
960,-12.521361983707283,-19.21848629322696,-10.0452899357131,-13.782564260681196
961,-12.152808854735888,-27.409738795096505,-10.14350355286887,-13.524515612415549
962,-11.989789671287506,-36.01919311125465,-10.096831423541278,-13.256090056409738
963,-11.983052677683505,-45.02553568210374,-9.937868791181288,-13.104195646164893
964,-12.030837803110147,-60.83212402169895,-9.40920653596321,-13.0454294403481
965,-12.090262229722569,-76.23613627768398,-8.933327939663942,-12.954764046992834
966,-12.146367922664112,-91.20501926661659,-8.536245291888061,-12.842205610577594
967,-12.189885200096214,-105.73818237294884,-8.196726326755678,-12.712377435009943
968,-12.222903309290187,-119.85463119654776,-7.868676988693061,-12.549596290100798
969,-12.24168760793488,-133.572811900283,-7.510113920246848,-12.333230883282509
970,-12.24011289833495,-146.90437910912294,-7.101275445066998,-12.065051589734844
971,-12.236350965555804,-159.85884578869545,-6.692827542015438,-11.77181346885803
972,-12.237350322485508,-172.45175493930972,-6.3475032673361635,-11.486424488100475
973,-12.172245518222885,-184.6963278835525,-6.045180128588676,-11.22980330509967
974,-11.973060578538727,-196.6023646541939,-5.741767017304741,-10.998024333745585
975,-11.670745138061067,-208.16543327050323,-5.427174089768429,-10.770057970688567
976,-11.332367832310558,-219.37530192413485,-5.100822222452227,-10.529159543720006
977,-11.035092785801117,-230.22507085397766,-4.789067685106297,-10.264701497959507
978,-10.835032847527584,-240.71195545126224,-4.514494010628926,-9.976910013252336
979,-10.638058666581236,-250.84181883807344,-4.217861195309585,-9.660556759631497
980,-10.330514382295974,-260.62370125504117,-3.8348006025545893,-9.324148537018365
981,-10.023976429275134,-270.0608046906412,-3.3832279521318505,-8.988966910393238
982,-9.856054291887142,-279.1517260041692,-2.9182231003172916,-8.68538381862852
983,-9.727468140462694,-287.88985611775433,-2.527008562794414,-8.40456513598528
984,-9.496623067419659,-296.2658514702156,-2.2756114874782813,-8.09413599764125
985,-9.1538738463024,-304.27518822971984,-2.0960786868428785,-7.72933200728545
986,-8.735453272605701,-311.91324544372384,-1.8807793466342049,-7.337762770050501
987,-8.334531759589826,-319.17737557611923,-1.5992420025050738,-6.95590838895693
988,-8.043217486093162,-326.063091993716,-1.2675206134211183,-6.59476737911702
989,-7.766903900127126,-332.5686775263425,-0.9480868110410663,-6.251838872460962
990,-7.378148919939852,-338.7021814957739,-0.7177694843019174,-5.906956876069209
991,-6.9609454587383475,-344.47859335952006,-0.597143842269281,-5.547087585877176
992,-6.637862409745127,-349.90478186531647,-0.5616837648829117,-5.165981523627869
993,-6.383646758671434,-354.979538584723,-0.5585799287319662,-4.7650940520972345
994,-6.140908263281345,-359.695737829451,-0.5208208308409357,-4.35432943542938
995,-5.876459639086012,-364.0520628393386,-0.39715201931715927,-3.9449911594589033
996,-5.567965883370955,-368.0430381810846,-0.16789161648651418,-3.5466688432146283
997,-5.292999059663444,-371.6674042246869,0.15110231695526405,-3.175736932345585
998,-5.132699660758189,-374.9157094878005,0.5200979186640105,-2.8382008265506813
999,-4.975794666031931,-377.7685832969294,0.8642262052663947,-2.5038382519358238
1000,-4.683253825195109,-380.2248953644355,1.1302336565434463,-2.142272344068285
1001,-4.304766861003786,-382.3068837325802,1.3957410423828343,-1.762409048222885
1002,-3.935605825664786,-384.03145801036163,1.7593474714806159,-1.407076330682487
1003,-3.59490980280468,-385.40364477609785,2.1846906531232237,-1.0812824503731928
1004,-3.280304708493058,-386.4269916070619,2.5952354965760396,-0.7369433504420818
1005,-2.9392064272310585,-387.09504358501914,2.9664307707260913,-0.34068699064722685
1006,-2.517912266905721,-387.4003445689395,3.2897061679640345,0.10566509521771808
1007,-2.109263755553653,-387.33182143339525,3.574940687098661,0.5671502041440877
1008,-1.8275897890949877,-386.88488207936314,3.8452478597246245,0.9949326419164957
1009,-1.6147000088258918,-386.05434008502664,4.100987510337227,1.3554664657556608
1010,-1.378447746989181,-384.82880592048616,4.33099653862423,1.6490535668505228
1011,-1.145761355128359,-383.2071664901339,4.526394589705648,1.892177914252634
1012,-0.9608790552734182,-381.2059391189343,4.679398088892443,2.0983770915355273
1013,-0.8317719508779527,-378.84411830279294,4.796759574289888,2.283605377314087
1014,-0.7502127518738726,-376.1209789117275,4.891583533635785,2.457392515836473
1015,-0.6167013751849019,-373.0166566767094,4.958901011793381,2.627634731314873
1016,-0.3409112971572328,-369.52172555736047,4.99724507337551,2.79796794176793
1017,-0.0458616748397937,-365.65193759529143,5.036345026351939,2.964678523793834
1018,0.11135001505411113,-361.42652077151786,5.106496399736511,3.1215628053762594
1019,0.18071511707098922,-356.8642355351169,5.220278592902696,3.2665202786093572
1020,0.26628636524599325,-351.95776935819947,5.367148800793701,3.3994285221649445
1021,0.38698834720428943,-346.66979942061,5.4807782817015855,3.5161251148049653
1022,0.5394443152236784,-340.97199403332417,5.494451723931972,3.6144852474404296
1023,0.6876961938160366,-334.86553672137734,5.414713818207741,3.704618752161582
1024,-2.0921421756786427,-517.2205276619088,-3.550962449339228,1.5626545595620949
1025,-2.1091233836234364,-534.0749668867179,-3.794023028571055,1.4855952916017834
1026,-1.9672652221822644,-548.7851180742678,-4.082464158762058,1.4418656852902074
1027,-1.780247449205564,-561.4587015369766,-4.4183233703536375,1.422876390546509
1028,-1.6854047892602844,-572.1630391032887,-4.775731331417426,1.3816247000693043
1029,-1.648538306446569,-580.9442081539573,-5.088367943725074,1.3051962214950474
1030,-1.5970687158786636,-587.8412367865377,-5.297392715742522,1.234837451024788
1031,-1.4856494790036316,-592.8935765671051,-5.3967514042147755,1.1928825502277016
1032,-1.282305115125262,-596.143522079398,-5.423634324281187,1.20526752189439
1033,-1.0538577496131898,-597.6359351936215,-5.466708207990314,1.2803439822371574
1034,-0.87301680000167,-597.4170723354016,-5.612517728490665,1.40784374095771
1035,-0.6386350127025172,-595.5334865923666,-5.87018107400176,1.5704245642526582
1036,-0.2574319562048336,-592.0313368451597,-6.208519597141236,1.7437734593632648
1037,0.13794301948370052,-586.9560859034412,-6.597805760429079,1.8959702306305541
1038,0.40168504986632403,-580.3524468434521,-6.993348799420313,2.0029160697125863
1039,0.5556620087723705,-572.2644400883515,-7.341114392258323,2.0632384588947175
1040,0.6687696182280182,-562.7354723865765,-7.59805381160106,2.088895599964068
1041,0.8280174299043116,-551.8083974502173,-7.727202972334742,2.0941383935157134
1042,1.0986723113087105,-539.5255497781205,-7.728407576359756,2.0969850316289387
1043,1.370901291422036,-525.9287577503425,-7.674075915586555,2.117961488567307
1044,1.5220801241895097,-511.0593456210221,-7.65278504841746,2.17144889900496
1045,1.6571057608603257,-494.95813089233934,-7.727478630583448,2.2606663830315976
1046,1.8946431779054071,-477.66542321817235,-7.916934920017877,2.378778933421783
1047,2.147960567513331,-459.2210237026384,-8.153293633658015,2.508529878208055
1048,2.308879332310003,-439.6642258089351,-8.348743937405429,2.62918450048961
1049,2.372697596365063,-419.03381860457324,-8.473423763142348,2.72813147130256
1050,2.367460859708833,-397.36808899299405,-8.534803731550209,2.7976219213558093
1051,2.372342803205311,-374.704824998663,-8.57126535213979,2.825362933235346
1052,2.4626052326283148,-351.0813187127249,-8.630307883004523,2.808210524041386
1053,2.5765031220074186,-326.53436917716647,-8.731286890142854,2.7688258827876093
1054,2.6398316928316903,-301.10028527809646,-8.866316040224168,2.731963541829514
1055,2.719833667942723,-274.81488854027936,-8.994359413955614,2.701890856947673
1056,2.899679620752594,-247.71351599108056,-9.069634593870411,2.6739654626397242
1057,3.1750444957462753,-219.8310230176699,-9.08581361007956,2.6394875752641296
1058,3.51615025135824,-191.20178626523557,-9.051035304785847,2.590273513336019
1059,3.888326158791542,-161.85970656666683,-8.964917310243052,2.532247849050555
1060,4.25164896387044,-131.83821189423716,-8.830783071478484,2.4763611899152593
1061,4.592494392043437,-101.17026034009797,-8.651760168013832,2.4254413774568278
1062,4.913300992418987,-69.8883431154764,-8.442808553373617,2.3824944410103845
1063,5.210125628539838,-38.024487571304824,-8.244601421785177,2.3567944584858074
1064,5.4822020823356175,-5.610260237752769,-8.10637627829283,2.357281692626662
1065,5.742092390984262,27.3232301180756,-8.083664271667132,2.3878924704011992
1066,5.994066574927212,60.745329416347104,-8.201995829114335,2.44837300191996
1067,6.219155349832283,94.62583517185043,-8.40561720527302,2.5371363961187634
1068,6.398119879081296,128.93499338481288,-8.610808934170393,2.6450265881261297
1069,6.506719208684053,163.64349541608604,-8.764752230311082,2.7482403562994735
1070,6.5431332262333415,198.7224748474163,-8.829697017399866,2.8234851850753735
1071,6.607787134473937,234.14350432751834,-8.787798624640459,2.861799716850742
1072,6.786902300005587,269.87859240473364,-8.647300116157618,2.8684506998090877
1073,6.985186064227303,305.90018034696305,-8.402977008266664,2.861843867896295
1074,7.093416568865535,342.1811389496081,-8.079773332697783,2.868769003119084
1075,7.162797499479548,378.6947653322058,-7.815413656476456,2.921179417059082
1076,7.269164099139287,415.4147797244537,-7.7285682965844025,3.0365012783250043
1077,7.4352103878830995,452.3153222422941,-7.775781856405774,3.199929891122567
1078,7.655638954933283,489.37094965473386,-7.859329524449075,3.3784026814392862
1079,7.825381293994549,526.5566321420456,-7.911150092996963,3.5250101859580654
1080,7.848921248087044,563.8477500460086,-7.881404241649159,3.603539065204227
1081,7.836933347690707,601.2200906128166,-7.776458804858488,3.6268409410055398
1082,7.917102772123506,638.6498447292909,-7.6286905122222795,3.614362625916816
1083,8.008706641660774,676.1141043887342,-7.434523637947139,3.5883515867684412
1084,7.989217717271262,712.4778154875986,-7.1940370324763485,3.5473871017062466
1085,8.011403597613626,745.4307935770415,-6.902797514729785,3.5287787113206446
1086,8.191241871011638,774.0621511578117,-6.5742836715453175,3.5794525199950513
1087,8.542500094818193,799.3434160315871,-6.1981633005215695,3.7169044133462292
1088,8.990038678420914,822.5492110739043,-5.7840461152111615,3.881141526325047
1089,9.272756951197483,844.5920045247065,-5.447427777297407,3.9932567112222497
1090,9.167374771047834,865.9461742167034,-5.303321197558749,3.97094884831267
1091,8.825435718665826,886.7654709893285,-5.339340844348,3.848764539884924
1092,8.492064468633496,908.813734853234,-5.468332359730101,3.485065503569124
1093,8.139053039307054,929.5239746937478,-5.595719408791082,3.145434827785537
1094,7.697679199077994,948.8221034435992,-5.627118596161946,2.8372746983540074
1095,7.253050605814454,966.6600798201091,-5.56727470786308,2.547491859468324
1096,6.9006499981370855,983.0161325088476,-5.484012509484893,2.244205072680569
1097,6.615271102252032,997.8858234881117,-5.4530607433256195,1.9086962964096854
1098,6.343183964357625,1011.2728186744085,-5.535472740387762,1.5574283030513412
1099,6.05822368957617,1023.1827335877537,-5.745201701164834,1.2396471456023357
1100,5.741830417254094,1033.620233860124,-6.0405080592457026,1.017918932221985
1101,5.413536509314892,1042.5883340582445,-6.3031678877211155,0.8786511690204787
1102,5.101055700749745,1050.0887477942053,-6.4188444060244825,0.7204039415588962
1103,4.7724502752355855,1056.122502103959,-6.388985031526224,0.5070751658249236
1104,4.389318883414568,1060.690439678663,-6.27367718872444,0.30631999977422825
1105,3.954437470537899,1063.7935019438496,-6.1414754802474105,0.1558233409007186
1106,3.495058933553258,1065.4328359798756,-6.050822935779939,0.014126369205743054
1107,3.0961458423358263,1065.609797874043,-5.978295757608062,-0.1672969053537768
1108,2.8334616475818994,1064.32591608976,-5.8739318510610845,-0.40063574082492137
1109,2.6365003631794544,1061.5828521914598,-5.75087373723758,-0.6555281418783824
1110,2.401525798890844,1057.3823734997,-5.641368324576828,-0.8877267189872293
1111,2.1540573008190615,1051.7263388736835,-5.5714906405806355,-1.0829624962027253
1112,1.9447040551243207,1044.6166933328395,-5.553869605907288,-1.2674737848778705
1113,1.7494387936796012,1036.0554681690503,-5.542424020773824,-1.4614725374431925
1114,1.5343495002935004,1026.0447803257978,-5.476790006177135,-1.6626667609132735
1115,1.2655228827373974,1014.5868334120769,-5.340962298478881,-1.8688724037785325
1116,0.9221689279028739,1001.6839171188137,-5.146525919835058,-2.087057333702059
1117,0.594009462326371,987.3384052370557,-4.937954530185157,-2.2996914931877033
1118,0.37773833130021334,971.5527544254863,-4.759128263248083,-2.4591260803643067
1119,0.18495642299738577,954.3295020484117,-4.593829671279804,-2.5519091948757655
1120,-0.09703568248797717,935.6712643122415,-4.406288004763557,-2.612559361863722
1121,-0.39498183700859546,915.5807344057608,-4.167663796000608,-2.661646447459921
1122,-0.6028303238275532,894.0606806890648,-3.8800668095518054,-2.675817657179023
1123,-0.7101264686349779,871.1139449795177,-3.644973161402237,-2.6216481737019963
1124,-0.7479798123568726,846.7434408499865,-3.5756557372525233,-2.5125778566232455
1125,-0.8271546752107211,820.9521519529421,-3.6856376343868797,-2.416842583599603
1126,-1.0606500109709442,793.7431303667652,-3.9250804880757015,-2.4155959351841356
1127,-1.368967350116224,765.1194949549856,-4.190775683591489,-2.517475699115657
1128,-1.6307846264950128,735.084429739111,-4.37203433779634,-2.6903441863539674
1129,-1.9145650717219764,703.6411822886253,-4.449923755828006,-2.884999685538427
1130,-2.3092955762833167,670.7946926792736,-4.454089703465848,-3.0505197780237805
1131,-2.7531286985737466,636.5517343977201,-4.3973087669123325,-3.1776937437470365
1132,-3.1478388422383667,600.9329571234932,-4.300823596248527,-3.284338005813746
1133,-3.405305707989221,564.1413885945988,-4.1957103504737745,-3.3846191463921174
1134,-3.4692849316819463,526.99389683869,-4.109002840454189,-3.4922051926358195
1135,-3.44038692742425,491.3406468350082,-4.081769051801606,-3.6265077300281447
1136,-3.4574390264101487,459.7132503389733,-4.138105326985314,-3.7835726528259417
1137,-3.4868720808970193,433.73936371976947,-4.234831469547714,-3.9502231806995214
1138,-3.4559638301634936,412.97703454830395,-4.3102223152267225,-4.087271393925994
1139,-3.423265248316052,395.6845718646598,-4.336890261728978,-4.185407507027292
1140,-3.45412741908009,380.12794105796553,-4.3113510959564145,-4.281147638851719
1141,-3.517155180451523,365.15816860569885,-4.258432268593116,-4.3982048501236815
1142,-3.5630199578897304,350.24379243063055,-4.212911557103056,-4.507727603882107
1143,-3.5389624286519283,335.26566672762146,-4.185924852653665,-4.55468821758285
1144,-3.4141248245209437,320.29907809223187,-4.167321659647798,-4.527457679030816
1145,-3.302366418635039,305.4663449347355,-4.126792331707957,-4.466981269859756
1146,-3.3259966199149713,290.8662250285247,-4.033070115672555,-4.419884532913761
1147,-3.38737740734291,276.555967032278,-3.875042496961809,-4.381319995366735
1148,-3.34480789177956,262.55894603709123,-3.6707895514482436,-4.303543748146594
1149,-3.2187988676807073,248.87909047806113,-3.4861924454483555,-4.167652601105751
1150,-3.076374535798998,235.51283536424557,-3.390508390784058,-4.010879726685739
1151,-2.967143305709603,222.4560422209369,-3.4067542409399247,-3.856762715876454
1152,0.08140484891051518,170.48083692708295,-9.724542533786122,-2.774542920031449
1153,0.1644829580485752,172.2654864546408,-9.968274579045742,-2.8205414011015746
1154,0.3383850565256167,173.79289230403603,-10.211649486918729,-2.8934381917351106
1155,0.5038886172936358,175.07734628128551,-10.48040489703663,-3.008284620992928
1156,0.556442745949615,176.14432462072048,-10.795373137328877,-3.1677407330510605
1157,0.5725367130242266,177.02104427403214,-11.157457356246276,-3.338542307434363
1158,0.6464033468451627,177.72705764013645,-11.548156840679054,-3.4901921670171006
1159,0.7490937717413333,178.2642147356427,-11.931461859923605,-3.6449092287612426
1160,0.8325539666717525,178.61231222188567,-12.268911487147898,-3.8330050747701483
1161,0.8676877460026513,178.7410327831303,-12.529612569302703,-4.05968696657762
1162,0.841499356293154,178.62527727265663,-12.701197678698081,-4.311908984333008
1163,0.8360969368632734,178.25776581167668,-12.819373068051396,-4.540075028610484
1164,0.9272816219248752,177.6529034551773,-12.924462164536578,-4.696896431461802
1165,1.0259939026668532,176.83099585098492,-12.993053884110124,-4.790378519376121
1166,1.0317876124922927,175.79808021299536,-13.004284336137435,-4.848769561728118
1167,0.9868500071370587,174.5383427944095,-13.007854275396316,-4.896121718509774
1168,0.9638892775931398,173.02637948767804,-13.060514094410856,-4.947222568853718
1169,1.0099496188286827,171.26237413874068,-13.1910197118901,-4.978441669718281
1170,1.1491569180935675,169.2748335803032,-13.396301425349892,-4.960552184848633
1171,1.3049239189030253,167.0814332661996,-13.6012950378448,-4.9052949682628935
1172,1.3933657501057062,164.67792598938564,-13.72068427418008,-4.835600600896029
1173,1.4813171754783605,162.05133545892954,-13.747934782328068,-4.759856043683891
1174,1.647341766689978,159.18913381508477,-13.706193782657897,-4.684197004687779
1175,1.822545339102183,156.08266260675737,-13.59075288805506,-4.613612799671687
1176,1.932875433514444,152.72774683217875,-13.416655965513582,-4.547778044462759
1177,2.0075651167718056,149.13100582030657,-13.252581346738689,-4.485291041626098
1178,2.09424700062284,145.30731072880172,-13.162937958917588,-4.423829683112667
1179,2.2546442253953924,141.26292762234195,-13.174020208296142,-4.356510376658776
1180,2.5198541243225443,136.99300422679678,-13.273982702679339,-4.280027045497613
1181,2.7474754119301807,132.5026859780954,-13.390740337087022,-4.203791787650082
1182,2.801222479854915,127.81033132445201,-13.44615150867681,-4.139821199562651
1183,2.7990435708003853,122.92105441198292,-13.417485037158837,-4.094149830404258
1184,2.8912076772312156,117.82276469817657,-13.316176500543675,-4.068080713412898
1185,3.036997028463964,112.51031744338108,-13.189150275850361,-4.052301342937805
1186,3.1664464605415414,106.99224951778918,-13.082073922458992,-4.032783518630554
1187,3.2737641082029074,101.28070663634435,-12.965713473899344,-4.011388412411812
1188,3.3630260662408467,95.38432484136301,-12.800264771182569,-3.9848697440968888
1189,3.499061373246015,89.30566218415257,-12.610595207517818,-3.9076166469632705
1190,3.731529378739024,83.043201109698,-12.42739644887123,-3.741830873875312
1191,3.923630228683497,76.59605356552156,-12.25606284275781,-3.5173899421100674
1192,3.9420909445069126,69.95920113104927,-12.083772593234777,-3.276667369133238
1193,3.8950644864012274,63.11425331735945,-11.845646932019907,-3.023413066362935
1194,3.9201212742710663,56.03370169961906,-11.485203726651067,-2.753976655184998
1195,3.9913625046166623,48.704947053138376,-11.037822586913771,-2.469843921695228
1196,4.050880813893229,41.14992414364577,-10.563187080078407,-2.176090509690808
1197,4.061041495315791,33.41016974513803,-10.091913726643444,-1.897014744043004
1198,3.995366201898407,25.519695356831786,-9.639989263709593,-1.6585847065446253
1199,3.9323471500854206,17.495653517839756,-9.17524947269612,-1.4665944063951162
1200,3.9475014515945697,9.352981639314248,-8.66949275646135,-1.3118331468753364
1201,3.926306733233882,1.1145854081964324,-8.192165456863874,-1.1742794164669204
1202,3.7528121846817593,-7.21011890874201,-7.809216648882501,-1.0275803288675835
1203,3.5217251793845397,-15.6302140824551,-7.490091634132129,-0.841338846758773
1204,3.3573975703313885,-24.15726681086181,-7.16920462281355,-0.5985948420728768
1205,3.2680688066564407,-32.80669970648001,-6.753105250126312,-0.32100169762823544
1206,3.23317477600024,-41.59626858946389,-6.18179025316976,-0.039011400528693715
1207,3.214585747882297,-50.534518519046074,-5.541926675683344,0.24515933990278913
1208,3.172624767482511,-59.617027677717005,-4.946314849176642,0.5355850036773191
1209,3.1658205230086263,-68.83411485449939,-4.414574926860466,0.8232242543654706
1210,3.2506082104406473,-78.18168232854771,-3.9150425932555653,1.1026589150574377
1211,3.3278238905339332,-87.66235146898987,-3.3555592531018084,1.3793656127621234
1212,3.285385210899321,-96.50195950623204,-2.701720784945548,1.6443409871646142
1213,3.223081343600649,-103.06956415746875,-2.0364413265872563,1.8994722394508192
1214,3.236123433709002,-106.6779230785212,-1.4981969958415875,2.12967120194844
1215,3.321170789575299,-108.02097568260295,-1.0954201965991706,2.3259143026035596
1216,3.421497117412336,-108.10544676166305,-0.773984523066973,2.4817128505768253
1217,3.37265713282512,-107.70738312647141,-0.4632560308737489,2.563036385504966
1218,3.0515980706366004,-107.25051306829272,-0.11095446936549011,2.5563833465176122
1219,2.6385153821003606,-106.87916190389282,0.21549945468302703,2.5430869758439045
1220,2.3627773929500973,-107.61631228015547,0.5005892597135079,2.512633472351177
1221,2.1648991169918292,-108.33832388372363,0.6665954081127479,2.5449823252811057
1222,1.9208019307714828,-109.03764722730246,0.7663382489359983,2.5837892313665565
1223,1.629211180129086,-109.7039937846191,0.8687397899588717,2.5932546913837267
1224,1.320349899667722,-110.31830468598548,1.0387269095271208,2.5502316558540055
1225,1.0246546220511374,-110.82906294315883,1.261538062267002,2.4617727884129073
1226,0.7743880022128294,-111.16293438828919,1.4906070434142134,2.3512827296120515
1227,0.514273034564396,-111.28214080941308,1.7343132682762503,2.216453948396405
1228,0.17819403264922448,-111.19775623593485,2.0061909753056466,2.051597510845125
1229,-0.16117524189705595,-110.94111759223743,2.2781770705691846,1.881804493283358
1230,-0.4138759826830653,-110.55838886062035,2.517278340152846,1.733551830090343
1231,-0.6240902898932185,-110.0978577165815,2.699124891243162,1.6028509675883063
1232,-0.8648515801620951,-109.57513918895042,2.816502155118725,1.4795775291807969
1233,-1.1537264508000926,-108.96369671222284,2.901814260669393,1.3704290405030626
1234,-1.4837829651239094,-108.22688826002516,3.0010411926283984,1.285063682759782
1235,-1.7936863180150031,-107.36549654021255,3.1643289587472,1.2284865988197506
1236,-2.0115804959458075,-106.4245856085196,3.413525003728014,1.2032415637611666
1237,-2.171465141292706,-105.46076260539867,3.6615557109246044,1.2029205319790865
1238,-2.3297121127702725,-104.52976014932247,3.8143292214759073,1.2150107666568142
1239,-2.4295530399525775,-103.66697293198864,3.9083269905015707,1.2349249193549472
1240,-2.4096504783621957,-102.84990690554437,4.028211277701986,1.25645491054297
1241,-2.3255072126509493,-102.01781473305769,4.247167250979981,1.2499858796731955
1242,-2.2545928526139125,-101.125141198292,4.606083875826232,1.1929997389341855
1243,-2.235045203705546,-100.1542513299408,5.026063603875391,1.1065865334303746
1244,-2.2777920426951845,-99.09830421765497,5.385520561850688,1.0266661491146019
1245,-2.2991735820572243,-97.95345793661585,5.650590916201971,0.9850432363903531
1246,-2.2122892516920936,-96.7179155033827,5.822671722652592,0.9992997481195003
1247,-2.1124966200793307,-95.39022133602529,5.885487761045153,1.034352992453969
1248,-2.127264628346352,-93.97653102296813,5.846273738149249,1.0427024157245623
1249,-2.2099565502639527,-92.49485360101141,5.736925864597717,1.0333993797688785
1250,-2.2756743580350927,-90.96337248197939,5.6019411763852895,1.028642887156125
1251,-2.326975390450111,-89.39173755747161,5.536876923223015,1.016467913593577
1252,-2.3833847205228884,-87.7903065399996,5.613086885970909,0.9807676462459971
1253,-2.4776874872801606,-86.17528590642542,5.754841404541763,0.9070893820107826
1254,-2.6411766319378525,-84.55167020586646,5.849913965221843,0.7904745093611382
1255,-2.7921369836398964,-82.90527493420407,5.875393528221803,0.6786411644245586
1256,-2.8426317832611785,-81.215771355172,5.851213401138409,0.6209914293454529
1257,-2.900394280849823,-79.4752488198096,5.835911221359042,0.5924917453053551
1258,-3.090126440868639,-77.69937248466285,5.888870947279818,0.5445659572967272
1259,-3.3225062667956324,-75.90857484828949,5.973210312022928,0.4542286354057193
1260,-3.4642545795454502,-74.09607784247886,6.018253098957446,0.3134112632805186
1261,-3.48105548144067,-72.23212156509784,5.9964451220386366,0.14408147618830894
1262,-3.385277969590109,-70.29961316706351,5.902987492343619,-0.02040625841826635
1263,-3.289068817246071,-68.30850645893607,5.775606331779696,-0.17855248641409843
1264,-3.3120905032793377,-66.27813631005532,5.6615138807589505,-0.3407225951840265
1265,-3.359776110628367,-64.23410090948474,5.529022045997483,-0.5051048970327636
1266,-3.295488799617697,-62.20819077605178,5.333403574718945,-0.6692199592913933
1267,-3.1935099045304653,-60.20975523670711,5.113337857379265,-0.8325776953403276
1268,-3.1668509447281803,-58.2430319546325,4.922107546608888,-0.9949685997416857
1269,-3.1941381802158846,-56.33082509544732,4.761195222963201,-1.1591353437513712
1270,-3.2270097308048475,-54.47355231559692,4.6149917021806965,-1.3301498242251737
1271,-3.235643589220746,-52.637030034249555,4.465745342567816,-1.5189706838951347
1272,-3.1977849640506975,-50.78554461782698,4.295130673532838,-1.7305239359065303
1273,-3.180431912757005,-48.90078671428727,4.102867020301085,-1.947136360308322
1274,-3.2576267474056757,-46.9813377764387,3.9058517390906533,-2.1445316017747267
1275,-3.338021101745693,-45.038809344495434,3.733374207760026,-2.301795012119443
1276,-3.3078937943418505,-43.09896601948695,3.614189732153527,-2.408345412438439
1277,-3.2313238100478716,-41.19366280159207,3.559705560886773,-2.4915002113243956
1278,-3.20390808332437,-39.35129627767988,3.56129655640464,-2.5808463009233735
1279,-3.2038669631276115,-37.58491471018346,3.588922681565055,-2.6539075695065666
1280,-1.385388287816598,24.26102460047693,-7.908968225807815,-2.9318139721848735
1281,-1.4441784700763016,24.628767287197412,-8.155117328461326,-3.0637616086496293
1282,-1.4165333354484122,24.959965612169135,-8.370625521914091,-3.1715206053851057
1283,-1.4023076895628959,25.246860093178867,-8.547075095131387,-3.2682206490122505
1284,-1.5075499462929227,25.485887290192224,-8.688259098492352,-3.373594752209171
1285,-1.6056091797638183,25.678509303389024,-8.813550332947102,-3.466799537576688
1286,-1.5619581929715598,25.835755461379737,-8.944134409485857,-3.5304144486050317
1287,-1.4383075570970265,25.974222877984,-9.085806694431517,-3.5785700617403364
1288,-1.33800820764484,26.089492016560715,-9.233748596094431,-3.6367604636914246
1289,-1.3296602645265405,26.15426848359735,-9.375228039763433,-3.748975236581761
1290,-1.4520687432774069,26.15016648653266,-9.497698252428854,-3.945139749378036
1291,-1.622936755883598,26.077555985677325,-9.599739928125075,-4.184379268604683
1292,-1.7400706876774725,25.949840876590894,-9.690287135252532,-4.411421011658881
1293,-1.8550141221876055,25.786849765494043,-9.788803120393638,-4.622651099504788
1294,-2.033506070717589,25.606544873346834,-9.915417604000982,-4.82694646743539
1295,-2.1956318297896096,25.41768450945944,-10.07942910228716,-5.015371415910792
1296,-2.265846432111843,25.220840841126865,-10.280760498329078,-5.184322537698983
1297,-2.2879080507556178,25.003244740556397,-10.506015696885438,-5.340535542181635
1298,-2.3286290956679525,24.743044986874466,-10.737745298228266,-5.491288394050158
1299,-2.460653069242646,24.42940286487284,-10.975847391553886,-5.650005665535263
1300,-2.72152910350391,24.059492960035705,-11.216359834950929,-5.822043986027762
1301,-2.974754032226773,23.629170506620277,-11.425493706764392,-5.981575964691628
1302,-3.0843103706856767,23.147586014700696,-11.57142877034047,-6.098594736772216
1303,-3.1562501022346967,22.636813877711386,-11.644948748726494,-6.167850371886553
1304,-3.324619020277915,22.096623379413252,-11.654825627617619,-6.194615540982041
1305,-3.5473900587501213,21.497628496802932,-11.64572062973999,-6.185903941915553
1306,-3.748057538041777,20.82205895727394,-11.658809115323493,-6.152648541660872
1307,-3.875916338931128,20.076249246011646,-11.673306560838292,-6.103959936078997
1308,-3.9022115848612726,19.274174781019642,-11.659809530305154,-6.046554464041316
1309,-3.9195590911707976,18.437249279362298,-11.625562552540812,-5.98746158281909
1310,-4.02680235391206,17.596236739381983,-11.590260841952208,-5.931895390166766
1311,-4.138900566954644,16.77879842790315,-11.595709375704656,-5.881928632559528
1312,-4.157112824683915,15.992477409131656,-11.662496199175958,-5.839242094615389
1313,-4.156095322498193,15.225628704850912,-11.725130174298505,-5.805540697540864
1314,-4.2236175387034685,14.46238657609689,-11.700728904707455,-5.7835305778727815
1315,-4.344337447788789,13.688534590088869,-11.540282093812259,-5.780115872452837
1316,-4.4777416826008425,12.89712316231086,-11.23725294910092,-5.79833123916063
1317,-4.551924994650393,12.087127669465266,-10.879386041872866,-5.829457260439175
1318,-4.513701680572559,11.26275904826405,-10.563182643280348,-5.8566032254013125
1319,-4.470716085023881,10.424381443655312,-10.279376301899836,-5.859781557529636
1320,-4.538297306980792,9.562653007179097,-9.98577514914068,-5.820698563315929
1321,-4.620729852251176,8.666078818304605,-9.667669671895567,-5.72156246897275
1322,-4.607584498460637,7.7358821183169395,-9.321352885678264,-5.560702962481116
1323,-4.581729190773719,6.7846385265230875,-8.968460097477095,-5.374101275376313
1324,-4.636343201305306,5.814629807474436,-8.641389852966913,-5.20250795445207
1325,-4.74273976060213,4.81443847055062,-8.356708313154334,-5.060028304412132
1326,-4.845109755666323,3.789860166410092,-8.111645231962115,-4.945460606689611
1327,-4.856606676645589,2.7695753949264774,-7.874435627940453,-4.836034758725615
1328,-4.717532244547864,1.7699124877734655,-7.606961282222229,-4.707042684640272
1329,-4.565463593286814,0.7830355812981119,-7.288650203237255,-4.580755692949045
1330,-4.540131185247812,-0.2058601696588639,-6.915939142038569,-4.477148260963876
1331,-4.514405659652992,-1.2090243189449486,-6.519805662041905,-4.344879751079165
1332,-4.33874060061356,-2.2377186435293233,-6.1347690557138765,-4.133912535730491
1333,-4.080437664140422,-3.305733426938149,-5.733352303018136,-3.8666155265034297
1334,-3.8428991570008773,-4.416822712380476,-5.288090392177559,-3.584909431791266
1335,-3.6654038853629025,-5.563847697137128,-4.862353666084005,-3.31286557851756
1336,-3.5618333187710944,-6.731102511367015,-4.493502248298102,-3.0669982676561536
1337,-3.4456513017500074,-7.899390804348773,-4.177172183100098,-2.850243445554098
1338,-3.2323237833628777,-9.06718379108211,-3.8384051952376685,-2.649754612054169
1339,-3.034187667501389,-10.253179669256234,-3.3994648929955944,-2.442181267095017
1340,-2.99106280934401,-11.381005544315027,-2.9278974733692396,-2.2062688108384663
1341,-2.939331593504716,-12.258915755594312,-2.6231254397137747,-1.945678821322948
1342,-2.73101419579541,-12.796623977858886,-2.599328476424511,-1.6765985542140365
1343,-2.432150743489065,-13.05718577060645,-2.7238037068230003,-1.426937236116123
1344,-2.161440152618819,-13.147248543826748,-2.824972474528577,-1.2223750620176206
1345,-1.9949621369241115,-13.166884756882936,-2.8249234414562387,-1.0681185804301976
1346,-1.9673998570781475,-13.18002218322526,-2.7301373245992933,-0.9554558581717154
1347,-1.9423177519008024,-13.194775296891743,-2.584823608984004,-0.8667351800698604
1348,-1.7031021331235163,-13.362094752090243,-2.4879183060923493,-0.7764405390187128
1349,-1.400075528119406,-13.512686650314478,-2.474088169347899,-0.6648712775824124
1350,-1.1807316077383374,-13.6183165778712,-2.594260391690854,-0.520323937705043
1351,-0.9664440306792587,-13.659611363303835,-2.8331038642403152,-0.3248210368058314
1352,-0.6534804144479996,-13.642983233701855,-3.058298389679355,-0.07785227882315998
1353,-0.2874918665029164,-13.604366799293201,-3.1703400825814856,0.17623542728212357
1354,0.04852186984458577,-13.578636079290979,-3.096214981413122,0.3846743800948148
1355,0.22759926166478306,-13.570869618686121,-2.8549961979104506,0.5103595231190732
1356,0.16182175433282495,-13.568407008784027,-2.5313158266050912,0.5471976142601845
1357,0.0481270298623029,-13.551149399627636,-2.2221427216941136,0.5685971513466955
1358,0.12728388130943152,-13.502898293074068,-2.0081800544583324,0.6604379090862039
1359,0.31568141780969144,-13.41876101110972,-1.924353725640008,0.8214597413234469
1360,0.44394922287210636,-13.305103106126372,-1.9493452993470757,1.013098231132967
1361,0.5157839192994919,-13.177557112428763,-1.981953030551441,1.2073915764809011
1362,0.5694405706078526,-13.048362618267062,-1.917193885480888,1.377188409477411
1363,0.6182366453850066,-12.914163771336714,-1.758910191686491,1.5199103701397605
1364,0.6808168391407095,-12.759409914937645,-1.5599027472927596,1.6445917030603059
1365,0.7031351302080208,-12.5706412932207,-1.3556083640051206,1.7293222691724255
1366,0.6258357314821938,-12.34445444556071,-1.1741978174991652,1.7517202112912362
1367,0.5390204173601424,-12.089985101327581,-1.0142219882005632,1.730855166040184
1368,0.5504843694714383,-11.824347774577143,-0.8596958565559792,1.695245824711203
1369,0.6047913314417203,-11.564249781062394,-0.714366669714875,1.6513914993534038
1370,0.6154191649776299,-11.313897373462378,-0.5939747993127643,1.6041039709939053
1371,0.5912034785027105,-11.062775922314863,-0.5320180809603832,1.5620532664703148
1372,0.5657600604203057,-10.799273093517883,-0.5540494753483843,1.537731511351033
1373,0.5924374358560516,-10.517950754300765,-0.6348295588671672,1.5715557040845765
1374,0.7142891251053693,-10.215328971000087,-0.7265962606365459,1.695251095153643
1375,0.8374076135670615,-9.890222311361265,-0.7836570260359984,1.877097046768135
1376,0.8528184831508329,-9.541964583499178,-0.7755955404329831,2.061346729081013
1377,0.838751476151372,-9.180530662791728,-0.7231073865775546,2.2096868605619764
1378,0.9110170138124566,-8.830656483369768,-0.6669085377300404,2.2969672283512366
1379,1.0480381593065815,-8.515535619451608,-0.6220880779337532,2.3219955623439477
1380,1.198823620253449,-8.244767081033968,-0.5923748049122409,2.3016067196867374
1381,1.3479561272309544,-8.00823881302402,-0.5688479661645793,2.2493123559462624
1382,1.4890849014963046,-7.782051835515444,-0.5407541015328172,2.1770391982370723
1383,1.6907976413398493,-7.546748926804621,-0.536202069038347,2.0997680534510383
1384,2.017405522639125,-7.296949341508244,-0.5839727062266268,2.0269819291727926
1385,2.3472558673129527,-7.042597710762395,-0.6579689042712998,1.9537494839971785
1386,2.5363880217119115,-6.799223042671179,-0.7145910709827129,1.874313794654425
1387,2.652618730789196,-6.56631070321082,-0.7312889622138259,1.7973755930201758
1388,2.808363288189508,-6.3256061029916575,-0.6979501196517752,1.7376451931993613
1389,2.9918708333849464,-6.063763479078347,-0.6127944016049226,1.71027088734603
1390,3.162868585041183,-5.782690177783403,-0.4928809031177803,1.7248470648839573
1391,3.2702111794877364,-5.493731891853724,-0.38579315777759315,1.773097595276926
1392,3.2716888457938516,-5.208596753433275,-0.33704129744039,1.834443791042294
1393,3.281478535819502,-4.931372216480145,-0.3487783316869485,1.8880835279903527
1394,3.4215799377164164,-4.661297989740923,-0.40024191669716136,1.913517470607336
1395,3.5511234164975494,-4.399451264934407,-0.4691140688396704,1.8862103709347344
1396,3.494260300755535,-4.148308986261197,-0.5315407483703907,1.7951134190341085
1397,3.3277028857207664,-3.9148254401801146,-0.576100577065635,1.6635394798751166
1398,3.1891092578984632,-3.7069444247961387,-0.6015651115825613,1.5262036320157621
1399,3.1202723804216657,-3.527841371579207,-0.6015522425983099,1.409627302690228
1400,3.1285361749869867,-3.3761042542581294,-0.576427067348009,1.3265845707562376
1401,3.134110671502108,-3.246688784841646,-0.5480970213151335,1.2510944124338932
1402,3.040640206428286,-3.1309400686093225,-0.5417346873432607,1.14732924315201
1403,2.940925579413897,-3.021175724861819,-0.5701738604791723,1.025640172887708
1404,2.951276545477299,-2.9128735947086923,-0.6348100509236156,0.9056128591412791
1405,2.9544214392252037,-2.806214123994726,-0.7198756051369711,0.7661638110855672
1406,2.8033294601118794,-2.7118642239692967,-0.8045520562292338,0.586302544857082
1407,2.5398129365621314,-2.6483737681695727,-0.8810713370550554,0.37601553566672924
1408,0.30018289261479714,2.1111580305899404,-6.022066303036956,1.2969742443048842
1409,0.4606677455104852,2.323147521536046,-6.153824954461422,1.467757158222211
1410,0.6716354746726848,2.5614906161920135,-6.285976572844408,1.5688222223535873
1411,0.8430193966900433,2.828744422203735,-6.342470025740846,1.6074797240774168
1412,0.9011371345910768,3.1444421371420166,-6.312801688829651,1.605442992489839
1413,0.9853861204458443,3.514974105386902,-6.242443024062487,1.5889483474005996
1414,1.2380529286418311,3.9213610593110606,-6.171658139550633,1.5808210408624501
1415,1.5686531423752132,4.3452018291324155,-6.133948650509053,1.5837103691586727
1416,1.8469121557829256,4.765011991923752,-6.14372804189101,1.593799455598933
1417,2.048309508971768,5.16919514763511,-6.204821077372048,1.619031900133163
1418,2.180124827316055,5.553790123015399,-6.307556554857941,1.6667118124646796
1419,2.305391806787899,5.916898415326059,-6.422532990948888,1.7377710739051127
1420,2.485232936456547,6.258328349541707,-6.525131700547903,1.8270140790200897
1421,2.625596865257498,6.57817152073114,-6.629262185428889,1.9136102954471867
1422,2.627745646466144,6.8741828799501,-6.752645377692976,1.9762246318817325
1423,2.586536466471479,7.139480162376628,-6.880748048797014,2.0147719944517295
1424,2.614866243494467,7.367718180673407,-6.991548085220794,2.034625745726276
1425,2.6783949621217276,7.557777122049614,-7.0681175524776,2.031282976904376
1426,2.721636918787971,7.712483776720939,-7.102483089050063,2.00219376635156
1427,2.7347713442000168,7.839922679061623,-7.115389194316614,1.9494030819217005
1428,2.7184184794215183,7.947732257791082,-7.137963713778229,1.8797435139194567
1429,2.734464506496438,8.034671687162106,-7.181898184237562,1.816825400556404
1430,2.8281254936449267,8.096669650214169,-7.258531822507056,1.7808510195937022
1431,2.877383046541241,8.13381478975242,-7.3949299177256265,1.7578378868114282
1432,2.7571703650826076,8.14766581213673,-7.609647230745962,1.7261696934151147
1433,2.529732356748467,8.13877323679442,-7.907611119959734,1.6902945614991494
1434,2.2948340029519856,8.110561183522098,-8.268614019122177,1.6518523710104054
1435,2.0682518432590014,8.075391326821974,-8.620486409620431,1.584302788944807
1436,1.849849099755869,8.046497670165225,-8.904429665221505,1.4623046735330496
1437,1.6256227826549885,8.022478734385704,-9.066472350149752,1.2755162155131117
1438,1.3785770700175501,8.006997109168852,-9.131538505004288,1.029581079561351
1439,1.1691499120411954,8.00883150193197,-9.188156011695092,0.7685738288617512
1440,1.0539519714539716,8.044966147364084,-9.288810158771131,0.535950780107666
1441,0.9550228230636361,8.107962163679577,-9.443768343003919,0.31691149202488583
1442,0.7921899238339243,8.164827948920788,-9.618421950395994,0.08552514348808803
1443,0.6337082290970361,8.194014599975679,-9.748853757447709,-0.14464956088116693
1444,0.5549156181264623,8.197958237102487,-9.773662142941072,-0.35769670174438994
1445,0.5275212057848641,8.175417964947727,-9.674231818169048,-0.5572244133745767
1446,0.49925142800051464,8.12979567658208,-9.470127309845374,-0.7505187821451225
1447,0.39432006149935167,8.052691805201977,-9.212063863000559,-0.9560168367660533
1448,0.17168322070384914,7.937932500993757,-8.963254453448178,-1.1853038020906146
1449,-0.032259533384466035,7.796758611751148,-8.772411844662464,-1.4083856092858276
1450,-0.0754234951705381,7.648096297625802,-8.658499157651779,-1.5937126846797862
1451,-0.01667578546356717,7.519138435404825,-8.61077377115387,-1.7479540129144926
1452,0.033178765727036624,7.427478247571367,-8.587291528684673,-1.8939604917962725
1453,0.0300262173743418,7.353455463803383,-8.496229901953285,-2.062974878151967
1454,-0.04691458980266859,7.266383103349983,-8.279825136423694,-2.2797752956058233
1455,-0.1791865979378554,7.1535012511970635,-7.950284776457342,-2.5332308651777065
1456,-0.3245181227539771,7.011422338946875,-7.591989922802827,-2.795631130073702
1457,-0.46970802637717535,6.840483518287783,-7.29558400406103,-3.0484504721786903
1458,-0.6141745419825184,6.650688832395542,-7.090166740510392,-3.277395730819492
1459,-0.7499560119892221,6.4649995857845015,-6.95957069109445,-3.467281879514173
1460,-0.8744717987259286,6.301267982373925,-6.84717829514998,-3.6185222669780712
1461,-0.9988358919679176,6.1552306193682185,-6.6903854747233655,-3.761635889818448
1462,-1.1275024217773528,6.012136364203039,-6.44826058994432,-3.9295501949130545
1463,-1.24192426047951,5.854603882650417,-6.136664115158111,-4.135988991689382
1464,-1.3265116713064258,5.670218283900363,-5.801001774780389,-4.3764975099914984
1465,-1.3677920580568133,5.464558126698056,-5.482677427330367,-4.6170576153383625
1466,-1.3712203801897556,5.252571638070304,-5.211043692951057,-4.822286276649662
1467,-1.4392827718161072,5.047745589914818,-4.989088574805298,-4.9937453228949
1468,-1.6622605649064253,4.872053371220763,-4.831109613802359,-5.14982583241972
1469,-1.8445058164543306,4.755569896258195,-4.76423389952824,-5.303129448554493
1470,-1.8146107872590416,4.717710015580568,-4.80552692106843,-5.467759565052726
1471,-1.6960472901773616,4.756708457566719,-4.907414499756692,-5.6618188898066775
1472,-1.675203489302773,4.8438967166946965,-4.972615600414577,-5.8906149519960085
1473,-1.7963801948351916,4.942561762617468,-4.9295682639186165,-6.133101030051129
1474,-2.0480527285925016,5.038227131566301,-4.7666773780291605,-6.357614952016553
1475,-2.3501744242367413,5.132029606120715,-4.533991464343129,-6.525319099917641
1476,-2.4334193886102375,5.201912572979763,-4.261121588006617,-6.5328067727639905
1477,-2.5049029168673727,5.232397195448064,-3.9158436392214746,-6.478209450096761
1478,-2.6285170198857557,5.213584935663647,-3.5609607741854163,-6.401442416810444
1479,-2.7350344814350644,5.158839849720555,-3.251950373810182,-6.325028738232276
1480,-2.743750158805962,5.086808032618493,-3.0250329647562615,-6.2653099012619125
1481,-2.6769074112622717,5.0175440575161305,-2.880204103188341,-6.2432896197575
1482,-2.587216685120517,4.96615192252143,-2.7958229013336227,-6.265065125496348
1483,-2.5547059658706166,4.933686824905374,-2.767202145422053,-6.29795674532869
1484,-2.641506789432027,4.907105986730776,-2.7830853894699628,-6.3049531085061625
1485,-2.725677423320507,4.85801042205123,-2.818038698197732,-6.289833455009368
1486,-2.6690605440348407,4.756474909456569,-2.8456787557202112,-6.269433921475361
1487,-2.6028237729920876,4.591413008349029,-2.886363685202038,-6.245716081740024
1488,-2.6978389658414494,4.366725514337872,-3.0079396455394933,-6.2145240360020795
1489,-2.8923567224462685,4.091455050870513,-3.1934942130307618,-6.163475568682645
