,TP9,AF7,AF8,TP10
0,5.557797142124539,-11.372637733718639,-13.9236928496715,1.5583988482455176
1,5.645146517525813,-11.700056846848911,-14.351638318231693,1.5303695302986668
2,5.649616836399744,-12.053697263464612,-14.686693482005381,1.5251466844067778
3,5.675466455066411,-12.429202063633019,-14.99530447012391,1.5604778658613627
4,5.820475954049103,-12.815502297125214,-15.35246662136955,1.647468277584809
5,5.967343133824935,-13.203783710468906,-15.760716914934795,1.7662324713904982
6,5.982524082531746,-13.587582193683335,-16.192598923633266,1.8891619372605042
7,5.940782536938083,-13.964391688158344,-16.62985528467324,2.001762213793844
8,5.943751740981254,-14.335424653162608,-17.05004565867414,2.0959976555774076
9,5.986462138943887,-14.704557261858586,-17.431576145543143,2.1719810295447184
10,6.041380617316247,-15.072978305367165,-17.762735992497447,2.2366670158866837
11,6.044703409972598,-15.435412476100575,-18.041824977402925,2.2903598407594328
12,5.949475218918847,-15.782133031302605,-18.27107162922189,2.3360236999698567
13,5.879429975431206,-16.096429268799525,-18.45400079070075,2.398184603200929
14,5.957319220223487,-16.367091261713448,-18.59678745956366,2.4945583395891813
15,6.076034029611701,-16.60563956001885,-18.6950564264972,2.604048279867683
16,6.1017210406366775,-16.82856562025034,-18.756680342359818,2.6968987601202734
17,6.066856570927823,-17.050368273042945,-18.84239277503538,2.7608389129990023
18,6.031859008037592,-17.273442756522392,-19.00742574709275,2.790722328414914
19,6.019389641657429,-17.502158054416448,-19.23849508431294,2.7915458783903233
20,6.040666865456834,-17.735115127950934,-19.49890625114861,2.772176184463056
21,6.016822528582123,-17.967984787539738,-19.758755970524835,2.722673216592677
22,5.881070848480128,-18.194331296438037,-19.99461650452253,2.6354526083364895
23,5.7727061372549135,-18.402038777870125,-20.215384367965324,2.5381590965283136
24,5.829596061197748,-18.582988599275833,-20.436329863766954,2.459095726329388
25,5.941098809821452,-18.742789330897473,-20.634357056934185,2.3864076355781147
26,5.965264114491847,-18.89068725279727,-20.778583921622374,2.311907531974904
27,5.914773273477509,-19.044896460470024,-20.871003436068392,2.2261190202340404
28,5.835013647559512,-19.209411637569676,-20.905375991831736,2.1438861434482344
29,5.777042084634516,-19.376761367873655,-20.877961345228385,2.0855824306587207
30,5.781408768933862,-19.531118177273616,-20.772389772485912,2.0325672553869634
31,5.739486194712156,-19.655526156814798,-20.616556823268287,1.9594707571841972
32,5.5511565803887954,-19.737430533166968,-20.488757698443607,1.8424976006211793
33,5.379950389246277,-19.777374950428285,-20.431349070632567,1.706742896281939
34,5.390640473098985,-19.782178484880987,-20.425282955558014,1.5838637847506218
35,5.459031862826451,-19.75635271574293,-20.429528162940734,1.4604395449603367
36,5.424109094785607,-19.703408842669727,-20.40883495037009,1.3147693512236254
37,5.28104776427072,-19.62482703205853,-20.33069617715968,1.145035513876086
38,5.070720242844087,-19.51981965986183,-20.145090521358973,0.9526370731939275
39,4.893369289573263,-19.388400950918303,-19.846678498282504,0.7450448930100767
40,4.836334490322648,-19.230355714262714,-19.459621848896095,0.5306365027551956
41,4.76866136154799,-19.04257367555633,-19.0592657111345,0.2911978320596342
42,4.547385984633502,-18.824065010398023,-18.717938727100364,0.012758271517967332
43,4.299630700207591,-18.582925065114402,-18.444408632823418,-0.26928355055848263
44,4.162409161374976,-18.330281499914793,-18.20710975453451,-0.5293433649022291
45,4.045870034465433,-18.06770723954051,-17.94589741836483,-0.7601724457511259
46,3.818876142004076,-17.799559122198307,-17.60283464150276,-1.0030418635575054
47,3.3914056170369413,-17.53917873292813,-17.171346017412557,-1.2856049324727887
48,2.732247627633912,-17.295169855095942,-16.67866404793811,-1.6237137583412333
49,2.0053024799996506,-17.049064792675665,-16.1625491105785,-1.9919813155451511
50,1.4062840122160307,-16.758052581871066,-15.667764254954927,-2.342284709405694
51,0.9256124851356695,-16.391865644858328,-15.230183605064282,-2.6254277891478
52,0.5094064950548234,-15.953496187325882,-14.862196393360351,-2.8047504576869478
53,0.2142063651257805,-15.455687057155348,-14.55630344454756,-2.8775264126961515
54,0.08634594330727899,-14.894597696610125,-14.273911800337236,-2.862105601127935
55,0.11221162177224481,-14.261992102347548,-13.928951566233886,-2.777763038592548
56,0.2570689310159747,-13.566377322868307,-13.446153853149692,-2.6417516888042707
57,0.41122947873393445,-12.821599071463014,-12.804892622417537,-2.473750847987678
58,0.4875121558103526,-12.026658120251518,-12.048130373055368,-2.281802267576326
59,0.6062591750600083,-11.173197190763974,-11.25409305460641,-2.0302187322346916
60,0.9092491013937367,-10.306525607787318,-10.57640806546768,-1.6950392698271557
61,1.2151237049899093,-9.530357081162366,-10.14534603040344,-1.304098987222026
62,1.3515392228501808,-8.895944386142785,-9.947248632246254,-0.9271728006736288
63,1.4459747923353319,-8.375544125802087,-9.91084659506987,-0.6183345106779967
64,1.6646457998755395,-7.91633883777843,-9.951571613935316,-0.3900134361388926
65,1.9643260906465416,-7.464854596113711,-10.010491056099267,-0.23235697121604426
66,2.245104012300841,-6.9959288536648945,-10.031996464572172,-0.1549015074107808
67,2.3904925017838172,-6.514680697708818,-9.993138440260099,-0.2104554910101311
68,1.3380255657876525,-6.837513055057344,-9.082752266975668,-0.7143565396161073
69,0.2651827401829403,-7.150319561387318,-8.193587209400402,-1.2253292900977235
70,-0.6487973195619332,-7.449933625765777,-7.3038606595997955,-1.716668122990852
71,-1.4811081883944728,-7.735375240583929,-6.413914454531681,-2.190391881123545
72,-2.3621378257430057,-8.003719487274777,-5.529571550332143,-2.6548619018043995
73,-3.2615447159664845,-8.256849655724615,-4.652875746610666,-3.0994355687144504
74,-4.11614782615689,-8.498485590121778,-3.787106867710616,-3.512873748926362
75,-4.877560941657313,-8.727355350718248,-2.932465051565099,-3.8958339928372347
76,-5.512861380754633,-8.943082675546723,-2.0889214794500597,-4.251334113679296
77,-6.126277132727695,-9.143323188636527,-1.2624426482553248,-4.588180574560396
78,-6.839720747518321,-9.333344604298123,-0.46072816692492063,-4.913450516092588
79,-7.561684479774932,-9.538717636984993,0.3071996815762644,-5.2059328804857055
80,-8.166830569023558,-9.783506770059692,1.0364540387135053,-5.446586034479947
81,-8.73317634307895,-10.059594712528233,1.7388808478661881,-5.665521337302603
82,-9.370266418787162,-10.325899731067718,2.4288446364655343,-5.903521229707221
83,-10.06872576753601,-10.54335653411554,3.1052141391067787,-6.170178126669886
84,-10.78266609358047,-10.70289407687604,3.7596178251472523,-6.460531647596216
85,-11.418889530147597,-10.819389382440306,4.380958958212725,-6.758411647373356
86,-11.892875362458353,-10.914396664048304,4.960088236849729,-7.041341269652739
87,-12.314190057981552,-11.0011088183983,5.502518333765804,-7.308757483978084
88,-12.819478966084,-11.082656085878485,6.021570340805898,-7.564797796394414
89,-13.302055118188502,-11.153642443580372,6.525426334364364,-7.783752522851844
90,-13.616739448702322,-11.205714239662868,7.021477753826907,-7.952215788295558
91,-13.807150165337625,-11.238810507426825,7.522324221830516,-8.063438028807079
92,-13.967231723577711,-11.259331271661422,8.03475436339094,-8.150317542329951
93,-14.168494802884657,-11.278413322499835,8.551581758139381,-8.263671664988184
94,-14.4632455077947,-11.305870742944938,9.060429337806973,-8.420559908846707
95,-14.767879000331108,-11.343669659349592,9.541922462564646,-8.615935760920209
96,-14.971351996089398,-11.384499987927013,9.985693713669063,-8.825545719329437
97,-15.163262883287357,-11.40642669365417,10.423311726791674,-9.04430093307803
98,-15.458916722364817,-11.392777358827903,10.890869580218533,-9.27031439250086
99,-15.754541048445542,-11.333302190494441,11.383464453688728,-9.47638858934112
100,-15.920288313277899,-11.243230551883872,11.875865149542385,-9.646862407127605
101,-15.989480313289897,-11.160602671176079,12.330746513430446,-9.776770005639628
102,-16.038761569497396,-11.112812183966602,12.715821758997734,-9.888289495129035
103,-16.1528164497059,-11.095884213052292,13.042371209918105,-10.002854909185173
104,-16.39423700418437,-11.08904350667049,13.340240807400342,-10.107413093946121
105,-16.626811537465446,-11.078912858039168,13.62586435516333,-10.181533713092982
106,-16.69447283577476,-11.057294824853182,13.904925151564825,-10.205371096804251
107,-16.7418307035569,-11.026555083614454,14.164088977433357,-10.214091722145179
108,-16.958951489937228,-10.99579894867942,14.381919819926587,-10.243915569306822
109,-17.268030220094214,-10.971140230013546,14.543738297998027,-10.305067161236476
110,-17.52738261255913,-10.954897536454606,14.643771100724837,-10.37058169560543
111,-17.68023195327747,-10.940732255770401,14.710648654895445,-10.39577140595289
112,-17.705969993186645,-10.920570246406678,14.760855429074022,-10.37692738098325
113,-17.708899352830446,-10.898058195102404,14.787002905493175,-10.329059899844319
114,-17.813378028457997,-10.878300839165131,14.750039451129732,-10.27829032172194
115,-17.909339598582733,-10.869761833967917,14.655242651440814,-10.208070299756123
116,-17.84968728713202,-10.873089759431396,14.578648750861067,-10.091168867231199
117,-17.742474025509992,-10.882164060354231,14.581954173588828,-9.932141452214857
118,-17.733310844968685,-10.894950438227262,14.664291304547108,-9.744816584003509
119,-17.77589786332647,-10.91630737378779,14.782136714154504,-9.536483373035177
120,-17.783330225991232,-10.940849936919914,14.863052767106042,-9.31707877537456
121,-17.712568809279453,-10.949513077297578,14.855309413989229,-9.093730330151647
122,-17.543301669813026,-10.93092394584355,14.743440498716145,-8.873411625047629
123,-17.375106158629258,-10.884635326293964,14.585443346028502,-8.678903173511117
124,-17.31824658091372,-10.817791873463776,14.459467365629097,-8.529295862980506
125,-17.267285281453127,-10.736632971525973,14.37825551879705,-8.41261672204057
126,-17.07974627512855,-10.646118060884245,14.323302452432827,-8.305713737401344
127,-16.815564059133788,-10.547865630136295,14.282117510070535,-8.195254696792873
128,-8.290908678690728,-32.11691535610354,-2.881663178582463,-2.9718949919547386
129,-8.232553091182883,-32.54835348492392,-3.0361047460060364,-2.911815085758465
130,-8.176319579341863,-32.950562187047204,-3.3630356964333767,-2.8484930145698004
131,-8.006229245214925,-33.30687735009821,-3.8412045188215203,-2.744818274709775
132,-7.638895948370239,-33.601217134056846,-4.3963957970385055,-2.5793277065059916
133,-7.248588177442748,-33.833237005061115,-4.92626868915097,-2.4029878838564027
134,-7.025108673070546,-34.01063187430762,-5.336840602459505,-2.2773089942054225
135,-6.858219412317102,-34.14155196123082,-5.61281222419215,-2.1984174084852985
136,-6.5991822841583385,-34.23385651658989,-5.788113892817863,-2.1455091507494495
137,-6.309255305017515,-34.29629583614593,-5.883756261111185,-2.1271815758277244
138,-6.06733296712011,-34.3249876399537,-5.946520355255498,-2.141024922007046
139,-5.867352672056937,-34.306838340534554,-6.097650714097579,-2.151649532839254
140,-5.681333885647921,-34.21698724206012,-6.424783724458304,-2.1228566523145513
141,-5.401334553901951,-34.0547560177711,-6.8982197141167685,-2.020519720783597
142,-4.94452254717396,-33.83674861464363,-7.429006955743236,-1.8339635947698911
143,-4.456819118931019,-33.597649115612356,-7.870809551278614,-1.6291353215694135
144,-4.099357629630921,-33.37095144418707,-8.14100154747884,-1.4712591601021672
145,-3.802669373620823,-33.155699521367026,-8.28815397265556,-1.3318951453142114
146,-3.455747976175605,-32.91760834292175,-8.470880147694647,-1.1606093181784332
147,-3.0435093709866345,-32.62799249851578,-8.79913303147168,-0.9370117867350134
148,-2.576031282781726,-32.28834098384538,-9.258214592384732,-0.6587529377482002
149,-2.12670530194606,-31.919829105820195,-9.758085439497101,-0.37301643174421834
150,-1.7613825804092482,-31.534501668485415,-10.188168187658745,-0.12861478400801352
151,-1.3584555426330216,-31.126612628526605,-10.514114393844403,0.10634108637881504
152,-0.7973152861910793,-30.68832780777902,-10.765863577823524,0.3782022405767274
153,-0.20450305007135663,-30.21835916244927,-10.972531312738662,0.6724771688573855
154,0.2743868162398654,-29.728248088699953,-11.114130463394188,0.9664355104621317
155,0.6838040906879916,-29.234222509979833,-11.166255395398776,1.2716094477813178
156,1.105028542104652,-28.73247734124391,-11.135784006010898,1.592950709483802
157,1.593169008952516,-28.20394506285967,-11.109643189965121,1.9085829706345538
158,2.1775207460997,-27.633388561976677,-11.212318282674515,2.1919369884935245
159,2.7360421465619966,-27.031213164211334,-11.519041016769568,2.4084425699853926
160,3.1480838570811622,-26.421106468040097,-11.987615190928825,2.539852627428597
161,3.555932989988424,-25.806455701372165,-12.505052464739874,2.63301859684596
162,4.110710414879645,-25.167970878851953,-12.980658384088235,2.7429530685292582
163,4.675027425158429,-24.493313602712323,-13.360316175344611,2.863075828345257
164,5.092616868766304,-23.78632215944863,-13.634801490510872,2.9757756383695946
165,5.412645306667001,-23.045137875707994,-13.80987192591577,3.0928916915304563
166,5.727605745863306,-22.269741399719965,-13.91316795036979,3.230499928947756
167,6.1298090345621885,-21.456430179306555,-13.98852864353137,3.4082397789939494
168,6.67803586284376,-20.596526468591758,-14.07644502697051,3.6394290184676836
169,7.222346366075198,-19.671210927171142,-14.20794160257226,3.899341492563689
170,7.606697914180384,-18.670721678583252,-14.390233750521459,4.154464852534444
171,7.970814297500358,-17.603377846114835,-14.588653623645458,4.405653883277816
172,8.480581281480804,-16.4913784870479,-14.760315092334876,4.654659877209064
173,9.04664147458731,-15.358422328487611,-14.883290307333525,4.8676298347739895
174,9.549839004876384,-14.207305819390886,-14.96190256419276,5.015580727304979
175,9.991147564741876,-13.018238463883167,-15.03965293412225,5.10796762376975
176,10.396909444532575,-11.76808809455507,-15.166845963489529,5.167495494883639
177,10.852433903105014,-10.452292973729916,-15.371677125773612,5.216569283224606
178,11.421510028142224,-9.080325072076995,-15.648446528669124,5.2759454243589134
179,11.937834748638885,-7.657847476231424,-15.928969456372732,5.350022114413457
180,12.236384536983216,-6.182323457509561,-16.137104596321635,5.437372518243642
181,12.456946114775345,-4.660438439820549,-16.25494475891137,5.547613744348627
182,12.771627947995839,-3.1185839907231796,-16.294512612550925,5.689108387236155
183,13.131478316957697,-1.581629495792374,-16.280413063868377,5.861125534984668
184,13.448631685634995,-0.06750969371302844,-16.243672698070966,6.0569345725023735
185,13.677247035514648,1.435394839079732,-16.19353200597263,6.260223801346349
186,13.800458530989774,2.9541311661227203,-16.132429548769675,6.4543512053257865
187,13.945179434135682,4.5097299799079,-16.075630953667282,6.635293471131568
188,14.147629068502194,5.996410077532611,-15.994037498781664,6.765951585871744
189,14.150825151702284,7.1640327578711664,-15.809923011509657,6.794597370717834
190,13.671244276719737,7.906427064765562,-15.505814515315844,6.6636873063787405
191,12.946144130391568,8.313925888663144,-15.137414228848526,6.416278960257185
192,12.336290128206459,8.520466611964054,-14.76533505164132,6.133642437700024
193,11.843435829648595,8.647995563761345,-14.415863498796575,5.838108309498047
194,11.371720394497714,8.78695905743141,-14.069047937788834,5.534651006931007
195,10.882398892049853,8.974455715796083,-13.720842348663343,5.239083971583747
196,10.390109242791649,9.332533544100086,-13.380758811737877,4.906813456945793
197,9.950278070591674,9.679981167234374,-12.986545145311467,4.626999669558739
198,9.702898397756927,10.003816803909192,-12.55514576906905,4.428485085398508
199,9.52257856244291,10.305823781214967,-12.136061345363139,4.294076365554343
200,9.241415514448535,10.590232894358014,-11.783102729735795,4.194608529816822
201,8.930805558298594,10.852835578789403,-11.522634856730859,4.141563438974407
202,8.705986059337514,11.079185515912997,-11.347921117981462,4.142072363676625
203,8.57099823419374,11.269662084834659,-11.194553166042212,4.147872855908144
204,8.492691558799722,11.445006414946064,-10.99333958923269,4.102644501243294
205,8.349794902826645,11.616638560405399,-10.749657475998776,3.975785083106042
206,8.028657940418366,11.778012872437438,-10.502416670154759,3.7623779225254976
207,7.674035734336411,11.92167073693676,-10.285375469760512,3.5134452886219734
208,7.474415442324376,12.046057895869827,-10.122523517349341,3.292062554130777
209,7.331289988569039,12.142065165523826,-9.996447273934251,3.0994193364586975
210,7.093436222805111,12.18998342892458,-9.870686678270419,2.9131578697647864
211,6.81827031053765,12.19232611777141,-9.728351412989241,2.729433023965369
212,6.598292688054401,12.181171819510443,-9.56941650559406,2.5458055932667496
213,6.451220488348949,12.178912033949384,-9.408481466135427,2.3663309388029066
214,6.3685047055964965,12.183146697370912,-9.272390859383023,2.1972469665922936
215,6.24601568190602,12.183411173788487,-9.201056336245664,2.0183920614218316
216,5.97681783551752,12.171753244451843,-9.207318917240409,1.808582508768105
217,5.666647817410245,12.14205591003757,-9.277650705106767,1.58573379545221
218,5.458092441914636,12.08901302769013,-9.340550911306934,1.3768791131913718
219,5.28066294382803,12.01826746276148,-9.369058523429514,1.1832156485125505
220,5.02401019029533,11.950641783011482,-9.346264099685751,1.0006285813943254
221,4.70191652673595,11.901802009439095,-9.273651753060467,0.8344307975501011
222,4.359960871557284,11.864476351120258,-9.151866611886337,0.6894448234567092
223,4.067994710526471,11.816729961296456,-8.965553464709583,0.5727727277484431
224,3.8868521417418584,11.743319989917204,-8.692306245105385,0.48828914894015957
225,3.7148149414432856,11.63967403491739,-8.36537404975869,0.4171201142064122
226,3.4304290631749352,11.514965543793533,-8.08234023664651,0.3361689187039524
227,3.135840075338149,11.393932498854587,-7.908464800977817,0.25006159754253077
228,2.9685645114738177,11.297527812868335,-7.8127685210225595,0.16765161652006566
229,2.8826117210623576,11.230581365522099,-7.73837014832133,0.07113310764030484
230,2.789648126731793,11.175851398483308,-7.609597043189419,-0.05773494124512284
231,2.641163254889744,11.121105328068476,-7.4062268427576265,-0.21489920208430974
232,2.4132611961575403,11.056636560915729,-7.149692997311927,-0.3860258433054367
233,2.219416057087436,10.99269587910841,-6.8898968009884936,-0.5451875737450151
234,2.182932966818682,10.94051496322264,-6.679648455587351,-0.6678507966792067
235,2.16901000721954,10.898572900816442,-6.514540081513025,-0.7614954110889416
236,2.007469025997144,10.851752511729819,-6.368700495006924,-0.841794983012353
237,1.799148372983161,10.792701446542363,-6.213216711752302,-0.9022060531205458
238,1.6952635396779157,10.73028259295824,-6.033137957913638,-0.9325775321992715
239,1.693666700526012,10.67677272528156,-5.795284534002609,-0.9218288968826297
240,1.7449443058720806,10.626630248577449,-5.45092871581764,-0.8692133323574011
241,1.7467465031537213,10.565143094652274,-5.017280056733298,-0.8256205242577704
242,1.6045010632028303,10.474784695321965,-4.598538787101732,-0.8457109438688744
243,1.4474667925909672,10.362711389752892,-4.285514433411926,-0.9116628112500411
244,1.4422342723773707,10.242683456468514,-4.091527880965817,-0.9829712599546295
245,1.4768145011776497,10.125679927838732,-3.9817276432422894,-1.0606477463747597
246,1.3952062549714153,10.014222177547516,-3.9340713680655672,-1.1498398901169602
247,1.2828099099831398,9.907768631608315,-3.9590582068026947,-1.225441611317934
248,1.260505167208723,9.812417071291833,-4.025907589561533,-1.2675987806735014
249,1.323801831219005,9.730012497784813,-4.037536292401872,-1.2824001834970327
250,1.4287447754865386,9.659110504481383,-3.8954823767216444,-1.2876234886929472
251,1.4535404249089874,9.58379652681841,-3.5942523623090885,-1.3230148697039656
252,1.2910968728079613,9.485924389700504,-3.1872705977539915,-1.4180107374392878
253,1.097792957480959,9.361448229717535,-2.7696365892778725,-1.5277521882923553
254,1.0756345611757805,9.214654355520008,-2.444547679225489,-1.5875881843501278
255,1.1345485988311188,9.05134584549134,-2.246825469263996,-1.592970304591515
256,-0.5984338869735499,-15.580889291206132,-11.178182169092047,-1.397337587319348
257,-0.7413394855845542,-16.024368179259056,-11.592078460940405,-1.5040358708878465
258,-0.8754711831184194,-16.437754625370445,-12.068332296222076,-1.6160141310046312
259,-0.8985817699603218,-16.810906103144106,-12.561254718452297,-1.7098562065411438
260,-0.7447440380463556,-17.141840653535812,-13.016088913614846,-1.7725401528588707
261,-0.5655533728374338,-17.45396517617933,-13.430361500145665,-1.83127591135649
262,-0.5203288734727041,-17.766040277784473,-13.807444319257735,-1.8986152917375834
263,-0.4787969191332233,-18.081854080018346,-14.154408728952596,-1.9752589735721002
264,-0.2821367066891217,-18.382821132745672,-14.457246127786815,-2.016275657293535
265,-0.0008168462384446074,-18.6469525881694,-14.713454463762261,-2.003410486998586
266,0.25992693142735024,-18.870355250854608,-14.954435107222158,-1.9655619613184017
267,0.46562946623758117,-19.061988075588133,-15.202600048942772,-1.9223328933983375
268,0.602692825015283,-19.250286115387755,-15.474337465161016,-1.8571036679638255
269,0.7661714153599668,-19.477113314936886,-15.732297370326588,-1.7822590931725883
270,1.038423789178973,-19.773856167578003,-15.954061302533773,-1.7111515780772988
271,1.2339157596583021,-20.129996130063937,-16.140684866909808,-1.7015900271235886
272,1.177929760378182,-20.495910845526577,-16.33164197636888,-1.7788881124398146
273,1.051209296069785,-20.81668121015536,-16.562108970457576,-1.899737431544312
274,1.0643863069573165,-21.083065560047583,-16.780521370250316,-1.9765437553940342
275,1.1803977538041168,-21.32922554131288,-16.86680912223377,-1.9624649568377568
276,1.2934221412810971,-21.563839205222692,-16.807023866782515,-1.9049100680168083
277,1.2653012446291312,-21.75642000499328,-16.712171599116243,-1.9022410831981416
278,1.003344892616026,-21.89664316138419,-16.653788855889815,-1.9865345331553186
279,0.6854331233186056,-22.006758713995524,-16.621400811977445,-2.0764874796878736
280,0.5294889255428334,-22.104384950947047,-16.61187236331467,-2.0570683844408033
281,0.4927212917025731,-22.183954753097904,-16.65643246396305,-1.8951150747351209
282,0.4689676486755708,-22.245952630573953,-16.74402861524234,-1.61239675939327
283,0.46854619150443266,-22.300562821327116,-16.8118779311896,-1.2778964345959545
284,0.4883844327979114,-22.36626725148187,-16.829406647950837,-0.9828650536043122
285,0.4516456587686065,-22.437772023381743,-16.81678027841752,-0.8080972371482917
286,0.2974449468604947,-22.462021899090715,-16.799374005475823,-0.7843280998042863
287,-0.018897472173737266,-22.369126341848226,-16.794727057523975,-0.8414758465682377
288,-0.49137442417401317,-22.136006640811367,-16.81393496536397,-0.9030477478377722
289,-0.9269931298389138,-21.79901923487958,-16.823018980162253,-0.8787768121188112
290,-1.1499462418720416,-21.403835426791847,-16.717105314386146,-0.7833585110647089
291,-1.2946144461282505,-20.97331555403228,-16.389303268629096,-0.7118844822217707
292,-1.5218755326878728,-20.51515136704231,-15.825666876663593,-0.731487260435546
293,-1.7349552426239194,-19.988405060921355,-15.20505936517705,-0.7844505555786379
294,-1.7993927134137393,-19.274217264280505,-14.840534403249539,-0.735729345263364
295,-1.642613214579051,-18.282432517087045,-14.8829035680142,-0.49538291068563295
296,-1.2633375049024562,-16.977787227519446,-15.175470544092484,-0.11098115927844315
297,-0.9053801398088202,-15.24120375958826,-15.407183513044455,0.2510958154046965
298,-0.8074719306718228,-12.916457966024995,-15.374440561993499,0.4368924306507442
299,-0.8509134645189909,-9.944384686478143,-15.108708605821315,0.4282154984825216
300,-0.8374396161591162,-6.385795245212191,-14.769321670071664,0.3434913445868395
301,-0.7579526492665363,-2.459503972977118,-14.373886028042634,0.31690159865086687
302,-0.6446254483201785,1.5558369888979335,-13.761084174557046,0.39735211828152617
303,-0.5157916852723521,5.5326811220127095,-12.974024785192261,0.5645213968448395
304,-0.41542039288115523,9.483992819479523,-12.317727258102526,0.7920182080609042
305,-0.33825685711114367,13.448328651099068,-11.968580610972753,0.9876152847355824
306,-0.28254969908124455,17.447705103399784,-11.77600231882896,1.0707487834463492
307,-0.3940410434955434,21.469456483045864,-11.428261523792447,0.9943080739149155
308,-0.7746604367435035,25.49207148907324,-10.923861934989473,0.7816912604853294
309,-1.252776274997232,29.424876947698305,-10.612654889836385,0.48860697110675766
310,-1.6237839382964825,33.0365059826206,-10.579031240288062,0.21377715421069893
311,-1.849540975178886,36.06457989489037,-10.5302320058577,0.08224739887488774
312,-1.9715240086619334,38.33542712087218,-10.24069503707254,0.05924509463010558
313,-2.1403181764287744,39.777826699491975,-9.696265132117597,-0.05778122609752573
314,-2.4982523578959452,40.39472029321541,-9.008534124481153,-0.3905220574087033
315,-2.935344653214417,40.22039025556279,-8.315563687196283,-0.8852227630325122
316,-3.3080421629715877,39.26404687268602,-7.7072563088119805,-1.436626302076799
317,-3.730652853655457,37.48213240561368,-7.20385228724444,-2.0100129926379795
318,-4.316340485119984,34.875124010606534,-6.734558977832292,-2.5986681508477183
319,-4.880737330468894,31.50887496321541,-6.148699588389593,-3.202964553587184
320,-5.2143660969395444,27.459513783782192,-5.329747055927722,-3.786385774018091
321,-5.359239177700845,22.79659311370416,-4.477684158776352,-4.307141561251125
322,-5.436753518071274,17.579593353556525,-4.006775465187639,-4.690946727640788
323,-5.5477422693572915,11.842206176262835,-4.052701595992013,-4.934483703952738
324,-5.692043145836248,-1.7262328205261435,-3.9078715204212324,-5.131385052637492
325,-5.87118456351309,-15.015494734088513,-3.6829147530173163,-5.343613109543099
326,-5.9626099944277176,-28.039649786317213,-3.438582070743066,-5.5683923156977055
327,-6.065852363601412,-40.796341345965836,-3.227627207895236,-5.830901098535709
328,-6.309948014260127,-53.27232602443612,-3.0607907904800764,-6.1478254223198405
329,-6.587581458692899,-65.46408709544286,-2.940444983519845,-6.478808272616425
330,-6.758422028686985,-77.36402775258048,-2.850989516415066,-6.7740128031722
331,-6.836160543420265,-88.96306557348542,-2.8031715150390104,-7.015142934521741
332,-6.882529614008152,-100.24659697255672,-2.7946876711853026,-7.208080831288828
333,-7.003161955213716,-111.21892548741431,-2.799546024359943,-7.402580568615987
334,-7.287184620223233,-121.90759822309414,-2.7627650282519975,-7.653622557566848
335,-7.595279859698502,-132.33146531434514,-2.6647817269746135,-7.951074536670947
336,-7.751645657739603,-142.4844311679813,-2.5391256574034733,-8.260069319082694
337,-7.86660803202377,-152.34705510872928,-2.424472482899799,-8.570101055669278
338,-8.099772647544548,-161.91126122738356,-2.32877073383453,-8.875117198936303
339,-8.376387808702615,-171.18623215128332,-2.233137910247999,-9.169725496567606
340,-8.580553974478677,-180.17352746174802,-2.1287685458529397,-9.450916928067139
341,-8.69722587051722,-188.85955577073642,-2.0008572933006037,-9.702266203137807
342,-8.743078883317407,-197.2385982149926,-1.8580783191272399,-9.903673003948965
343,-8.815658163780224,-205.31390643764502,-1.7031241484470336,-10.050484639300686
344,-9.00701950945531,-213.09056497052495,-1.571799637885968,-10.144182640307035
345,-9.193009795207256,-220.5556808480045,-1.5147899641031388,-10.176779507558035
346,-9.21109161088197,-227.6968054305717,-1.551650258552251,-10.148127248502105
347,-9.103704787544388,-234.52302749022067,-1.6205973662645188,-10.088222025642317
348,-8.975529249214329,-241.0524174160754,-1.618142923220143,-10.033611844480562
349,-8.866943278802728,-247.3020345587622,-1.4721099979325383,-9.999521556836152
350,-8.80148700722883,-253.28502581859726,-1.190367593499201,-9.990509557315043
351,-8.773390327874449,-259.00340530722565,-0.832966773396052,-10.009993312014041
352,-8.751015122558762,-264.4466320520625,-0.46162728764257593,-10.051608713036508
353,-8.723652569498807,-269.5936883265323,-0.15020535956605613,-10.101729841782031
354,-8.69135955554994,-274.42194414635264,-0.01326827856917194,-10.144104023227792
355,-8.646278611465178,-278.9128067224556,-0.13917302274670612,-10.145858824448565
356,-8.584538488719438,-283.0629270188333,-0.4675744993119358,-10.087244664226946
357,-8.517772560903115,-286.90200275579434,-0.8036581289562588,-10.01240614118077
358,-8.451798567859251,-290.47054817244094,-0.937388377169478,-9.976327027630326
359,-8.365089733817038,-293.7907391042504,-0.8179310966105736,-9.982866665687284
360,-8.233600898491302,-296.8707557015512,-0.5198776341802506,-10.01064857927037
361,-8.035056829503972,-299.7060974288916,-0.15830947222865482,-10.020570267561325
362,-7.766296415873697,-302.28040127492676,0.17711318269472165,-9.973659085626984
363,-7.516171376765114,-304.57499558148,0.45557041539730736,-9.884529318935964
364,-7.371371779754364,-306.5714763658785,0.6503741878877792,-9.785572927041438
365,-7.250958909614689,-308.2531600703778,0.705690276070037,-9.66704524635151
366,-7.045313389719988,-309.60947045002615,0.6180003790579186,-9.515355267793772
367,-6.793947208347742,-310.6367337424491,0.4345128156400063,-9.351697911525331
368,-6.569773327833427,-311.3388954175457,0.22373910227195407,-9.203840767099154
369,-6.393468152865207,-311.7301479578522,0.02364284452916672,-9.088038434845926
370,-6.264306938849586,-311.8260678677582,-0.14948748847806856,-9.012059751058047
371,-6.098691845406329,-311.63345234698755,-0.2932722069137702,-8.969761893229219
372,-5.809366851084359,-311.15234705418266,-0.41953318910834464,-8.94161461049397
373,-5.499641886260809,-310.37658371241554,-0.5510335663058366,-8.899197327216577
374,-5.294464616243091,-309.2989485799628,-0.6929499106523183,-8.815383762377305
375,-5.0887261648156885,-307.9203368169742,-0.8391292917975902,-8.676410098757762
376,-4.7445817244707325,-306.247901979978,-0.9527825962031365,-8.482177025162027
377,-4.2907284717242495,-304.2903938841667,-0.9901943465475096,-8.243778325849783
378,-3.8075846851463524,-302.05723817643826,-0.9474496709277781,-7.977871480069991
379,-3.4053375194750504,-299.5622757527874,-0.8603113792108007,-7.707678361613926
380,-3.1731931641609443,-296.8125287142422,-0.7814887608410712,-7.449192914066464
381,-2.9774101017336028,-293.7881653257759,-0.7162178178935734,-7.177214028885239
382,-2.651022456568949,-290.4705997372956,-0.664061095451066,-6.8779260975979835
383,-2.3134507186672173,-286.8542276027377,-0.6202344497203967,-6.548113539447181
384,-6.357729707615811,-393.2789256803551,-10.601039904809785,-5.262509761212305
385,-6.355074378601595,-404.2747135148381,-10.889616321884187,-5.02482313137037
386,-6.226934531628855,-415.0163333576063,-11.134018606382133,-4.724752657189381
387,-6.033904930699827,-425.4892968810389,-11.301074578706274,-4.419335841811055
388,-5.872580175671304,-435.67940615773665,-11.38775547312712,-4.168888387500512
389,-5.883754069256226,-445.57275085641135,-11.441068389382293,-4.015519166607024
390,-6.139695094933429,-455.1557054416678,-11.520824143219285,-3.969418049162163
391,-6.411947986553396,-464.4149263780477,-11.615638304726232,-3.977957441522107
392,-6.460170217416935,-473.3373493386814,-11.687460383748876,-3.9780416488003625
393,-6.389046903129286,-481.9101864189119,-11.719480094832491,-3.9677166221310682
394,-6.374980661704159,-490.1209233552251,-11.701788658121524,-3.9600987180602107
395,-6.432694899091552,-497.9573167498268,-11.629999841811877,-3.9380590090648653
396,-6.545033678461323,-505.4073913011973,-11.525075277280495,-3.88631555214614
397,-6.6705910974005365,-512.459437040948,-11.435221289073237,-3.8062999377108575
398,-6.7625023115029785,-519.1020065772933,-11.412352700121483,-3.703918382804361
399,-6.914759197985143,-525.3239123454542,-11.516159974819407,-3.5938023548702325
400,-7.212574099145404,-531.1142238652964,-11.763711146417556,-3.4930057211952827
401,-7.504025001819603,-536.4622650064962,-12.056814323302163,-3.397878397443103
402,-7.627337530950126,-541.3756111237394,-12.288236912112865,-3.304160650962199
403,-7.652446492618766,-546.0526573719516,-12.43159915837761,-3.2434172458009964
404,-7.680097781689065,-551.4982648114291,-12.51926094365147,-3.234283859611244
405,-7.698168943882138,-559.7418056574966,-12.675996279239987,-3.2317703603075505
406,-7.669809765698484,-572.523185249518,-13.0073751029272,-3.1790216283759447
407,-7.5085453455272475,-589.6902164664558,-13.446283844234133,-3.0404828220376725
408,-7.153237938629598,-609.2339126279634,-13.86311045110882,-2.805798921142424
409,-6.760382392918469,-628.6969356197541,-14.162804210546996,-2.5256960827462986
410,-6.49290910607381,-646.2818346876383,-14.286141868642089,-2.259657455531479
411,-6.240338949589225,-661.0640495398504,-14.257754282014083,-1.9979582428867981
412,-5.862743410121588,-672.778622996152,-14.148857635188268,-1.7183477549977568
413,-5.421287667906363,-681.5155518094564,-14.013630420751015,-1.4379908158093726
414,-5.001275933429406,-687.4849098636707,-13.89490699140666,-1.1750570633139357
415,-4.625011174127968,-690.8886909986726,-13.812547959562584,-0.9452510839435002
416,-4.280682930328099,-691.8761697883912,-13.768437328084378,-0.748825958552743
417,-3.839413318486469,-690.545425314728,-13.777532914602205,-0.5190065727684932
418,-3.1822629642843614,-686.9613445976522,-13.840905672507269,-0.19602892637805813
419,-2.4011290226954807,-681.1734871334701,-13.912784993019406,0.1811608120213919
420,-1.6295508725593104,-673.2277368790052,-13.937792432258423,0.5479948207950996
421,-0.8645068844038679,-663.1716473536483,-13.887788099417323,0.8775586146930932
422,-0.0777938811750589,-651.0556206096885,-13.746898060559303,1.159992672332784
423,0.7136167058930258,-636.9321457081033,-13.498859139591277,1.4093422737025043
424,1.4971421645758514,-620.8545859006978,-13.148086147428675,1.6572071118232707
425,2.2678505087879546,-602.8762187655576,-12.730226069260947,1.9200979344937406
426,3.017736780272359,-583.0497014766897,-12.29315747560645,2.213449512873524
427,3.749883532462684,-561.4268780049375,-11.88688025295552,2.577874075724101
428,4.471284667491439,-538.0587796745926,-11.543342523953545,3.0413744047968705
429,5.172885702374271,-512.9956976698749,-11.252148497078172,3.57633504067606
430,5.849514919768829,-486.28725795963123,-10.976706786940344,4.141553540902086
431,6.523754961269576,-457.98247222133756,-10.670368349943265,4.727364793143276
432,7.2079780841133765,-428.1297633228011,-10.288301715031857,5.322806975246667
433,7.8956824826844025,-396.77697360974065,-9.813979360864522,5.897359580343118
434,8.564392102437678,-363.9713650639458,-9.250721310265762,6.423945506967766
435,9.099700503350174,-329.75961715073004,-8.590406898811187,6.86763925485691
436,9.435305595394546,-294.1878261433581,-7.849240370790906,7.222091477832393
437,9.78867148087917,-257.30150554530906,-7.11171832497697,7.578107980252793
438,10.37673419375464,-219.14558831957658,-6.457619679916203,8.028854659516616
439,11.089536181053646,-179.76443005897266,-5.900561074206051,8.563554876038575
440,11.754695353023571,-139.2018120528615,-5.408177961546108,9.134231413128985
441,12.340963349000837,-97.50094491587367,-4.899349543480876,9.705434813424612
442,12.864651315966881,-54.704471856439646,-4.288183430048473,10.242301940590558
443,13.426917366650805,-10.854471941142396,-3.5549781518273376,10.736082679354308
444,14.024121130399386,32.89453247214605,-2.752282980756652,11.139229612850407
445,14.483136768250896,74.17831657836676,-1.9163105382540677,11.368819155731952
446,14.565181517833647,111.95933202800057,-1.1193378470515785,11.343592260762973
447,14.403910149169562,147.07461876888394,-0.4666979651569171,11.188497444817843
448,14.243050131904182,180.7498493417332,-0.01893033574536257,11.079659947437552
449,14.108371170515078,213.9175929636935,0.3140681186201591,11.029969812373142
450,13.987496818311485,247.06652748816788,0.645661961885017,11.01583717087805
451,13.950546941629325,280.34034708965413,0.9519864449602611,11.081314443390834
452,14.009483221179389,323.88960955185263,1.2726314367692413,11.137566397075206
453,14.306377178764603,366.31341020609824,1.492560936753638,11.317705735972478
454,14.873664324217286,407.5376619847716,1.6315139760296207,11.59870444230431
455,15.449585934358396,447.5143236060144,1.75967471903111,11.873626935965577
456,15.731206977157969,486.22162375807534,1.952176273245693,12.020466180494353
457,15.73784537467922,523.6551244102124,2.214318193741338,11.958565176910295
458,15.601615829661696,559.8184914799515,2.501106486945803,11.66985277314135
459,15.350107748738775,594.7173404992134,2.7308857275689515,11.260290294927993
460,15.01102548842831,628.356337106339,2.8297314356059218,10.875162666144778
461,14.619185447648533,660.7384959014545,2.7870029897603312,10.571880651774784
462,14.197600038818946,691.8655302172564,2.6517193430297876,10.352832292858917
463,13.865984904369228,721.7384676392644,2.5559596669619884,10.204866991688867
464,13.721988666005437,750.3581503922428,2.6249094896288203,10.087276420889966
465,13.611039518351008,777.7255200113757,2.8411570329596647,9.926583136198843
466,13.344563281136596,803.8417236627815,3.1237155107170014,9.673031412055568
467,12.986369119597471,828.7081174031474,3.401568557188587,9.375414272722606
468,12.663355346744629,852.3262296681983,3.627418552188582,9.109438842275905
469,12.400857735973627,874.6977220279695,3.8447031868219694,8.891422852613205
470,12.186822506554291,895.8243618018604,4.112743684463445,8.707184462875244
471,11.926710799326138,915.7080078265424,4.435619650298553,8.517191039861848
472,11.521660657270761,934.3506053144501,4.76149915530858,8.276415340684741
473,11.061417984533207,951.7541851877766,4.877682137524769,7.993378382370993
474,10.682662296405134,967.9208646467383,4.614238828310477,7.698266373124735
475,10.371542104424751,982.8528473502087,4.161575694653095,7.395693553016559
476,10.074298994275727,996.552422822255,3.8277951517388673,7.088277250772262
477,9.790368174310494,1009.0219649044718,3.779697390354888,6.779894145330549
478,9.510553937398658,1020.2639302945485,4.072262365454082,6.471635036638696
479,9.23274626349178,1030.2808563375338,4.585443233004205,6.204831483133735
480,8.948980508933115,1039.0753592315266,5.097758255109524,6.0069169985519295
481,8.517059509805547,1046.6501321707879,5.462668566782714,5.779358413380108
482,7.822739577958923,1053.0079435142181,5.599795000101921,5.41665629808143
483,7.068422874570774,1058.151635082722,5.462287439329269,4.969487596594619
484,6.510662081339422,1062.0841204454125,5.089270753485295,4.5354954483451415
485,6.107113827591154,1064.8083832557434,4.64619423240598,4.146173298064823
486,5.736111934352096,1066.327475592936,4.3180243850238496,3.812689186948107
487,5.414352414437213,1066.644516319719,4.1882108784165135,3.5368213869328224
488,5.167879920983219,1065.76268945797,4.260939145657114,3.302405301638197
489,4.991474470244048,1063.6852425769446,4.484382581228003,3.1071912553244796
490,4.867684661491793,1060.415485201308,4.755251187662159,2.955269282147212
491,4.6787008341527505,1055.9567872357081,4.962061213653354,2.8189349829018933
492,4.31053662243916,1050.3125774073249,5.018560945048713,2.676674346368229
493,3.8348469835338173,1043.486341726287,4.860491811586764,2.5830671251693014
494,3.3761084289593635,1035.4816219642098,4.498676325207778,2.5885548619108043
495,2.9526188968534033,1026.3020141506593,4.09249463374201,2.63573573465379
496,2.5497111222998905,1015.9511670864175,3.8321005611107815,2.6396570293837494
497,2.1659562689659864,1004.4327808742023,3.818141015173116,2.5565206177528497
498,1.788585227284815,991.7506054671175,4.053859463085142,2.3763126133152257
499,1.4088978715167129,977.9084392342938,4.402042266821821,2.159959118697563
500,1.0281827191403217,962.9101275435937,4.6805716491801075,1.984754784824089
501,0.6403866427528724,946.7595613614778,4.781631438033304,1.8515077830306816
502,0.23716803520611407,929.4606758699217,4.6845210108767406,1.721012746558946
503,-0.16076401056570247,911.0174491002615,4.530648738436181,1.553010990725901
504,-0.544450594134927,891.4339005839361,4.488283943524135,1.3075688215762613
505,-0.9940025228509823,870.7140900200292,4.52407776368109,0.9637239055787706
506,-1.5784191520633786,848.8621159595241,4.5311026702949135,0.5330681023226532
507,-2.253353809742304,825.8821145062037,4.46831792819288,0.06517646602236468
508,-2.9261795344181656,801.7782580340734,4.3209997953961805,-0.3775071530631252
509,-3.4397457603657937,776.5547539212488,4.12728741017617,-0.7416221957316441
510,-3.685474358833818,750.21584330021,3.946671145344705,-1.0001837332530483
511,-3.865971049521606,722.7657998243387,3.7716617325995943,-1.191257809369466
512,3.9467672933157933,341.7141740239498,-10.261918168150167,4.218562307618613
513,3.7705762468774515,347.6462582837092,-10.620401487436258,4.170643372807452
514,3.6460697651947207,353.20863466543966,-10.929259484792665,4.106211271090559
515,3.5770441596520923,358.42219819526326,-11.182166747908042,4.029580441452014
516,3.5396199649967723,363.2878334963846,-11.407681958444876,3.9411589088056203
517,3.4674228662650166,367.7747633207815,-11.680441312106515,3.8398469907143467
518,3.3043725644082804,371.83238941561757,-12.070855903681334,3.7217859807423044
519,3.167184456536214,375.4128282258762,-12.590647794859686,3.599753888486896
520,3.167696331305768,378.48758410045883,-13.202659639098481,3.4828322246434658
521,3.1726653394677276,381.04492491738245,-13.831829036203414,3.350612746302358
522,3.033286864778742,383.0857305071906,-14.395433326475306,3.1805511136706803
523,2.7953851724259398,384.6244778170857,-14.82176223468712,2.964151616757854
524,2.5526813263215087,385.7045695721045,-15.113981941822958,2.7089571143714317
525,2.3941102831548693,386.39553026498993,-15.31826766850154,2.460436518382816
526,2.3813956698610514,386.7314504534239,-15.556804419698528,2.264646314953633
527,2.4004766307772796,386.68026630951005,-15.918342109429757,2.1116297815946057
528,2.326398563701176,386.18997997115923,-16.35876434793423,1.9774900374004716
529,2.283604986975145,385.22602070407436,-16.78619426005668,1.8744699224678194
530,2.4047816056871243,383.7802452094627,-17.097120081161666,1.8084958751601918
531,2.574070884763938,381.85820767098664,-17.29754363229371,1.746051906262321
532,2.6490005226365767,379.463958755439,-17.44430366634387,1.650767231898564
533,2.6125270061371255,376.5983919268133,-17.58175131747102,1.4965371496003645
534,2.4887597533202346,373.2698650069119,-17.74633346282899,1.2718609190640866
535,2.3880265541362773,369.4880742244696,-17.949567769541794,1.0195724365453234
536,2.404372919354803,365.2360924820896,-18.176642021682063,0.7798241635523521
537,2.3743995187415554,360.4700937095543,-18.386288619639082,0.49924560662853834
538,2.1310836262727095,355.14695394435034,-18.54201241449626,0.12528358558266484
539,1.8430406457054158,349.25388331174076,-18.67348781669062,-0.2924445786717037
540,1.7047766107825897,342.81660997296984,-18.814861883589902,-0.6835619225295329
541,1.6329741626722039,335.86995182356776,-18.919341554607314,-1.0149225599245888
542,1.5087341504308511,328.4254969878091,-18.96291892962875,-1.271427981250673
543,1.3229144372413646,320.4707292986807,-18.935688550981382,-1.473956599926821
544,1.0982497151967514,311.9938400070138,-18.919331247085555,-1.6567294858934516
545,0.9603009843715464,302.9958097082466,-18.981778148069747,-1.8143687239133683
546,1.011991672605398,293.4502819583019,-19.166176574969796,-1.9386527668328741
547,1.0743612961637155,283.2616276220674,-19.395167183083583,-2.0630966710816088
548,0.9557088041733641,272.33781968537323,-19.56435805131735,-2.2178562630708605
549,0.777834693817099,260.69687828915494,-19.6610619363801,-2.395721403149528
550,0.7041761154681108,248.44024285308697,-19.695500612328278,-2.575792074590177
551,0.7088300700365119,235.676668842985,-19.65427365459563,-2.73003278452696
552,0.7265363150910498,222.48817885525784,-19.526429499932735,-2.8353851113839976
553,0.6962037950541884,208.91503538546695,-19.283933591929493,-2.902886619850211
554,0.5671953519923084,194.97155289499258,-18.911881477810695,-2.9565096396733628
555,0.4179187109346363,180.67563584317026,-18.462417704903057,-2.9985883443760635
556,0.33737466962138096,166.04815141161538,-17.99681182670841,-3.03237109371286
557,0.23810468417199937,151.0908313418048,-17.542434606491856,-3.091545646302417
558,0.02591565368361349,135.78746992934603,-17.099697730262083,-3.1990149373320733
559,-0.22620151644135886,120.12060242346922,-16.609053657386152,-3.3246431314730085
560,-0.4233291440165045,104.08567582506208,-16.02298766636423,-3.42811406426478
561,-0.5437525922392057,87.69713443156573,-15.403738527955205,-3.497907106215857
562,-0.5926888898634988,70.96133244730186,-14.83972358575993,-3.5351891012516754
563,-0.6363523624365375,53.86232034412996,-14.377765668726223,-3.546528476892868
564,-0.7411103907486473,36.38457005763131,-14.027176316270118,-3.549330782774076
565,-0.8317524035642334,18.531513777336816,-13.723280549682864,-3.5666672315758445
566,-0.8291259213904663,0.3270748556607974,-13.381236460641432,-3.617987698499356
567,-0.8346768347885659,-18.21231590091455,-12.978924539545494,-3.7175893079641242
568,-0.9525688378819981,-37.10082270446005,-12.518171723634616,-3.8662743718628128
569,-1.1242175767616727,-56.3679041951174,-11.988305913679476,-4.039071211920816
570,-1.2667844885508683,-76.04236070573508,-11.388400896785573,-4.209558513694186
571,-1.3329277352375335,-96.14507216407314,-10.731872461449797,-4.369439048505339
572,-1.3100655655146949,-115.59987781164695,-10.066920801956993,-4.504556910547154
573,-1.350130150224521,-132.14254507605307,-9.428642781544529,-4.6177014967818515
574,-1.5873180323344438,-144.79438672198643,-8.865962770349725,-4.701536509593407
575,-1.8398787431226071,-154.4043802706006,-8.343346958563938,-4.735860396060051
576,-1.901641314824769,-162.20218085370925,-7.8100937786189615,-4.7128660514679686
577,-1.8966294491697384,-169.12338175447545,-7.32174837111632,-4.652922404624942
578,-1.9755507521353077,-175.66367158230085,-6.938303340243582,-4.582183063381661
579,-2.0434333814233745,-181.97906901972914,-6.628030066082907,-4.513738050453403
580,-1.8540960545553622,-190.66457793243404,-6.426101229138772,-4.481428237478507
581,-1.5334849210918404,-198.76622156631888,-6.142896884921099,-4.422645755008258
582,-1.095003954671411,-206.2122642291164,-5.71137026475487,-4.311981923879833
583,-0.6694586732351295,-212.95618937317167,-5.165653755655297,-4.167384161489602
584,-0.37836207187272214,-218.97691666462615,-4.593809370280486,-4.0170232423739485
585,-0.102085018503209,-224.27069318599933,-4.0767340369221685,-3.843853585639915
586,0.3190169124990062,-228.8623121402192,-3.681660606728693,-3.6244816018996624
587,0.824346135431625,-232.83771295271956,-3.4603150202062243,-3.3711796876761104
588,1.2891958702358162,-236.33644910563598,-3.4065613783910123,-3.108437822630522
589,1.6528866567593756,-239.48618616021676,-3.4005123018083787,-2.860529935382206
590,1.882509497077575,-242.34298960634843,-3.3244807471637383,-2.650506458961583
591,2.0126707615594976,-244.9023097840033,-3.078164657620951,-2.483644560663228
592,2.1143989277175086,-247.16168091853893,-2.703373877813377,-2.350998629279011
593,2.209295196738011,-249.1507311834522,-2.2888045223977236,-2.2483081209364526
594,2.2962868439953765,-250.90663447760457,-1.949017130639472,-2.16241289817897
595,2.386145429070727,-252.44105867523984,-1.7208186376710621,-2.047828641680159
596,2.4816413766395966,-253.7468282877791,-1.5866791172625871,-1.8643028483961361
597,2.569390888265551,-254.8152168729732,-1.5099299818985001,-1.6155065440900371
598,2.6470760804739806,-255.61992551760432,-1.4420645562917718,-1.3304997169665218
599,2.7291832342882394,-256.12098603785654,-1.353623503742667,-1.0584033980081227
600,2.83896119255851,-256.297058204423,-1.237752515106056,-0.8438325194486229
601,3.059865850430784,-256.1493737116971,-1.101365070451334,-0.677833463247927
602,3.445323948421206,-255.6950874054902,-0.9597011757944264,-0.5287165584629939
603,3.826873838675367,-254.96085371493157,-0.8295824259089966,-0.3852786603140965
604,4.017451941456942,-253.96881174107932,-0.7156139932180186,-0.24228163242146675
605,4.103397348393405,-252.72659087979636,-0.5922230747586852,-0.0964185860292069
606,4.235692415889087,-251.23877106446952,-0.42708228068636456,0.05076899765514349
607,4.425132202494035,-249.52965553752787,-0.20932867090248322,0.20544620299128824
608,4.6370004494248045,-247.63655189806335,0.04902530319562791,0.3739929815952065
609,4.767559417193475,-245.60077299455344,0.31137126670077936,0.5482235636106508
610,4.720753520756022,-243.47217140977253,0.5231892274006327,0.7169770960850486
611,4.650225938184491,-241.28982234553834,0.6277313296673556,0.8797605066513735
612,4.7432248190832045,-239.04628723522575,0.5930962247817719,1.0388310474294662
613,4.885185141770251,-236.68823241533758,0.41385131121919827,1.1902575919856504
614,4.898746440873584,-234.15411717236904,0.13591750633718502,1.3299292613000442
615,4.800690774632358,-231.39720813086967,-0.0757870555624184,1.4614573409736495
616,4.655871760227207,-228.3826607547711,-0.06419530921993799,1.5851139700385748
617,4.515171283199087,-225.07784837345073,0.15360384302920754,1.688903127387314
618,4.425677004672763,-221.46014258232069,0.4740647891053262,1.7602827854833327
619,4.299586225506895,-217.54231259094865,0.7881631040370813,1.7802586070567814
620,4.039471702885094,-213.36906155743873,1.0003049375055781,1.743251138192899
621,3.7988157043831725,-208.98931676971173,1.095871682878463,1.7134520338309538
622,3.757019360026138,-204.46067822403316,1.1170647238299272,1.755863273606294
623,3.815910988680999,-199.85214105201848,1.118463541859477,1.8271438957672423
624,3.816154712140459,-195.2052026454806,1.1447108037758313,1.8582718402927254
625,3.746251861333219,-190.5265295166061,1.1836310429551724,1.853519107933011
626,3.634763816939443,-185.82292982284378,1.1945731934076063,1.8347728904446603
627,3.5344762414245023,-181.09970079760416,1.14812794230726,1.8077526853411414
628,3.501914094211525,-176.33856298788666,1.032907177674836,1.7757673684487574
629,3.4458353179939873,-171.51070593074326,0.8818548023073856,1.709309440352902
630,3.2600065223227226,-166.60137615534777,0.7418550826879767,1.5797230176542696
631,3.066381841997233,-161.6204434430328,0.6305893429484116,1.4328451434936162
632,3.0164698171946034,-156.58877971263462,0.5399510360515527,1.3272425869029345
633,3.040567992390405,-151.51925727492463,0.4304870038869813,1.2520446071857416
634,3.0225393908387987,-146.4364423164552,0.2582782416302114,1.1771125176203443
635,2.950330979215904,-141.38248573284324,0.008226850186511758,1.0992755938484458
636,2.8405825738243835,-136.38284966069446,-0.2986484555254034,1.0189804165963123
637,2.7596439458403963,-131.43041782976826,-0.5868637944623247,0.9383363865118394
638,2.774211974637541,-126.49274766265516,-0.7724071596952214,0.8627499191510565
639,2.7738245754564512,-121.53261430388237,-0.8215819758927354,0.7803669929705135
640,4.727663107794123,11.558894466222105,-11.136366412104174,2.843673219140336
641,4.764483855816179,10.959308771993129,-11.491001729585586,2.9933099752149355
642,4.893555046832617,10.350863908579344,-11.779004423897273,3.1753037451823025
643,5.092893343467449,9.75680070336347,-11.99855733575177,3.3777537627876275
644,5.3136195814433975,9.193138776094742,-12.1762053568525,3.5837114030137234
645,5.495453111444662,8.655698651931589,-12.356038962979223,3.7600457318393654
646,5.59080722876485,8.134513686456076,-12.575989938230537,3.8803924761053863
647,5.70205621690508,7.617212109742487,-12.842051976456954,3.967524583509722
648,5.93026872162305,7.096848836956212,-13.12639643585787,4.052457966040466
649,6.149736443991059,6.563363207472167,-13.37046872421489,4.121567601572679
650,6.223095239577514,5.99289959146092,-13.514687478765602,4.158113966964887
651,6.222915818209765,5.370918537208728,-13.51344902175251,4.183916368330136
652,6.253909562497448,4.710791263423016,-13.37160207714919,4.218062396855217
653,6.336190976674502,4.040197926167268,-13.198676789007878,4.247199201896998
654,6.462216572702821,3.388649494140923,-13.119015754377065,4.249291529483019
655,6.553497374737794,2.781529473065296,-13.17762778401328,4.200095253938566
656,6.534880110826744,2.2338558688269265,-13.364309469151376,4.0833024272384755
657,6.505452739386333,1.7501586551743946,-13.620155214236625,3.9179346275698057
658,6.571547580252687,1.3270286653198924,-13.864778726855995,3.731611851742396
659,6.626411539296967,0.9543588441772395,-14.044104745158455,3.525109722792437
660,6.555597772511212,0.6272623279229249,-14.135211271539344,3.297353559950771
661,6.428996673041395,0.3462192021524395,-14.155318186353814,3.0620712580312124
662,6.342098070336575,0.12231703781167746,-14.139620302761562,2.834983878654397
663,6.338197660221317,-0.03344391765177335,-14.102809324170828,2.641555504314607
664,6.425107263860354,-0.12530944831519203,-14.052503220726367,2.496769178882464
665,6.469940100269718,-0.16264934056118907,-14.004512231781726,2.3649515106847923
666,6.3524891715436,-0.1464207659379742,-13.968861559013636,2.207210376555726
667,6.227155566031129,-0.08335656872320013,-13.941593031809875,2.0389492643036595
668,6.264964926604017,0.018589616545834298,-13.917060168796704,1.8868947156687026
669,6.359517426343214,0.14549096844942677,-13.897228402400904,1.7507027716638124
670,6.371615739991509,0.28304507355567204,-13.883235261175544,1.6275705487752816
671,6.313004386590743,0.4190435744464264,-13.871844583989036,1.5213808448652202
672,6.232148070604899,0.548967736860837,-13.853995439312692,1.434489097810313
673,6.230481904074386,0.687636270995207,-13.810239199948288,1.3755241549021016
674,6.385574206889497,0.849450006061718,-13.722678435628506,1.3491990451078977
675,6.533824040063687,1.0356351178934962,-13.581224967173755,1.3354317262423598
676,6.5043771089552065,1.2348157762567054,-13.390212050757189,1.3123971929672185
677,6.441992518857156,1.4375601786484282,-13.186941115663757,1.2837697387336018
678,6.515300962537756,1.6409165865880886,-13.008570776436011,1.2564960617809864
679,6.627349522101362,1.8422301086864739,-12.847402645930694,1.2238625973288308
680,6.648618352089486,2.039986637115939,-12.682672647492389,1.1768654582464642
681,6.562619488670701,2.242997067101741,-12.5176853968697,1.1000620448539187
682,6.393164207234568,2.4598388690024806,-12.353946478718798,0.9825650747306538
683,6.249508893540805,2.6977487444713084,-12.170236717657389,0.8488244127096436
684,6.232748516417359,2.95465945072215,-11.95462926641211,0.720515042127417
685,6.260447586264418,3.210541073563116,-11.717365387387487,0.5677910069687065
686,6.2125069764044145,3.4425305264795547,-11.482199607332094,0.3589219936717873
687,6.089471166364885,3.6458741451594983,-11.312375865599213,0.10154392646696149
688,5.921943980737548,3.833634087728797,-11.247892969567582,-0.1765104672596495
689,5.717851742467629,4.005554609605185,-11.209002263096352,-0.42631975094178376
690,5.491906823030242,4.1428140617855735,-11.115144545893179,-0.6003598506972401
691,5.253655473922551,4.235798189378481,-10.91978258583738,-0.6959182017491357
692,5.0014086003744636,4.2927447621268495,-10.66644895199063,-0.731060272966257
693,4.740918226456678,4.3286461456870695,-10.350251098406822,-0.7062468174932496
694,4.479419641391004,4.353490238176012,-9.97194062746369,-0.6344827921538324
695,4.194801637986644,4.365166068590723,-9.51599154583475,-0.5746649940292001
696,3.883302795272883,4.356850798002369,-8.968626181344188,-0.5801047818986458
697,3.6301031412558085,4.324753644870064,-8.366923491912859,-0.6514959449856439
698,3.505688745103829,4.266169903309834,-7.755189109567654,-0.7703958688820988
699,3.476028655952025,4.175472713928512,-7.1366487176947,-0.9198847250385243
700,3.4303400245628204,4.193090150835465,-6.544210032021701,-1.094700934736324
701,3.244882346300234,4.617506813293199,-6.011226436950998,-1.3117557626008642
702,2.816507545498336,5.569790081393443,-5.592678744720746,-1.5932432183382068
703,2.3956946205881984,6.925918330545683,-5.322544543936578,-1.8984383689455087
704,2.2450188953956647,8.523072474387948,-5.197967468464823,-2.174712786727034
705,2.1052840364506777,10.252238469628802,-5.158035577711299,-2.433274226081122
706,1.660530740412472,12.088518562608096,-5.154595120408467,-2.696484624056836
707,1.0494589431803534,14.048953896187435,-5.12863999371671,-2.9427723204864282
708,0.4648604601449541,15.993911754401104,-4.990442498715938,-3.1476052281479783
709,-0.007896803324228516,18.05098671949212,-4.792963011813773,-3.3324665019460618
710,-0.3622590356012634,20.177513112888427,-4.508633093077046,-3.5205768238346202
711,-0.7190334517512399,22.31953408522801,-4.1706486984357065,-3.740733189422749
712,-1.214221494882603,24.40456626274979,-3.849895649311131,-4.009898763620144
713,-1.735215502275042,26.289609722899012,-3.6536694306245536,-4.296558439492396
714,-2.12501930823374,27.785421780910486,-3.6582659941119093,-4.556777318159903
715,-2.4722363999679176,28.77542562152013,-3.8063825038356436,-4.779577240374957
716,-2.906578784144866,29.284717532092717,-3.9791252493234888,-4.9722154340762135
717,-3.4095895591771077,29.442570432301515,-4.078779204322887,-5.152722694615767
718,-3.92175690903223,29.38315439511174,-4.03903564612596,-5.345311418947012
719,-4.351398394499981,29.18202402033518,-3.8672517797537047,-5.559979439927823
720,-4.6201650049166885,28.8705873801425,-3.6244967433639923,-5.793758175162478
721,-4.840354884006771,28.459731407581128,-3.3670267564601706,-6.043936458566244
722,-5.157493445502372,27.947430420972985,-3.146240761553495,-6.298125343798622
723,-5.491330227111636,27.35096880596777,-3.02421668666576,-6.51472813763876
724,-5.7184125704881925,26.72132622636622,-3.023365980133832,-6.656213579273108
725,-5.877351353514376,26.104127788943156,-3.069126471706691,-6.733943640695137
726,-6.037812710073347,25.513351967970905,-3.0645573662565875,-6.7766472065277155
727,-6.231320895465273,24.94022189829507,-2.9545910242952322,-6.796846331300295
728,-6.4718842506823515,24.36928273041378,-2.733425041415043,-6.802443246685356
729,-6.658872534588194,23.789200722825868,-2.5046680237472416,-6.791614826458951
730,-6.690061372160484,23.19263937403524,-2.3834962281514596,-6.761206820223595
731,-6.701736591266226,22.559541260017866,-2.3431022350839754,-6.7367507359750025
732,-6.861866145481766,21.85686282046554,-2.3016997963175574,-6.745737317110284
733,-7.082040325342799,21.067579076688755,-2.2055215317600707,-6.779285560325592
734,-7.2208679466588315,20.203661634249393,-2.0276405134927407,-6.816785656785854
735,-7.281436471391863,19.29694914906153,-1.8163313466168827,-6.849488424340812
736,-7.3030476197210925,18.380437258626397,-1.6525782855526028,-6.870978510804509
737,-7.347797963871642,17.46831563138176,-1.5755848011808682,-6.880210425207921
738,-7.471807553328051,16.564192544913315,-1.586626171418891,-6.879874578158999
739,-7.555578585035416,15.66372235789556,-1.6476508477717724,-6.856776270790152
740,-7.46496453767669,14.766014344154863,-1.693784490651026,-6.800481135200384
741,-7.338376715115738,13.867117215927673,-1.6533475329664142,-6.7397001179809255
742,-7.3571311593859585,12.957717415755914,-1.4804689772719417,-6.707242874768424
743,-7.453586839046413,12.035221589688657,-1.2079703494021314,-6.6910299789736385
744,-7.510353924866219,11.107565429881921,-0.9019878198994858,-6.670849947750552
745,-7.530638854431484,10.178838030999271,-0.5887796538205116,-6.654377918421346
746,-7.54552984984227,9.242677481850482,-0.2846235130395657,-6.65456360993092
747,-7.632197158860952,8.297078184537895,-0.02831641663309542,-6.688925898702054
748,-7.859281330411246,7.356374100636866,0.15332137846961857,-6.764504948937804
749,-8.082633466391616,6.438272966957172,0.2638438532616426,-6.8292702140431105
750,-8.13483124928166,5.547614162969186,0.32181849160912357,-6.822861285181481
751,-8.144871553656335,4.674458244987802,0.36791233213064484,-6.755941253898808
752,-8.284774718950086,3.808409098540653,0.43574923886945865,-6.658918966068219
753,-8.465762812033821,2.9467800962780144,0.4959871323564142,-6.524698619901982
754,-8.546856550427563,2.1037867174732887,0.5071358770560213,-6.343497871694466
755,-8.482699101533768,1.2944010079579176,0.47811490867223894,-6.117927293895847
756,-8.275313478185168,0.5167443387267978,0.441474952183055,-5.8587833111122825
757,-8.072669083448972,-0.23905107507445936,0.43947908604514807,-5.610076235944046
758,-8.034221618959108,-0.977767217013179,0.5098669892734107,-5.418070716472203
759,-8.037226544520198,-1.7007711132001175,0.6550650189454104,-5.275157673967727
760,-7.9036333408214094,-2.4001621867981986,0.8485564379118073,-5.15814335991966
761,-7.715255568940678,-3.0593649847478286,1.041926679052227,-5.076556581375793
762,-7.604853791397744,-3.678758311168279,1.189043477089636,-5.042269993422845
763,-7.564612819452308,-4.278518065589678,1.2792323180520297,-5.0502623744257855
764,-7.554892284521961,-4.874830824633699,1.3315686795911272,-5.088515840983035
765,-7.515950389448744,-5.464813286641391,1.3881832560221536,-5.124859568063155
766,-7.391394708435231,-6.038761775936214,1.4920291461045714,-5.128753849476346
767,-7.278787528911696,-6.582732037232795,1.658390644446262,-5.118079426252783
768,-0.5310902876304012,11.976109496689597,-11.275911688471815,-4.419299472687277
769,-0.6506694440206537,12.020676543502715,-11.673050695711352,-4.707036339129455
770,-0.637006136905464,12.046334978611126,-12.09531308686823,-4.909397663637215
771,-0.5480216194341474,12.068802791282748,-12.54673908528106,-5.0147239763146
772,-0.47865921860483074,12.101365749086105,-13.015464397151556,-5.09767865527674
773,-0.43868714873854475,12.158879296847436,-13.471358007620289,-5.192187063443353
774,-0.41973744864467943,12.247776261800013,-13.892776655053275,-5.3214799218797415
775,-0.33326293045684047,12.361364918356506,-14.305123721687341,-5.4656564443368625
776,-0.11054829453333678,12.488480805848573,-14.74208493057533,-5.58875677662237
777,0.08230809502110545,12.620970938124284,-15.210392997181831,-5.690623944841152
778,0.07631961396853182,12.751357690319649,-15.69699560974291,-5.781233250843657
779,-0.018542385004621548,12.873161550854997,-16.16276230982987,-5.848650947119563
780,-0.05252775744928839,12.979933590282876,-16.565709359906823,-5.887273614326676
781,-0.037624077061449046,13.061042838612128,-16.88957773300518,-5.922453273004873
782,-0.01912988192063595,13.106575450471023,-17.143195287551595,-5.9735334491594285
783,-0.05478631471224517,13.1133542879658,-17.365003834695283,-6.026992961235833
784,-0.18397208083836109,13.081718560983218,-17.598137360010334,-6.055844401956533
785,-0.27976277310686026,13.01104596930703,-17.86301550846282,-6.019515429632764
786,-0.21472462909439194,12.90255871853075,-18.157595005174933,-5.891579342420376
787,-0.09332609709728647,12.764721319361641,-18.44757342437649,-5.707274577997969
788,-0.04982383749602015,12.603249163196882,-18.69554797322686,-5.515166462559111
789,-0.05477721391829567,12.40723461945049,-18.900910213372274,-5.326899104476253
790,-0.053002817763723405,12.16372682106272,-19.076293113298867,-5.141787677484703
791,-0.0230154722795837,11.878116139773288,-19.231946069607677,-4.946011056041822
792,0.044748217243108276,11.558674793550969,-19.373667105411393,-4.728714785716612
793,0.05317046755711158,11.194875298900087,-19.48153186395712,-4.534531546501571
794,-0.07433277093924356,10.783248520303957,-19.538681765379724,-4.403063557331141
795,-0.16270984363292776,10.354739900334385,-19.564464322674336,-4.288225902346676
796,-0.035942188889640125,9.942925733218694,-19.589807107569918,-4.1347928655487545
797,0.18691620547962645,9.557712052837736,-19.646805880798148,-3.947087084711309
798,0.3464018679264611,9.19530354862753,-19.74742363213083,-3.748493860265537
799,0.45853608765357035,8.838570950076262,-19.851592966880105,-3.5682231564178575
800,0.5733979501182284,8.466518661661823,-19.899869382819247,-3.4309359920349887
801,0.7465977778816308,8.07236573519499,-19.846034416537226,-3.320494035691128
802,1.0171718025669925,7.658975395381091,-19.68287366968606,-3.207523784469158
803,1.2497136417829442,7.229561542933615,-19.400122539033514,-3.086208782311626
804,1.315910500980661,6.791267808634497,-19.058401174754014,-2.9580942050846053
805,1.3725575935636583,6.361751235188828,-18.782394605707882,-2.819803670252671
806,1.5913800950125165,5.948425488773281,-18.636229271840445,-2.6744949575022448
807,1.874267910049243,5.527487237418565,-18.59543081484862,-2.538180480048319
808,2.0859067009065564,5.06724203095122,-18.58383987617142,-2.4233296323669418
809,2.2083149060195426,4.5450351546068815,-18.536668726303056,-2.3261874708145465
810,2.2618770222605935,3.9536317135104793,-18.402107024003936,-2.236094232406263
811,2.365340603309979,3.318261322776206,-18.146975249698123,-2.1357816851157043
812,2.6203637254881125,2.6744617889813953,-17.773710159172726,-2.0121460974555503
813,2.861158825381473,2.0403256917818724,-17.345426452208716,-1.8806246134100633
814,2.9095726300621396,1.4244012388183052,-16.915787784258104,-1.755381218888378
815,2.902071079327351,0.8283723273961303,-16.494628285515034,-1.6136402666604355
816,3.0075076949703714,0.24997896296810837,-16.050414064448535,-1.42525085177806
817,3.159338609714232,-0.30849953738697444,-15.579323713748895,-1.176716542288601
818,3.2659072833903067,-0.8422415848566667,-15.127973980149001,-0.8657977051894856
819,3.328808409419973,-1.3430035119628216,-14.706145052917286,-0.5065979419082124
820,3.3689434782236254,-1.8086439191551504,-14.311365404556494,-0.1256981084482659
821,3.487787519938998,-2.2556768865202432,-13.89620981562947,0.2548532101816765
822,3.7580653177013796,-2.706422071248686,-13.407757617222359,0.614288521964805
823,3.991934931890838,-3.179033837032538,-12.839249170168584,0.916969545381714
824,3.9999105424806842,-3.682410574964627,-12.21045085428374,1.1448056055730302
825,3.9015319847852674,-4.205830941454948,-11.557590288066736,1.339028234796804
826,3.865591640228042,-4.730892987494824,-10.916911192290115,1.5494310869102017
827,3.8987336215991903,-5.245748973144454,-10.295714834780322,1.7821029804953925
828,3.9145872567715907,-5.705310419233648,-9.698895155026433,2.0089124350336154
829,3.838793219231563,-6.058510121961766,-9.165006971656167,2.1810621291463503
830,3.577103032357248,-6.248992102305193,-8.714500677357965,2.3077712236588406
831,3.3636314857077965,-6.289364263906983,-8.330277845485332,2.432845698667411
832,3.453991058210364,-6.233354985782434,-7.956881415111358,2.61557548221703
833,3.631188130832566,-6.135643354149987,-7.575579326147534,2.81224391245203
834,3.611847795596066,-6.039491322290204,-7.239665321924884,2.9608028829245097
835,3.5109627721042793,-5.948884523927373,-7.003046810977579,3.0915724626110084
836,3.556089484804504,-5.9459943246196785,-6.747178085166626,3.3096640220934415
837,3.6967877053766602,-5.92979509975922,-6.397157227653012,3.5552146343403526
838,3.8900934828972518,-5.910439644325977,-5.87764993592908,3.818287081638286
839,4.01308334545393,-5.90666430997265,-5.1964794937790675,4.066669959726616
840,3.94709803118826,-5.934732512621044,-4.428285773582119,4.263535105977488
841,3.8315254146810993,-5.98062342274594,-3.6385664030206475,4.414941884288381
842,3.8494239114914373,-6.020409363466829,-2.887614509804271,4.5454219418612585
843,3.886272772910386,-6.048079377024865,-2.21498186476308,4.6448186885514176
844,3.777714908448575,-6.062175373806173,-1.6357573607098637,4.725692734623041
845,3.5867337540579207,-6.05789070983034,-1.157117049389323,4.818243762398574
846,3.421256548595666,-6.03135984050764,-0.7749633516829078,4.986703606827394
847,3.321835632071378,-5.97269815440133,-0.47005523115234626,5.2414697845032325
848,3.3011113189764165,-5.8752225736930095,-0.216282084392374,5.510705594763731
849,3.250639038299896,-5.7521999833306765,0.00944742129456044,5.7237579262831675
850,3.0531294552085386,-5.624067061167878,0.23236821886919665,5.869579690836751
851,2.8312659140532395,-5.502966983973531,0.48752793443899817,5.946166774538343
852,2.7477592198193213,-5.395615727677397,0.8035999939199769,5.978303029241064
853,2.7246238136347514,-5.305607042833421,1.1894949343377736,5.979580869949126
854,2.636545906411782,-5.22854430710569,1.6315838208362512,5.956360756870575
855,2.500042669207995,-5.147642236605449,2.0886894655795576,5.916486797250679
856,2.3620260334184278,-5.044744566857946,2.5046424466286843,5.864771048489015
857,2.2647061991817816,-4.913304798603993,2.83123529527344,5.805592211265982
858,2.243270625283332,-4.754059936415612,3.0396841336751734,5.742287866296574
859,2.212329797707319,-4.572169224720185,3.112002974688403,5.673517500104099
860,2.072891724594737,-4.376080000008486,3.084434814437054,5.594086772632523
861,1.924479449719006,-4.1683711107559045,3.0283536102680877,5.497714430009285
862,1.8910269620137932,-3.9510812702596665,3.0613818188477855,5.376789478485518
863,1.8886329996802051,-3.7390774337979154,3.245346848215586,5.218059781041198
864,1.801752764010144,-3.544211484928856,3.5395936687415466,5.013948466787437
865,1.6366726697832863,-3.3573752491859854,3.8434992298082293,4.7775686743226355
866,1.443579427513783,-3.1622796072229193,4.040131968364897,4.529197567526693
867,1.3442745659328788,-2.9435746968686467,4.100741768646747,4.285044145871821
868,1.444294251829864,-2.694104677919439,4.061334342530128,4.055044045322395
869,1.6029249793339564,-2.4331816935216826,3.996182883571086,3.828817561191008
870,1.6351619141184868,-2.1889225142675404,3.984720303116176,3.593573699450757
871,1.6115659103376172,-1.9738231627170268,4.0610957651032695,3.3622818133646164
872,1.6595661161547726,-1.791149809109308,4.212039212340627,3.154034795856276
873,1.7699771995525246,-1.6362549240078395,4.352806680517234,2.979180235526979
874,1.89906667982376,-1.5003794830549309,4.411088655915811,2.8367237343382836
875,1.97262962190774,-1.3841686870701873,4.390998506527796,2.695351904368576
876,1.9207026703166314,-1.291735359794772,4.363093728960424,2.517921201513448
877,1.8481312414730708,-1.219923917094395,4.398194517249101,2.301850210838167
878,1.883506292185015,-1.163317357863312,4.485558686619659,2.060970842046846
879,1.9096117759691797,-1.1223181984958037,4.55836873127809,1.8009119218484
880,1.7764791571622585,-1.0944447514308786,4.531883140586899,1.5330823725891205
881,1.5747369345284377,-1.0597447038150274,4.414584326480742,1.2878583850060528
882,1.4363836906884344,-0.9997864407819625,4.259797144685761,1.0928360886944615
883,1.3565045272875083,-0.9204070208097931,4.1259277413168585,0.9505125198554207
884,1.295897140002227,-0.8348153981082096,4.057229520658893,0.853558302694562
885,1.1814874939856406,-0.7538880605015728,4.017393693136249,0.7950093101923557
886,0.9536299506053326,-0.6804883990496808,3.942418344610113,0.7659747909864452
887,0.7603044519279494,-0.586323576861027,3.822299828563561,0.7779551544577146
888,0.7680607698740541,-0.43987745609868323,3.672103333238786,0.8362691477744431
889,0.846408144619188,-0.249838527967239,3.5138014421975883,0.882239741272164
890,0.8073184915766514,-0.04157818856231421,3.3736917693028117,0.8733006690374964
891,0.6921143338092705,0.16977493534332086,3.2619602464243327,0.7853102629164966
892,0.5909803361626125,0.36904568295062357,3.1727692076037792,0.6848145769866891
893,0.5176167350051777,0.5368727185044012,3.0789059836799,0.6063398486243337
894,0.4680482764638693,0.6600755798005853,2.9574130055127816,0.5787223148589081
895,0.35006939396858383,0.7380443915063601,2.8326076810713934,0.5884197230168635
896,3.253992020141403,3.1264576781372706,-11.631054922315776,0.40225169803296773
897,3.2972737183312146,3.760435331299702,-12.193765671271873,0.22534992862850559
898,3.232812849594628,4.388084485108054,-12.609188553625897,0.05142346459208033
899,3.108206734673201,4.993174034346663,-12.864969658487793,-0.12384739220255747
900,2.995033011809154,5.568226530208883,-13.017525428119155,-0.3093832139217989
901,2.8542346401293095,6.117802320226773,-13.15435617696012,-0.500855354004509
902,2.6435582698273854,6.659574304250936,-13.403371302796321,-0.6904276047038266
903,2.457620255884856,7.213790091152365,-13.830317579985286,-0.8603803782815826
904,2.3792194034805747,7.783549802800694,-14.378848994434563,-0.9944231135808413
905,2.288241060060045,8.356022553658514,-14.939807091590364,-1.0989325670763441
906,2.068832700683602,8.915273062456215,-15.39613192823899,-1.1879341716761984
907,1.8534075779649424,9.448714715897124,-15.751619767048487,-1.2640262937680844
908,1.7791537537726239,9.946851679233898,-16.03233624507908,-1.330678490611373
909,1.758251701307349,10.401848371023693,-16.26876685043207,-1.4022048189768919
910,1.6694583140112247,10.812148992523984,-16.42806033959369,-1.4863460669460573
911,1.4678115207307578,11.178304708670161,-16.486295112754682,-1.579048832649262
912,1.1549914655862865,11.51316844546358,-16.441905547970016,-1.6653519201118963
913,0.8645657925915535,11.846513771598406,-16.411220932795043,-1.7016218170474295
914,0.7313265163489933,12.211572627236187,-16.49772399435033,-1.6613293809506118
915,0.6727887939570034,12.624138703473832,-16.7546633484324,-1.5669328906695394
916,0.5711961798507978,13.073197124555278,-17.10516838582585,-1.4702113357929958
917,0.47232398942066384,13.53751267654077,-17.435587353177624,-1.4039660628061994
918,0.43849499461365377,14.007103239354441,-17.629437336686344,-1.3643821608750115
919,0.45497842137297095,14.481482411726217,-17.69191333737345,-1.346628626056716
920,0.4956221853698318,14.951463739420282,-17.66439079318872,-1.3352205756638713
921,0.4998274019459543,15.390629074731368,-17.577701875363275,-1.3309858669878736
922,0.4241135209333419,15.771385530028867,-17.43742177779173,-1.3369074956740257
923,0.3823538973782016,16.101812304263085,-17.264265689553298,-1.3255058763246181
924,0.48575781529182527,16.42584919167876,-17.12374244938822,-1.281463003763313
925,0.6237169367422504,16.776300220487826,-17.035327160659456,-1.2099861549939122
926,0.667300289427349,17.15314343640039,-17.008816514164458,-1.1397726750321655
927,0.6753493722030789,17.5419688330726,-17.0207326089846,-1.0737270913114054
928,0.7298184953050758,17.930376695234873,-17.027418373190052,-0.9805817464157505
929,0.8342551134932952,18.300638778612512,-17.04620757816308,-0.8467848851698786
930,0.9709452383781669,18.623902509365294,-17.043104622429222,-0.6983199368194631
931,1.0494338985633478,18.875666579240402,-16.913727155975806,-0.5647413843301254
932,0.9978576178740818,19.044752563190222,-16.518606102330274,-0.47813568300925197
933,0.9659567469478463,19.14672894716373,-15.917530542119025,-0.428848265469263
934,1.1030437104979336,19.210098899561995,-15.359065852797302,-0.4020054289366816
935,1.2717889382722083,19.25070559227462,-14.998968297774088,-0.38661243145339796
936,1.311945785846598,19.26628401268044,-14.842683269893852,-0.38518948745779985
937,1.277901905638065,19.2499716797471,-14.844000744706346,-0.3870594167742466
938,1.2620357857792897,19.19912364494554,-14.896753178507232,-0.35085890165784595
939,1.3401119551686898,19.114899228663067,-14.880610024344575,-0.24169261100162803
940,1.544337308620243,18.99080660108783,-14.739804497537323,-0.10216803981825567
941,1.6750539961965798,18.810836722700362,-14.489080061555255,-0.03889145277585565
942,1.548141340862371,18.568285928437646,-14.131662856499961,-0.1160550257612378
943,1.3526541504403162,18.28312438822143,-13.667544369205043,-0.2987422428369208
944,1.3259101619969116,17.986970360863936,-13.113378750940731,-0.513143926060941
945,1.423063372468821,17.696308265214437,-12.603604247856575,-0.6667429096377574
946,1.5382507244392079,17.405459064730422,-12.21837354353086,-0.7235016274506239
947,1.642151831201318,17.097498259951717,-11.933737897433438,-0.7099309038785393
948,1.703828269910167,16.757308406162814,-11.614048274234307,-0.6734726602109443
949,1.738537951807892,16.38308364223641,-11.119476748819368,-0.6644201269186681
950,1.7775677386966329,15.995632602936206,-10.470214033799058,-0.7338197512467454
951,1.7051000850711064,15.634760406328724,-9.822613046955038,-0.9101457105541988
952,1.4461856121656473,15.329723086865602,-9.326569190693057,-1.121686308864915
953,1.258868136414036,15.067042730553393,-8.948915049795943,-1.2217063960603276
954,1.3786829277955683,14.808741418863013,-8.544239161115652,-1.1563640449303174
955,1.648396857079847,14.519492078268112,-8.037159521064883,-1.0326218061086547
956,1.8000428750751747,14.191762824358245,-7.5173250536881255,-1.0288662369100583
957,1.7310324827887744,13.834704090064323,-7.149635354520664,-1.2251395184335054
958,1.4100891120347288,13.441364790489288,-6.9434968675874895,-1.5225781366504847
959,1.1624451778488507,13.03253941499263,-6.717343982747815,-1.7553257030025826
960,1.3110684925133569,12.673777054553383,-6.35795692236813,-1.8405023591843217
961,1.5612933655196226,12.4056291235417,-5.891155385201943,-1.8370647838905398
962,1.5340500487441857,12.24548888971664,-5.4511139815204315,-1.8855361408619724
963,1.3803196179580937,12.210630577354504,-5.126600956404878,-2.0508633996169165
964,1.1999123109398364,11.385377557210916,-4.808947207199948,-2.366882760447891
965,1.1148373563712937,10.544072387897726,-4.507367599662977,-2.645121289778585
966,1.0632676666665486,9.67840122447,-4.267305861985288,-2.890083605490284
967,0.9843130984660845,8.788351563115734,-4.072681939628575,-3.0978733668563962
968,0.8332050840434229,7.887993423803411,-3.8857423891606206,-3.263133339520353
969,0.7194933559858618,6.9987720065038035,-3.6809409325440923,-3.3705864055399384
970,0.7684788065622317,6.139865890949241,-3.44471638097264,-3.4134850225684135
971,0.889564250967456,5.306938081243478,-3.192093359728078,-3.429706212790414
972,0.9372211022293739,4.483018846025393,-2.953371607709881,-3.4662050011002696
973,0.8905771980443007,3.6501861228868178,-2.7516144151238184,-3.5325828448796863
974,0.7704258212064277,2.7957681181636023,-2.595861569568116,-3.621228496298299
975,0.5989303567739914,1.913758011255936,-2.4666845365467456,-3.7241004574057883
976,0.41394254709983747,1.0106634595466955,-2.3291995822539073,-3.825714871896623
977,0.23206765735676793,0.10227462117995467,-2.1586342822361586,-3.911020476890485
978,0.051850962156573185,-0.8065435458544923,-1.938313855893491,-3.9670667153842687
979,-0.1201648377851818,-1.7350905147081395,-1.6518975815080539,-3.971270730836964
980,-0.2800632466689745,-2.7033182217292118,-1.2989430677875289,-3.909754380439506
981,-0.44390444014553243,-3.7096835781798876,-0.9149364798977082,-3.804675358268621
982,-0.6198048148846869,-4.732820777519258,-0.543239191744521,-3.689700440047197
983,-0.7767367908532273,-5.754265029022248,-0.20114018946892281,-3.581616426011714
984,-0.8821172695032737,-6.7663790451657615,0.1046176729839934,-3.4952924479059218
985,-0.9152455702714382,-7.763598954204309,0.37455817023233,-3.4207548993209023
986,-0.8799359325559465,-8.735366459863547,0.6123194263088224,-3.3623804029756776
987,-0.8935687832794621,-9.673005571427264,0.7861246212017764,-3.3312309736226244
988,-1.0649796789042045,-10.559725666093636,0.8862409029734384,-3.338295802979776
989,-1.261761716338944,-11.344036990291858,0.9446732073773095,-3.3649333542815985
990,-1.3179324220483923,-11.959739612713864,1.0396608532725164,-3.3896740645106864
991,-1.3220085374216088,-12.374823665281625,1.2165339662041808,-3.4192367538241557
992,-1.4144919347812335,-12.600751924120614,1.4452984249863947,-3.4671961674610134
993,-1.5903831203983596,-12.671499282510542,1.6884303003767092,-3.5703862072781996
994,-1.800388962684714,-12.6266650963483,1.8967761048322618,-3.743297666301496
995,-1.97337706933181,-12.50676918382956,2.0741030690914477,-3.9819402608846706
996,-2.0411236036202745,-12.352965179893511,2.241330434901854,-4.2655179857134575
997,-2.0522348106724477,-12.207849190484122,2.3742880563565363,-4.592940010626838
998,-2.09400434558115,-12.098987179054829,2.441527523923251,-4.950952475588658
999,-2.1708289111805112,-12.023979833260851,2.4384671486811618,-5.288865138619435
1000,-2.261171113257153,-11.958704587205913,2.3716480163247824,-5.550787195203719
1001,-2.364970273339593,-11.879006246159982,2.2569541606703587,-5.742384637443451
1002,-2.477469245944398,-11.770500336015571,2.119028792541997,-5.925564641588038
1003,-2.5912282166540597,-11.635998757024119,1.976886266492821,-6.124226298641225
1004,-2.7039142572644694,-11.496305271879617,1.8439630646083793,-6.300148478039387
1005,-2.810948950431877,-11.369866476661185,1.739152406686542,-6.427075082463542
1006,-2.91423394048125,-11.256043451283986,1.6669446728415143,-6.527403169856901
1007,-3.021518239106728,-11.141315522798612,1.5992611009465936,-6.644046015567625
1008,-3.144640258738044,-11.013944523582868,1.5126033988274674,-6.784758872782368
1009,-3.337400326963395,-10.874148342355452,1.3315494217976234,-6.903739487797759
1010,-3.635476631519438,-10.727211566093745,1.0602556237406675,-6.955097198183641
1011,-3.931906223628379,-10.583916418056909,0.7749835527261263,-6.9380033707686675
1012,-4.109936075780514,-10.44769002440284,0.581403319547427,-6.901492591810585
1013,-4.228808583858899,-10.312314895555298,0.5334493077859597,-6.907347002811083
1014,-4.3919438718773804,-10.17680773288532,0.6365583085296155,-6.958106873617698
1015,-4.619722535875437,-10.048118954903156,0.8417649281893097,-6.9945283488003955
1016,-4.897136884513095,-9.931477077058013,1.0623787844058794,-6.984097162671776
1017,-5.156581208978145,-9.824001094474138,1.2185349758553512,-6.931421814754409
1018,-5.319790290237119,-9.710919277677384,1.2551149385482228,-6.862837583046597
1019,-5.420932743343939,-9.57582131239648,1.1370772457633347,-6.772798198676942
1020,-5.527350200109078,-9.408983996642856,0.9000281046595143,-6.649917886088745
1021,-5.5982155795628765,-9.212286179235813,0.6214073953641889,-6.495469069781214
1022,-5.582294315934886,-9.002435562264047,0.43697689215510427,-6.315050251602582
1023,-5.569015318651976,-8.801944951565734,0.43790335006174697,-6.126200139198364
1024,-11.901880872478666,-294.194995573556,-13.683100202100107,-8.751329044005354
1025,-12.178789808949416,-306.4717912442845,-14.089879613038201,-8.80193417142092
1026,-12.264381391294227,-318.62852005188194,-14.47670076967228,-8.783342865155024
1027,-12.248474638097916,-330.6481708492889,-14.772627741997264,-8.695646981968226
1028,-12.260793961050503,-342.51404597877064,-14.927496226970982,-8.526145980896752
1029,-12.279134602880456,-354.20975845275933,-14.934609768270825,-8.303977778288294
1030,-12.258425792191675,-365.7192291405128,-14.853819894535784,-8.10319763268151
1031,-12.201132956682642,-377.0266839608682,-14.825629602008936,-7.94881109872547
1032,-12.112112112367306,-388.1166510675214,-14.97829292479568,-7.7915560954590415
1033,-12.03590953129018,-398.9739580366896,-15.335460972057662,-7.612016687117322
1034,-12.011183855993785,-409.58372905842685,-15.837624723110851,-7.391541009259278
1035,-11.94880062175904,-419.93138212879364,-16.358505646359873,-7.138986622122044
1036,-11.76965896325126,-430.0026262465111,-16.756784356519113,-6.880479363845266
1037,-11.583780495784287,-439.78345861330195,-16.933515612964964,-6.640530302476644
1038,-11.504270753416904,-449.2601618373385,-16.872093272379523,-6.4286384023410275
1039,-11.491498960394198,-458.41930114107436,-16.674308827782056,-6.222300440101963
1040,-11.45559958059348,-467.2477215734241,-16.48505588606258,-5.9886624050472985
1041,-11.258627996849262,-475.732545226639,-16.435184102771995,-5.694673553673201
1042,-10.809859592379466,-483.86116845844936,-16.575666948521402,-5.3284287900591245
1043,-10.27464607855228,-491.62125911967956,-16.78117746094964,-4.950263539897273
1044,-9.852252902502121,-499.00075378768184,-16.880321055920923,-4.6092900291458445
1045,-9.493116358640917,-505.9878550059412,-16.781223357303457,-4.310325290686587
1046,-9.098360578233299,-512.571028530146,-16.473469169513987,-4.001247117415499
1047,-8.700961841735937,-518.739000581042,-16.088370748386815,-3.6508418039528876
1048,-8.330613134098517,-524.4807551043866,-15.783535231929992,-3.2838867595832166
1049,-7.95300786669012,-529.7855310382907,-15.572998187320557,-2.898858510085344
1050,-7.5338869562747295,-534.642819588252,-15.412413695657184,-2.5011024368140324
1051,-7.010942434427634,-539.0423615101618,-15.283302311633948,-2.0693275905181054
1052,-6.359570090234219,-542.9741444015652,-15.153524063137684,-1.5858092889085742
1053,-5.73778824936486,-546.4284000014587,-14.972992717701189,-1.0944794798265476
1054,-5.300782263278436,-549.3956014988836,-14.713011664386752,-0.6277379658535331
1055,-4.979091872215685,-551.8664608505857,-14.374992867139957,-0.19784218888962318
1056,-4.65148814824378,-553.8319261079964,-13.98164977946182,0.2361701148058437
1057,-4.284839117407848,-555.2831787537898,-13.594850142330158,0.7455305323834438
1058,-3.8659779171321285,-556.2116310482546,-13.258975447173375,1.343798410364835
1059,-3.429081910630307,-556.6089233857248,-12.921705278889688,2.023221848707119
1060,-3.008087895541842,-556.4669216613104,-12.51788924489599,2.750572939371582
1061,-2.484210872692514,-555.7907143210678,-12.042759078440048,3.5305882626382714
1062,-1.7540835985382728,-554.7600782326653,-11.522109601808856,4.3569920316736965
1063,-0.9600122958630528,-554.1272710170242,-11.027762647935914,5.127399904331803
1064,-0.2641785351347018,-555.0808782836529,-10.612302171871125,5.769977009844591
1065,0.3755471978140307,-558.3328285278208,-10.21788256950866,6.304369772711123
1066,1.0385023022862385,-563.9243890264864,-9.757944248342133,6.820873348159687
1067,1.7458476625752943,-571.8352433666565,-9.163198810075984,7.371892672644421
1068,2.503780885877957,-581.7434009252695,-8.419977674268063,7.935779860961207
1069,3.227412581030333,-592.4490643359129,-7.676112708437406,8.502274496786836
1070,3.8502214184495793,-602.3537958991212,-7.087521963108382,9.058065838883238
1071,4.54207443198176,-610.2137276356775,-6.630189018795918,9.65593489310437
1072,5.47245596113143,-615.3527868903468,-6.2133554152818595,10.350681732893104
1073,6.524639229201937,-617.5614711605833,-5.769825571435025,11.118308714969714
1074,7.53791756116841,-616.89562902229,-5.240511158536157,11.908516110660228
1075,8.523238394656737,-613.51058034967,-4.608732648284332,12.677838682195702
1076,9.518620001589305,-607.5654728704894,-3.9000972793825683,13.39454187844204
1077,10.536255244268064,-599.1865026075856,-3.1500191297410343,14.072577764719966
1078,11.584395095735305,-588.4645047515714,-2.407246170023767,14.743745812395167
1079,12.572915801087145,-575.4660369676773,-1.7361797734108937,15.413529117016553
1080,13.42995118684653,-560.2456105197658,-1.178537972099953,16.08042866742999
1081,14.307470775502951,-542.8541260569244,-0.7307709294140613,16.75461118802102
1082,15.359333681870964,-523.3430023799672,-0.34606683978916386,17.43678677471908
1083,16.493761643132242,-501.76529537562874,0.06813449899712665,18.103500795733613
1084,17.551345815138625,-478.27260196231936,0.573962935467372,18.722468210911348
1085,18.50174201242202,-453.1439604963647,1.2040550249875335,19.28466175913511
1086,19.3309669483964,-426.63381989736735,1.9174156611719975,19.779983360983287
1087,20.10807838968165,-398.93524006927635,2.568419359322379,20.200545523947902
1088,20.907113649717388,-370.1951538807926,3.0294447588290025,20.53646770453296
1089,21.616348001037327,-340.52174743557464,3.353258198830181,20.762840804938964
1090,22.109301912507465,-310.06099524936315,3.6428395211055316,20.85625415956264
1091,22.463955293610603,-278.97566244161163,3.91746974769541,20.822059945561637
1092,22.949540123569758,-231.66778723587933,4.333410177211816,20.651009829346677
1093,23.390075714617016,-185.5150322849533,4.672671317228287,20.395329673751938
1094,23.762969693051637,-140.64141077282466,4.893194511454114,20.0857251629255
1095,24.13925975228995,-97.28366322662109,4.932324111909452,19.820700785174576
1096,24.5870290331723,-55.56436932594664,4.790563136601072,19.685059971136386
1097,25.08596948136033,-15.337963607106978,4.666011893108392,19.6472804302509
1098,25.575461135739534,23.578496299563508,4.779440739737359,19.621328660935166
1099,25.963806582604366,61.20946064441207,5.192462245485299,19.538145419218406
1100,26.173658163464495,97.55569122954607,5.838640238419282,19.340322131138134
1101,26.234262074754472,132.62321962615815,6.478436222109618,18.97559408770949
1102,26.222092395349687,166.38820577523904,6.8404333699513895,18.442372367356082
1103,26.189724497656393,198.89629642216622,6.880689654467534,17.849262931302793
1104,26.17477477671914,230.27081916382232,6.675598057717506,17.322541237807172
1105,26.159379303793603,260.63395393493954,6.253144033098888,16.891230552124348
1106,26.106873813769678,290.06650212878947,5.679946086333639,16.526979550652694
1107,26.07937733023743,318.60636319238057,5.140807734179992,16.18264688006921
1108,26.133991725401483,346.2628121543292,4.798144799643068,15.796970651837782
1109,26.151133204440054,373.03167199085124,4.654355483791459,15.320796078289202
1110,25.996709178185977,398.9055813764948,4.631159621044116,14.758765589276281
1111,25.707972226360614,423.87891334575494,4.65383236203676,14.118271545748573
1112,25.373630648914915,447.9490262249534,4.641022339170146,13.481448432708852
1113,25.063141200440796,471.115731206782,4.516890950403274,12.94328215807263
1114,24.816817355904405,493.3802862517787,4.256540398901635,12.562689716984218
1115,24.523536716787515,514.7445617360106,3.902885901398775,12.21971659252836
1116,24.04841702996093,535.2105561718995,3.543366370733539,11.785426525620826
1117,23.477450869844684,554.7802078522693,3.3110695467245295,11.209317760780444
1118,22.948677317206293,573.4553767973997,3.3049123133334772,10.571301014970869
1119,22.410449220788973,591.2379064409406,3.4733459389872783,9.98616260170227
1120,21.79539573614622,608.1296708399683,3.6926785139534473,9.495269053798152
1121,21.208747439477754,624.1326199489451,3.863322065168823,9.065791163312726
1122,20.76260779595902,639.2488071189429,3.904626708997228,8.688437674228508
1123,20.454077771566705,653.4803781208935,3.786400753129815,8.406584432425907
1124,20.223530875934827,666.8295781948938,3.5240072905833117,8.193759920628082
1125,19.913967278586007,679.2987421725644,3.124156096714107,7.928019188658832
1126,19.377691907277047,690.8902897928484,2.6186695179309787,7.526389735955711
1127,18.720353121746932,701.6067223863557,2.1107412328683903,6.978972838376973
1128,18.11834923631232,711.4506195664586,1.7090074565234294,6.293731903285152
1129,17.508711411604892,720.4246380340636,1.471387284061179,5.561895501041265
1130,16.807272452804153,728.5315096534501,1.4021498731944486,4.892775143366968
1131,16.198118102769254,735.7740400713267,1.4330877970640783,4.373497241062944
1132,15.867443858979764,742.1551072299636,1.4634717148147882,4.040589070978152
1133,15.730653788316394,747.677659786829,1.414550028796881,3.817368249955185
1134,15.620701431799791,752.3447154721789,1.2514634265284836,3.5881185503970108
1135,15.413649837104634,756.159359376916,1.007482117340266,3.3157096192897186
1136,15.02557606469222,759.124742302624,0.7579177191511653,3.0001471482991144
1137,14.533849235835708,761.2440790512281,0.5937279730124609,2.6293637548512776
1138,14.067937427510243,762.5206469120199,0.5707231873170104,2.2131595743320687
1139,13.59184877130318,762.9577842346541,0.6468344314750387,1.7994927555862454
1140,13.038590599731464,762.5588887588071,0.7332086346123927,1.4375362191274825
1141,12.458381745841391,761.3274159519394,0.7197833241888214,1.1510400785057484
1142,11.92062336962052,759.266877539496,0.5417259801205433,0.941221453933312
1143,11.488926637337673,756.3808400236652,0.3255485332171839,0.7777458789657051
1144,11.195151184188418,752.6729231863841,0.23485940329676464,0.6163527820131164
1145,10.90319510397746,748.1467986443746,0.2549924221358829,0.44242858565154486
1146,10.457532162932289,742.8061883857268,0.2941909980225874,0.23973660983804626
1147,9.928179111734657,736.6548633120457,0.2768264376897491,0.000720383893163444
1148,9.442367721873845,729.6966418193936,0.1370748450227698,-0.29679246247543695
1149,8.984481400967988,721.9353883898622,-0.15373358338281992,-0.6325794726447187
1150,8.510705120243891,713.3750122052917,-0.5549889353966607,-0.9333424999176336
1151,8.021106622424513,704.0194657838132,-0.9296383982559161,-1.1663237232068449
1152,6.425578848231456,399.80416397176435,-10.78336840953544,1.2466161929436985
1153,6.342594796213673,409.29426493640483,-11.013352363757601,1.2885837587948026
1154,6.360071216324397,418.4489206311004,-11.140468117682957,1.3433728039750108
1155,6.386620912913225,427.26661059362704,-11.156553707298787,1.3905800101668881
1156,6.317703095374112,435.73354394100744,-11.141042414738425,1.4158320964395021
1157,6.2051752746628726,443.8447508957063,-11.168970685823274,1.454907936478162
1158,6.125982647872101,451.58797793157964,-11.31125850756687,1.5429222553510542
1159,6.127440937862683,458.92548360978236,-11.582031023470783,1.6705663161939421
1160,6.224817974440103,465.8074182131046,-11.944740628666876,1.8112658284752932
1161,6.292878301620139,472.1857328611938,-12.323133997839685,1.9201186591624184
1162,6.209970689498533,478.01359139249433,-12.635439523923178,1.965881864254307
1163,6.089814777301355,483.26623337372416,-12.846410263400646,1.9955949849891732
1164,6.069396206458428,487.9674438014228,-12.959654320068793,2.067087115033023
1165,6.0675309426214,492.1617059264711,-12.985857833484836,2.1669598236474292
1166,5.988210644214141,495.87082765441767,-12.986401628725039,2.266446888304419
1167,5.877950986694252,499.08596541648296,-13.024833911716277,2.3644075884488527
1168,5.803958444890137,501.7708183012027,-13.199379319597973,2.460760881416759
1169,5.8386828505448465,503.87361708141765,-13.529556073367164,2.5595199748368227
1170,6.019991178656668,505.35003056898034,-13.922669554243669,2.662642135861621
1171,6.18352962760653,506.18103486828073,-14.284410332809093,2.7354374719261045
1172,6.17215578995892,506.3740666707699,-14.52230606536992,2.7478686506512777
1173,6.139633640636102,505.9567207025482,-14.604054745089792,2.733690156480406
1174,6.265612707100721,504.9660486182787,-14.554341386809078,2.7337975411211453
1175,6.4606973646046795,503.4154856913538,-14.444392260951592,2.735220997460085
1176,6.593908211823627,501.27848446813226,-14.3538575821061,2.7182426318390793
1177,6.639432538483279,498.5203276179483,-14.32091630120464,2.692106176126292
1178,6.6017154718679,495.12641624390346,-14.352128852314921,2.6678092687628103
1179,6.5685361677237575,491.09109479971187,-14.430139823061758,2.6541413883136604
1180,6.622789417592072,486.4044322867755,-14.527768477666136,2.654030335325341
1181,6.638671829175284,481.05509459159083,-14.634120826220498,2.6373635592743736
1182,6.483078068949254,475.0245328997365,-14.744053636476663,2.578179743542372
1183,6.274021434895281,468.2817607292551,-14.859713562356578,2.5032666043474925
1184,6.148509948101949,460.80215067749384,-14.97425254955112,2.448975428857066
1185,6.050205025099115,452.5837865936178,-15.034343783378336,2.425344863579774
1186,5.892825732216531,443.64118232855935,-15.01378768065648,2.430134643626006
1187,5.639778478841429,433.9831927801436,-14.889335318449769,2.442136063827957
1188,5.282868856115452,423.6196515487643,-14.733541735092356,2.4397432356962767
1189,4.929265974764417,412.5845773533365,-14.630665852539464,2.4373272436764672
1190,4.684787119983738,400.9258115877517,-14.642763037842705,2.456005346403313
1191,4.453352343190026,388.67122979109433,-14.708271774404214,2.490425162468444
1192,4.1199096178162415,375.8124483073429,-14.732322102124419,2.528122608933418
1193,3.753731365063938,362.3252683679065,-14.675763067669086,2.5620629450793913
1194,3.4395759001759623,348.1983108747614,-14.532975728781835,2.5803588300684344
1195,3.1670780188369565,333.431713918529,-14.354669490538308,2.569788305800949
1196,2.899646838372836,318.02208539703474,-14.193914437528292,2.5180492878480085
1197,2.5288597169349156,301.9621124442417,-14.014038359893698,2.3985116514392986
1198,1.9816044473681733,285.24301365117645,-13.76175613011943,2.199635452889844
1199,1.4434974180614724,267.85066196752086,-13.430927837469575,1.9703092621542895
1200,1.109546402486608,249.77987244577125,-13.046914801623851,1.766592567159501
1201,0.8737412428736829,231.04618550413514,-12.67635995237298,1.5886456539003204
1202,0.5817006640593646,211.6646475916711,-12.386013264695297,1.4249286232606226
1203,0.2624017969013959,191.63609921603165,-12.211087339023978,1.2914379408502366
1204,-0.03067273709185508,170.9626275082478,-12.13194813897442,1.1989916861898693
1205,-0.29469852512387096,149.64538012371966,-12.012667816748758,1.1410111556673628
1206,-0.527970012433379,127.67237646126692,-11.741887963374177,1.102464662336275
1207,-0.7865916455392901,105.03406642055225,-11.307237958780235,1.0447250868195468
1208,-1.1202264499502144,81.74225732121205,-10.818832261486252,0.9366887059790632
1209,-1.4068792265134082,57.82080955411129,-10.365106419233314,0.8064917363058908
1210,-1.5423605370057003,33.2824575078869,-10.01136354526684,0.6922938405926314
1211,-1.6954833657721682,8.129076086704702,-9.721130556204653,0.5813055372296569
1212,-2.0593912547969517,-16.558770754966844,-9.434387859199797,0.4699492681619325
1213,-2.4713568245900333,-38.52839939468916,-9.099990267124344,0.39631621409053164
1214,-2.7496699410244365,-56.81054671325287,-8.713490963398845,0.40280439259485
1215,-2.809299212769813,-72.23833134632642,-8.27858136929467,0.5092227914954961
1216,-2.6478014499563685,-86.00795435103828,-7.838115944116929,0.7058531529137039
1217,-2.475662232892703,-99.04743514178591,-7.455588779236859,0.9119325265470255
1218,-2.500225675903405,-111.87634421896074,-7.193667704384241,1.0511272374950806
1219,-2.586044120899294,-124.67172864204937,-7.022608055890798,1.1464937600060228
1220,-2.5780618894879783,-142.01665855163105,-6.7680858637323515,1.174325132501246
1221,-2.500946116038543,-158.81637779889678,-6.467388028441703,1.1937724566685197
1222,-2.47156103384958,-174.99914716763848,-6.1735553511907,1.1886769828780337
1223,-2.4991433969564585,-190.51842820904696,-5.92157619305939,1.1598157413708472
1224,-2.5575807872407115,-205.35339615831725,-5.726375057829497,1.1153781756986945
1225,-2.5819944416404312,-219.49930221848822,-5.548912853798517,1.0827316645440765
1226,-2.5117117037885577,-232.95983941874266,-5.330137717492869,1.0790033971006536
1227,-2.44133057760691,-245.74090203246033,-5.038724343651977,1.0461312663473739
1228,-2.48834463636375,-257.84635144434617,-4.675343472322349,0.9182039710114668
1229,-2.5801018534892717,-269.27948166517837,-4.2955571923179,0.7200948683016059
1230,-2.6074798498258467,-280.04186338891503,-3.9731647923024016,0.5021076789359065
1231,-2.593039977610054,-290.13448536184103,-3.735764663673524,0.2695064550856419
1232,-2.5877293195595796,-299.55818727041105,-3.58217382611806,0.01885626159148596
1233,-2.625670274627994,-308.3138499458884,-3.508143094678905,-0.24891286461047632
1234,-2.729622715226134,-316.40260801955947,-3.4882501150109184,-0.5348584693213249
1235,-2.806536191193254,-323.8257620599498,-3.468060068313869,-0.81516597983132
1236,-2.7604824802906984,-330.58479321732113,-3.3926437888834418,-1.0667975902057512
1237,-2.7260459851997387,-336.681318790038,-3.227128998817426,-1.3197477760168381
1238,-2.863929720249896,-342.1170469528132,-2.966201002393308,-1.6117814059676403
1239,-3.075952437661267,-346.8937687452816,-2.6490443611084187,-1.9296054551019821
1240,-3.2129437721100707,-351.01336429426635,-2.3396539398616163,-2.2466725518080413
1241,-3.2815261512120495,-354.47776529453694,-2.094692688743672,-2.555431759965826
1242,-3.3278360957737965,-357.2892680779748,-1.9518742882797506,-2.85105718507655
1243,-3.4130345570954423,-359.44953107784244,-1.9328866539823542,-3.1414092154378985
1244,-3.588919577030841,-360.96117255245565,-2.0204223921777276,-3.433009076866495
1245,-3.7286711033122115,-361.8263964761274,-2.1154990446088924,-3.6815069338405775
1246,-3.6898558216817303,-362.0475061800019,-2.113984038837053,-3.844199477707974
1247,-3.6122064529329494,-361.6269902495879,-2.006526119694059,-3.959508474782204
1248,-3.6771784688800406,-360.5674056268491,-1.8317990535282762,-4.083873821611141
1249,-3.800041263011171,-358.87406433207116,-1.6336910498852144,-4.225091363126524
1250,-3.8436323764093108,-356.5868379904931,-1.4603036433361367,-4.370516401059232
1251,-3.8002958862261016,-353.83703378795053,-1.3267449319231008,-4.492974837042375
1252,-3.699721261051415,-350.8099234466574,-1.230895048088541,-4.561855081080242
1253,-3.6380516843072424,-347.63554386204396,-1.191953460394958,-4.585208039619696
1254,-3.707117784428804,-344.3643985961859,-1.220119874976833,-4.5865135551653635
1255,-3.7672015143814948,-340.9935753347934,-1.3090041053734036,-4.562852068402719
1256,-3.650463680098653,-337.5008382445185,-1.433976218316253,-4.510398481471112
1257,-3.4834320135345846,-333.8964335302948,-1.49060453421586,-4.453654718581193
1258,-3.446757975836788,-330.2341478377347,-1.4157498688379675,-4.417657661302343
1259,-3.5065920630315253,-326.54712753348855,-1.228049517743773,-4.401253551667219
1260,-3.5792905941408724,-322.79037071853867,-1.0508140503793508,-4.395842403343101
1261,-3.6218957085581733,-318.8763729641275,-0.9326530361620977,-4.39790539916001
1262,-3.6077060591133616,-314.749105536014,-0.7983762756667969,-4.403427664254001
1263,-3.6431403750781874,-310.4051237144771,-0.5995844372910684,-4.4200639204134395
1264,-3.8404024393353526,-305.8560960412798,-0.37595641758129295,-4.452858128215668
1265,-4.0487743069845825,-301.09663472050164,-0.1861798385890942,-4.464783502400304
1266,-4.079528570641261,-296.0985070677008,-0.010029480955567039,-4.418637572840785
1267,-4.010278078197101,-290.7992705255194,0.1865451314345697,-4.341789112516011
1268,-3.9779163153199675,-285.1232829557997,0.45117345037635126,-4.2757559553798
1269,-3.9860873129006227,-279.0518738418909,0.7364302381906678,-4.215140433678066
1270,-4.0044715117815946,-272.6336013763764,0.9686084328108684,-4.143650040358183
1271,-3.9735421097715156,-265.93096757146884,1.166044375001582,-4.063035520337483
1272,-3.8335304934852514,-258.9983654828898,1.3362414193040493,-3.97566760061009
1273,-3.67346165924517,-251.89340626963562,1.4673314914893556,-3.8870513859308895
1274,-3.6041304396941047,-244.67104891203095,1.490433872966828,-3.803374284449926
1275,-3.5436693465430666,-237.36352153633118,1.3793063143118964,-3.7046682272862137
1276,-3.3808584280036738,-229.99220380405882,1.199985419605274,-3.5740199938486352
1277,-3.155729504064038,-222.5884912730501,1.0264525644235871,-3.4463216937100847
1278,-2.943599884202599,-215.17787533773472,0.941248553846854,-3.361900874582165
1279,-2.8008491789204153,-207.75895582661641,0.9785858423342059,-3.319364867915904
1280,0.0594043645484561,50.18216375968117,-14.678149010758306,-1.0631877902567055
1281,0.2226212763590914,51.19044103718242,-14.977437399407878,-0.8967311714232951
1282,0.5307490238041723,52.36776628885536,-15.262005915541417,-0.6981293266332361
1283,0.8282704031649648,53.7748139932558,-15.531393883666638,-0.4959265410656775
1284,0.96446347096088,55.38558119804515,-15.777668385018744,-0.3189614941666821
1285,1.0399390317796342,57.10350552575809,-16.012168373292322,-0.1622835455399551
1286,1.188564108218739,58.80224831583603,-16.2467620104892,-0.022465661187855535
1287,1.3899532949925149,60.38235718740725,-16.474659752724243,0.07777697335255551
1288,1.5831231973224675,61.793037538179405,-16.691449530838117,0.11271164079016938
1289,1.6795202294612719,63.01968506038158,-16.910477334021586,0.057733886451689115
1290,1.6127976823271395,64.06597420768726,-17.147420110896668,-0.09255103992547253
1291,1.4997570546481813,64.94049535747814,-17.417852918557326,-0.2900998594545905
1292,1.475315528467252,65.64567011913131,-17.7296399584151,-0.47321962969055603
1293,1.4649588517995857,66.17841159974236,-18.051731528082854,-0.6143141909597117
1294,1.3746696507332157,66.53862798348933,-18.353270049398784,-0.7028907710004779
1295,1.265285330252907,66.7310403382249,-18.668474919603394,-0.7323158202043056
1296,1.2139424764145308,66.75492198590676,-19.024154354347502,-0.7160003760201353
1297,1.259391892911497,66.60288213242588,-19.363562465611338,-0.6863286153571522
1298,1.4076669689691816,66.27283454553978,-19.61882501746638,-0.6807997291361222
1299,1.5258005329759758,65.7682336823135,-19.756971492777005,-0.7501079392117399
1300,1.4935049190086669,65.09463287969992,-19.78067938032544,-0.9189180722205657
1301,1.4435666173789776,64.26366868455905,-19.761962563265843,-1.1295900088862167
1302,1.5318789561887967,63.291760746083156,-19.78418039656011,-1.311907925795129
1303,1.6874672628148206,62.18997348027835,-19.87305573267761,-1.453247465848136
1304,1.8044887784317454,60.9568341950278,-20.01687353116925,-1.5684000962390918
1305,1.8721069855199992,59.57234310145345,-20.168065037409338,-1.6926983592492644
1306,1.8999412775122013,58.00905284896254,-20.27675714395551,-1.863716785605452
1307,1.959869841102612,56.25159464523537,-20.342775325586995,-2.072797598680324
1308,2.109854883649741,54.30681812327654,-20.386084640393292,-2.298318577029472
1309,2.1970957983301345,52.18590523163836,-20.43541388041986,-2.5522704491618358
1310,2.07442064979491,49.88724984975286,-20.504137886301326,-2.8465756307622594
1311,1.8945365742867055,47.413905581172884,-20.525828699553085,-3.1591146039693245
1312,1.8320764536844876,44.79130892254723,-20.439248827140773,-3.4656172397766887
1313,1.803896803199123,42.059191891607455,-20.28870609601526,-3.777449611470612
1314,1.6940935708972524,39.25330241961161,-20.146146415661427,-4.088524522266166
1315,1.4940190961626643,36.39276336384748,-20.05909261473148,-4.405786974431607
1316,1.2271513019591511,33.483904423696096,-20.047039091197234,-4.697077468799763
1317,1.0152651477110295,30.526019608617844,-20.055401990585885,-4.957929128019532
1318,0.9565450959442904,27.517576732357412,-20.01178314661933,-5.25643642636083
1319,0.8731661838034455,24.459591594365143,-19.90423005230365,-5.61240158281176
1320,0.5784478407311217,21.361142012021137,-19.741178224601324,-6.024244185006772
1321,0.19987867915997864,18.23320225443782,-19.525610041328065,-6.413156376614057
1322,-0.0875893496378864,15.082028430901675,-19.258924652111368,-6.699747365932994
1323,-0.2892479252276159,11.901780996522932,-18.91885550315894,-6.9102994463730045
1324,-0.4480107397348323,8.680361431467908,-18.48099993855191,-7.102799497447206
1325,-0.6066259571260885,5.416092080793917,-17.953734575220924,-7.3069055609551254
1326,-0.8079632772563101,2.1174423216451226,-17.36126753013248,-7.535599729550622
1327,-0.9789898494270686,-1.2135941786677016,-16.71909507574031,-7.759253714844588
1328,-1.048695943199086,-4.583590258982062,-16.051944101118128,-7.936595572032904
1329,-1.1462523557658506,-7.99337530543982,-15.420611643778482,-8.070928832519478
1330,-1.4017203310075657,-11.434311361446825,-14.869556293808488,-8.17983320942863
1331,-1.7250487814039774,-14.897320253654767,-14.367594486922863,-8.263387877894111
1332,-1.9999868481613226,-18.380937715358325,-13.862913609692821,-8.326731327793944
1333,-2.2343539053366848,-21.892747240345457,-13.334892206645732,-8.389471337746281
1334,-2.4657506099141098,-25.439811764918257,-12.771596953459738,-8.467280794391884
1335,-2.7641424750262464,-29.015166976149462,-12.167285752936813,-8.57309522829568
1336,-3.1804347117988976,-32.604088074409404,-11.521913959992062,-8.705358482784938
1337,-3.5891795541770897,-36.19500905214718,-10.818751552733826,-8.814435247310712
1338,-3.8610883527191797,-39.77831015588204,-10.04664153168629,-8.855245662250882
1339,-4.098274354271639,-43.34552254505655,-9.228256834340591,-8.857390280992417
1340,-4.440986777327309,-46.77568560795782,-8.446906072158498,-8.86793141764793
1341,-4.794279493425947,-49.81902859541616,-7.770588934379678,-8.881767531160188
1342,-5.066485764439799,-52.335952219639076,-7.270063582853737,-8.909196072157819
1343,-5.261624453530411,-54.32143589371615,-6.911860327230235,-8.895412322907708
1344,-5.422332317262532,-55.799543832697154,-6.600302062202425,-8.847402677653347
1345,-5.6848524748886815,-56.85287939759397,-6.232840018672744,-8.856677140482399
1346,-6.154667812960243,-57.59816866999608,-5.74619909322681,-8.950629248077746
1347,-6.661901245249782,-58.12898356980001,-5.181917286023599,-9.023635764911955
1348,-6.506415610139532,-58.50081030626561,-4.5844219249407505,-8.715119410332113
1349,-6.272177142786775,-58.781195604073446,-4.053156241225701,-8.386195005444646
1350,-6.079740264415149,-59.01078646269696,-3.618087225251998,-8.045435744067696
1351,-5.910906739793984,-59.21018988717244,-3.2584868996333745,-7.683891641303173
1352,-5.719396315530962,-59.38275973557793,-2.9220115315289297,-7.291173189709879
1353,-5.460441966563551,-59.51597687054848,-2.5453920455771257,-6.851428269856983
1354,-5.103466709691248,-59.59419303785787,-2.078804778688995,-6.3565033603872845
1355,-4.776723953119759,-59.61513004089843,-1.5358016581971459,-5.847958228601783
1356,-4.616095319133681,-59.59458953623586,-0.9602386072042189,-5.374636136635957
1357,-4.491075213519244,-59.5431022138841,-0.3662746168477523,-4.922131388491684
1358,-4.226225480703863,-59.453689917985734,0.22786269661984754,-4.463750919409875
1359,-3.8829991288040593,-59.322105572740995,0.7713166417289435,-4.025869195066044
1360,-3.5785640316599885,-59.15210395693836,1.215251578896402,-3.6392578384150016
1361,-3.3323076986572846,-58.939143849555066,1.5136291824749157,-3.298019322372714
1362,-3.1416334005227533,-58.66815241249991,1.653899715126433,-2.9849552459258266
1363,-2.9600293248267944,-58.32386412174692,1.7326107753158604,-2.6704866125849973
1364,-2.7313319732550245,-57.90275301958855,1.8642608320801903,-2.3302770746691137
1365,-2.546455726260669,-57.41377590957594,2.0565054898874466,-1.997550493687471
1366,-2.503334176643585,-56.86175196429142,2.273469149310838,-1.7137777779235963
1367,-2.4638866326661315,-56.242259522641916,2.4901582433460314,-1.455973349859475
1368,-2.262647946931545,-55.55164058948552,2.6854914080644074,-1.1833788965932621
1369,-1.9640525116721563,-54.79210349424224,2.876948720567054,-0.8831098599737177
1370,-1.6866188423194415,-53.97010882328081,3.09801301891399,-0.5538118764824111
1371,-1.4620822187066413,-53.09919155434589,3.346234071904359,-0.20705835713840665
1372,-1.292805857026417,-52.188831231978945,3.6073045031039843,0.13559612694545142
1373,-1.0927374968834316,-51.23400623371382,3.877269295779217,0.4643789791346302
1374,-0.7730292086996033,-50.218352986350666,4.147548268927561,0.7772521644400647
1375,-0.469845355962915,-49.12980504992248,4.41288081581793,1.0617074132236535
1376,-0.3448795666954247,-47.96364636424989,4.660827751409117,1.3143273318415316
1377,-0.2905081961828569,-46.71575620254492,4.834508186166593,1.5755423431734177
1378,-0.1453602229935438,-45.38284629915412,4.881356022040295,1.886458355343063
1379,0.08729448616081897,-43.972071833331974,4.824267217317131,2.2294842239623187
1380,0.35844320058473705,-42.50859005043268,4.718732680677401,2.5701946868185934
1381,0.5965425035600557,-41.020137964808406,4.595269564889951,2.9024723964429837
1382,0.7356924384696948,-39.51330438542384,4.4877775864136975,3.2275044058862075
1383,0.8979096611342314,-37.978182190248155,4.459917940021361,3.551222941602931
1384,1.2218332863634151,-36.409527631312116,4.558299064368507,3.8825074257786265
1385,1.5497811876265084,-34.80855562308657,4.779750669791414,4.201759146482236
1386,1.6863919510734235,-33.1759536835951,5.08238232281417,4.4925612083856805
1387,1.7233193463683225,-31.506216978358687,5.379481939900246,4.794857490892678
1388,1.8172268017285647,-29.7848186577886,5.584622948668294,5.155315366842554
1389,2.00772712614303,-27.990032143351876,5.672650655365372,5.578113286873773
1390,2.2927955321280034,-26.115951053989747,5.663859295467421,6.043212008130631
1391,2.576928615985312,-24.180102091743315,5.615836739570872,6.500113504760097
1392,2.7545099979824688,-22.210576121103262,5.595725833994343,6.899467246528225
1393,2.938070119724011,-20.230445537033248,5.617259358851092,7.254300289323355
1394,3.2777443052700965,-18.240130151170007,5.668397839373112,7.5996658843417695
1395,3.6873836239003053,-16.2112977046686,5.766384681164543,7.948629502010149
1396,4.033464279949602,-14.10680153264909,5.917888153379347,8.299323447627648
1397,4.342779195405809,-11.916154812050056,6.072997995254079,8.614086249316896
1398,4.663855020223161,-9.657321964073187,6.17568685002476,8.84825061749496
1399,4.976651471473937,-7.351672533166832,6.212682953742964,9.013112623771207
1400,5.251301853130572,-5.032533219770562,6.190794025320589,9.13620767626973
1401,5.410623723661169,-2.789883651707484,6.125909908279279,9.203259181611841
1402,5.395960306085977,-0.7625277026087431,6.038045282086026,9.19662986399045
1403,5.34851151094002,0.940661031568141,5.925457721787829,9.138485551172092
1404,5.430115264926405,2.290416072691683,5.778131214013748,9.055790877802105
1405,5.556642226624865,3.33409240585174,5.605479247264299,8.943708467524516
1406,5.5917786896762,4.164202578483874,5.419339722836764,8.79827993463925
1407,5.5434103995581125,4.863391256338306,5.2133771072328505,8.643393916277923
1408,3.687603560445391,8.479011315234247,-14.400801975191353,1.0329917201297034
1409,3.564132310687122,8.531394546547617,-14.856597496548138,0.9640921906072547
1410,3.538638156685286,8.560230214917748,-15.293921341791604,0.9056432197017382
1411,3.5116799358121384,8.564936414969957,-15.680117744736185,0.851568433427309
1412,3.3685719199795874,8.546136668338262,-15.992197044489004,0.7919351515968861
1413,3.2185172298853995,8.501453797281728,-16.267409574809225,0.7314289106252887
1414,3.183674810431166,8.42910714135001,-16.54930419471875,0.6758968013361959
1415,3.214747689037554,8.33152543319947,-16.837783688302416,0.6206428527627542
1416,3.2328314567660144,8.213881340648932,-17.122149448450223,0.5620744402643888
1417,3.189124428877294,8.084502636536309,-17.389360670706882,0.5039532587417281
1418,3.060377519478165,7.950450281581431,-17.628813238801836,0.4503952891354073
1419,2.9452848327436323,7.813549005868204,-17.880580322408388,0.4103047075741984
1420,2.94397207087174,7.671520618616381,-18.1745071756839,0.38705407025106614
1421,2.9622735087745276,7.515524590885396,-18.43152819153814,0.35326928625916626
1422,2.889018715446081,7.340614454484041,-18.577085338387665,0.2875464673709377
1423,2.788937858940501,7.150931608007145,-18.661004543809653,0.21886243231676128
1424,2.746212312307378,6.958610555193219,-18.763466852929977,0.18608914899959975
1425,2.754939959249265,6.772553149490582,-18.926720416421965,0.20294026934484066
1426,2.7888951775104167,6.591833506669889,-19.170251975934217,0.26976640906165117
1427,2.7837437136525693,6.4114195553838895,-19.466321131970506,0.3697918621030967
1428,2.688092010032576,6.229528484429059,-19.761786607359017,0.4764708617734049
1429,2.6092447695486163,6.034631182202396,-20.028949344557425,0.5824032892194786
1430,2.6511886370019884,5.815325330004194,-20.24168703665307,0.6820397844155851
1431,2.6930863715741786,5.565270926300854,-20.357347659377023,0.7361620897722203
1432,2.6018128057895207,5.282102537099234,-20.347994453838055,0.7336329531735537
1433,2.4341811095430685,4.964969622343782,-20.197324430354755,0.6829917573502452
1434,2.2850171619340243,4.622455482060237,-19.929395549497436,0.642394060655894
1435,2.2162375832150576,4.269151278056574,-19.664322042121118,0.6706871137211826
1436,2.2596260297594886,3.9298730679859957,-19.519409497897964,0.7527592969878452
1437,2.3029555320379695,3.6190173778556263,-19.51053631156567,0.8464323449844067
1438,2.23110817493051,3.342959205451602,-19.590628557999214,0.8973877202737175
1439,2.1641333781836742,3.097998152043052,-19.664561382192353,0.9142590396144781
1440,2.233389061679364,2.8712199677293393,-19.63139969302121,0.9213893197979266
1441,2.328302522109748,2.6427106391687847,-19.458658384356614,0.9006547849746707
1442,2.31688938303171,2.3945752353225043,-19.164188779419813,0.8362386579323806
1443,2.2164153993638616,2.119042407654686,-18.777653880278983,0.7423647006205464
1444,2.0803331578562876,1.8158906346632628,-18.353496894115626,0.6402648763743154
1445,1.99043508569874,1.4941190163427427,-17.988972592285055,0.5619822230185317
1446,2.0087681987181285,1.1597403389633818,-17.74714687617251,0.5270020525615855
1447,2.013559236075107,0.8121880692650103,-17.582830791675683,0.49918730107970244
1448,1.8760507443302756,0.44323526709093225,-17.408312755897708,0.4323797872197032
1449,1.7117204823390664,0.04974022306482878,-17.14138535350965,0.3206225255512388
1450,1.6534009887172756,-0.35595353442104194,-16.730113609695607,0.1735994570152044
1451,1.6283620818468885,-0.7548247512034283,-16.209325814112493,0.0026984575522980697
1452,1.5377749585017937,-1.149502844294885,-15.647914251626801,-0.1760647258828685
1453,1.3563710801991586,-1.5639516222191403,-15.080407396366406,-0.3543030223249868
1454,1.095326954270478,-2.015495872056094,-14.523573621465731,-0.529481842257251
1455,0.8794462545956474,-2.5083329082816963,-13.978488407947886,-0.694349521844289
1456,0.8240647001640636,-3.051563744992365,-13.432436152737028,-0.8463776526803037
1457,0.8169380313779554,-3.664889081845042,-12.876352478940591,-1.0006514922452996
1458,0.7176024852517021,-4.372245584816145,-12.304925631326359,-1.1714174148147507
1459,0.591642044916139,-5.22150411619386,-11.718484668324495,-1.3509099168461134
1460,0.5233020973449328,-6.2684594097801325,-11.11345167257469,-1.527127192670491
1461,0.46400690054364147,-7.5161336133041186,-10.475854096147195,-1.7010039807534525
1462,0.35076681801139586,-8.905591755191464,-9.78764417825701,-1.8735033214518515
1463,0.14298646050667668,-10.354814245428207,-9.01314360047754,-2.041844754341362
1464,-0.1760852969556302,-11.772625219713557,-8.14214625173827,-2.202954512078869
1465,-0.5068138539722076,-13.081985580705764,-7.248142443432981,-2.3396943840636806
1466,-0.7499685208394213,-14.245597078127458,-6.416790315250039,-2.4438848069198364
1467,-0.9931848359228904,-15.266391086039953,-5.6830792904717295,-2.5567089584308906
1468,-1.364762503255565,-16.124666041164986,-5.062559185041593,-2.7144487016187293
1469,-1.6820931100804457,-16.75342426989425,-4.525382378461209,-2.893384170330864
1470,-1.800774573606835,-17.127123645503268,-4.04511832537716,-3.05727040173382
1471,-1.773418413132803,-17.29480742249559,-3.6603989304550644,-3.226305759292726
1472,-1.7221039375587857,-17.334863542655892,-3.4068476698152046,-3.410386935739768
1473,-1.8133255115284193,-17.307267212485687,-3.250026728010782,-3.6229626329641893
1474,-2.153097051074307,-17.221656388745757,-3.1277462121950044,-3.834284383115332
1475,-2.5147251751417907,-17.05950129292249,-2.9576485459085298,-3.9746041352089296
1476,-2.3563535855438795,-16.254116119760866,-2.5515649280896135,-3.972820564984235
1477,-2.102275155162689,-15.427268283620975,-2.051676335410094,-3.924891058650713
1478,-1.9704328980467478,-14.576541511841034,-1.5166063576409332,-3.8678806489111413
1479,-1.9336312813380543,-13.710107162542812,-0.9906881626244968,-3.8051844846098617
1480,-1.9068642615372289,-12.83400339362646,-0.5083696864153915,-3.7284875370653516
1481,-1.8610991408549156,-11.947882985450658,-0.07908139203816028,-3.62820405818682
1482,-1.7774630650855372,-11.053257896830772,0.3086359915427263,-3.493800639010281
1483,-1.7436630126272161,-10.156241553123134,0.6711101273073395,-3.3325876162190213
1484,-1.8546201554078117,-9.259236691671168,1.0210853857686657,-3.161793139390244
1485,-1.9731424684540755,-8.358842849498139,1.3440807624189595,-2.986194921160172
1486,-1.9326370655810148,-7.460943990572898,1.6220603470926194,-2.810508604194434
1487,-1.8304467479192157,-6.583971439476821,1.8755703180203216,-2.6646181443772803
