timestamps,TP9,AF7,AF8,TP10,Right AUX
1727361907.252,-99.121,-39.062,-48.340,-46.875,0.000
1727361907.256,-87.402,-37.598,-46.387,-58.105,0.000
1727361907.260,7.812,-37.109,-53.223,-41.016,0.000
1727361907.264,64.941,-34.668,-62.500,-23.438,0.000
1727361907.268,5.371,-32.227,-51.758,-21.484,0.000
1727361907.272,-89.355,-37.598,-53.223,-37.598,0.000
1727361907.276,-89.355,-43.457,-66.406,-36.621,0.000
1727361907.280,-8.789,-33.203,-58.594,-13.184,0.000
1727361907.283,29.297,-18.555,-47.363,-6.348,0.000
1727361907.287,-12.695,-31.250,-50.293,-23.438,0.000
1727361907.291,-63.477,-41.016,-55.664,-47.363,0.000
1727361907.295,-70.312,-34.180,-62.988,-50.293,0.000
1727361907.299,-14.648,-35.156,-64.453,-33.691,0.000
1727361907.303,73.730,-30.762,-61.035,-26.367,0.000
1727361907.307,37.598,-29.297,-51.270,-8.301,0.000
1727361907.311,-75.684,-41.992,-47.363,-17.090,0.000
1727361907.315,-82.031,-41.504,-51.270,-40.039,0.000
1727361907.319,-9.277,-30.762,-56.641,-30.273,0.000
1727361907.323,44.434,-43.945,-57.129,-20.996,0.000
1727361907.326,3.906,-65.430,-53.223,-22.949,0.000
1727361907.330,-74.707,-69.336,-59.570,-27.832,0.000
1727361907.334,-105.957,-49.805,-59.570,-34.180,0.000
1727361907.338,-50.781,-36.133,-59.082,-39.062,0.000
1727361907.342,37.109,-24.414,-62.500,-27.344,0.000
1727361907.346,27.832,-16.602,-56.641,-7.812,0.000
1727361907.350,-40.527,-43.457,-44.434,-26.855,0.000
1727361907.354,-87.891,-44.922,-48.340,-48.828,0.000
1727361907.358,-31.738,-29.297,-58.594,-31.738,0.000
1727361907.362,43.945,-34.668,-49.316,-3.418,0.000
1727361907.366,23.926,-42.969,-41.992,-7.812,0.000
1727361907.369,-45.898,-39.551,-44.434,-23.926,0.000
1727361907.373,-81.055,-26.855,-49.316,-39.062,0.000
1727361907.377,-50.781,-21.973,-48.828,-48.340,0.000
1727361907.381,23.438,-34.668,-46.875,-4.883,0.000
1727361907.385,44.434,-37.109,-46.875,13.672,0.000
1727361907.389,-24.902,-39.551,-59.082,-18.555,0.000
1727361907.393,-66.895,-34.180,-62.012,-33.691,0.000
1727361907.397,-40.527,-23.926,-55.176,-34.180,0.000
1727361907.401,21.484,-29.785,-54.199,-21.973,0.000
1727361907.405,37.598,-31.738,-63.965,-12.695,0.000
1727361907.408,-26.367,-28.320,-67.871,-4.883,0.000
1727361907.412,-74.707,-37.109,-68.848,-21.973,0.000
1727361907.416,-64.453,-47.363,-66.895,-33.203,0.000
1727361907.420,15.137,-34.668,-53.711,-5.371,0.000
1727361907.424,49.805,-22.949,-56.152,-7.812,0.000
1727361907.428,-6.836,-23.438,-64.941,-18.555,0.000
1727361907.432,-78.613,-20.020,-62.988,-31.738,0.000
1727361907.436,-85.449,-11.230,-65.430,-32.227,0.000
1727361907.440,-5.859,-14.648,-68.848,-15.137,0.000
1727361907.444,43.457,-29.297,-73.242,-15.625,0.000
1727361907.448,-19.531,-40.527,-67.383,-22.461,0.000
1727361907.451,-97.168,-43.457,-58.105,-25.391,0.000
1727361907.455,-82.520,-34.668,-76.172,-26.367,0.000
1727361907.459,-3.418,-40.527,-80.566,-29.785,0.000
1727361907.463,32.715,-58.105,-68.359,-29.297,0.000
1727361907.467,-9.277,-47.363,-75.195,-26.367,0.000
1727361907.471,-95.703,-44.434,-77.148,-29.785,0.000
1727361907.475,-114.258,-48.828,-78.125,-34.180,0.000
1727361907.479,-21.484,-26.855,-79.590,-29.297,0.000
1727361907.483,46.387,-23.926,-71.777,-10.742,0.000
1727361907.487,-5.371,-44.434,-65.430,-2.930,0.000
1727361907.491,-69.824,-43.945,-64.941,-21.973,0.000
1727361907.494,-83.984,-37.109,-72.754,-46.875,0.000
1727361907.498,-36.621,-40.039,-80.078,-35.645,0.000
1727361907.502,17.090,-36.621,-87.891,-12.207,0.000
1727361907.506,-6.348,-34.668,-83.008,-14.648,0.000
1727361907.510,-67.383,-22.949,-72.266,-32.715,0.000
1727361907.514,-91.797,-18.066,-75.684,-40.039,0.000
1727361907.518,-9.766,-22.949,-76.660,-8.301,0.000
1727361907.522,51.270,-21.973,-69.824,13.672,0.000
1727361907.526,10.254,-21.973,-65.430,4.395,0.000
1727361907.530,-59.082,-14.648,-67.871,-20.996,0.000
1727361907.533,-92.773,16.113,-69.336,-44.434,0.000
1727361907.537,-49.316,41.016,-64.453,-31.250,0.000
1727361907.541,19.043,45.410,-65.918,-0.488,0.000
1727361907.545,21.973,30.762,-65.430,-1.953,0.000
1727361907.549,-41.016,28.809,-64.941,-26.855,0.000
1727361907.553,-106.445,31.250,-78.125,-39.062,0.000
1727361907.557,-66.406,29.297,-88.867,-43.457,0.000
1727361907.561,30.273,30.762,-85.938,-40.527,0.000
1727361907.565,20.996,16.113,-82.520,-29.785,0.000
1727361907.569,-67.871,6.348,-85.938,-33.691,0.000
1727361907.573,-118.652,12.695,-76.660,-50.293,0.000
1727361907.576,-86.914,13.672,-79.590,-44.922,0.000
1727361907.580,-0.977,11.719,-87.891,-37.598,0.000
1727361907.584,37.109,6.836,-81.055,-36.133,0.000
1727361907.588,-33.203,-5.859,-81.543,-28.809,0.000
1727361907.592,-107.422,-9.766,-85.938,-52.246,0.000
1727361907.596,-83.008,-1.465,-87.402,-66.895,0.000
1727361907.600,13.672,-0.488,-88.867,-41.992,0.000
1727361907.604,30.273,2.441,-84.473,-34.180,0.000
1727361907.608,-40.527,-9.766,-79.102,-37.109,0.000
1727361907.612,-101.074,-17.578,-85.449,-45.898,0.000
1727361907.616,-95.703,-5.371,-87.402,-37.598,0.000
1727361907.619,-1.465,-5.371,-87.891,-37.109,0.000
1727361907.623,54.688,-9.277,-91.309,-49.316,0.000
1727361907.627,-12.207,-8.789,-81.543,-40.527,0.000
1727361907.631,-84.961,-9.277,-82.031,-43.457,0.000
1727361907.635,-80.078,-17.090,-82.031,-55.176,0.000
1727361907.639,5.859,-16.602,-86.914,-48.828,0.000
1727361907.643,76.172,-13.672,-85.938,-21.973,0.000
1727361907.647,-3.906,-19.531,-79.590,-12.207,0.000
1727361907.651,-95.215,-22.949,-85.449,-40.527,0.000
1727361907.655,-81.055,-18.555,-78.125,-44.434,0.000
1727361907.658,7.324,-18.555,-62.012,-4.883,0.000
1727361907.662,65.918,-16.602,-65.430,5.859,0.000
1727361907.666,-15.625,-16.602,-83.984,-16.113,0.000
1727361907.670,-106.934,-18.555,-83.008,-28.320,0.000
1727361907.674,-123.047,-10.742,-79.102,-46.875,0.000
1727361907.678,-48.340,-10.254,-80.078,-41.016,0.000
1727361907.682,31.250,-22.949,-79.102,-32.227,0.000
1727361907.686,9.766,-12.207,-82.031,-33.203,0.000
1727361907.690,-57.129,-7.324,-86.914,-29.297,0.000
1727361907.694,-96.680,-28.809,-82.520,-28.809,0.000
1727361907.698,-50.293,-40.527,-73.730,-19.043,0.000
1727361907.701,48.828,-28.809,-77.148,-3.906,0.000
1727361907.705,42.480,-20.020,-74.707,0.000,0.000
1727361907.709,-53.223,-20.020,-81.055,-4.883,0.000
1727361907.713,-98.633,-18.555,-84.473,-20.020,0.000
1727361907.717,-34.668,-27.344,-82.520,-31.738,0.000
1727361907.721,41.016,-37.109,-83.496,-17.578,0.000
1727361907.725,23.926,-25.879,-83.984,2.441,0.000
1727361907.729,-39.551,-12.695,-84.473,-14.160,0.000
1727361907.733,-75.684,-13.184,-75.195,-44.434,0.000
1727361907.737,-52.246,-27.832,-68.848,-45.410,0.000
1727361907.741,20.996,-40.527,-61.035,-27.832,0.000
1727361907.744,35.156,-30.273,-55.176,-17.090,0.000
1727361907.748,-35.156,-17.578,-59.570,-26.367,0.000
1727361907.752,-90.332,-21.973,-67.383,-39.062,0.000
1727361907.756,-53.711,-20.020,-76.172,-30.273,0.000
1727361907.760,47.363,-20.996,-74.219,2.441,0.000
1727361907.764,63.965,-26.855,-67.871,11.719,0.000
1727361907.768,-38.086,-20.020,-73.242,-15.625,0.000
1727361907.772,-105.469,-20.508,-72.266,-30.273,0.000
1727361907.776,-64.453,-27.832,-62.500,-26.367,0.000
1727361907.780,34.668,-30.762,-69.824,-27.832,0.000
1727361907.783,51.270,-35.156,-71.777,-28.320,0.000
1727361907.787,-21.484,-32.227,-65.430,-29.297,0.000
1727361907.791,-87.402,-22.461,-59.570,-31.250,0.000
1727361907.795,-88.867,-30.762,-62.988,-42.480,0.000
1727361907.799,10.254,-34.668,-73.730,-32.715,0.000
1727361907.803,51.758,-36.133,-69.824,-12.695,0.000
1727361907.807,-8.789,-39.062,-62.988,-15.137,0.000
1727361907.811,-67.871,-23.438,-61.035,-19.531,0.000
1727361907.815,-71.289,-9.277,-52.734,-11.719,0.000
1727361907.819,30.762,-8.301,-45.410,8.789,0.000
1727361907.823,95.215,-2.441,-41.016,21.973,0.000
1727361907.826,4.883,-5.859,-42.969,-10.742,0.000
1727361907.830,-80.078,-19.531,-60.547,-47.852,0.000
1727361907.834,-76.660,-18.555,-67.383,-45.898,0.000
1727361907.838,-3.418,-20.996,-61.523,-27.832,0.000
1727361907.842,40.527,-23.438,-55.664,-17.090,0.000
1727361907.846,3.906,-23.926,-51.758,-18.066,0.000
1727361907.850,-48.828,-32.227,-58.594,-37.109,0.000
1727361907.854,-79.102,-43.457,-66.406,-41.504,0.000
1727361907.858,-18.066,-26.855,-71.777,-28.809,0.000
1727361907.862,43.945,-13.184,-75.195,-30.273,0.000
1727361907.866,7.812,-18.066,-74.707,-33.691,0.000
1727361907.869,-74.707,-20.996,-75.684,-47.852,0.000
1727361907.873,-107.910,-25.879,-68.848,-47.363,0.000
1727361907.877,-46.875,-25.879,-59.082,-31.250,0.000
1727361907.881,27.832,-29.785,-60.547,-24.414,0.000
1727361907.885,-0.488,-28.809,-62.012,-25.879,0.000
1727361907.889,-71.777,-29.785,-59.082,-35.156,0.000
1727361907.893,-92.285,-36.133,-61.523,-40.527,0.000
1727361907.897,-44.922,-36.133,-64.453,-36.133,0.000
1727361907.901,34.668,-18.555,-66.895,-24.414,0.000
1727361907.905,44.922,-27.832,-70.312,-16.602,0.000
1727361907.908,-24.414,-48.340,-68.359,-4.395,0.000
1727361907.912,-91.797,-48.828,-65.430,-21.484,0.000
1727361907.916,-59.082,-44.922,-59.082,-30.762,0.000
1727361907.920,22.949,-46.387,-60.547,-25.879,0.000
1727361907.924,20.996,-44.434,-70.312,-23.926,0.000
1727361907.928,-42.969,-31.250,-65.918,-23.926,0.000
1727361907.932,-81.055,-26.367,-60.059,-36.621,0.000
1727361907.936,-58.105,-46.875,-69.336,-40.527,0.000
1727361907.940,24.902,-34.180,-70.801,-31.250,0.000
1727361907.944,41.992,-17.090,-62.988,-16.602,0.000
1727361907.948,-41.504,-39.551,-64.941,-24.414,0.000
1727361907.951,-100.098,-53.223,-61.035,-34.668,0.000
1727361907.955,-71.289,-52.246,-56.152,-23.438,0.000
1727361907.959,14.160,-44.922,-59.082,-25.879,0.000
1727361907.963,45.410,-46.387,-56.641,-18.555,0.000
1727361907.967,-19.531,-44.434,-60.059,-16.113,0.000
1727361907.971,-79.102,-32.227,-57.617,-32.227,0.000
1727361907.975,-62.012,-31.250,-51.270,-36.621,0.000
1727361907.979,-4.883,-31.738,-58.594,-23.926,0.000
1727361907.983,29.785,-37.109,-55.176,-11.230,0.000
1727361907.987,-12.207,-38.574,-45.898,-5.859,0.000
1727361907.991,-86.426,-33.203,-54.199,-23.926,0.000
1727361907.994,-85.449,-25.879,-63.965,-38.574,0.000
1727361907.998,11.230,-29.297,-56.152,-17.090,0.000
1727361908.002,47.363,-33.203,-46.875,-6.836,0.000
1727361908.006,-11.230,-24.902,-47.363,-13.672,0.000
1727361908.010,-83.984,-16.602,-50.293,-31.250,0.000
1727361908.014,-91.309,-29.297,-56.641,-51.270,0.000
1727361908.018,-19.531,-50.781,-68.848,-38.574,0.000
1727361908.022,29.785,-42.969,-66.406,-17.578,0.000
1727361908.026,-17.578,-43.457,-48.340,-17.578,0.000
1727361908.030,-80.078,-46.387,-42.969,-22.949,0.000
1727361908.033,-80.078,-39.551,-43.457,-23.438,0.000
1727361908.037,-28.809,-28.809,-47.363,-11.230,0.000
1727361908.041,25.879,-39.062,-54.688,-17.090,0.000
1727361908.045,0.488,-41.992,-51.270,-32.715,0.000
1727361908.049,-65.430,-33.691,-45.898,-37.598,0.000
1727361908.053,-86.914,-41.016,-52.734,-32.715,0.000
1727361908.057,-17.578,-32.715,-52.246,-19.043,0.000
1727361908.061,75.195,-31.738,-37.598,-8.301,0.000
1727361908.065,34.180,-32.715,-32.715,-12.207,0.000
1727361908.069,-61.523,-50.293,-36.133,-32.227,0.000
1727361908.073,-110.840,-70.312,-37.598,-49.316,0.000
1727361908.077,-51.270,-55.664,-33.691,-30.762,0.000
1727361908.080,37.109,-40.039,-36.621,-9.277,0.000
1727361908.084,7.812,-31.738,-40.527,-21.484,0.000
1727361908.088,-70.801,-22.949,-34.668,-18.555,0.000
1727361908.092,-107.422,-23.438,-35.645,-24.414,0.000
1727361908.096,-67.871,-31.250,-45.410,-50.781,0.000
1727361908.100,24.902,-29.785,-44.434,-34.180,0.000
1727361908.104,27.344,-38.086,-48.340,-20.996,0.000
1727361908.108,-56.641,-51.270,-49.805,-37.109,0.000
1727361908.112,-107.422,-46.875,-45.410,-57.617,0.000
1727361908.116,-73.730,-47.363,-46.387,-63.965,0.000
1727361908.119,14.648,-49.316,-53.711,-55.664,0.000
1727361908.123,31.738,-38.574,-63.965,-35.645,0.000
1727361908.127,-30.762,-31.250,-57.617,-27.832,0.000
1727361908.131,-88.379,-20.508,-44.434,-47.363,0.000
1727361908.135,-82.520,-24.902,-41.992,-41.992,0.000
1727361908.139,-5.371,-44.922,-40.527,-13.672,0.000
1727361908.143,30.273,-53.711,-41.992,-12.695,0.000
1727361908.147,-26.367,-61.035,-48.828,-17.090,0.000
1727361908.151,-88.379,-44.922,-49.316,-37.109,0.000
1727361908.155,-76.660,-28.809,-52.734,-52.246,0.000
1727361908.159,-7.812,-33.203,-53.223,-39.062,0.000
1727361908.162,21.973,-42.480,-47.363,-21.973,0.000
1727361908.166,-32.227,-34.180,-40.527,-27.344,0.000
1727361908.170,-91.309,-28.320,-39.551,-36.621,0.000
1727361908.174,-85.449,-31.250,-45.898,-37.598,0.000
1727361908.178,-9.277,-38.086,-45.410,-24.902,0.000
1727361908.182,31.738,-39.551,-47.852,-18.555,0.000
1727361908.186,-16.113,-25.879,-45.898,0.000,0.000
1727361908.190,0.000,-33.691,-40.527,-10.254,0.000
1727361908.194,0.000,-45.410,-46.875,-46.387,0.000
1727361908.198,0.000,-41.992,-50.293,-42.969,0.000
1727361908.201,0.000,-42.480,-48.828,-45.898,0.000
1727361908.205,0.000,-40.527,-53.223,-50.781,0.000
1727361908.209,0.000,-34.668,-51.270,-53.223,0.000
1727361908.213,0.000,-36.621,-49.805,-51.758,0.000
1727361908.217,0.000,-39.551,-43.457,-28.320,0.000
1727361908.221,0.000,-41.504,-32.715,-12.207,0.000
1727361908.225,0.000,-49.805,-28.809,-18.555,0.000
1727361908.229,0.000,-41.992,-24.902,-20.996,0.000
1727361908.233,0.000,-33.203,-25.391,-35.645,0.000
1727361908.237,-37.109,-37.109,-28.320,-37.598,0.000
1727361908.241,43.945,-38.574,-33.691,-26.367,0.000
1727361908.244,20.508,-38.086,-37.598,-26.367,0.000
1727361908.248,-67.871,-30.762,-34.180,-14.648,0.000
1727361908.252,-105.469,-28.809,-34.668,-26.367,0.000
1727361908.256,-37.598,-26.855,-33.203,-38.086,0.000
1727361908.260,37.109,-36.133,-38.086,-33.203,0.000
1727361908.264,22.949,-41.992,-36.621,-24.414,0.000
1727361908.268,-41.504,-38.086,-32.715,-6.348,0.000
1727361908.272,-77.637,-38.574,-35.645,-13.672,0.000
1727361908.276,-25.391,-19.043,-47.852,-30.273,0.000
1727361908.280,49.316,-21.484,-55.176,-24.902,0.000
1727361908.284,60.547,-37.598,-51.270,-12.695,0.000
1727361908.287,-27.832,-24.414,-46.387,-8.789,0.000
1727361908.291,-89.355,-13.672,-36.621,-24.902,0.000
1727361908.295,-49.805,-17.090,-40.527,-36.133,0.000
1727361908.299,30.273,-26.367,-56.152,-15.625,0.000
1727361908.303,33.691,-33.203,-58.105,-5.859,0.000
1727361908.307,-47.852,-25.391,-49.316,-20.996,0.000
1727361908.311,-92.773,-31.738,-45.410,-27.832,0.000
1727361908.315,-57.129,-47.363,-47.363,-36.621,0.000
1727361908.319,23.438,-41.992,-51.758,-36.621,0.000
1727361908.323,33.691,-33.691,-57.617,-32.227,0.000
1727361908.327,-31.738,-35.156,-55.176,-35.156,0.000
1727361908.330,-103.516,-47.363,-59.570,-31.738,0.000
1727361908.334,-92.773,-45.410,-57.129,-26.855,0.000
1727361908.338,4.883,-37.598,-52.246,-10.742,0.000
1727361908.342,38.574,-46.875,-52.734,-3.906,0.000
1727361908.346,-16.113,-41.992,-43.945,-15.137,0.000
1727361908.350,-69.336,-31.250,-36.621,-26.367,0.000
1727361908.354,-53.223,-25.879,-40.527,-26.855,0.000
1727361908.358,4.883,-19.043,-48.828,-28.809,0.000
1727361908.362,31.738,-19.043,-39.551,-29.785,0.000
1727361908.366,-8.789,-24.414,-28.809,-25.391,0.000
1727361908.370,-77.637,-35.156,-37.109,-40.527,0.000
1727361908.373,-83.496,-43.945,-46.875,-39.062,0.000
1727361908.377,-11.230,-39.551,-46.875,-9.277,0.000
1727361908.381,49.316,-37.598,-38.086,-1.953,0.000
1727361908.385,14.648,-35.645,-29.785,-26.367,0.000
1727361908.389,-72.754,-25.391,-31.250,-50.293,0.000
1727361908.393,-100.586,-26.855,-43.457,-46.387,0.000
1727361908.397,-39.062,-32.227,-45.410,-35.645,0.000
1727361908.401,20.020,-27.832,-41.016,-19.531,0.000
1727361908.405,-5.859,-31.250,-38.574,-14.160,0.000
1727361908.409,-72.754,-30.762,-24.902,-26.367,0.000
1727361908.412,-96.191,-30.273,-24.414,-40.527,0.000
1727361908.416,-14.160,-31.250,-31.738,-26.855,0.000
1727361908.420,57.617,-31.250,-41.992,-15.137,0.000
1727361908.424,14.648,-37.598,-48.340,-18.066,0.000
1727361908.428,-67.871,-35.156,-42.969,-36.133,0.000
1727361908.432,-99.121,-33.203,-44.434,-43.945,0.000
1727361908.436,-16.113,-32.715,-40.527,-20.508,0.000
1727361908.440,59.082,-28.320,-40.039,-19.043,0.000
1727361908.444,2.930,-21.484,-46.875,-18.555,0.000
1727361908.448,-67.871,-27.832,-41.016,-24.414,0.000
1727361908.452,-81.055,-41.016,-34.180,-38.086,0.000
1727361908.455,-35.645,-31.738,-38.086,-30.762,0.000
1727361908.459,37.109,-33.203,-49.805,-27.832,0.000
1727361908.463,44.922,-41.016,-54.688,-35.156,0.000
1727361908.467,-42.969,-30.273,-59.082,-54.688,0.000
1727361908.471,-119.141,-31.250,-59.570,-62.500,0.000
1727361908.475,-85.449,-49.316,-61.035,-60.547,0.000
1727361908.479,2.441,-61.035,-57.129,-49.316,0.000
1727361908.483,5.859,-55.176,-52.734,-38.574,0.000
1727361908.487,-60.547,-47.852,-52.734,-52.246,0.000
1727361908.491,-88.379,-59.082,-42.969,-57.617,0.000
1727361908.495,-64.941,-64.941,-49.805,-60.059,0.000
1727361908.498,-6.348,-62.500,-49.805,-38.086,0.000
1727361908.502,6.836,-52.246,-48.340,-28.320,0.000
1727361908.506,-66.895,-38.574,-69.336,-51.270,0.000
1727361908.510,-131.348,-39.062,-76.172,-59.570,0.000
1727361908.514,-100.586,-49.805,-61.523,-49.805,0.000
1727361908.518,-3.418,-54.199,-50.781,-39.551,0.000
1727361908.522,13.672,-40.527,-45.898,-26.367,0.000
1727361908.526,-52.246,-38.086,-37.598,-23.438,0.000
1727361908.530,-114.258,-41.992,-38.574,-50.781,0.000
1727361908.534,-97.168,-43.457,-38.574,-47.363,0.000
1727361908.538,-2.441,-53.223,-38.574,-23.438,0.000
1727361908.541,49.805,-46.875,-42.969,-23.926,0.000
1727361908.545,5.371,-32.227,-36.133,-24.414,0.000
1727361908.549,-78.613,-24.414,-29.785,-26.367,0.000
1727361908.553,-81.055,-14.160,-35.156,-26.367,0.000
1727361908.557,13.184,-13.672,-37.598,-8.301,0.000
1727361908.561,46.387,-27.344,-33.691,4.395,0.000
1727361908.565,-12.207,-30.273,-30.273,7.812,0.000
1727361908.569,-89.355,-30.273,-32.715,-27.344,0.000
1727361908.573,-102.051,-29.785,-37.598,-47.852,0.000
1727361908.577,-13.184,-24.414,-40.039,-28.809,0.000
1727361908.580,38.086,-28.320,-34.180,-20.508,0.000
1727361908.584,-9.277,-29.297,-26.367,-18.555,0.000
1727361908.588,-74.219,-33.203,-37.109,-31.738,0.000
1727361908.592,-96.191,-41.504,-43.457,-39.551,0.000
1727361908.596,-34.668,-49.805,-50.293,-23.926,0.000
1727361908.600,26.855,-49.805,-45.410,-18.555,0.000
1727361908.604,7.812,-39.062,-33.691,-21.973,0.000
1727361908.608,-65.430,-44.434,-34.180,-37.598,0.000
1727361908.612,-124.512,-52.246,-34.668,-58.105,0.000
1727361908.616,-62.012,-53.711,-32.715,-47.852,0.000
1727361908.620,35.645,-48.828,-39.062,-36.621,0.000
1727361908.623,25.879,-37.598,-36.133,-44.922,0.000
1727361908.627,-61.523,-37.109,-31.738,-59.082,0.000
1727361908.631,-115.234,-55.176,-33.691,-66.406,0.000
1727361908.635,-80.566,-56.641,-30.762,-40.527,0.000
1727361908.639,-1.953,-38.574,-30.273,-31.250,0.000
1727361908.643,-2.930,-41.016,-30.273,-50.781,0.000
1727361908.647,-76.660,-53.223,-33.691,-62.988,0.000
1727361908.651,-129.883,-55.176,-37.598,-78.613,0.000
1727361908.655,-77.148,-43.945,-40.039,-66.406,0.000
1727361908.659,19.531,-36.621,-36.621,-41.504,0.000
1727361908.662,36.133,-33.203,-34.668,-31.250,0.000
1727361908.666,-23.926,-30.762,-32.715,-27.344,0.000
1727361908.670,-98.633,-27.832,-25.391,-35.645,0.000
1727361908.674,-89.355,-31.250,-24.902,-47.852,0.000
1727361908.678,7.324,-31.738,-29.785,-34.180,0.000
1727361908.682,46.875,-23.926,-27.344,-4.395,0.000
1727361908.686,-31.738,-25.391,-25.879,-0.977,0.000
1727361908.690,-95.215,-40.527,-30.762,-27.832,0.000
1727361908.694,-59.570,-41.992,-28.320,-20.508,0.000
1727361908.698,42.969,-36.133,-25.391,17.578,0.000
1727361908.702,62.500,-32.227,-25.391,21.973,0.000
1727361908.705,-12.207,-32.227,-33.691,2.441,0.000
1727361908.709,-56.641,-42.480,-37.109,-16.602,0.000
1727361908.713,-51.758,-29.785,-28.320,-25.391,0.000
1727361908.717,13.672,-20.996,-27.832,-18.066,0.000
1727361908.721,43.457,-22.461,-36.621,-37.598,0.000
1727361908.725,-20.508,-17.090,-33.203,-40.527,0.000
1727361908.729,-73.730,-26.855,-27.344,-35.645,0.000
1727361908.733,-71.777,-20.996,-32.227,-49.316,0.000
1727361908.737,-16.602,-14.160,-38.574,-24.414,0.000
1727361908.741,36.133,-45.410,-37.109,3.418,0.000
1727361908.745,19.043,-112.793,-30.762,-7.812,0.000
1727361908.748,-49.805,-165.039,-26.855,-21.973,0.000
1727361908.752,-104.980,-66.406,-19.531,-34.668,0.000
1727361908.756,-30.273,-21.484,-21.484,-15.625,0.000
1727361908.760,62.500,-104.004,-36.621,13.184,0.000
1727361908.764,16.602,-46.875,-11.230,3.906,0.000
1727361908.768,-88.867,-33.691,-19.043,-40.039,0.000
1727361908.772,-97.656,-101.074,-67.871,-39.062,0.000
1727361908.776,-7.324,-129.883,-31.738,0.488,0.000
1727361908.780,51.758,-228.027,-24.414,-9.277,0.000
1727361908.784,61.035,-160.156,-36.133,26.367,0.000
1727361908.787,-38.574,8.789,-21.973,25.879,0.000
1727361908.791,-166.016,23.438,-0.977,-75.195,0.000
1727361908.795,-165.039,-24.902,-43.457,-134.766,0.000
1727361908.799,-36.621,-73.242,-43.945,-89.355,0.000
1727361908.803,-3.418,-29.785,14.648,-53.711,0.000
1727361908.807,-115.234,90.332,57.129,-84.473,0.000
1727361908.811,-114.258,30.273,49.316,-48.340,0.000
1727361908.815,182.617,-144.531,119.141,191.406,0.000
1727361908.819,325.684,-3.418,259.277,303.223,0.000
1727361908.823,79.590,28.320,156.250,73.730,0.000
1727361908.827,11.719,-106.934,131.836,35.156,0.000
1727361908.830,151.855,-71.289,398.438,215.820,0.000
1727361908.834,132.812,72.266,605.469,184.082,0.000
1727361908.838,-33.203,127.930,694.336,-40.527,0.000
1727361908.842,-88.867,247.070,882.812,-99.609,0.000
1727361908.846,-129.883,376.465,977.539,-87.402,0.000
1727361908.850,-157.227,352.051,959.473,-34.180,0.000
1727361908.854,-74.219,292.480,967.285,23.926,0.000
1727361908.858,58.594,280.762,967.285,61.523,0.000
1727361908.862,104.980,467.773,966.797,125.977,0.000
1727361908.866,50.293,649.902,966.797,143.555,0.000
1727361908.870,8.789,677.734,966.797,122.070,0.000
1727361908.873,42.969,710.938,966.309,131.836,0.000
1727361908.877,123.535,747.559,966.797,152.832,0.000
1727361908.881,155.762,722.168,966.309,157.227,0.000
1727361908.885,98.145,713.867,966.309,163.086,0.000
1727361908.889,4.883,761.719,966.797,151.855,0.000
1727361908.893,-7.812,782.715,966.797,140.137,0.000
1727361908.897,87.402,771.484,966.309,145.508,0.000
1727361908.901,131.348,773.926,966.309,133.301,0.000
1727361908.905,70.801,813.965,966.309,118.652,0.000
1727361908.909,6.836,827.637,966.797,119.141,0.000
1727361908.912,8.301,813.965,966.797,99.121,0.000
1727361908.916,73.242,782.715,966.797,88.867,0.000
1727361908.920,103.027,725.098,966.797,104.004,0.000
1727361908.924,39.551,676.758,966.797,84.961,0.000
1727361908.928,-35.645,638.672,966.797,49.805,0.000
1727361908.932,-37.598,610.352,966.797,61.035,0.000
1727361908.936,21.973,569.824,966.797,66.406,0.000
1727361908.940,77.148,511.719,966.797,58.105,0.000
1727361908.944,48.340,474.121,966.797,69.824,0.000
1727361908.948,-43.457,437.012,966.797,61.523,0.000
1727361908.952,-61.523,382.812,966.797,25.879,0.000
1727361908.955,36.133,361.328,967.285,24.902,0.000
1727361908.959,99.609,338.379,965.332,39.551,0.000
1727361908.963,60.059,299.805,965.332,38.086,0.000
1727361908.967,-42.480,242.188,966.797,20.508,0.000
1727361908.971,-88.379,176.270,894.043,3.418,0.000
1727361908.975,-10.254,143.555,783.691,14.648,0.000
1727361908.979,68.359,124.023,719.238,17.090,0.000
1727361908.983,33.691,100.098,664.551,4.395,0.000
1727361908.987,-50.781,86.426,597.168,-15.137,0.000
1727361908.991,-84.473,65.430,523.926,-23.926,0.000
1727361908.994,-29.297,33.203,454.590,-3.418,0.000
1727361908.998,52.246,9.766,364.258,-10.254,0.000
1727361909.002,64.941,-7.324,229.492,-18.555,0.000
1727361909.006,-19.043,-20.020,91.797,-20.996,0.000
1727361909.010,-82.520,-21.973,-61.035,-33.203,0.000
1727361909.014,-38.086,-20.020,-225.098,-38.574,0.000
1727361909.018,38.086,-42.480,-347.168,-31.738,0.000
1727361909.022,27.832,-101.562,-489.746,-32.715,0.000
1727361909.026,-44.434,-177.246,-611.816,-47.852,0.000
1727361909.030,-109.375,-235.840,-658.203,-53.223,0.000
1727361909.034,-84.961,-287.598,-690.918,-71.777,0.000
1727361909.037,9.766,-326.660,-734.863,-70.312,0.000
1727361909.041,33.203,-343.262,-756.348,-54.688,0.000
1727361909.045,-37.598,-358.398,-752.930,-49.805,0.000
1727361909.049,-115.723,-386.719,-740.234,-56.641,0.000
1727361909.053,-111.328,-414.062,-732.910,-87.402,0.000
1727361909.057,-18.066,-444.336,-724.609,-90.332,0.000
1727361909.061,5.859,-487.305,-743.164,-72.754,0.000
1727361909.065,-60.547,-531.738,-770.508,-71.777,0.000
1727361909.069,-107.910,-585.938,-754.883,-82.520,0.000
1727361909.073,-104.980,-529.785,-750.000,-86.914,0.000
1727361909.076,-33.203,-431.152,-746.582,-90.820,0.000
1727361909.080,-5.371,-445.312,-729.492,-83.984,0.000
1727361909.084,-80.566,-510.742,-703.125,-84.473,0.000
1727361909.088,-137.695,-568.848,-675.293,-101.074,0.000
1727361909.092,-123.535,-611.328,-657.227,-101.074,0.000
1727361909.096,-39.551,-639.160,-642.090,-92.773,0.000
1727361909.100,20.996,-633.301,-619.141,-79.102,0.000
1727361909.104,-46.875,-625.000,-628.418,-81.055,0.000
1727361909.108,-126.953,-621.094,-645.996,-92.773,0.000
1727361909.112,-125.488,-621.582,-642.090,-78.613,0.000
1727361909.116,-47.363,-604.004,-627.930,-61.523,0.000
1727361909.119,5.371,-574.707,-595.215,-65.918,0.000
1727361909.123,-38.574,-548.340,-574.219,-63.965,0.000
1727361909.127,-114.258,-520.508,-558.594,-65.918,0.000
1727361909.131,-130.859,-496.582,-544.922,-83.984,0.000
1727361909.135,-41.016,-477.539,-553.223,-77.148,0.000
1727361909.139,14.160,-465.332,-543.945,-62.500,0.000
1727361909.143,-36.621,-454.590,-511.230,-56.152,0.000
1727361909.147,-98.633,-450.195,-505.859,-67.383,0.000
1727361909.151,-93.262,-447.266,-492.676,-83.496,0.000
1727361909.155,-29.297,-433.105,-463.379,-67.383,0.000
1727361909.159,14.648,-389.648,-440.430,-44.434,0.000
1727361909.162,-13.672,-341.797,-422.852,-54.688,0.000
1727361909.166,-81.055,-330.078,-405.762,-63.477,0.000
1727361909.170,-114.258,-335.938,-397.461,-78.613,0.000
1727361909.174,-60.059,-332.520,-400.879,-98.633,0.000
1727361909.178,13.672,-310.059,-400.391,-79.102,0.000
1727361909.182,18.555,-289.551,-395.508,-64.941,0.000
1727361909.186,-52.734,-280.273,-384.277,-84.961,0.000
1727361909.190,-136.719,-281.250,-372.559,-81.543,0.000
1727361909.194,-83.496,-277.832,-378.906,-64.941,0.000
1727361909.198,7.812,-270.020,-427.246,-72.266,0.000
1727361909.201,-20.508,-254.395,-456.543,-72.266,0.000
1727361909.205,-98.145,-243.164,-448.242,-49.805,0.000
1727361909.209,-148.438,-244.629,-449.219,-63.965,0.000
1727361909.213,-114.746,-235.840,-448.730,-89.844,0.000
1727361909.217,-20.996,-220.215,-436.035,-84.961,0.000
1727361909.221,-0.977,-214.844,-437.012,-74.219,0.000
1727361909.225,-78.125,-223.633,-425.293,-68.848,0.000
1727361909.229,-128.418,-217.285,-409.668,-68.848,0.000
1727361909.233,-98.145,-183.105,-408.203,-65.430,0.000
1727361909.237,-13.672,-159.668,-393.555,-65.918,0.000
1727361909.241,14.648,-153.320,-385.742,-48.828,0.000
1727361909.244,-26.855,-151.367,-382.324,-35.156,0.000
1727361909.248,-86.914,-152.832,-381.836,-60.547,0.000
1727361909.252,-115.234,-134.277,-405.762,-66.895,0.000
1727361909.256,-43.457,-119.629,-413.086,-53.711,0.000
1727361909.260,8.789,-114.258,-404.785,-56.152,0.000
1727361909.264,-34.668,-124.023,-398.926,-66.406,0.000
1727361909.268,-107.422,-133.301,-392.090,-80.078,0.000
1727361909.272,-114.258,-113.770,-406.738,-74.707,0.000
1727361909.276,-15.625,-98.145,-432.129,-50.781,0.000
1727361909.280,36.621,-94.238,-443.359,-34.180,0.000
1727361909.284,-23.926,-111.816,-450.684,-38.574,0.000
1727361909.287,-92.773,-119.141,-445.801,-63.965,0.000
1727361909.291,-96.680,-113.770,-429.199,-75.195,0.000
1727361909.295,-32.227,-114.258,-419.434,-61.035,0.000
1727361909.299,17.578,-105.469,-414.062,-56.641,0.000
1727361909.303,-34.668,-108.887,-429.688,-51.270,0.000
1727361909.307,-117.188,-102.051,-435.059,-67.871,0.000
1727361909.311,-127.441,-94.238,-422.363,-77.637,0.000
1727361909.315,-43.945,-90.820,-416.016,-44.922,0.000
1727361909.319,18.555,-82.520,-399.902,-39.551,0.000
1727361909.323,-29.297,-69.336,-376.465,-53.223,0.000
1727361909.326,-95.215,-101.562,-364.258,-63.477,0.000
1727361909.330,-101.562,-189.941,-362.305,-78.125,0.000
1727361909.334,-60.547,-240.234,-364.258,-76.172,0.000
1727361909.338,-2.930,-249.023,-361.816,-62.012,0.000
1727361909.342,-10.742,-225.586,-354.004,-51.270,0.000
1727361909.346,-87.402,-197.754,-332.031,-51.758,0.000
1727361909.350,-116.211,-199.219,-304.688,-50.293,0.000
1727361909.354,-66.895,-214.844,-298.340,-41.504,0.000
1727361909.358,6.836,-206.543,-300.293,-40.039,0.000
1727361909.362,5.371,-192.871,-299.316,-34.668,0.000
1727361909.366,-44.434,-197.754,-279.785,-36.621,0.000
1727361909.369,-98.145,-190.430,-266.602,-53.711,0.000
1727361909.373,-70.312,-182.617,-266.113,-55.664,0.000
1727361909.377,24.414,-169.434,-246.094,-45.410,0.000
1727361909.381,41.992,-143.555,-220.215,-27.832,0.000
1727361909.385,-49.805,-122.070,-199.707,-24.902,0.000
1727361909.389,-123.535,-132.324,-182.617,-46.387,0.000
1727361909.393,-79.590,-135.742,-177.734,-46.875,0.000
1727361909.397,20.996,-113.281,-179.199,-32.227,0.000
1727361909.401,21.484,-106.445,-165.039,-34.180,0.000
1727361909.405,-52.734,-109.375,-140.625,-42.969,0.000
1727361909.409,-100.586,-119.141,-121.582,-41.992,0.000
1727361909.412,-77.637,-120.605,-103.516,-41.504,0.000
1727361909.416,23.926,-115.234,-97.168,-34.180,0.000
1727361909.420,74.707,-118.164,-91.309,-34.180,0.000
1727361909.424,-27.344,-113.281,-80.566,-34.180,0.000
1727361909.428,-121.094,-106.445,-71.289,-42.480,0.000
1727361909.432,-103.027,-108.398,-80.566,-53.223,0.000
1727361909.436,-9.277,-112.305,-94.727,-39.551,0.000
1727361909.440,39.062,-104.980,-86.426,-39.551,0.000
1727361909.444,-22.949,-101.562,-74.219,-32.715,0.000
1727361909.448,-88.379,-110.840,-85.449,-35.645,0.000
1727361909.451,-81.055,-108.398,-115.723,-42.969,0.000
1727361909.455,-2.441,-90.332,-129.395,-38.086,0.000
1727361909.459,34.180,-68.848,-135.742,-38.086,0.000
1727361909.463,-26.367,-72.754,-142.578,-45.898,0.000
1727361909.467,-104.004,-93.262,-144.531,-76.172,0.000
1727361909.471,-117.676,-93.750,-200.684,-77.148,0.000
1727361909.475,-38.086,-84.473,-245.605,-45.898,0.000
1727361909.479,5.859,-79.590,-247.559,-36.133,0.000
1727361909.483,-27.832,-73.242,-242.188,-40.527,0.000
1727361909.487,-82.520,-75.195,-233.398,-48.828,0.000
1727361909.491,-93.750,-80.078,-228.516,-44.922,0.000
1727361909.494,-33.203,-90.332,-227.539,-38.574,0.000
1727361909.498,16.602,-94.727,-221.680,-47.852,0.000
1727361909.502,-3.906,-89.355,-215.332,-50.293,0.000
1727361909.506,-79.590,-70.801,-201.172,-47.363,0.000
1727361909.510,-91.309,-49.805,-188.477,-48.828,0.000
1727361909.514,-43.945,-55.176,-191.895,-46.875,0.000
1727361909.518,-2.930,-62.988,-193.359,-41.504,0.000
1727361909.522,-13.672,-57.129,-185.547,-40.039,0.000
1727361909.526,-87.402,-69.336,-188.477,-42.969,0.000
1727361909.530,-116.211,-80.566,-194.824,-47.852,0.000
1727361909.534,-35.156,-61.523,-184.570,-48.828,0.000
1727361909.537,28.809,-58.105,-182.617,-34.180,0.000
1727361909.541,-4.395,-71.289,-177.246,-31.738,0.000
1727361909.545,-59.082,-67.383,-161.133,-46.387,0.000
1727361909.549,-91.309,-46.387,-154.297,-49.316,0.000
1727361909.553,-57.617,-40.039,-151.855,-40.527,0.000
1727361909.557,24.414,-43.457,-147.461,-19.043,0.000
1727361909.561,26.855,-44.434,-141.602,-9.277,0.000
1727361909.565,-66.406,-67.383,-137.695,-41.016,0.000
1727361909.569,-119.141,-78.613,-140.137,-61.523,0.000
1727361909.573,-77.148,-57.617,-134.277,-46.875,0.000
1727361909.576,16.113,-53.223,-120.117,-23.438,0.000
1727361909.580,35.645,-58.105,-125.488,-23.926,0.000
1727361909.584,-52.246,-53.223,-137.207,-47.852,0.000
1727361909.588,-102.051,-41.992,-124.512,-47.852,0.000
1727361909.592,-58.105,-42.480,-106.934,-27.344,0.000
1727361909.596,35.645,-45.898,-104.004,-23.438,0.000
1727361909.600,50.293,-48.828,-101.562,-22.461,0.000
1727361909.604,-45.410,-52.734,-94.727,-31.738,0.000
1727361909.608,-118.164,-66.406,-92.285,-53.711,0.000
1727361909.612,-98.145,-64.453,-96.680,-60.059,0.000
1727361909.616,1.953,-49.805,-101.074,-41.016,0.000
1727361909.619,31.250,-53.711,-104.004,-35.156,0.000
1727361909.623,-26.855,-77.637,-96.680,-45.898,0.000
1727361909.627,-66.895,-85.449,-81.543,-54.199,0.000
1727361909.631,-76.172,-63.965,-74.707,-45.410,0.000
1727361909.635,-5.371,-59.082,-74.219,-26.367,0.000
1727361909.639,19.531,-45.898,-72.266,-37.598,0.000
1727361909.643,-41.016,-29.785,-70.312,-46.875,0.000
1727361909.647,-96.680,-25.879,-57.617,-49.805,0.000
1727361909.651,-78.125,-25.879,-52.734,-59.570,0.000
1727361909.655,2.930,-31.250,-55.664,-41.504,0.000
1727361909.659,36.621,-46.387,-48.828,-19.043,0.000
1727361909.662,-22.949,-53.711,-54.199,-27.832,0.000
1727361909.666,-104.004,-56.152,-62.012,-30.273,0.000
1727361909.670,-94.727,-64.941,-64.453,-49.805,0.000
1727361909.674,1.465,-55.176,-66.895,-61.035,0.000
1727361909.678,41.504,-36.621,-59.082,-41.504,0.000
1727361909.682,-8.301,-30.273,-50.781,-29.297,0.000
1727361909.686,-80.078,-36.621,-52.246,-36.133,0.000
1727361909.690,-98.145,-40.039,-43.945,-37.598,0.000
1727361909.694,-34.180,-48.340,-38.086,-16.113,0.000
1727361909.698,38.574,-49.805,-35.645,-10.254,0.000
1727361909.701,12.695,-53.223,-36.133,-24.414,0.000
1727361909.705,-68.848,-52.246,-42.480,-40.527,0.000
1727361909.709,-99.121,-48.340,-46.387,-53.223,0.000
1727361909.713,-34.180,-30.273,-45.410,-36.621,0.000
1727361909.717,34.668,-21.484,-46.875,-29.297,0.000
1727361909.721,-6.836,-33.691,-50.781,-24.414,0.000
1727361909.725,-87.402,-38.086,-45.898,-29.785,0.000
1727361909.729,-117.188,-37.598,-45.898,-38.574,0.000
1727361909.733,-43.457,-43.945,-43.945,-20.996,0.000
1727361909.737,44.922,-55.176,-34.668,-13.184,0.000
1727361909.741,24.902,-52.246,-32.227,-1.465,0.000
1727361909.744,-50.293,-49.316,-36.133,-17.578,0.000
1727361909.748,-100.586,-42.480,-36.621,-41.992,0.000
1727361909.752,-56.152,-23.438,-44.922,-49.316,0.000
1727361909.756,41.016,-24.414,-50.293,-36.621,0.000
1727361909.760,46.387,-30.273,-24.902,-9.277,0.000
1727361909.764,-35.156,-26.367,-23.926,-25.879,0.000
1727361909.768,-99.609,-22.461,-36.621,-49.805,0.000
1727361909.772,-88.379,-29.785,-44.922,-62.500,0.000
1727361909.776,-6.836,-32.715,-53.223,-56.152,0.000
1727361909.780,20.996,-25.391,-55.664,-46.875,0.000
1727361909.784,-48.828,-31.250,-53.711,-30.273,0.000
1727361909.787,-113.281,-28.320,-52.734,-43.457,0.000
1727361909.791,-75.195,-24.414,-52.734,-61.523,0.000
1727361909.795,19.531,-32.227,-50.781,-39.062,0.000
1727361909.799,47.363,-30.273,-55.176,-27.832,0.000
1727361909.803,-29.785,-34.180,-54.688,-36.133,0.000
1727361909.807,-108.887,-26.855,-48.828,-56.641,0.000
1727361909.811,-88.379,-26.367,-42.480,-46.875,0.000
1727361909.815,-7.324,-39.062,-43.945,-35.645,0.000
1727361909.819,13.672,-40.039,-42.969,-38.574,0.000
1727361909.823,-38.574,-34.668,-39.062,-35.645,0.000
1727361909.826,-80.566,-34.180,-41.504,-36.621,0.000
1727361909.830,0.000,-39.062,-38.574,-32.227,0.000
1727361909.834,0.000,-29.297,-41.992,-26.367,0.000
1727361909.838,0.000,-25.879,-47.363,-34.668,0.000
1727361909.842,0.000,-20.996,-36.133,-40.039,0.000
1727361909.846,0.000,-7.324,-35.645,-37.109,0.000
1727361909.850,0.000,-20.508,-30.762,-37.109,0.000
1727361909.854,0.000,-37.598,-27.832,-26.855,0.000
1727361909.858,0.000,-36.133,-35.645,-20.020,0.000
1727361909.862,0.000,-34.180,-38.086,-9.277,0.000
1727361909.866,0.000,-21.973,-34.668,-13.672,0.000
1727361909.869,0.000,-10.742,-27.344,-43.457,0.000
1727361909.873,0.000,-20.508,-30.762,-41.504,0.000
1727361909.877,38.574,-29.785,-43.945,-28.809,0.000
1727361909.881,-0.977,-38.086,-41.016,-30.762,0.000
1727361909.885,-37.109,-38.574,-40.039,-39.062,0.000
1727361909.889,-81.055,-36.133,-36.621,-42.969,0.000
1727361909.893,-51.758,-34.668,-25.879,-27.344,0.000
1727361909.897,26.855,-21.484,-25.391,-11.230,0.000
1727361909.901,12.695,-14.648,-21.973,-9.277,0.000
1727361909.905,-60.547,-3.906,-17.090,-17.090,0.000
1727361909.909,-85.449,1.953,-17.578,-34.668,0.000
1727361909.912,-35.156,-23.438,-18.555,-22.949,0.000
1727361909.916,30.273,-31.738,-20.508,-4.395,0.000
1727361909.920,19.531,-31.738,-20.508,-6.836,0.000
1727361909.924,-62.500,-37.598,-30.273,-19.043,0.000
1727361909.928,-105.957,-30.273,-32.227,-37.598,0.000
1727361909.932,-46.875,-40.527,-26.367,-31.738,0.000
1727361909.936,41.016,-43.457,-22.949,-5.859,0.000
1727361909.940,36.133,-33.691,-27.832,-7.812,0.000
1727361909.944,-36.133,-27.832,-29.785,-15.137,0.000
1727361909.948,-88.379,-25.879,-26.855,-36.133,0.000
1727361909.952,-55.176,-18.555,-28.320,-45.410,0.000
1727361909.955,34.180,-16.113,-22.461,-10.742,0.000
1727361909.959,41.992,-16.602,-17.578,-7.812,0.000
1727361909.963,-50.781,-24.414,-8.301,-13.184,0.000
1727361909.967,-109.863,-33.691,-7.812,-23.926,0.000
1727361909.971,-72.266,-34.668,-20.020,-37.598,0.000
1727361909.975,1.953,-37.598,-34.180,-19.531,0.000
1727361909.979,28.809,-41.016,-31.738,-12.207,0.000
1727361909.983,-33.203,-33.691,-16.602,-27.832,0.000
1727361909.987,-99.121,-28.320,-13.184,-37.598,0.000
1727361909.991,-66.895,-33.203,-13.184,-33.203,0.000
1727361909.994,31.738,-44.434,-22.949,-28.320,0.000
1727361909.998,42.969,-37.598,-29.785,-24.902,0.000
1727361910.002,-33.691,-26.855,-23.926,-25.879,0.000
1727361910.006,-96.680,-35.156,-26.367,-41.504,0.000
1727361910.010,-101.074,-55.664,-28.809,-43.945,0.000
1727361910.014,-24.414,-48.828,-18.555,-38.086,0.000
1727361910.018,28.809,-20.508,-4.883,-25.391,0.000
1727361910.022,-20.020,-23.926,-0.977,-8.789,0.000
1727361910.026,-87.402,-33.691,-1.953,-29.297,0.000
1727361910.030,-102.051,-35.645,-4.883,-53.711,0.000
1727361910.034,-7.812,-37.598,-11.230,-39.551,0.000
1727361910.037,67.871,-39.551,-14.160,-20.020,0.000
1727361910.041,-4.395,-30.762,-11.719,-13.184,0.000
1727361910.045,-82.520,-27.344,-12.695,-21.973,0.000
1727361910.049,-106.445,-38.086,-20.996,-34.668,0.000
1727361910.053,-33.691,-28.809,-26.855,-25.879,0.000
1727361910.057,42.480,-21.484,-23.438,-23.926,0.000
1727361910.061,-4.883,-20.996,-20.508,-13.184,0.000
1727361910.065,-72.266,-21.973,-16.113,-0.488,0.000
1727361910.069,-74.707,-19.531,-15.625,-14.648,0.000
1727361910.073,-28.320,-13.672,-27.344,-22.949,0.000
1727361910.076,42.969,-8.301,-32.715,-13.672,0.000
1727361910.080,34.180,-8.301,-34.668,-12.695,0.000
1727361910.084,-67.383,-26.855,-37.598,-45.410,0.000
1727361910.088,-101.074,-41.992,-36.621,-64.941,0.000
1727361910.092,-31.250,-44.922,-27.344,-41.504,0.000
1727361910.096,42.969,-28.809,-22.949,-24.414,0.000
1727361910.100,27.832,-20.508,-20.020,-20.020,0.000
1727361910.104,-56.641,-24.414,-24.902,-36.133,0.000
1727361910.108,-110.840,-32.227,-33.691,-49.316,0.000
1727361910.112,-71.777,-38.086,-29.297,-20.996,0.000
1727361910.116,18.555,-29.785,-33.691,-10.254,0.000
1727361910.119,22.949,-36.133,-39.062,-19.043,0.000
1727361910.123,-39.551,-49.805,-28.809,-24.414,0.000
1727361910.127,-101.562,-46.875,-24.414,-38.086,0.000
1727361910.131,-55.664,-23.438,-25.879,-29.297,0.000
1727361910.135,46.875,-12.207,-23.438,-10.742,0.000
1727361910.139,24.414,-33.203,-24.414,-10.742,0.000
1727361910.143,-56.641,-36.133,-29.297,-27.344,0.000
1727361910.147,-104.004,-21.484,-29.297,-44.922,0.000
1727361910.151,-85.449,-31.250,-25.391,-49.316,0.000
1727361910.155,-11.719,-45.410,-25.879,-31.738,0.000
1727361910.159,22.949,-51.758,-22.461,-11.719,0.000
1727361910.162,-12.695,-48.340,-20.996,-14.648,0.000
1727361910.166,-90.820,-33.691,-22.461,-29.785,0.000
1727361910.170,-73.730,-28.320,-25.391,-39.062,0.000
1727361910.174,17.578,-30.273,-31.738,-36.621,0.000
1727361910.178,34.668,-25.879,-28.809,-31.250,0.000
1727361910.182,-24.414,-22.949,-24.902,-20.508,0.000
1727361910.186,-75.684,-20.508,-24.902,-25.879,0.000
1727361910.190,-68.359,-23.926,-25.391,-45.410,0.000
1727361910.194,9.277,-35.156,-32.227,-30.273,0.000
1727361910.198,51.758,-35.156,-37.109,-19.043,0.000
1727361910.201,0.488,-42.480,-28.809,-33.691,0.000
1727361910.205,-76.660,-51.270,-22.949,-42.480,0.000
1727361910.209,-87.402,-38.574,-28.809,-34.668,0.000
1727361910.213,-10.742,-20.996,-27.832,-28.809,0.000
1727361910.217,32.227,-23.926,-25.391,-28.809,0.000
1727361910.221,-20.020,-29.785,-29.297,-27.832,0.000
1727361910.225,-96.680,-18.066,-33.691,-35.156,0.000
1727361910.229,-118.652,-12.695,-41.016,-50.293,0.000
1727361910.233,-46.387,-21.973,-48.828,-47.363,0.000
1727361910.237,38.574,-33.203,-46.875,-28.320,0.000
1727361910.241,2.441,-42.969,-42.969,-16.602,0.000
1727361910.244,-91.797,-39.062,-35.645,-34.180,0.000
1727361910.248,-117.188,-21.973,-27.832,-46.387,0.000
1727361910.252,-42.969,-25.391,-27.344,-35.156,0.000
1727361910.256,27.832,-41.504,-31.738,-27.344,0.000
1727361910.260,-1.953,-32.227,-32.227,-18.555,0.000
1727361910.264,-79.102,-25.391,-27.832,-28.320,0.000
1727361910.268,-110.840,-37.109,-25.391,-46.875,0.000
1727361910.272,-38.086,-34.668,-21.973,-35.156,0.000
1727361910.276,28.320,-35.645,-35.156,-30.273,0.000
1727361910.280,16.113,-46.875,-41.016,-29.785,0.000
1727361910.284,-53.711,-35.156,-27.832,-47.363,0.000
1727361910.287,-107.910,-20.996,-20.020,-66.895,0.000
1727361910.291,-52.246,-33.691,-26.855,-48.828,0.000
1727361910.295,32.227,-46.387,-26.367,-24.414,0.000
1727361910.299,27.344,-40.527,-23.926,-8.301,0.000
1727361910.303,-60.059,-39.062,-28.320,-17.578,0.000
1727361910.307,-119.141,-44.434,-32.715,-37.109,0.000
1727361910.311,-71.289,-45.898,-39.551,-19.531,0.000
1727361910.315,25.879,-35.156,-40.039,-20.508,0.000
1727361910.319,26.855,-20.508,-26.855,-32.227,0.000
1727361910.323,-57.129,-29.297,-18.555,-26.855,0.000
1727361910.327,-103.027,-33.691,-18.555,-31.738,0.000
1727361910.330,-64.453,-23.926,-20.020,-31.250,0.000
1727361910.334,27.344,-25.391,-32.227,-32.715,0.000
1727361910.338,36.621,-29.297,-38.086,-38.086,0.000
1727361910.342,-47.852,-24.414,-43.457,-41.016,0.000
1727361910.346,-111.816,-19.043,-51.270,-61.523,0.000
1727361910.350,-84.473,-42.480,-46.387,-58.594,0.000
1727361910.354,14.648,-57.617,-35.156,-28.320,0.000
1727361910.358,59.570,-26.855,-22.461,-9.766,0.000
1727361910.362,8.301,-8.789,-24.414,-16.602,0.000
1727361910.366,-89.844,-20.508,-39.551,-41.992,0.000
1727361910.369,-94.727,-30.762,-45.898,-52.246,0.000
1727361910.373,13.672,-45.898,-56.641,-52.734,0.000
1727361910.377,41.016,-49.805,-54.199,-36.621,0.000
1727361910.381,-34.668,-38.574,-46.875,-18.555,0.000
1727361910.385,-104.492,-48.340,-44.434,-28.809,0.000
1727361910.389,-110.840,-40.527,-43.457,-35.156,0.000
1727361910.393,-29.297,-13.672,-50.293,-21.973,0.000
1727361910.397,28.809,-19.531,-45.410,-21.484,0.000
1727361910.401,-22.461,-32.227,-42.969,-24.414,0.000
1727361910.405,-83.496,-21.484,-42.480,-36.621,0.000
1727361910.409,-88.867,-24.414,-42.969,-55.176,0.000
1727361910.412,-22.461,-32.227,-50.781,-42.969,0.000
1727361910.416,40.039,-33.203,-57.129,-39.551,0.000
1727361910.420,9.277,-37.598,-47.852,-36.133,0.000
1727361910.424,-80.078,-30.762,-41.992,-48.340,0.000
1727361910.428,-116.211,-24.902,-48.340,-64.941,0.000
1727361910.432,-44.922,-41.016,-52.246,-38.574,0.000
1727361910.436,20.020,-50.293,-46.875,-11.230,0.000
1727361910.440,-7.812,-41.504,-38.086,-25.879,0.000
1727361910.444,-55.664,-36.133,-28.320,-41.504,0.000
1727361910.448,-85.938,-49.805,-38.086,-44.434,0.000
1727361910.451,-39.551,-44.922,-48.340,-42.480,0.000
1727361910.455,32.227,-24.902,-37.109,-18.555,0.000
1727361910.459,20.996,-22.461,-45.898,-20.020,0.000
1727361910.463,-66.406,-31.250,-52.246,-45.410,0.000
1727361910.467,-130.859,-35.156,-48.828,-50.293,0.000
1727361910.471,-60.547,-46.387,-56.641,-48.828,0.000
1727361910.475,36.133,-64.941,-54.199,-20.996,0.000
1727361910.479,7.324,-58.105,-52.734,-1.953,0.000
1727361910.483,-64.453,-39.062,-46.387,-23.438,0.000
1727361910.487,-86.426,-28.809,-41.016,-38.086,0.000
1727361910.491,-46.875,-28.320,-43.457,-40.039,0.000
1727361910.494,6.348,-37.109,-48.340,-21.973,0.000
1727361910.498,12.207,-43.945,-53.223,-18.555,0.000
1727361910.502,-44.434,-44.434,-53.711,-34.668,0.000
1727361910.506,-92.773,-35.645,-45.898,-54.199,0.000
1727361910.510,-71.777,-46.875,-41.016,-45.410,0.000
1727361910.514,15.137,-53.223,-55.664,-34.668,0.000
1727361910.518,46.875,-54.199,-61.035,-42.480,0.000
1727361910.522,-48.828,-47.363,-50.781,-48.828,0.000
1727361910.526,-125.000,-35.645,-39.062,-61.035,0.000
1727361910.530,-92.285,-28.809,-35.645,-51.758,0.000
1727361910.534,4.395,-25.879,-39.062,-27.344,0.000
1727361910.537,20.508,-43.457,-39.062,-12.695,0.000
1727361910.541,-44.434,-40.039,-39.551,-13.184,0.000
1727361910.545,-102.539,-32.227,-41.504,-41.016,0.000
1727361910.549,-94.238,-49.316,-38.574,-60.547,0.000
1727361910.553,1.953,-63.477,-41.992,-41.016,0.000
1727361910.557,48.340,-44.922,-49.316,-28.320,0.000
1727361910.561,-21.973,-27.832,-55.176,-41.504,0.000
1727361910.565,-97.168,-34.668,-44.922,-58.105,0.000
1727361910.569,-62.988,-33.203,-32.715,-35.645,0.000
1727361910.573,10.742,-26.855,-41.504,-19.043,0.000
1727361910.576,33.691,-27.344,-42.480,-35.156,0.000
1727361910.580,-12.207,-41.504,-37.598,-39.551,0.000
1727361910.584,-78.125,-48.828,-40.527,-37.109,0.000
1727361910.588,-81.543,-38.574,-36.621,-42.480,0.000
1727361910.592,-9.277,-37.109,-30.762,-31.250,0.000
1727361910.596,34.180,-43.457,-42.480,-27.344,0.000
1727361910.600,-10.254,-36.621,-45.898,-34.668,0.000
1727361910.604,-90.332,-34.668,-34.668,-50.293,0.000
1727361910.608,-105.957,-29.297,-24.414,-55.176,0.000
1727361910.612,-19.531,-17.090,-22.461,-28.320,0.000
1727361910.616,36.621,-26.367,-35.645,-3.418,0.000
1727361910.619,-14.648,-54.199,-35.156,-11.719,0.000
1727361910.623,-63.965,-35.156,-28.809,-26.855,0.000
1727361910.627,-59.082,-9.277,-28.320,-25.879,0.000
1727361910.631,-14.648,-25.879,-29.785,-20.996,0.000
1727361910.635,36.133,-37.598,-41.992,-7.324,0.000
1727361910.639,11.230,-38.086,-48.828,-7.324,0.000
1727361910.643,-79.590,-34.668,-40.039,-24.902,0.000
1727361910.647,-124.023,-29.785,-41.016,-49.805,0.000
1727361910.651,-56.152,-35.156,-48.828,-50.781,0.000
1727361910.655,32.715,-32.227,-51.270,-30.273,0.000
1727361910.659,17.090,-19.043,-42.480,-12.207,0.000
1727361910.662,-66.406,-23.926,-36.621,-15.625,0.000
1727361910.666,-107.422,-23.926,-40.527,-48.340,0.000
1727361910.670,-55.664,-21.973,-42.969,-51.270,0.000
1727361910.674,39.062,-23.926,-43.945,-31.250,0.000
1727361910.678,35.645,-25.391,-44.922,-27.832,0.000
1727361910.682,-46.875,-33.691,-52.246,-30.762,0.000
1727361910.686,-93.750,-45.898,-51.270,-46.875,0.000
1727361910.690,-55.176,-40.527,-45.898,-60.547,0.000
1727361910.694,9.766,-32.715,-46.875,-46.387,0.000
1727361910.698,14.160,-31.738,-49.316,-22.949,0.000
1727361910.702,-49.316,-28.320,-44.922,-18.555,0.000
1727361910.705,-104.980,-29.297,-43.457,-30.762,0.000
1727361910.709,-79.590,-40.527,-58.594,-31.738,0.000
1727361910.713,5.371,-47.363,-59.570,-22.949,0.000
1727361910.717,29.785,-29.297,-41.504,-13.672,0.000
1727361910.721,-23.438,-17.578,-33.203,-16.602,0.000
1727361910.725,-106.934,-28.320,-33.203,-46.387,0.000
1727361910.729,-102.539,-21.484,-38.574,-58.594,0.000
1727361910.733,0.977,-20.996,-41.992,-35.156,0.000
1727361910.737,33.203,-29.785,-39.062,-24.902,0.000
1727361910.741,-29.297,-36.133,-28.809,-26.855,0.000
1727361910.744,-86.914,-34.668,-35.156,-30.273,0.000
1727361910.748,-72.754,-28.320,-47.363,-32.715,0.000
1727361910.752,1.953,-42.969,-50.781,-26.855,0.000
1727361910.756,34.668,-49.805,-40.039,-18.555,0.000
1727361910.760,10.254,-41.992,-33.203,-8.301,0.000
1727361910.764,-54.199,-25.879,-39.062,-28.320,0.000
1727361910.768,-101.562,-25.879,-41.504,-50.781,0.000
1727361910.772,-29.297,-15.137,-41.016,-31.738,0.000
1727361910.776,43.945,0.488,-42.480,-9.766,0.000
1727361910.780,7.812,3.906,-31.250,-4.395,0.000
1727361910.784,-72.266,-18.555,-27.344,-11.230,0.000
1727361910.787,-99.609,-46.387,-37.109,-41.016,0.000
1727361910.791,-28.809,-33.691,-36.621,-39.062,0.000
1727361910.795,31.250,-11.230,-38.574,-20.996,0.000
1727361910.799,-4.883,-17.578,-38.086,-28.320,0.000
1727361910.803,-56.152,-34.180,-33.203,-42.480,0.000
1727361910.807,-83.008,-32.715,-39.551,-46.875,0.000
1727361910.811,-35.156,-29.297,-45.410,-29.297,0.000
1727361910.815,48.828,-28.809,-38.574,-17.090,0.000
1727361910.819,13.672,-27.832,-40.039,-11.230,0.000
1727361910.823,-65.430,-36.133,-43.457,-29.297,0.000
1727361910.826,-89.844,-46.875,-34.668,-43.945,0.000
1727361910.830,-35.645,-48.340,-33.691,-30.762,0.000
1727361910.834,33.691,-43.457,-38.086,-6.836,0.000
1727361910.838,10.254,-38.574,-41.504,-17.090,0.000
1727361910.842,-49.805,-30.762,-45.898,-47.363,0.000
1727361910.846,-82.520,-33.203,-41.504,-50.781,0.000
1727361910.850,-60.059,-44.922,-39.062,-40.039,0.000
1727361910.854,22.461,-56.152,-49.316,-33.203,0.000
1727361910.858,25.391,-57.617,-46.875,-31.738,0.000
1727361910.862,-70.312,-41.016,-41.992,-44.922,0.000
1727361910.866,-126.465,-36.133,-44.434,-47.852,0.000
1727361910.869,-79.102,-33.691,-43.457,-38.574,0.000
1727361910.873,-0.977,-40.039,-41.992,-35.645,0.000
1727361910.877,15.137,-44.922,-38.086,-24.414,0.000
1727361910.881,-45.898,-46.875,-33.691,-8.301,0.000
1727361910.885,-101.074,-50.781,-31.250,-20.508,0.000
1727361910.889,-66.406,-52.734,-34.668,-22.949,0.000
1727361910.893,13.184,-34.180,-47.363,-26.855,0.000
1727361910.897,35.156,-27.832,-53.711,-27.344,0.000
1727361910.901,-41.504,-40.039,-55.664,-24.414,0.000
1727361910.905,-114.746,-39.551,-58.594,-44.434,0.000
1727361910.909,-96.191,-31.738,-56.641,-47.852,0.000
1727361910.912,-1.953,-42.969,-54.199,-33.691,0.000
1727361910.916,49.805,-53.711,-55.664,-27.344,0.000
1727361910.920,-22.949,-51.758,-51.270,-26.855,0.000
1727361910.924,-99.121,-52.734,-47.363,-33.691,0.000
1727361910.928,-84.961,-55.664,-49.316,-34.180,0.000
1727361910.932,-13.672,-48.828,-50.293,-23.926,0.000
1727361910.936,16.113,-43.457,-57.129,-37.598,0.000
1727361910.940,-35.645,-37.109,-56.152,-44.434,0.000
1727361910.944,-88.867,-35.645,-35.645,-20.996,0.000
1727361910.948,-91.309,-42.969,-38.574,-31.250,0.000
1727361910.951,-14.648,-36.621,-49.805,-50.293,0.000
1727361910.955,42.480,-35.156,-43.945,-40.527,0.000
1727361910.959,-1.953,-44.434,-42.969,-50.293,0.000
1727361910.963,-81.055,-48.828,-43.945,-62.500,0.000
1727361910.967,-105.469,-51.270,-44.434,-65.430,0.000
1727361910.971,-18.555,-53.223,-43.945,-51.758,0.000
1727361910.975,40.527,-50.293,-37.598,-13.672,0.000
1727361910.979,-1.953,-47.852,-36.621,-0.488,0.000
1727361910.983,-80.078,-40.039,-47.852,-29.785,0.000
1727361910.987,-100.586,-39.062,-46.875,-46.387,0.000
1727361910.991,-39.551,-38.574,-47.363,-22.461,0.000
1727361910.994,20.996,-41.992,-51.270,-19.531,0.000
1727361910.998,5.371,-48.340,-47.852,-42.480,0.000
1727361911.002,-72.266,-39.551,-42.480,-55.664,0.000
1727361911.006,-101.562,-46.875,-36.621,-51.758,0.000
1727361911.010,-29.297,-59.570,-40.527,-36.133,0.000
1727361911.014,46.387,-57.129,-46.387,-20.996,0.000
1727361911.018,27.344,-41.016,-41.992,-12.207,0.000
1727361911.022,-61.523,-29.297,-44.434,-28.809,0.000
1727361911.026,-104.492,-35.645,-40.039,-45.898,0.000
1727361911.030,-36.621,-41.016,-36.621,-41.504,0.000
1727361911.034,33.691,-34.668,-40.039,-19.043,0.000
1727361911.037,1.953,-25.879,-44.922,-28.809,0.000
1727361911.041,-67.871,-30.762,-48.340,-41.504,0.000
1727361911.045,-93.262,-37.109,-42.969,-49.316,0.000
1727361911.049,-62.012,-38.574,-44.922,-48.828,0.000
1727361911.053,19.043,-44.434,-42.969,-35.645,0.000
1727361911.057,37.109,-37.109,-34.668,-28.809,0.000
1727361911.061,-44.922,-29.297,-36.621,-34.668,0.000
1727361911.065,-103.516,-20.020,-35.645,-51.270,0.000
1727361911.069,-72.266,-14.160,-36.621,-45.898,0.000
1727361911.073,15.625,-28.809,-39.062,-28.809,0.000
1727361911.077,34.180,-58.594,-41.992,-39.551,0.000
1727361911.080,-41.016,-58.105,-43.945,-40.527,0.000
1727361911.084,-106.445,-36.621,-41.992,-42.969,0.000
1727361911.088,-76.660,-31.250,-32.715,-37.109,0.000
1727361911.092,17.090,-34.668,-34.180,-18.555,0.000
1727361911.096,45.898,-36.621,-32.715,-25.879,0.000
1727361911.100,-20.508,-23.926,-19.531,-26.855,0.000
1727361911.104,-88.867,-17.090,-19.043,-32.715,0.000
1727361911.108,-68.359,-28.809,-33.203,-41.016,0.000
1727361911.112,0.977,-50.781,-36.621,-21.973,0.000
1727361911.116,17.090,-56.152,-28.809,-18.555,0.000
1727361911.119,-33.691,-43.457,-27.832,-24.414,0.000
1727361911.123,-86.914,-45.410,-31.250,-45.410,0.000
1727361911.127,-81.543,-53.223,-30.273,-45.898,0.000
1727361911.131,-9.277,-37.598,-29.785,-11.230,0.000
1727361911.135,41.992,-31.738,-29.785,-11.230,0.000
1727361911.139,-4.883,-33.691,-24.414,-31.250,0.000
1727361911.143,-95.215,-36.621,-27.344,-48.828,0.000
1727361911.147,-104.004,-44.434,-30.762,-68.848,0.000
1727361911.151,-31.250,-49.316,-34.668,-61.523,0.000
1727361911.155,9.277,-56.641,-39.062,-38.086,0.000
1727361911.159,-7.324,-62.012,-38.086,-28.809,0.000
1727361911.162,-63.477,-57.129,-41.504,-43.457,0.000
1727361911.166,-85.938,-45.898,-49.316,-54.199,0.000
1727361911.170,-18.066,-36.133,-42.969,-33.203,0.000
1727361911.174,43.945,-38.086,-34.668,-13.672,0.000
1727361911.178,11.719,-34.180,-32.227,0.977,0.000
1727361911.182,-57.617,-23.438,-24.902,-4.883,0.000
1727361911.186,-97.168,-27.832,-29.785,-41.504,0.000
1727361911.190,-30.762,-45.898,-35.156,-34.668,0.000
1727361911.194,40.527,-53.223,-33.203,-8.301,0.000
1727361911.198,-1.465,-56.152,-38.574,-26.367,0.000
1727361911.201,-62.988,-48.828,-35.645,-44.922,0.000
1727361911.205,-86.426,-34.668,-32.227,-40.039,0.000
1727361911.209,-42.969,-40.039,-36.621,-32.715,0.000
1727361911.213,25.391,-40.527,-44.922,-21.973,0.000
1727361911.217,11.230,-33.691,-40.039,-15.625,0.000
1727361911.221,-48.340,-45.898,-30.762,-20.020,0.000
1727361911.225,-81.543,-60.547,-37.598,-31.738,0.000
1727361911.229,-44.922,-54.688,-42.480,-17.578,0.000
1727361911.233,38.574,-33.691,-35.156,-5.371,0.000
1727361911.237,38.086,-30.273,-40.527,-17.578,0.000
1727361911.241,-39.062,-35.645,-43.945,-27.832,0.000
1727361911.245,-95.215,-27.832,-36.621,-32.715,0.000
1727361911.248,-74.219,-32.227,-36.133,-29.785,0.000
1727361911.252,2.930,-31.738,-49.316,-24.414,0.000
1727361911.256,16.113,-38.086,-53.223,-28.809,0.000
1727361911.260,-27.344,-41.016,-42.480,-41.504,0.000
1727361911.264,-80.078,-34.180,-40.527,-53.223,0.000
1727361911.268,-75.684,-39.062,-54.199,-46.387,0.000
1727361911.272,-6.348,-35.156,-56.641,-38.086,0.000
1727361911.276,31.250,-37.109,-56.641,-41.992,0.000
1727361911.280,-14.160,-41.992,-59.570,-45.898,0.000
1727361911.284,-98.145,-44.922,-58.594,-49.316,0.000
1727361911.287,-91.797,-49.316,-56.641,-50.781,0.000
1727361911.291,-4.395,-41.016,-55.664,-51.270,0.000
1727361911.295,52.734,-39.551,-58.594,-42.969,0.000
1727361911.299,2.930,-34.668,-55.176,-43.945,0.000
1727361911.303,-57.129,-36.133,-50.781,-46.875,0.000
1727361911.307,-58.594,-42.969,-47.852,-39.551,0.000
1727361911.311,-13.184,-46.387,-54.199,-33.203,0.000
1727361911.315,26.855,-40.527,-59.570,-30.273,0.000
1727361911.319,-15.137,-39.551,-60.059,-22.461,0.000
1727361911.323,-79.590,-34.668,-55.664,-28.320,0.000
1727361911.326,-92.773,-32.227,-53.223,-27.832,0.000
1727361911.330,0.000,-38.086,-55.664,-20.508,0.000
1727361911.334,0.000,-32.227,-49.316,-10.254,0.000
1727361911.338,0.000,-25.391,-47.852,-22.461,0.000
1727361911.342,0.000,-30.762,-56.152,-45.898,0.000
1727361911.346,0.000,-39.551,-60.547,-33.691,0.000
1727361911.350,0.000,-41.016,-57.617,-20.020,0.000
1727361911.354,0.000,-52.246,-51.758,-21.973,0.000
1727361911.358,0.000,-48.340,-42.480,-21.973,0.000
1727361911.362,0.000,-25.391,-25.391,-26.367,0.000
1727361911.366,0.000,-30.762,-37.109,-24.414,0.000
1727361911.369,0.000,-44.922,-44.922,-31.738,0.000
1727361911.373,0.000,-46.875,-42.969,-30.762,0.000
1727361911.377,-21.973,-43.945,-51.758,-14.648,0.000
1727361911.381,41.016,-23.438,-47.852,-20.996,0.000
1727361911.385,-3.418,-15.137,-38.574,-34.180,0.000
1727361911.389,-74.707,-25.879,-35.156,-28.320,0.000
1727361911.393,-93.262,-35.156,-33.203,-20.996,0.000
1727361911.397,-38.574,-40.527,-31.250,-28.809,0.000
1727361911.401,19.043,-44.434,-38.086,-30.762,0.000
1727361911.404,-14.648,-35.645,-36.621,-31.738,0.000
1727361911.408,-80.078,-32.715,-37.109,-31.738,0.000
1727361911.412,-87.402,-34.668,-35.645,-0.977,0.000
1727361911.416,-22.949,-42.480,-34.180,2.441,0.000
1727361911.420,30.273,-50.293,-49.316,-30.273,0.000
1727361911.424,-104.004,-47.852,-48.828,-43.945,0.000
1727361911.428,-59.570,-49.316,-39.062,-27.344,0.000
1727361911.432,38.574,-48.340,-40.527,-4.883,0.000
1727361911.436,34.180,-44.434,-32.227,-4.395,0.000
1727361911.440,-41.016,-48.340,-31.738,-14.648,0.000
1727361911.444,-70.801,-51.758,-41.992,-32.715,0.000
1727361911.447,-48.340,-44.434,-53.223,-37.109,0.000
1727361911.451,3.418,-47.852,-52.246,-16.113,0.000
1727361911.455,33.203,-40.039,-40.039,-3.418,0.000
1727361911.459,-31.250,-22.949,-45.898,-1.465,0.000
1727361911.463,-97.656,-27.832,-53.711,-22.461,0.000
1727361911.467,-60.547,-36.621,-48.340,-41.992,0.000
1727361911.471,18.555,-36.621,-43.945,-25.391,0.000
1727361911.475,30.273,-35.645,-46.387,-13.184,0.000
1727361911.479,-18.066,-30.762,-40.527,-20.508,0.000
1727361911.483,-76.172,-27.832,-35.645,-39.062,0.000
1727361911.487,-75.684,-35.645,-40.527,-37.109,0.000
1727361911.490,7.324,-40.039,-41.016,-14.648,0.000
1727361911.494,58.105,-21.973,-42.969,-0.977,0.000
1727361911.498,15.137,-12.695,-58.105,-15.137,0.000
1727361911.502,-62.012,-20.996,-62.012,-46.875,0.000
1727361911.506,-73.730,-20.996,-54.199,-46.387,0.000
1727361911.510,7.812,-27.832,-59.082,-22.949,0.000
1727361911.514,47.363,-49.316,-61.523,-8.789,0.000
1727361911.518,-10.254,-50.781,-51.758,-12.695,0.000
1727361911.522,-77.637,-26.855,-53.711,-32.715,0.000
1727361911.526,-95.215,-17.578,-56.641,-41.992,0.000
1727361911.529,-25.879,-19.043,-64.941,-27.344,0.000
1727361911.533,43.945,-9.277,-65.430,-8.301,0.000
1727361911.537,4.883,-0.488,-63.965,-11.719,0.000
1727361911.541,-79.102,-2.441,-64.941,-33.691,0.000
1727361911.545,-91.309,1.953,-59.570,-37.598,0.000
1727361911.549,-16.602,11.230,-60.059,-20.020,0.000
1727361911.553,38.574,14.160,-66.895,-13.672,0.000
1727361911.557,28.809,21.973,-62.500,-11.719,0.000
1727361911.561,-48.340,28.809,-58.105,-27.832,0.000
1727361911.565,-96.191,26.855,-59.082,-49.805,0.000
1727361911.569,-24.902,26.367,-59.570,-42.969,0.000
1727361911.572,40.527,33.203,-59.570,-28.320,0.000
1727361911.576,-2.930,35.645,-54.199,-26.367,0.000
1727361911.580,-73.730,42.969,-53.711,-31.250,0.000
1727361911.584,-104.004,47.852,-56.641,-38.086,0.000
1727361911.588,-51.270,37.109,-59.082,-20.508,0.000
1727361911.592,38.574,28.809,-50.781,16.602,0.000
1727361911.596,42.969,36.621,-45.898,-0.977,0.000
1727361911.600,-41.504,38.086,-48.340,-36.133,0.000
1727361911.604,-108.398,30.273,-49.316,-50.293,0.000
1727361911.608,-86.914,20.996,-52.734,-43.945,0.000
1727361911.612,7.324,18.555,-52.734,-23.438,0.000
1727361911.615,33.203,15.625,-43.457,-10.254,0.000
1727361911.619,-36.133,3.906,-40.039,-14.648,0.000
1727361911.623,-83.984,5.859,-41.016,-22.461,0.000
1727361911.627,-62.988,9.766,-39.062,-27.344,0.000
1727361911.631,6.348,3.418,-46.387,-22.949,0.000
1727361911.635,35.156,3.906,-55.664,-10.742,0.000
1727361911.639,-29.785,14.648,-60.059,-10.254,0.000
1727361911.643,-94.727,15.625,-61.523,-31.738,0.000
1727361911.647,-54.688,7.324,-49.805,-37.598,0.000
1727361911.651,27.344,0.000,-50.781,-38.574,0.000
1727361911.654,38.574,-6.836,-56.641,-43.457,0.000
1727361911.658,-39.062,-18.066,-57.129,-41.504,0.000
1727361911.662,-117.188,-28.320,-67.871,-60.059,0.000
1727361911.666,-98.633,-36.621,-71.777,-57.617,0.000
1727361911.670,-16.113,-28.320,-64.941,-28.809,0.000
1727361911.674,30.273,-13.672,-58.594,-22.461,0.000
1727361911.678,-17.578,-10.742,-54.199,-22.461,0.000
1727361911.682,-93.750,-15.137,-55.176,-21.973,0.000
1727361911.686,-93.262,-19.043,-59.082,-44.922,0.000
1727361911.690,-10.742,-29.785,-64.941,-50.293,0.000
1727361911.694,41.504,-28.320,-61.035,-26.855,0.000
1727361911.697,-15.625,-20.996,-47.363,-4.395,0.000
1727361911.701,-93.750,-32.227,-48.828,-19.043,0.000
1727361911.705,-105.469,-38.574,-51.758,-36.133,0.000
1727361911.709,-35.645,-43.945,-56.152,-24.902,0.000
1727361911.713,44.434,-42.969,-51.758,-9.766,0.000
1727361911.717,32.227,-38.086,-39.551,-10.742,0.000
1727361911.721,-37.109,-34.668,-41.992,-27.832,0.000
1727361911.725,-91.797,-32.715,-49.316,-36.133,0.000
1727361911.729,-36.621,-21.973,-59.082,-34.668,0.000
1727361911.733,43.457,-14.160,-61.035,-19.043,0.000
1727361911.737,19.531,-13.184,-60.547,-1.953,0.000
1727361911.740,-67.871,-9.766,-59.082,-9.277,0.000
1727361911.744,-94.238,-17.090,-50.781,-25.879,0.000
1727361911.748,-18.555,-26.855,-43.945,-12.695,0.000
1727361911.752,37.598,-34.180,-41.992,0.488,0.000
1727361911.756,19.531,-29.785,-41.016,6.836,0.000
1727361911.760,-42.969,-17.090,-44.434,4.395,0.000
1727361911.764,-90.820,-16.113,-44.434,-13.184,0.000
1727361911.768,-44.922,-29.297,-41.504,2.930,0.000
1727361911.772,45.410,-32.227,-42.480,20.020,0.000
1727361911.776,55.176,-23.926,-50.293,-1.465,0.000
1727361911.779,-24.902,-29.785,-58.105,-28.320,0.000
1727361911.783,-99.609,-43.945,-58.105,-41.016,0.000
1727361911.787,-65.918,-54.199,-57.129,-27.832,0.000
1727361911.791,13.184,-56.641,-64.941,-15.137,0.000
1727361911.795,11.230,-68.848,-67.871,-15.625,0.000
1727361911.799,-62.500,-67.871,-65.430,-37.109,0.000
1727361911.803,-118.164,-52.734,-69.824,-45.898,0.000
1727361911.807,-71.289,-61.035,-72.754,-21.973,0.000
1727361911.811,33.691,-66.406,-65.430,-2.930,0.000
1727361911.815,46.875,-54.199,-62.988,6.836,0.000
1727361911.819,-42.480,-60.547,-64.941,-11.230,0.000
1727361911.822,-107.422,-74.219,-65.918,-62.988,0.000
1727361911.826,-68.848,-69.824,-65.430,-65.430,0.000
1727361911.830,12.695,-51.758,-68.359,-39.551,0.000
1727361911.834,19.531,-45.410,-63.965,-19.043,0.000
1727361911.838,-31.250,-50.293,-58.594,-15.137,0.000
1727361911.842,-82.520,-34.668,-62.012,-32.715,0.000
1727361911.846,-88.867,-26.855,-63.477,-31.738,0.000
1727361911.850,2.930,-39.062,-62.012,-14.648,0.000
1727361911.854,48.828,-53.223,-56.641,-19.043,0.000
1727361911.858,-10.254,-53.223,-49.316,-22.949,0.000
1727361911.862,-77.637,-44.922,-54.688,-34.668,0.000
1727361911.865,-79.102,-46.387,-66.895,-45.898,0.000
1727361911.869,2.441,-40.039,-61.523,-15.137,0.000
1727361911.873,51.270,-32.227,-38.086,2.441,0.000
1727361911.877,6.348,-36.133,0.977,-2.441,0.000
1727361911.881,-74.219,-48.340,6.836,-25.391,0.000
1727361911.885,-80.078,-39.551,-5.371,-43.457,0.000
1727361911.889,-0.488,-26.367,-1.953,-12.695,0.000
1727361911.893,62.012,-31.738,6.348,3.906,0.000
1727361911.897,28.809,-28.320,10.254,-10.254,0.000
1727361911.901,-48.340,-19.043,10.254,-18.066,0.000
1727361911.904,-87.891,-29.297,3.418,-27.344,0.000
1727361911.908,-28.320,-41.016,-7.812,-19.043,0.000
1727361911.912,47.852,-37.109,-8.789,-19.043,0.000
1727361911.916,20.996,-39.551,-5.859,-38.086,0.000
1727361911.920,-66.406,-42.480,-6.836,-35.156,0.000
1727361911.924,-102.539,-31.738,-23.926,-36.621,0.000
1727361911.928,-41.992,-38.574,-24.414,-41.504,0.000
1727361911.932,10.742,-48.828,-21.484,-32.227,0.000
1727361911.936,-22.461,-49.805,-32.715,-35.156,0.000
1727361911.940,-86.914,-62.500,-25.391,-36.133,0.000
1727361911.944,-115.234,-60.059,-21.973,-25.391,0.000
1727361911.947,-71.777,-60.547,-37.109,-36.621,0.000
1727361911.951,5.371,-60.547,-42.480,-52.734,0.000
1727361911.955,12.207,-45.410,-36.133,-38.574,0.000
1727361911.959,-65.430,-48.828,-29.785,-41.504,0.000
1727361911.963,-118.652,-49.316,-34.180,-56.641,0.000
1727361911.967,-80.566,-40.527,-40.527,-53.223,0.000
1727361911.971,6.348,-42.480,-42.480,-31.250,0.000
1727361911.975,12.207,-50.781,-52.246,-23.438,0.000
1727361911.979,-49.316,-46.875,-47.363,-45.410,0.000
1727361911.983,-61.035,-40.527,-35.156,-61.523,0.000
1727361911.986,-18.555,-47.363,-38.086,-50.293,0.000
1727361911.990,35.156,-50.293,-46.387,-29.785,0.000
1727361911.994,32.227,-44.922,-45.898,-26.367,0.000
1727361911.998,-55.664,-43.457,-45.410,-32.715,0.000
1727361912.002,-117.188,-43.457,-47.852,-43.945,0.000
1727361912.006,-68.359,-42.969,-46.387,-40.039,0.000
1727361912.010,24.902,-31.738,-44.434,-12.207,0.000
1727361912.014,37.598,-21.484,-40.527,-1.465,0.000
1727361912.018,-27.344,-22.949,-42.480,-13.184,0.000
1727361912.022,-75.684,-20.020,-48.828,-22.461,0.000
1727361912.026,-60.547,-19.043,-41.504,-28.320,0.000
1727361912.029,16.113,-35.645,-38.086,-29.785,0.000
1727361912.033,62.012,-41.992,-33.203,-11.230,0.000
1727361912.037,5.859,-36.621,-32.227,-5.859,0.000
1727361912.041,-71.289,-38.574,-38.086,-21.973,0.000
1727361912.045,-61.035,-25.879,-34.180,-19.531,0.000
1727361912.049,34.180,-12.207,-19.043,0.977,0.000
1727361912.053,67.383,-4.395,-21.973,15.137,0.000
1727361912.057,10.254,-2.930,-32.715,1.953,0.000
1727361912.061,-56.641,-7.324,-37.598,-26.855,0.000
1727361912.065,-77.637,-16.602,-46.387,-41.504,0.000
1727361912.068,-1.465,-38.086,-41.016,-20.996,0.000
1727361912.072,57.129,-41.504,-31.738,-3.906,0.000
1727361912.076,-0.488,-37.109,-37.598,-13.184,0.000
1727361912.080,-69.824,-29.785,-41.504,-31.250,0.000
1727361912.084,-72.754,-19.531,-38.086,-27.832,0.000
1727361912.088,-24.414,-44.922,-42.969,-35.156,0.000
1727361912.092,16.602,-66.895,-48.340,-35.156,0.000
1727361912.096,-1.953,-56.641,-50.293,-28.809,0.000
1727361912.100,-62.500,-47.363,-45.898,-29.785,0.000
1727361912.104,-113.281,-50.293,-45.898,-44.922,0.000
1727361912.108,-49.316,-56.641,-60.547,-46.387,0.000
1727361912.111,20.508,-55.176,-61.035,-31.738,0.000
1727361912.115,-19.043,-39.551,-59.570,-30.273,0.000
1727361912.119,-84.473,-28.320,-72.754,-31.250,0.000
1727361912.123,-113.770,-38.574,-74.219,-36.133,0.000
1727361912.127,-56.641,-48.828,-70.801,-45.410,0.000
1727361912.131,27.344,-58.594,-65.430,-26.367,0.000
1727361912.135,23.438,-68.848,-65.918,-10.742,0.000
1727361912.139,-64.453,-53.711,-75.195,-38.086,0.000
1727361912.143,-119.629,-36.621,-73.242,-53.223,0.000
1727361912.147,-79.102,-37.109,-69.336,-31.250,0.000
1727361912.151,8.789,-41.992,-71.289,-26.855,0.000
1727361912.154,1.465,-57.617,-74.707,-37.598,0.000
1727361912.158,-70.801,-39.551,-78.613,-34.668,0.000
1727361912.162,-95.703,-18.555,-67.871,-29.785,0.000
1727361912.166,-37.598,-31.738,-47.852,-11.230,0.000
1727361912.170,49.316,-38.574,-49.805,-2.441,0.000
1727361912.174,31.738,-25.879,-58.105,-6.836,0.000
1727361912.178,-30.762,-22.949,-53.711,-10.254,0.000
1727361912.182,-70.801,-26.855,-48.828,-18.555,0.000
1727361912.186,-47.852,-7.324,-42.969,-19.043,0.000
1727361912.190,64.453,7.324,-41.992,-8.301,0.000
1727361912.194,86.426,-8.789,-52.246,-3.418,0.000
1727361912.197,-4.883,-20.996,-58.105,-13.672,0.000
1727361912.201,-66.406,-22.949,-51.270,-20.996,0.000
1727361912.205,-47.363,-19.531,-46.875,-16.113,0.000
1727361912.209,20.508,-14.648,-45.898,-9.277,0.000
1727361912.213,54.199,-7.812,-36.621,1.953,0.000
1727361912.217,7.324,-4.883,-33.691,10.742,0.000
1727361912.221,-68.359,-7.812,-31.738,-6.836,0.000
1727361912.225,-71.777,-23.926,-31.738,-26.367,0.000
1727361912.229,15.137,-35.156,-31.250,-0.977,0.000
1727361912.233,53.711,-45.898,-32.715,-3.906,0.000
1727361912.236,-10.254,-62.500,-40.527,-29.785,0.000
1727361912.240,-66.895,-59.570,-35.645,-28.809,0.000
1727361912.244,-85.938,-58.105,-27.832,-29.297,0.000
1727361912.248,-16.113,-58.105,-26.367,-19.531,0.000
1727361912.252,31.250,-54.688,-25.879,-7.324,0.000
1727361912.256,-25.879,-61.035,-44.434,-20.020,0.000
1727361912.260,-89.355,-63.477,-51.758,-39.551,0.000
1727361912.264,-118.652,-59.570,-41.504,-41.016,0.000
1727361912.268,-43.457,-66.895,-42.480,-38.086,0.000
1727361912.272,35.156,-72.266,-46.387,-32.715,0.000
1727361912.276,-9.766,-68.848,-43.457,-28.809,0.000
1727361912.279,-73.730,-62.500,-35.156,-54.199,0.000
1727361912.283,-84.473,-54.199,-29.297,-64.453,0.000
1727361912.287,-33.691,-49.805,-27.832,-38.086,0.000
1727361912.291,20.020,-42.969,-34.180,-29.297,0.000
1727361912.295,-4.395,-35.156,-38.086,-22.949,0.000
1727361912.299,-92.285,-43.945,-41.016,-43.457,0.000
1727361912.303,-130.371,-56.152,-46.387,-57.617,0.000
1727361912.307,-61.523,-49.316,-43.457,-38.574,0.000
1727361912.311,23.438,-42.480,-33.203,-35.645,0.000
1727361912.315,22.461,-39.062,-26.855,-34.180,0.000
1727361912.318,-50.781,-23.926,-17.090,-37.598,0.000
1727361912.322,-109.375,-10.254,-14.160,-51.270,0.000
1727361912.326,-60.059,-20.508,-5.371,-41.504,0.000
1727361912.330,39.062,-12.695,-3.906,-5.859,0.000
1727361912.334,29.785,-7.324,-6.348,0.977,0.000
1727361912.338,-42.969,-25.879,-0.977,-20.996,0.000
1727361912.342,-60.059,-34.180,-0.977,-38.574,0.000
1727361912.346,-18.555,-16.602,5.371,-28.809,0.000
1727361912.350,19.043,-17.090,9.766,-1.465,0.000
1727361912.354,29.297,-23.438,5.371,16.113,0.000
1727361912.358,-24.414,-15.137,1.953,10.254,0.000
1727361912.362,-83.008,-11.719,0.977,-10.742,0.000
1727361912.365,-52.246,-13.672,0.977,-16.113,0.000
1727361912.369,41.504,-15.625,1.465,-12.207,0.000
1727361912.373,56.152,-13.672,0.488,12.207,0.000
1727361912.377,-9.277,-9.277,1.465,22.949,0.000
1727361912.381,-62.012,-13.672,-6.836,-10.254,0.000
1727361912.385,-50.293,-25.879,-7.812,-18.555,0.000
1727361912.389,38.086,-18.555,-8.789,0.488,0.000
1727361912.393,70.801,-10.742,-8.301,12.207,0.000
1727361912.397,8.789,-19.043,1.953,1.953,0.000
1727361912.401,-62.012,-23.438,-3.906,-25.391,0.000
1727361912.404,-69.824,-30.273,-15.137,-28.320,0.000
1727361912.408,-4.395,-42.969,-15.137,-8.301,0.000
1727361912.412,28.320,-48.340,-8.789,-0.977,0.000
1727361912.416,-28.320,-46.875,-8.301,-11.719,0.000
1727361912.420,-116.211,-46.387,-11.230,-20.996,0.000
1727361912.424,-120.605,-58.105,-19.043,-43.457,0.000
1727361912.428,-39.062,-62.988,-20.020,-46.387,0.000
1727361912.432,15.625,-59.570,-14.648,-32.227,0.000
1727361912.436,-20.996,-56.152,-12.695,-41.016,0.000
1727361912.440,-98.145,-65.430,-15.625,-71.777,0.000
1727361912.443,-117.676,-72.754,-21.973,-73.730,0.000
1727361912.447,-44.434,-63.965,-23.438,-52.246,0.000
1727361912.451,10.254,-61.035,-33.691,-38.086,0.000
1727361912.455,-25.391,-59.082,-41.992,-25.391,0.000
1727361912.459,-69.336,-51.270,-36.621,-37.109,0.000
1727361912.463,-99.121,-54.199,-38.086,-65.430,0.000
1727361912.467,-48.340,-65.918,-42.480,-64.453,0.000
1727361912.471,22.461,-57.617,-39.062,-48.828,0.000
1727361912.475,-10.254,-38.086,-34.668,-44.922,0.000
1727361912.479,-65.918,-31.250,-34.668,-44.922,0.000
1727361912.483,-93.750,-35.645,-33.691,-55.176,0.000
1727361912.486,-41.016,-40.527,-35.645,-45.410,0.000
1727361912.490,28.320,-39.551,-33.203,-9.766,0.000
1727361912.494,11.230,-36.133,-31.250,-12.207,0.000
1727361912.498,-57.129,-34.668,-30.273,-33.203,0.000
1727361912.502,-103.027,-40.527,-36.621,-53.711,0.000
1727361912.506,-58.105,-54.688,-43.945,-49.805,0.000
1727361912.510,26.855,-54.688,-39.551,-28.320,0.000
1727361912.514,13.672,-46.387,-34.180,-39.551,0.000
1727361912.518,-64.941,-40.527,-33.203,-41.016,0.000
1727361912.522,-95.215,-35.645,-26.367,-31.738,0.000
1727361912.526,-61.035,-36.133,-27.344,-18.066,0.000
1727361912.529,16.113,-47.363,-32.715,-11.230,0.000
1727361912.533,41.504,-53.223,-23.438,-13.184,0.000
1727361912.537,-19.043,-54.688,-18.066,-14.160,0.000
1727361912.541,-80.566,-51.270,-31.250,-41.992,0.000
1727361912.545,-65.918,-66.406,-41.992,-38.086,0.000
1727361912.549,10.254,-70.312,-46.875,-21.973,0.000
1727361912.553,36.133,-54.688,-37.598,-15.137,0.000
1727361912.557,-23.926,-47.363,-30.273,-20.508,0.000
1727361912.561,-86.426,-57.617,-35.645,-36.621,0.000
1727361912.565,-54.688,-66.406,-38.086,-43.457,0.000
1727361912.569,36.133,-45.898,-22.461,-26.855,0.000
1727361912.572,53.711,-63.477,-20.508,-12.695,0.000
1727361912.576,-1.953,-80.566,-33.691,-15.137,0.000
1727361912.580,-82.031,-41.016,-35.156,-27.832,0.000
1727361912.584,-82.031,-48.340,-29.297,-28.320,0.000
1727361912.588,28.809,-98.145,-14.648,-6.348,0.000
1727361912.592,68.848,-175.781,-43.945,4.395,0.000
1727361912.596,9.277,-182.129,-100.098,5.371,0.000
1727361912.600,-10.254,-133.789,-59.570,34.668,0.000
1727361912.604,22.949,-96.191,-1.953,58.594,0.000
1727361912.608,6.836,-66.406,-14.648,-8.789,0.000
1727361912.612,-11.230,-206.055,-19.531,-55.664,0.000
1727361912.615,66.406,-136.719,1.465,63.477,0.000
1727361912.619,63.965,-24.902,10.254,96.191,0.000
1727361912.623,-14.648,33.203,-14.648,24.414,0.000
1727361912.627,-17.090,145.996,-76.172,-22.949,0.000
1727361912.631,149.902,51.758,88.867,80.078,0.000
1727361912.635,277.344,-35.156,384.766,266.113,0.000
1727361912.639,74.707,113.281,235.352,166.992,0.000
1727361912.643,36.621,241.699,201.172,107.422,0.000
1727361912.647,-0.977,163.574,356.445,6.836,0.000
1727361912.651,-10.742,108.398,611.328,-58.105,0.000
1727361912.654,81.055,251.953,865.723,67.871,0.000
1727361912.658,56.641,799.316,889.160,155.273,0.000
1727361912.662,7.812,999.512,950.684,130.859,0.000
1727361912.666,16.113,939.453,971.680,27.832,0.000
1727361912.670,118.164,971.680,964.355,92.773,0.000
1727361912.674,90.332,966.797,967.285,162.598,0.000
1727361912.678,-54.199,966.797,966.797,85.449,0.000
1727361912.682,-45.898,966.309,966.797,94.238,0.000
1727361912.686,48.340,966.797,966.309,136.719,0.000
1727361912.690,98.145,966.797,966.797,155.273,0.000
1727361912.694,78.125,966.797,966.797,155.762,0.000
1727361912.697,51.270,966.797,966.797,204.102,0.000
1727361912.701,34.180,966.797,966.797,222.656,0.000
1727361912.705,23.926,966.797,966.797,179.688,0.000
1727361912.709,93.750,966.797,966.797,185.547,0.000
1727361912.713,123.535,966.797,966.797,203.613,0.000
1727361912.717,48.340,966.797,966.797,193.848,0.000
1727361912.721,-19.531,966.797,966.797,175.781,0.000
1727361912.725,7.324,966.797,966.797,177.734,0.000
1727361912.729,113.770,966.797,966.797,193.359,0.000
1727361912.733,129.883,966.797,966.797,189.941,0.000
1727361912.737,42.480,966.797,966.797,166.504,0.000
1727361912.740,-26.367,966.797,966.309,153.320,0.000
1727361912.744,0.488,966.797,966.797,152.832,0.000
1727361912.748,94.238,966.797,966.797,137.695,0.000
1727361912.752,108.398,966.797,966.309,124.023,0.000
1727361912.756,33.691,966.797,966.797,116.211,0.000
1727361912.760,-39.551,966.797,966.797,99.609,0.000
1727361912.764,-20.508,966.797,966.797,86.914,0.000
1727361912.768,75.195,966.797,966.797,91.309,0.000
1727361912.772,101.562,966.309,966.797,99.121,0.000
1727361912.776,40.039,966.309,966.797,101.562,0.000
1727361912.779,-34.180,966.797,966.797,70.312,0.000
1727361912.783,-31.250,968.262,966.797,34.668,0.000
1727361912.787,51.758,960.449,966.797,28.809,0.000
1727361912.791,97.168,969.238,966.797,29.785,0.000
1727361912.795,49.316,935.547,966.797,31.738,0.000
1727361912.799,-20.508,694.824,966.309,22.949,0.000
1727361912.803,-38.574,410.645,966.797,0.000,0.000
1727361912.807,34.180,211.426,966.797,-5.371,0.000
1727361912.811,114.746,49.316,966.309,19.043,0.000
1727361912.815,60.547,-25.391,966.797,42.480,0.000
1727361912.819,-15.625,-97.168,966.797,8.301,0.000
1727361912.822,-8.789,-322.266,966.797,-16.602,0.000
1727361912.826,54.688,-616.211,967.285,0.488,0.000
1727361912.830,104.980,-939.941,966.309,-4.883,0.000
1727361912.834,57.617,-1000.000,964.355,-5.371,0.000
1727361912.838,-18.555,-987.305,968.262,-15.137,0.000
1727361912.842,-32.715,-1000.000,902.344,-44.434,0.000
1727361912.846,5.371,-1000.000,762.695,-31.738,0.000
1727361912.850,54.199,-1000.000,635.742,-16.113,0.000
1727361912.854,37.598,-1000.000,513.184,-30.762,0.000
1727361912.858,-44.434,-1000.000,400.879,-56.152,0.000
1727361912.862,-97.168,-1000.000,321.777,-69.824,0.000
1727361912.865,-51.758,-1000.000,255.371,-69.336,0.000
1727361912.869,9.766,-1000.000,182.617,-83.984,0.000
1727361912.873,-8.789,-1000.000,109.375,-95.703,0.000
1727361912.877,-75.195,-1000.000,30.273,-106.934,0.000
1727361912.881,-118.164,-1000.000,-62.988,-119.629,0.000
1727361912.885,-73.730,-1000.000,-185.547,-110.840,0.000
1727361912.889,7.812,-1000.000,-382.324,-94.727,0.000
1727361912.893,0.488,-1000.000,-604.004,-104.492,0.000
1727361912.897,-87.891,-1000.000,-719.727,-118.652,0.000
1727361912.901,-154.785,-1000.000,-756.836,-127.930,0.000
1727361912.905,-107.910,-1000.000,-766.602,-119.141,0.000
1727361912.908,-4.395,-1000.000,-751.465,-77.637,0.000
1727361912.912,16.113,-1000.000,-739.746,-79.102,0.000
1727361912.916,-36.621,-1000.000,-741.699,-112.793,0.000
1727361912.920,-117.676,-1000.000,-787.598,-136.230,0.000
1727361912.924,-126.953,-1000.000,-846.191,-135.254,0.000
1727361912.928,-46.387,-1000.000,-857.910,-115.234,0.000
1727361912.932,-12.207,-1000.000,-916.992,-108.887,0.000
1727361912.936,-62.012,-1000.000,-997.070,-113.770,0.000
1727361912.940,-122.559,-1000.000,-995.605,-119.141,0.000
1727361912.944,-88.379,-1000.000,-986.816,-97.656,0.000
1727361912.948,-4.883,-1000.000,-1000.000,-75.195,0.000
1727361912.951,7.324,-999.023,-1000.000,-89.844,0.000
1727361912.955,-55.664,-1000.000,-1000.000,-90.820,0.000
1727361912.959,-97.168,-999.512,-1000.000,-85.449,0.000
1727361912.963,-93.750,-944.336,-1000.000,-74.219,0.000
1727361912.967,-14.648,-886.230,-1000.000,-74.219,0.000
1727361912.971,24.414,-867.188,-1000.000,-75.684,0.000
1727361912.975,-36.133,-847.656,-1000.000,-64.453,0.000
1727361912.979,-96.680,-817.383,-1000.000,-87.402,0.000
1727361912.983,-104.980,-778.809,-1000.000,-94.727,0.000
1727361912.987,-27.344,-728.027,-1000.000,-58.105,0.000
1727361912.990,34.668,-683.594,-1000.000,-57.129,0.000
1727361912.994,-17.578,-655.762,-999.512,-82.520,0.000
1727361912.998,-106.445,-650.391,-1000.000,-80.078,0.000
1727361913.002,-125.488,-643.555,-978.516,-83.008,0.000
1727361913.006,-51.758,-606.445,-938.477,-79.102,0.000
1727361913.010,-9.766,-577.148,-904.785,-79.102,0.000
1727361913.014,-54.199,-571.777,-881.348,-94.238,0.000
1727361913.018,-112.305,-576.660,-848.633,-90.820,0.000
1727361913.022,-128.906,-569.336,-809.570,-102.539,0.000
1727361913.026,-70.312,-540.039,-782.715,-101.562,0.000
1727361913.030,-12.207,-530.762,-751.465,-74.707,0.000
1727361913.033,-31.738,-528.320,-709.961,-61.035,0.000
1727361913.037,-91.309,-510.254,-671.387,-83.008,0.000
1727361913.041,-149.902,-500.977,-636.230,-116.211,0.000
1727361913.045,-104.492,-483.398,-604.980,-106.934,0.000
1727361913.049,-17.578,-446.777,-573.730,-90.820,0.000
1727361913.053,-36.133,-425.781,-532.227,-90.820,0.000
1727361913.057,-110.840,-419.922,-488.281,-95.215,0.000
1727361913.061,-154.297,-413.574,-448.730,-111.816,0.000
1727361913.065,-101.074,-406.250,-416.016,-89.355,0.000
1727361913.069,-20.996,-400.391,-388.672,-60.059,0.000
1727361913.072,-16.113,-386.230,-361.328,-65.918,0.000
1727361913.076,-60.059,-361.816,-324.219,-81.543,0.000
1727361913.080,-123.535,-357.910,-295.410,-88.379,0.000
1727361913.084,-92.285,-359.375,-281.250,-72.266,0.000
1727361913.088,14.160,-353.516,-286.621,-59.570,0.000
1727361913.092,11.719,-340.820,-297.363,-76.172,0.000
1727361913.096,-75.684,-324.219,-307.617,-73.242,0.000
1727361913.100,-115.723,-301.270,-303.711,-73.242,0.000
1727361913.104,-69.336,-282.715,-285.156,-53.711,0.000
1727361913.108,6.348,-292.969,-304.199,-26.367,0.000
1727361913.112,37.598,-322.266,-316.406,-35.645,0.000
1727361913.115,-9.766,-375.488,-311.035,-54.688,0.000
1727361913.119,-93.750,-398.438,-298.828,-59.570,0.000
1727361913.123,-84.961,-403.809,-277.344,-45.898,0.000
1727361913.127,9.766,-417.969,-273.926,-25.391,0.000
1727361913.131,46.387,-413.086,-291.992,-25.391,0.000
1727361913.135,-23.438,-404.785,-310.547,-35.645,0.000
1727361913.139,-110.352,-409.180,-300.293,-70.801,0.000
1727361913.143,-103.516,-397.461,-286.621,-83.984,0.000
1727361913.147,-12.207,-368.164,-272.461,-55.664,0.000
1727361913.151,38.086,-343.750,-259.277,-26.855,0.000
1727361913.155,-27.832,-336.426,-258.789,-41.504,0.000
1727361913.158,-127.441,-316.895,-257.324,-86.914,0.000
1727361913.162,-126.465,-275.391,-257.812,-80.566,0.000
1727361913.166,-16.602,-243.164,-243.164,-58.105,0.000
1727361913.170,27.832,-228.516,-230.469,-60.547,0.000
1727361913.174,-30.762,-223.633,-225.586,-57.617,0.000
1727361913.178,-81.055,-205.078,-205.566,-45.898,0.000
1727361913.182,-105.469,-189.453,-193.848,-66.895,0.000
1727361913.186,-57.129,-183.105,-204.590,-64.453,0.000
1727361913.190,13.184,-157.715,-212.891,-50.781,0.000
1727361913.194,-28.320,-153.809,-208.984,-51.758,0.000
1727361913.197,-96.680,-154.785,-207.520,-69.824,0.000
1727361913.201,-114.746,-137.207,-206.055,-71.289,0.000
1727361913.205,-44.434,-149.902,-195.312,-39.062,0.000
1727361913.209,25.391,-178.223,-185.547,-29.785,0.000
1727361913.213,-6.348,-170.898,-177.734,-38.574,0.000
1727361913.217,-93.750,-147.949,-167.969,-44.434,0.000
1727361913.221,-136.719,-144.531,-167.969,-44.922,0.000
1727361913.225,-61.035,-167.480,-171.387,-38.086,0.000
1727361913.229,22.949,-179.688,-161.621,-33.691,0.000
1727361913.233,2.930,-165.039,-140.137,-28.320,0.000
1727361913.237,-65.430,-144.531,-120.605,-32.715,0.000
1727361913.240,-109.375,-141.113,-114.258,-47.363,0.000
1727361913.244,-51.270,-126.953,-108.398,-30.762,0.000
1727361913.248,51.758,-80.566,-97.656,-6.348,0.000
1727361913.252,32.227,-67.383,-89.355,-16.602,0.000
1727361913.256,-48.340,-55.664,-82.031,-12.207,0.000
1727361913.260,-78.125,-24.902,-77.148,-24.902,0.000
1727361913.264,-62.012,-18.555,-78.613,-20.508,0.000
1727361913.268,6.348,-10.742,-76.172,-9.277,0.000
1727361913.272,21.484,-14.160,-62.500,-15.625,0.000
1727361913.276,-30.762,-76.660,-44.434,-18.066,0.000
1727361913.280,-74.219,-104.492,-39.551,-34.180,0.000
1727361913.283,-42.480,-74.707,-32.227,-38.574,0.000
1727361913.287,21.973,-65.430,-30.762,-22.949,0.000
1727361913.291,30.762,-76.660,-20.020,-8.301,0.000
1727361913.295,-39.062,-82.520,-5.859,-8.301,0.000
1727361913.299,-94.238,-87.402,-2.930,-43.457,0.000
1727361913.303,-75.684,-83.984,-7.324,-53.711,0.000
1727361913.307,-1.953,-90.820,-14.160,-40.039,0.000
1727361913.311,31.250,-77.637,-6.348,-51.270,0.000
1727361913.315,-34.668,-59.570,-10.254,-56.641,0.000
1727361913.319,-101.562,-58.105,-15.625,-67.871,0.000
1727361913.323,-93.262,-57.617,-10.742,-72.754,0.000
1727361913.326,-16.602,-67.871,-13.672,-59.570,0.000
1727361913.330,19.043,-74.219,-11.719,-35.156,0.000
1727361913.334,-19.531,-86.914,-3.906,-34.180,0.000
1727361913.338,-83.008,-88.379,6.836,-49.316,0.000
1727361913.342,-94.238,-62.988,19.043,-51.758,0.000
1727361913.346,-12.207,-64.453,13.672,-38.086,0.000
1727361913.350,52.246,-63.965,7.324,-29.785,0.000
1727361913.354,1.465,-51.758,13.184,-34.180,0.000
1727361913.358,-83.008,-52.246,15.625,-33.203,0.000
1727361913.362,-96.191,-55.664,2.441,-38.086,0.000
1727361913.365,-27.344,-58.594,-15.625,-50.293,0.000
1727361913.369,27.832,-62.988,-11.719,-36.133,0.000
1727361913.373,15.137,-47.363,3.906,-7.324,0.000
1727361913.377,-49.805,-25.879,3.418,3.906,0.000
1727361913.381,-91.309,-30.273,-1.465,-14.648,0.000
1727361913.385,-25.879,-41.016,-5.371,-28.320,0.000
1727361913.389,51.758,-46.875,-3.418,-14.160,0.000
1727361913.393,22.949,-60.059,2.441,8.789,0.000
1727361913.397,-38.086,-55.176,13.184,-6.836,0.000
1727361913.401,-64.941,-57.617,19.531,-38.086,0.000
1727361913.405,-20.508,-89.355,23.438,-24.414,0.000
1727361913.408,66.895,-131.836,25.391,-1.953,0.000
1727361913.412,39.062,-155.273,23.926,-9.766,0.000
1727361913.416,-48.340,-165.039,26.855,-21.484,0.000
1727361913.420,-83.008,-166.992,30.762,-24.902,0.000
1727361913.424,-51.758,-163.574,22.949,-20.996,0.000
1727361913.428,20.508,-157.227,4.883,1.953,0.000
1727361913.432,29.297,-141.602,2.930,-7.324,0.000
1727361913.436,-54.688,-115.723,12.207,-38.086,0.000
1727361913.440,0.000,-104.980,-3.418,-59.082,0.000
1727361913.444,0.000,-111.816,-18.066,-63.477,0.000
1727361913.448,0.000,-109.375,-8.789,-52.734,0.000
1727361913.451,0.000,-108.398,-5.371,-39.062,0.000
1727361913.455,0.000,-125.000,-3.906,-43.457,0.000
1727361913.459,0.000,-121.094,-0.488,-61.035,0.000
1727361913.463,0.000,-114.746,-5.859,-56.641,0.000
1727361913.467,0.000,-109.375,-4.883,-40.039,0.000
1727361913.471,0.000,-112.793,2.441,-39.551,0.000
1727361913.475,0.000,-137.207,-1.953,-57.617,0.000
1727361913.479,0.000,-153.320,2.930,-51.270,0.000
1727361913.483,0.000,-154.785,6.836,-31.738,0.000
1727361913.487,12.207,-169.434,-4.395,-44.434,0.000
1727361913.491,19.531,-182.129,-2.441,-54.199,0.000
1727361913.494,-62.012,-162.598,1.465,-55.176,0.000
1727361913.498,-135.254,-136.719,-1.953,-62.988,0.000
1727361913.502,-102.539,-132.324,2.441,-61.523,0.000
1727361913.506,-3.418,-145.996,6.836,-48.828,0.000
1727361913.510,20.508,-151.855,9.277,-38.086,0.000
1727361913.514,-43.457,-137.695,13.184,-30.762,0.000
1727361913.518,-85.938,-138.672,20.996,-18.066,0.000
1727361913.522,-68.848,-166.992,20.508,-34.668,0.000
1727361913.526,-3.906,-189.941,12.207,-35.645,0.000
1727361913.530,41.992,-193.359,5.371,-17.578,0.000
1727361913.533,7.812,-187.988,28.320,1.465,0.000
1727361913.537,-62.988,-170.410,47.852,-3.418,0.000
1727361913.541,-74.219,-163.086,44.922,-24.902,0.000
1727361913.545,13.672,-170.410,27.832,-19.531,0.000
1727361913.549,62.012,-158.203,20.508,-4.883,0.000
1727361913.553,-0.488,-133.301,20.508,-13.672,0.000
1727361913.557,-83.008,-126.465,9.277,-46.387,0.000
1727361913.561,-92.285,-119.141,0.488,-52.734,0.000
1727361913.565,-1.953,-123.047,-3.418,-24.902,0.000
1727361913.569,62.500,-131.348,3.418,7.812,0.000
1727361913.573,17.578,-139.160,9.766,2.930,0.000
1727361913.576,-40.527,-115.234,14.648,-21.973,0.000
1727361913.580,-58.594,-82.031,11.719,-17.090,0.000
1727361913.584,-17.090,-101.074,0.488,-26.367,0.000
1727361913.588,35.156,-152.344,4.395,-34.180,0.000
1727361913.592,18.066,-174.805,12.695,-29.785,0.000
1727361913.596,-60.059,-173.340,5.371,-37.598,0.000
1727361913.600,-98.145,-148.438,0.977,-41.504,0.000
1727361913.604,-52.734,-130.859,-3.906,-44.434,0.000
1727361913.608,0.977,-127.930,-14.648,-49.805,0.000
1727361913.612,-10.254,-113.770,-27.832,-49.805,0.000
1727361913.615,-89.355,-135.742,-28.809,-48.340,0.000
1727361913.619,-135.254,-148.438,-12.695,-44.434,0.000
1727361913.623,-74.219,-139.648,-2.441,-42.480,0.000
1727361913.627,31.250,-138.184,-8.301,-33.203,0.000
1727361913.631,20.020,-138.672,-10.742,-29.297,0.000
1727361913.635,-42.969,-128.906,-6.348,-47.363,0.000
1727361913.639,-74.219,-130.859,-9.277,-47.363,0.000
1727361913.643,-62.500,-134.277,-18.555,-38.574,0.000
1727361913.647,2.930,-115.723,-27.832,-36.621,0.000
1727361913.651,6.836,-98.145,-34.668,-37.109,0.000
1727361913.655,-51.270,-91.797,-38.086,-40.039,0.000
1727361913.658,-94.727,-78.613,-31.250,-58.594,0.000
1727361913.662,-67.871,-73.730,-20.020,-54.688,0.000
1727361913.666,18.066,-79.590,-24.902,-39.551,0.000
1727361913.670,37.598,-88.379,-29.297,-29.297,0.000
1727361913.674,-31.738,-94.727,-32.227,-28.809,0.000
1727361913.678,-95.215,-98.633,-37.598,-49.805,0.000
1727361913.682,-74.707,-96.680,-36.133,-53.223,0.000
1727361913.686,12.207,-85.938,-29.297,-34.180,0.000
1727361913.690,27.832,-63.965,-24.414,-20.508,0.000
1727361913.694,-36.133,-49.316,-33.691,-34.668,0.000
1727361913.698,-88.379,-66.895,-30.762,-38.574,0.000
1727361913.701,-78.613,-67.383,-19.531,-31.738,0.000
1727361913.705,10.254,-64.453,-26.367,-27.832,0.000
1727361913.709,56.641,-82.031,-29.785,-23.926,0.000
1727361913.713,-4.395,-86.914,-33.691,-35.645,0.000
1727361913.717,-77.148,-95.215,-31.738,-47.852,0.000
1727361913.721,-88.379,-100.098,-22.949,-39.062,0.000
1727361913.725,-24.902,-89.355,-26.855,-24.902,0.000
1727361913.729,37.109,-72.754,-32.227,-5.859,0.000
1727361913.733,-5.371,-85.449,-41.016,-10.254,0.000
1727361913.737,-98.633,-100.586,-40.039,-49.805,0.000
1727361913.741,-118.652,-61.523,-41.992,-62.988,0.000
1727361913.744,-28.809,-43.457,-42.969,-45.410,0.000
1727361913.748,46.875,-50.293,-34.180,-34.668,0.000
1727361913.752,-10.254,-56.641,-30.273,-27.344,0.000
1727361913.756,-90.820,-67.871,-31.738,-48.340,0.000
1727361913.760,-123.535,-86.426,-34.180,-66.406,0.000
1727361913.764,-77.148,-91.309,-37.109,-63.477,0.000
1727361913.768,-5.859,-87.402,-46.875,-50.293,0.000
1727361913.772,-17.578,-78.613,-53.711,-43.945,0.000
1727361913.776,-91.797,-78.125,-46.387,-74.707,0.000
1727361913.780,-149.414,-76.660,-46.387,-81.055,0.000
1727361913.783,-85.449,-70.801,-58.105,-62.988,0.000
1727361913.787,6.348,-68.359,-65.918,-55.176,0.000
1727361913.791,4.883,-62.012,-67.871,-48.828,0.000
1727361913.795,-54.688,-60.059,-52.734,-44.434,0.000
1727361913.799,-93.262,-61.035,-41.992,-55.176,0.000
1727361913.803,-51.270,-47.363,-45.410,-49.805,0.000
1727361913.807,0.977,-29.297,-49.805,-34.668,0.000
1727361913.811,7.324,5.859,-51.270,-23.926,0.000
1727361913.815,-33.203,43.945,-99.609,-26.367,0.000
1727361913.819,-90.332,48.828,-132.812,-31.738,0.000
1727361913.823,-49.316,51.270,-124.512,-14.648,0.000
1727361913.826,43.945,56.152,-132.812,-8.301,0.000
1727361913.830,41.992,57.129,-139.160,-10.742,0.000
1727361913.834,-37.598,48.828,-132.324,-19.043,0.000
1727361913.838,-94.238,43.457,-134.766,-23.438,0.000
1727361913.842,-63.477,52.734,-137.207,-11.230,0.000
1727361913.846,33.691,47.363,-135.742,0.977,0.000
1727361913.850,59.082,45.898,-140.137,-12.207,0.000
1727361913.854,8.301,56.641,-137.695,-23.926,0.000
1727361913.858,-62.012,49.805,-137.695,-23.438,0.000
1727361913.862,-75.195,35.156,-139.648,-33.203,0.000
1727361913.866,3.418,30.273,-147.461,-25.391,0.000
1727361913.869,27.832,28.320,-172.363,-4.883,0.000
1727361913.873,-28.320,32.715,-155.762,-26.367,0.000
1727361913.877,-97.168,30.762,-253.906,-51.758,0.000
1727361913.881,-103.516,24.902,-515.625,-53.223,0.000
1727361913.885,-18.066,31.250,-605.957,-47.852,0.000
1727361913.889,29.785,26.367,-595.703,-28.809,0.000
1727361913.893,-24.902,7.324,-600.098,-36.621,0.000
1727361913.897,-110.840,-2.441,-578.125,-56.152,0.000
1727361913.901,-125.000,-3.906,-537.598,-48.828,0.000
1727361913.905,-41.504,-6.348,-498.535,-26.367,0.000
1727361913.908,18.555,3.418,-475.098,-11.719,0.000
1727361913.912,-16.113,0.000,-468.262,-12.695,0.000
1727361913.916,-93.750,-14.648,-459.961,-42.480,0.000
1727361913.920,-135.254,-25.391,-446.289,-72.266,0.000
1727361913.924,-49.805,-27.344,-432.617,-53.711,0.000
1727361913.928,41.992,-32.715,-411.621,-34.668,0.000
1727361913.932,-6.836,-32.715,-389.160,-31.738,0.000
1727361913.936,-98.145,-37.109,-385.742,-48.828,0.000
1727361913.940,-123.047,-41.992,-377.441,-53.711,0.000
1727361913.944,-56.152,-23.926,-356.445,-28.320,0.000
1727361913.948,20.996,-14.648,-343.262,-20.020,0.000
1727361913.951,19.531,-13.184,-328.125,-28.320,0.000
1727361913.955,-62.988,-7.812,-315.430,-35.156,0.000
1727361913.959,-97.168,-11.719,-300.781,-37.598,0.000
1727361913.963,-32.715,-31.738,-291.504,-33.203,0.000
1727361913.967,45.898,-37.109,-277.832,-12.695,0.000
1727361913.971,38.086,-22.461,-256.836,-14.648,0.000
1727361913.975,-62.500,-1.465,-257.812,-31.250,0.000
1727361913.979,-121.094,-0.488,-258.301,-48.828,0.000
1727361913.983,-62.012,-13.672,-260.742,-57.617,0.000
1727361913.987,25.391,-19.531,-247.559,-38.574,0.000
1727361913.991,34.668,-25.391,-231.934,-6.348,0.000
1727361913.994,-56.641,-27.344,-239.258,-14.648,0.000
1727361913.998,-107.422,-27.344,-239.746,-54.199,0.000
1727361914.002,-52.246,-24.414,-227.051,-42.480,0.000
1727361914.006,21.484,-29.785,-227.539,-25.391,0.000
1727361914.010,13.184,-41.016,-227.051,-42.969,0.000
1727361914.014,-58.594,-37.109,-220.703,-48.340,0.000
1727361914.018,-113.770,-32.227,-210.938,-42.480,0.000
1727361914.022,-91.309,-46.875,-198.242,-20.996,0.000
1727361914.026,0.000,-60.059,-194.824,-24.414,0.000
1727361914.030,29.785,-46.875,-189.941,-44.434,0.000
1727361914.033,-29.297,-35.645,-178.711,-51.270,0.000
1727361914.037,-98.633,-36.621,-172.852,-54.688,0.000
1727361914.041,-91.309,-46.387,-168.945,-46.875,0.000
1727361914.045,-1.953,-52.246,-167.969,-48.340,0.000
1727361914.049,32.715,-46.387,-160.156,-49.316,0.000
1727361914.053,-15.625,-46.387,-145.020,-46.875,0.000
1727361914.057,-100.586,-38.086,-143.555,-38.574,0.000
1727361914.061,-107.910,-42.480,-143.066,-47.852,0.000
1727361914.065,-13.184,-62.012,-147.949,-51.758,0.000
1727361914.069,39.551,-63.965,-149.414,-36.133,0.000
1727361914.073,1.465,-72.266,-141.113,-41.016,0.000
1727361914.076,-88.379,-81.055,-133.789,-58.594,0.000
1727361914.080,-107.422,-74.707,-122.559,-54.199,0.000
1727361914.084,-26.855,-67.871,-114.746,-35.645,0.000
1727361914.088,31.250,-67.383,-116.699,-38.574,0.000
1727361914.092,-12.695,-68.848,-113.770,-42.480,0.000
1727361914.096,-89.844,-52.734,-113.281,-45.410,0.000
1727361914.100,-93.262,-53.223,-130.371,-53.223,0.000
1727361914.104,-16.602,-63.477,-146.484,-42.480,0.000
1727361914.108,42.969,-55.664,-146.484,-22.461,0.000
1727361914.112,11.230,-56.641,-144.531,-20.996,0.000
1727361914.116,-62.012,-57.129,-141.113,-30.762,0.000
1727361914.119,-98.145,-38.086,-138.672,-42.969,0.000
1727361914.123,-30.762,-42.480,-137.207,-31.250,0.000
1727361914.127,33.203,-65.918,-140.137,-18.066,0.000
1727361914.131,-4.883,-59.082,-135.254,-3.418,0.000
1727361914.135,-70.312,-48.828,-126.953,-2.441,0.000
1727361914.139,-86.914,-69.824,-129.395,-30.762,0.000
1727361914.143,-29.297,-85.449,-130.371,-34.180,0.000
1727361914.147,41.016,-81.055,-138.672,-23.438,0.000
1727361914.151,34.180,-73.242,-144.043,-12.695,0.000
1727361914.155,-60.547,-55.664,-146.484,-28.809,0.000
1727361914.158,-114.746,-43.457,-147.949,-64.941,0.000
1727361914.162,-62.988,-33.203,-148.926,-34.180,0.000
1727361914.166,27.344,-26.367,-158.203,1.465,0.000
1727361914.170,32.227,-47.363,-162.109,-34.180,0.000
1727361914.174,-53.711,-61.523,-152.344,-51.270,0.000
1727361914.178,-118.652,-53.223,-141.602,-70.801,0.000
1727361914.182,-80.078,-63.477,-136.230,-66.895,0.000
1727361914.186,8.789,-66.406,-128.906,-35.645,0.000
1727361914.190,15.625,-40.527,-116.699,-25.391,0.000
1727361914.194,-38.574,-36.621,-120.117,-33.691,0.000
1727361914.198,-110.840,-45.410,-122.070,-59.570,0.000
1727361914.201,-102.051,-41.504,-113.770,-69.824,0.000
1727361914.205,-11.230,-51.270,-104.004,-37.109,0.000
1727361914.209,16.602,-52.246,-100.098,-25.391,0.000
1727361914.213,-55.176,-58.105,-104.980,-57.129,0.000
1727361914.217,-119.629,-50.293,-103.516,-66.895,0.000
1727361914.221,-97.168,-30.762,-107.422,-54.199,0.000
1727361914.225,-10.742,-41.992,-107.910,-31.738,0.000
1727361914.229,41.992,-51.270,-98.633,-22.461,0.000
1727361914.233,-21.973,-47.852,-93.750,-42.969,0.000
1727361914.237,-92.285,-34.180,-88.379,-53.223,0.000
1727361914.241,-76.172,-12.695,-70.801,-35.156,0.000
1727361914.244,-11.719,0.488,-58.105,-17.578,0.000
1727361914.248,18.555,-3.906,-54.688,-36.621,0.000
1727361914.252,-17.578,-10.254,-51.270,-30.273,0.000
1727361914.256,-62.012,-11.719,-51.270,-30.273,0.000
1727361914.260,-68.848,-18.066,-55.664,-52.734,0.000
1727361914.264,-15.137,-45.898,-50.293,-43.945,0.000
1727361914.268,21.973,-64.453,-47.852,-38.086,0.000
1727361914.272,-21.973,-43.457,-41.504,-47.852,0.000
1727361914.276,-71.289,-34.180,-37.598,-39.062,0.000
1727361914.280,-82.520,-30.762,-42.969,-32.715,0.000
1727361914.283,-29.297,-23.438,-39.062,-34.668,0.000
1727361914.287,34.668,-18.066,-35.645,-25.879,0.000
1727361914.291,24.414,-23.438,-27.344,-13.184,0.000
1727361914.295,-38.086,-63.965,-23.926,-20.508,0.000
1727361914.299,-71.777,-63.965,-27.344,-34.180,0.000
1727361914.303,-21.484,-20.996,-34.180,-28.320,0.000
1727361914.307,33.691,-13.184,-35.645,-24.414,0.000
1727361914.311,0.977,-22.949,-31.250,-32.227,0.000
1727361914.315,-90.820,-29.297,-25.879,-47.363,0.000
1727361914.319,-115.723,-34.668,-21.973,-58.105,0.000
1727361914.323,-41.992,-41.992,-24.902,-40.527,0.000
1727361914.326,18.066,-45.410,-25.879,-16.113,0.000
1727361914.330,-13.184,-42.969,-30.273,-16.113,0.000
1727361914.334,-76.660,-39.551,-40.039,-33.203,0.000
1727361914.338,-103.027,-42.969,-47.852,-38.086,0.000
1727361914.342,-42.969,-40.527,-44.922,-32.715,0.000
1727361914.346,40.039,-27.832,-41.992,-35.645,0.000
1727361914.350,9.277,-21.973,-47.852,-23.926,0.000
1727361914.354,-74.219,-12.695,-42.480,-28.320,0.000
1727361914.358,-105.469,-24.902,-40.527,-49.805,0.000
1727361914.362,-50.781,-37.598,-45.898,-42.480,0.000
1727361914.366,20.996,-57.129,-40.039,-38.086,0.000
1727361914.369,23.926,-51.270,-37.598,-49.805,0.000
1727361914.373,-45.410,-17.090,-46.875,-57.617,0.000
1727361914.377,-115.234,-10.254,-58.594,-72.266,0.000
1727361914.381,-88.379,-26.855,-59.082,-60.059,0.000
1727361914.385,15.625,-41.992,-54.199,-36.133,0.000
1727361914.389,34.668,-39.062,-48.340,-27.344,0.000
1727361914.393,-35.645,-36.621,-41.016,-17.578,0.000
1727361914.397,-96.191,-42.969,-41.992,-21.484,0.000
1727361914.401,-74.219,-44.922,-38.574,-42.969,0.000
1727361914.405,12.207,-32.227,-43.457,-43.945,0.000
1727361914.409,51.758,-20.996,-48.828,-19.531,0.000
1727361914.412,-13.672,-29.297,-37.109,-6.348,0.000
1727361914.416,-106.934,-33.691,-43.457,-47.852,0.000
1727361914.420,-92.773,-34.180,-58.105,-66.895,0.000
1727361914.424,12.695,-39.062,-50.781,-36.621,0.000
1727361914.428,51.270,-40.527,-41.016,-17.578,0.000
1727361914.432,-20.020,-46.875,-42.969,-25.391,0.000
1727361914.436,-86.426,-45.898,-39.551,-32.715,0.000
1727361914.440,-84.961,-39.062,-29.297,-39.062,0.000
1727361914.444,-12.207,-47.363,-35.645,-31.250,0.000
1727361914.448,29.785,-54.199,-52.246,-39.062,0.000
1727361914.451,-13.672,-29.785,-53.711,-54.199,0.000
1727361914.455,-75.195,-21.973,-42.969,-38.574,0.000
1727361914.459,-92.773,-57.129,-50.293,-42.480,0.000
1727361914.463,-14.648,-52.734,-52.246,-51.758,0.000
1727361914.467,27.832,-24.414,-42.969,-37.109,0.000
1727361914.471,-35.156,-29.297,-41.992,-35.156,0.000
1727361914.475,-103.027,-30.273,-37.598,-51.270,0.000
1727361914.479,-112.305,-23.438,-32.715,-52.734,0.000
1727361914.483,-31.250,-37.109,-28.809,-25.391,0.000
1727361914.487,52.246,-49.805,-30.273,-7.812,0.000
1727361914.491,4.883,-56.641,-32.227,-15.137,0.000
1727361914.494,-85.449,-58.594,-35.645,-22.461,0.000
1727361914.498,-102.539,-54.688,-29.785,-25.391,0.000
1727361914.502,-41.992,-66.895,-33.691,-19.043,0.000
1727361914.506,29.785,-51.758,-44.922,-12.695,0.000
1727361914.510,22.461,-26.367,-43.457,-10.742,0.000
1727361914.514,-43.945,-26.367,-45.898,-23.926,0.000
1727361914.518,-106.445,-26.855,-44.922,-46.875,0.000
1727361914.522,-67.871,-25.391,-46.875,-47.363,0.000
1727361914.526,23.926,-36.133,-51.758,-31.250,0.000
1727361914.530,19.531,-51.758,-45.410,-16.602,0.000
1727361914.534,-51.758,-53.223,-41.016,-16.113,0.000
1727361914.537,-105.957,-32.715,-53.711,-41.992,0.000
1727361914.541,-75.195,-23.438,-62.012,-37.598,0.000
1727361914.545,19.043,-30.273,-54.688,-15.625,0.000
1727361914.549,3.418,-31.738,-53.711,-31.250,0.000
1727361914.553,-80.078,-33.691,-63.477,-51.270,0.000
1727361914.557,-109.375,-26.855,-60.059,-42.969,0.000
1727361914.561,-57.617,-41.016,-49.316,-30.762,0.000
1727361914.565,26.855,-57.617,-62.988,-26.855,0.000
1727361914.569,19.531,-44.434,-72.266,-29.785,0.000
1727361914.573,-56.641,-31.738,-65.918,-34.180,0.000
1727361914.576,-96.680,-21.484,-66.406,-36.133,0.000
1727361914.580,-56.152,-14.160,-78.613,-38.574,0.000
1727361914.584,9.766,-27.344,-79.102,-12.207,0.000
1727361914.588,25.879,-35.645,-63.965,1.465,0.000
1727361914.592,-19.043,-40.527,-49.316,-7.812,0.000
1727361914.596,-100.098,-45.410,-58.105,-34.180,0.000
1727361914.600,-103.027,-45.410,-67.383,-57.129,0.000
1727361914.604,-1.953,-41.016,-45.410,-33.691,0.000
1727361914.608,28.809,-32.227,-28.320,-20.508,0.000
1727361914.612,-37.109,-40.039,-25.879,-35.156,0.000
1727361914.616,-83.984,-34.668,-24.414,-44.922,0.000
1727361914.619,-77.148,-17.578,-24.414,-44.434,0.000
1727361914.623,17.578,-13.184,-22.949,-31.738,0.000
1727361914.627,69.824,-24.902,-19.043,-23.438,0.000
1727361914.631,-12.695,-40.527,-23.926,-20.508,0.000
1727361914.635,-110.840,-55.176,-32.715,-34.668,0.000
1727361914.639,-127.441,-54.199,-40.039,-53.223,0.000
1727361914.643,-46.875,-43.457,-54.199,-33.691,0.000
1727361914.647,24.902,-34.180,-62.500,-20.508,0.000
1727361914.651,-25.391,-35.645,-47.363,-38.086,0.000
1727361914.655,-102.051,-23.926,-39.551,-50.781,0.000
1727361914.658,-98.633,-16.113,-45.410,-57.617,0.000
1727361914.662,-28.809,-28.320,-41.504,-42.969,0.000
1727361914.666,25.879,-32.715,-41.992,-25.879,0.000
1727361914.670,0.977,-38.086,-52.246,-35.156,0.000
1727361914.674,-79.590,-38.086,-63.965,-54.199,0.000
1727361914.678,-99.121,-39.062,-57.129,-60.059,0.000
1727361914.682,-28.320,-46.875,-46.875,-41.504,0.000
1727361914.686,37.109,-47.852,-50.781,-9.277,0.000
1727361914.690,31.738,-26.855,-55.176,-4.395,0.000
1727361914.694,-51.758,-15.625,-45.410,-25.879,0.000
1727361914.698,-102.539,-25.391,-32.227,-28.320,0.000
1727361914.701,-32.715,-30.762,-26.855,-14.160,0.000
1727361914.705,47.852,-41.504,-29.785,-0.488,0.000
1727361914.709,35.645,-49.316,-45.898,1.953,0.000
1727361914.713,-57.129,-52.734,-44.434,-17.578,0.000
1727361914.717,-88.379,-39.062,-43.945,-32.227,0.000
1727361914.721,-41.016,-16.602,-51.758,-26.367,0.000
1727361914.725,21.973,-27.344,-53.223,-16.113,0.000
1727361914.729,9.277,-39.062,-55.664,-33.203,0.000
1727361914.733,-72.754,-45.410,-62.500,-48.340,0.000
1727361914.737,-114.746,-51.758,-59.570,-51.270,0.000
1727361914.740,-74.219,-53.223,-53.223,-49.316,0.000
1727361914.744,8.301,-54.199,-51.758,-31.250,0.000
1727361914.748,27.832,-60.547,-53.711,-9.766,0.000
1727361914.752,-37.598,-54.688,-62.012,-21.973,0.000
1727361914.756,-117.676,-43.945,-57.129,-53.223,0.000
1727361914.760,-97.656,-48.828,-55.176,-44.922,0.000
1727361914.764,11.230,-54.199,-58.594,-22.461,0.000
1727361914.768,27.344,-41.504,-46.387,-26.855,0.000
1727361914.772,-43.945,-36.133,-42.969,-41.992,0.000
1727361914.776,-93.750,-32.227,-47.363,-47.363,0.000
1727361914.780,-85.938,-44.922,-46.875,-43.945,0.000
1727361914.783,-13.672,-59.082,-48.340,-31.250,0.000
1727361914.787,23.438,-49.316,-50.293,-16.113,0.000
1727361914.791,-37.109,-39.551,-53.711,-24.414,0.000
1727361914.795,-95.215,-28.320,-51.758,-47.852,0.000
1727361914.799,-69.824,-26.367,-51.270,-39.062,0.000
1727361914.803,7.324,-42.480,-54.688,-13.184,0.000
1727361914.807,34.180,-52.246,-55.664,-28.809,0.000
1727361914.811,-32.227,-45.898,-55.176,-36.621,0.000
1727361914.815,-84.961,-39.551,-60.547,-38.086,0.000
1727361914.819,-72.754,-38.574,-67.871,-50.781,0.000
1727361914.823,-0.488,-31.738,-52.734,-39.062,0.000
1727361914.826,24.902,-25.879,-42.480,-22.461,0.000
1727361914.830,-23.926,-31.250,-43.457,-26.855,0.000
1727361914.834,-72.266,-22.461,-42.969,-43.945,0.000
1727361914.838,-82.520,-17.090,-43.457,-44.434,0.000
1727361914.842,-11.719,-21.973,-37.109,-17.090,0.000
1727361914.846,53.711,-28.320,-38.086,4.395,0.000
1727361914.850,13.184,-33.203,-42.969,3.418,0.000
1727361914.854,-68.359,-34.180,-37.109,-24.414,0.000
1727361914.858,-90.820,-34.180,-30.762,-33.691,0.000
1727361914.862,-17.090,-28.320,-30.762,-14.648,0.000
1727361914.866,41.992,-37.109,-37.109,-18.066,0.000
1727361914.869,2.441,-35.645,-45.898,-32.715,0.000
1727361914.873,-63.965,-30.762,-48.828,-27.344,0.000
1727361914.877,-95.703,-29.297,-46.875,-37.109,0.000
1727361914.881,-41.016,-24.414,-42.969,-40.039,0.000
1727361914.885,26.367,-36.133,-43.457,-15.137,0.000
1727361914.889,7.812,-39.062,-39.062,-1.953,0.000
1727361914.893,-58.594,-30.273,-33.203,-2.441,0.000
1727361914.897,-87.891,-27.344,-37.109,-28.320,0.000
1727361914.901,-29.785,-27.344,-49.316,-33.203,0.000
1727361914.905,34.180,-28.320,-62.500,-20.996,0.000
1727361914.908,20.996,-22.949,-89.844,-27.832,0.000
1727361914.912,-53.711,-42.480,-115.234,-37.598,0.000
1727361914.916,-111.816,-67.871,-113.770,-41.016,0.000
1727361914.920,-81.543,-43.457,-117.188,-42.969,0.000
1727361914.924,17.090,-42.969,-110.840,-44.922,0.000
1727361914.928,43.457,-41.504,-107.910,-34.180,0.000
1727361914.932,-32.227,-8.789,-107.910,-30.762,0.000
1727361914.936,-97.168,-13.184,-99.609,-55.176,0.000
1727361914.940,-64.453,-16.113,-101.074,-51.270,0.000
1727361914.944,18.066,-7.324,-99.609,-27.344,0.000
1727361914.948,26.367,-12.695,-90.332,-13.672,0.000
1727361914.951,-37.598,-14.160,-87.891,-27.344,0.000
1727361914.955,-90.820,-7.324,-80.566,-30.762,0.000
1727361914.959,-52.734,-28.809,-84.473,-14.648,0.000
1727361914.963,23.438,-43.945,-99.609,-19.531,0.000
1727361914.967,28.320,-35.156,-100.586,-20.508,0.000
1727361914.971,-23.438,-34.180,-96.680,-17.578,0.000
1727361914.975,-78.613,-35.645,-86.914,-23.438,0.000
1727361914.979,-73.242,-28.809,-78.613,-37.598,0.000
1727361914.983,8.301,-23.438,-70.801,-42.480,0.000
1727361914.987,38.086,-36.133,-79.590,-53.711,0.000
1727361914.990,-37.109,-60.547,-89.355,-51.270,0.000
1727361914.994,-102.539,-70.312,-82.031,-58.594,0.000
1727361914.998,-94.727,-58.105,-73.730,-54.199,0.000
1727361915.002,-7.812,-41.504,-69.336,-33.203,0.000
1727361915.006,40.039,-28.809,-74.219,-29.785,0.000
1727361915.010,-12.695,-23.438,-81.543,-17.090,0.000
1727361915.014,-77.637,-34.668,-82.520,-28.320,0.000
1727361915.018,-84.961,-40.039,-72.266,-42.969,0.000
1727361915.022,-14.160,-33.691,-65.430,-23.438,0.000
1727361915.026,31.738,-40.527,-62.988,-9.766,0.000
1727361915.030,-19.531,-61.035,-59.082,-36.621,0.000
1727361915.033,-95.215,-62.012,-57.129,-58.594,0.000
1727361915.037,-105.469,-64.941,-58.105,-47.852,0.000
1727361915.041,-34.668,-56.641,-66.895,-31.250,0.000
1727361915.045,31.250,-29.785,-70.801,-30.762,0.000
1727361915.049,3.906,-21.973,-73.730,-25.391,0.000
1727361915.053,-65.918,-40.527,-67.383,-21.973,0.000
1727361915.057,-70.312,-66.406,-50.781,-31.738,0.000
1727361915.061,-24.414,-49.316,-59.082,-24.902,0.000
1727361915.065,37.598,-24.902,-65.918,4.883,0.000
1727361915.069,6.348,-30.762,-62.988,-1.953,0.000
1727361915.072,-77.637,-36.621,-67.383,-48.340,0.000
1727361915.076,-109.863,-36.621,-73.242,-61.035,0.000
1727361915.080,-61.035,-35.645,-72.754,-47.363,0.000
1727361915.084,19.531,-24.414,-66.406,-37.598,0.000
1727361915.088,18.066,-23.926,-58.594,-30.273,0.000
1727361915.092,-52.246,-32.227,-55.664,-34.180,0.000
1727361915.096,-106.445,-28.320,-65.430,-67.871,0.000
1727361915.100,-66.895,-42.969,-71.777,-77.148,0.000
1727361915.104,25.391,-39.062,-76.660,-55.176,0.000
1727361915.108,34.668,-14.648,-74.219,-46.387,0.000
1727361915.112,-43.945,2.441,-68.359,-45.410,0.000
1727361915.115,-97.168,1.465,-65.430,-52.246,0.000
1727361915.119,-67.383,-16.602,-62.012,-47.363,0.000
1727361915.123,9.766,-24.414,-62.500,-30.762,0.000
1727361915.127,20.508,-20.996,-60.059,-40.039,0.000
1727361915.131,-49.805,-22.461,-56.152,-60.059,0.000
1727361915.135,-105.957,-34.668,-49.316,-58.594,0.000
1727361915.139,-85.938,-37.109,-38.574,-35.156,0.000
1727361915.143,-11.230,-31.250,-42.969,-20.508,0.000
1727361915.147,5.859,-31.250,-45.410,-21.973,0.000
1727361915.151,-47.363,-28.320,-38.574,-24.902,0.000
1727361915.155,-105.469,-34.180,-38.574,-40.527,0.000
1727361915.158,-79.102,-51.270,-33.691,-29.297,0.000
1727361915.162,9.277,-48.340,-31.738,-5.371,0.000
1727361915.166,41.504,-35.645,-34.180,-16.602,0.000
1727361915.170,-2.441,-30.762,-28.320,-6.836,0.000
1727361915.174,-79.102,-31.250,-26.367,-13.672,0.000
1727361915.178,-74.219,-35.156,-33.203,-21.484,0.000
1727361915.182,10.254,-45.410,-38.086,-12.695,0.000
1727361915.186,44.434,-56.641,-32.715,-10.254,0.000
1727361915.190,-22.461,-61.523,-30.273,-8.301,0.000
1727361915.194,-95.703,-44.434,-34.668,-19.531,0.000
1727361915.198,-98.633,-28.809,-34.180,-30.273,0.000
1727361915.201,-16.113,-21.484,-33.691,-25.391,0.000
1727361915.205,55.176,-24.902,-28.809,-10.742,0.000
1727361915.209,12.207,-24.902,-25.391,-6.836,0.000
1727361915.213,-65.430,-20.996,-39.062,-25.879,0.000
1727361915.217,-86.914,-38.574,-41.016,-42.969,0.000
1727361915.221,-28.320,-36.133,-54.688,-32.715,0.000
1727361915.225,51.270,-26.367,-63.965,-24.902,0.000
1727361915.229,38.574,-41.504,-59.570,-21.484,0.000
1727361915.233,-64.453,-40.527,-60.059,-35.156,0.000
1727361915.237,-107.422,-31.738,-61.035,-55.176,0.000
1727361915.240,-23.438,-26.367,-61.523,-36.621,0.000
1727361915.244,68.359,-14.160,-64.453,-5.859,0.000
1727361915.248,10.254,-14.160,-72.754,-18.555,0.000
1727361915.252,-90.332,-30.762,-73.242,-27.344,0.000
1727361915.256,-120.605,-49.805,-75.684,-40.039,0.000
1727361915.260,-57.129,-53.711,-81.055,-50.781,0.000
1727361915.264,28.809,-41.992,-83.008,-37.598,0.000
1727361915.268,7.324,-32.227,-79.102,-38.574,0.000
1727361915.272,-71.289,-22.461,-69.336,-43.457,0.000
1727361915.276,-113.770,-19.531,-67.871,-38.086,0.000
1727361915.280,-66.895,-24.414,-63.965,-26.855,0.000
1727361915.283,26.367,-26.367,-67.383,-16.113,0.000
1727361915.287,28.809,-29.785,-72.266,-15.625,0.000
1727361915.291,-43.945,-39.551,-72.266,-18.066,0.000
1727361915.295,-93.262,-37.598,-83.008,-44.922,0.000
1727361915.299,-59.082,-35.645,-82.031,-48.340,0.000
1727361915.303,28.320,-34.668,-68.359,-33.691,0.000
1727361915.307,19.531,-30.762,-61.523,-13.184,0.000
1727361915.311,-48.340,-28.809,-60.547,-1.465,0.000
1727361915.315,-87.891,-22.461,-49.805,-20.996,0.000
1727361915.319,-73.730,-30.762,-54.688,-34.180,0.000
1727361915.322,0.977,-33.203,-69.824,-14.160,0.000
1727361915.326,33.691,-29.297,-66.406,-3.418,0.000
1727361915.330,-25.391,-21.973,-60.547,-28.809,0.000
1727361915.334,-92.285,-10.742,-57.617,-44.434,0.000
1727361915.338,-69.336,-13.672,-53.711,-26.367,0.000
1727361915.342,7.324,-31.250,-53.223,-16.113,0.000
1727361915.346,28.320,-40.527,-53.711,-8.789,0.000
1727361915.350,-29.297,-50.781,-51.758,-8.301,0.000
1727361915.354,-91.309,-60.059,-52.734,-32.227,0.000
1727361915.358,-92.773,-40.039,-57.129,-44.922,0.000
1727361915.362,-12.695,-26.367,0.000,-42.969,0.000
1727361915.366,44.922,-23.926,0.000,-38.574,0.000
1727361915.369,-3.418,-20.020,0.000,-43.457,0.000
1727361915.373,-89.844,-24.414,0.000,-52.734,0.000
1727361915.377,-100.098,-30.273,0.000,-46.875,0.000
1727361915.381,-15.137,-30.762,0.000,-41.016,0.000
1727361915.385,40.527,-16.602,0.000,-45.898,0.000
1727361915.389,-21.484,-12.207,0.000,-39.551,0.000
1727361915.393,-105.957,-35.156,0.000,-43.945,0.000
1727361915.397,-110.840,-50.293,0.000,-63.965,0.000
1727361915.401,-34.668,-39.551,0.000,-48.828,0.000
1727361915.405,47.363,-28.320,0.000,-27.832,0.000
1727361915.408,9.277,-34.668,-46.875,-27.344,0.000
1727361915.412,-86.914,-39.062,-58.105,-31.738,0.000
1727361915.416,-113.281,-37.109,-46.387,-43.457,0.000
1727361915.420,-52.734,-40.527,-36.133,-47.363,0.000
1727361915.424,10.742,-46.387,-42.480,-40.039,0.000
1727361915.428,-3.418,-41.504,-38.574,-38.086,0.000
1727361915.432,-79.102,-27.832,-37.109,-55.176,0.000
1727361915.436,-120.605,-16.113,-39.062,-62.012,0.000
1727361915.440,-56.641,-32.715,-38.574,-33.691,0.000
1727361915.444,27.832,-39.551,-41.504,-3.906,0.000
1727361915.447,29.785,-19.531,-33.691,-12.695,0.000
1727361915.451,-41.504,-20.996,-25.879,-44.434,0.000
1727361915.455,-76.172,-30.273,-24.902,-52.734,0.000
1727361915.459,-28.809,-23.926,-22.949,-36.133,0.000
1727361915.463,33.203,-31.250,-27.344,-9.277,0.000
1727361915.467,27.344,-45.410,-28.809,0.977,0.000
1727361915.471,-48.828,-37.598,-28.809,-24.414,0.000
1727361915.475,-94.238,-23.926,-23.926,-33.203,0.000
1727361915.479,-37.598,-20.996,-15.625,-6.836,0.000
1727361915.483,47.363,-23.438,-20.508,9.766,0.000
1727361915.487,47.852,-26.855,-16.113,7.324,0.000
1727361915.490,-21.973,-23.926,-6.836,5.371,0.000
1727361915.494,-93.262,-26.367,-26.855,-21.484,0.000
1727361915.498,-74.707,-36.621,-37.598,-33.691,0.000
1727361915.502,37.109,-30.273,-33.691,-19.043,0.000
1727361915.506,53.711,-17.578,-42.969,-21.484,0.000
1727361915.510,-32.715,-30.762,-47.852,-11.719,0.000
1727361915.514,-93.262,-53.223,-41.992,-16.113,0.000
1727361915.518,-73.242,-61.035,-46.875,-23.926,0.000
1727361915.522,13.184,-36.133,-53.223,-25.391,0.000
1727361915.526,30.273,-14.160,-42.969,-15.137,0.000
1727361915.530,-34.668,-22.949,-41.992,-11.719,0.000
1727361915.533,-90.820,-29.297,-48.340,-30.762,0.000
1727361915.537,-86.426,-34.180,-51.270,-48.828,0.000
1727361915.541,-20.996,-36.621,-59.082,-46.387,0.000
1727361915.545,15.625,-41.016,-63.477,-48.828,0.000
1727361915.549,-18.555,-38.086,-56.152,-54.199,0.000
1727361915.553,-102.051,-31.738,-57.617,-61.523,0.000
1727361915.557,-111.328,-45.898,-61.035,-65.430,0.000
1727361915.561,-15.625,-47.363,-53.711,-35.645,0.000
1727361915.565,38.574,-45.898,-50.781,-16.113,0.000
1727361915.569,-12.695,-48.340,-46.387,-30.762,0.000
1727361915.573,-68.848,-37.109,-39.551,-38.574,0.000
1727361915.576,-76.660,-38.574,-38.086,-38.086,0.000
1727361915.580,-23.438,-47.363,-45.898,-27.832,0.000
1727361915.584,31.738,-32.227,-46.387,-17.578,0.000
1727361915.588,16.113,-26.367,-40.039,-17.578,0.000
1727361915.592,-50.293,-33.691,-30.762,-19.043,0.000
1727361915.596,-70.801,-26.855,-17.090,-9.766,0.000
1727361915.600,-3.418,-27.344,-21.484,-4.395,0.000
1727361915.604,61.035,-41.016,-31.250,9.766,0.000
1727361915.608,37.109,-55.664,-23.926,12.207,0.000
1727361915.612,-55.176,-49.805,-18.555,-12.695,0.000
1727361915.616,-102.539,-29.785,-21.973,-11.719,0.000
1727361915.619,-28.320,-6.348,-21.973,-7.812,0.000
1727361915.623,56.641,-7.812,-20.996,-12.695,0.000
1727361915.627,29.297,-16.602,-22.461,0.977,0.000
1727361915.631,-47.852,-13.672,-20.508,0.488,0.000
1727361915.635,-80.566,-25.879,-17.578,-25.391,0.000
1727361915.639,-37.598,-40.527,-19.531,-25.391,0.000
1727361915.643,36.133,-31.738,-30.762,-13.672,0.000
1727361915.647,16.113,-26.855,-36.133,-14.160,0.000
1727361915.651,-70.312,-41.992,-34.668,-8.789,0.000
1727361915.655,-121.094,-51.758,-37.109,-30.762,0.000
1727361915.658,-77.148,-49.316,-39.551,-54.688,0.000
1727361915.662,14.648,-34.668,-43.457,-50.293,0.000
1727361915.666,20.996,-25.391,-47.852,-49.805,0.000
1727361915.670,-66.895,-31.738,-47.852,-53.711,0.000
1727361915.674,-131.836,-49.805,-48.828,-59.082,0.000
1727361915.678,-83.496,-69.336,-48.828,-56.641,0.000
1727361915.682,19.531,-60.059,-49.805,-50.293,0.000
1727361915.686,20.996,-34.180,-40.039,-27.832,0.000
1727361915.690,-48.340,-26.855,-38.086,-28.809,0.000
1727361915.694,-104.980,-19.043,-36.621,-52.734,0.000
1727361915.698,-90.820,-17.090,-32.227,-50.293,0.000
1727361915.701,-9.277,-27.344,-38.574,-32.227,0.000
1727361915.705,21.973,-30.273,-28.320,-18.555,0.000
1727361915.709,-37.598,-33.691,-19.531,-35.156,0.000
1727361915.713,-112.305,-40.527,-26.367,-60.547,0.000
1727361915.717,-110.352,-41.504,-30.273,-53.711,0.000
1727361915.721,-20.508,-40.039,-33.203,-39.062,0.000
1727361915.725,13.184,-47.363,-30.762,-27.344,0.000
1727361915.729,-43.457,-59.082,-17.578,-16.602,0.000
1727361915.733,-119.141,-47.363,-12.695,-41.992,0.000
1727361915.737,-96.680,-26.855,-14.160,-47.363,0.000
1727361915.740,6.836,-15.625,-8.301,-13.672,0.000
1727361915.744,50.293,-26.367,-5.859,-8.789,0.000
1727361915.748,-10.254,-25.391,-18.555,-25.391,0.000
1727361915.752,-83.496,-21.484,-20.996,-41.504,0.000
1727361915.756,-95.215,-21.973,-13.184,-48.828,0.000
1727361915.760,-29.297,-21.484,-16.602,-24.902,0.000
1727361915.764,32.715,-14.648,-24.902,-20.020,0.000
1727361915.768,-11.230,-3.906,-21.484,-25.391,0.000
1727361915.772,-81.055,-4.395,-14.160,-19.531,0.000
1727361915.776,-90.332,-10.742,-7.812,-27.344,0.000
1727361915.780,-34.180,-14.648,-9.277,-19.531,0.000
1727361915.783,43.457,-27.832,-10.254,-9.766,0.000
1727361915.787,17.578,-49.316,-14.160,-24.902,0.000
1727361915.791,-74.707,-45.410,-24.414,-44.922,0.000
1727361915.795,-108.398,-29.297,-25.391,-28.320,0.000
1727361915.799,-51.270,-10.742,-28.809,-11.230,0.000
1727361915.803,31.738,-3.906,-31.738,-15.137,0.000
1727361915.807,29.785,-12.207,-22.461,-22.949,0.000
1727361915.811,-42.480,-27.832,-15.625,-23.438,0.000
1727361915.815,-94.238,-42.480,-16.113,-35.156,0.000
1727361915.819,-41.992,-47.852,-16.602,-39.551,0.000
1727361915.822,44.434,-37.598,-15.137,-35.645,0.000
1727361915.826,19.043,-32.227,-12.207,-33.203,0.000
1727361915.830,-70.801,-36.133,-17.578,-55.664,0.000
1727361915.834,-115.723,-33.691,-21.973,-72.754,0.000
1727361915.838,-65.918,-34.668,-30.762,-49.316,0.000
1727361915.842,12.207,-38.086,-38.086,-38.086,0.000
1727361915.846,4.395,-39.551,-24.414,-43.945,0.000
1727361915.850,-51.758,-29.785,-18.066,-41.504,0.000
1727361915.854,-107.422,-28.809,-25.879,-43.945,0.000
1727361915.858,-82.520,-31.738,-36.133,-50.781,0.000
1727361915.862,12.207,-38.574,-41.992,-60.059,0.000
1727361915.865,13.672,-51.758,-32.715,-58.594,0.000
1727361915.869,-65.430,-53.711,-29.785,-54.199,0.000
1727361915.873,-127.441,-43.945,-36.621,-72.266,0.000
1727361915.877,-80.078,-44.434,-25.391,-61.523,0.000
1727361915.881,18.555,-52.734,-20.508,-28.809,0.000
1727361915.885,29.785,-49.316,-27.344,-20.020,0.000
1727361915.889,-32.227,-40.527,-25.391,-28.809,0.000
1727361915.893,-81.543,-44.434,-16.602,-20.508,0.000
1727361915.897,-81.055,-39.062,-17.578,-20.508,0.000
1727361915.901,-8.789,-19.531,-23.438,-9.766,0.000
1727361915.905,33.203,-24.414,-24.414,0.977,0.000
1727361915.908,-5.371,-26.855,-20.996,-19.531,0.000
1727361915.912,-60.547,-28.320,-15.625,-28.809,0.000
1727361915.916,-80.566,-34.180,-20.020,-36.621,0.000
1727361915.920,-0.977,-29.297,-19.043,-29.297,0.000
1727361915.924,57.617,-17.090,-14.160,-14.648,0.000
1727361915.928,-3.418,-17.578,-16.113,-9.277,0.000
1727361915.932,-86.914,-28.809,-21.484,-18.555,0.000
1727361915.936,-101.074,-29.297,-19.043,-47.363,0.000
1727361915.940,0.000,-36.133,-20.020,-41.504,0.000
1727361915.944,76.172,-50.781,-20.508,-15.137,0.000
1727361915.948,14.648,-32.715,-23.926,-26.855,0.000
1727361915.951,-67.383,-15.625,-19.531,-35.156,0.000
1727361915.955,-83.984,-21.484,-12.695,-34.180,0.000
1727361915.959,-15.625,-24.414,-17.578,-32.227,0.000
1727361915.963,43.945,-28.320,-13.672,-20.508,0.000
1727361915.967,8.789,-24.902,-16.602,-19.531,0.000
1727361915.971,-52.246,-28.320,-27.832,-25.391,0.000
1727361915.975,-77.148,-54.688,-33.691,-28.320,0.000
1727361915.979,-25.391,-69.336,-33.691,-25.879,0.000
1727361915.983,56.152,-53.711,-31.250,-19.531,0.000
1727361915.987,17.090,-24.902,-45.410,-29.297,0.000
1727361915.990,-75.684,-46.387,-63.477,-44.922,0.000
1727361915.994,-111.328,-54.688,-57.129,-53.711,0.000
1727361915.998,-35.645,-73.242,-44.434,-45.410,0.000
1727361916.002,58.105,-125.000,-50.293,-34.668,0.000
1727361916.006,36.621,-68.359,-45.410,-30.762,0.000
1727361916.010,-44.922,-55.176,-33.203,-27.344,0.000
1727361916.014,-75.195,-115.723,-27.344,-4.883,0.000
1727361916.018,-20.996,-20.508,-20.508,0.488,0.000
1727361916.022,25.391,-18.555,-57.617,-47.852,0.000
1727361916.026,31.250,-154.297,-71.289,-28.809,0.000
1727361916.030,-25.391,-49.316,-38.086,-13.184,0.000
1727361916.033,-131.348,60.059,-53.223,-77.637,0.000
1727361916.037,-22.461,-272.949,-29.785,-1.465,0.000
1727361916.041,168.457,-379.883,33.691,145.508,0.000
1727361916.045,137.695,44.434,9.766,123.047,0.000
1727361916.049,-27.344,105.469,-52.246,15.137,0.000
1727361916.053,-60.059,121.094,-9.766,8.789,0.000
1727361916.057,42.969,162.598,78.613,57.617,0.000
1727361916.061,14.648,-10.742,21.973,-23.438,0.000
1727361916.065,-65.918,-37.598,-5.859,-90.820,0.000
1727361916.069,7.324,0.488,166.016,7.812,0.000
1727361916.072,115.234,111.328,262.207,170.410,0.000
1727361916.076,141.113,207.520,176.270,219.238,0.000
1727361916.080,209.473,187.988,195.801,218.750,0.000
1727361916.084,162.109,420.898,390.625,149.414,0.000
1727361916.088,-101.562,557.617,467.285,-54.199,0.000
1727361916.092,-299.316,501.465,576.172,-195.312,0.000
1727361916.096,-239.746,382.812,725.098,-141.113,0.000
1727361916.100,-51.758,248.047,814.941,-21.973,0.000
1727361916.104,79.590,381.836,947.754,57.129,0.000
1727361916.108,90.820,606.934,972.656,136.230,0.000
1727361916.112,0.488,761.230,961.426,159.180,0.000
1727361916.115,-24.902,790.039,968.262,116.699,0.000
1727361916.119,68.848,774.414,966.797,101.562,0.000
1727361916.123,101.074,769.531,966.797,107.910,0.000
1727361916.127,43.457,819.824,966.797,110.352,0.000
1727361916.131,-14.648,915.039,966.797,108.887,0.000
1727361916.135,-20.508,916.992,966.797,95.703,0.000
1727361916.139,57.617,950.684,966.797,102.539,0.000
1727361916.143,120.605,971.680,966.797,109.863,0.000
1727361916.147,80.566,964.355,966.797,105.957,0.000
1727361916.151,-3.418,967.285,966.797,89.844,0.000
