timestamps,TP9,AF7,AF8,TP10,Right AUX
1727361845.802,88.867,-60.059,-31.738,1.465,0.000
1727361845.806,18.066,-64.453,-36.133,-17.578,0.000
1727361845.810,-116.211,-47.363,-41.504,-61.035,0.000
1727361845.814,-130.371,-48.340,-38.574,-78.125,0.000
1727361845.818,-26.855,-61.035,-37.109,-34.668,0.000
1727361845.822,45.410,-60.059,-42.480,-11.230,0.000
1727361845.826,26.367,-65.430,-47.363,-14.648,0.000
1727361845.829,-64.941,-54.688,-35.645,-39.551,0.000
1727361845.833,-109.863,-48.828,-34.668,-86.914,0.000
1727361845.837,-28.809,-63.477,-43.457,-46.875,0.000
1727361845.841,49.805,-67.871,-39.551,7.812,0.000
1727361845.845,21.973,-54.688,-39.062,4.395,0.000
1727361845.849,-79.102,-43.945,-34.668,-35.645,0.000
1727361845.853,-134.277,-41.016,-37.598,-80.078,0.000
1727361845.857,-50.781,-43.945,-38.574,-46.387,0.000
1727361845.861,49.316,-44.922,-39.551,-15.137,0.000
1727361845.865,24.414,-59.082,-47.852,-8.301,0.000
1727361845.869,-72.266,-62.988,-38.574,-20.996,0.000
1727361845.872,-125.488,-40.527,-20.996,-62.988,0.000
1727361845.876,-38.574,-46.387,-16.113,-38.574,0.000
1727361845.880,56.641,-52.734,-19.531,2.930,0.000
1727361845.884,41.016,-41.992,-15.137,3.418,0.000
1727361845.888,-46.875,-37.109,-20.508,-24.414,0.000
1727361845.892,-128.418,-42.480,-27.344,-67.383,0.000
1727361845.896,-75.684,-48.828,-29.297,-57.129,0.000
1727361845.900,53.711,-38.574,-19.531,-8.789,0.000
1727361845.904,70.801,-39.551,-0.977,5.371,0.000
1727361845.908,-28.320,-46.387,3.906,-16.602,0.000
1727361845.911,-114.258,-57.617,2.930,-44.434,0.000
1727361845.915,-84.961,-57.617,-7.324,-45.410,0.000
1727361845.919,26.855,-48.340,-19.043,-30.762,0.000
1727361845.923,61.035,-49.805,-27.832,-18.555,0.000
1727361845.927,-24.414,-46.387,-25.391,-29.785,0.000
1727361845.931,-133.789,-37.109,-11.230,-66.406,0.000
1727361845.935,-121.094,-29.785,-8.789,-59.082,0.000
1727361845.939,0.977,-30.273,-14.648,-22.949,0.000
1727361845.943,60.059,-35.156,-14.648,-15.137,0.000
1727361845.947,-2.441,-44.922,-10.742,-28.320,0.000
1727361845.951,-105.957,-56.641,-8.789,-70.801,0.000
1727361845.954,-111.816,-60.547,-18.066,-82.031,0.000
1727361845.958,-5.859,-46.875,-28.809,-39.062,0.000
1727361845.962,45.410,-49.805,-24.414,-7.324,0.000
1727361845.966,-21.484,-63.965,-21.973,-7.324,0.000
1727361845.970,-125.977,-54.688,-20.996,-53.223,0.000
1727361845.974,-131.836,-42.480,-14.160,-77.148,0.000
1727361845.978,-18.066,-35.645,-13.184,-41.504,0.000
1727361845.982,60.547,-31.250,-9.277,-16.602,0.000
1727361845.986,10.742,-28.320,-16.113,-22.461,0.000
1727361845.990,-98.633,-45.898,-22.461,-62.988,0.000
1727361845.994,-140.137,-66.895,-18.555,-67.871,0.000
1727361845.997,-31.738,-53.223,-11.230,-20.508,0.000
1727361846.001,63.965,-58.105,3.906,-10.742,0.000
1727361846.005,23.926,-69.824,7.812,-2.930,0.000
1727361846.009,-78.613,-35.645,-5.859,-28.320,0.000
1727361846.013,-112.305,-19.531,-21.484,-74.707,0.000
1727361846.017,-33.203,-28.809,-24.902,-43.945,0.000
1727361846.021,43.457,-24.902,-17.090,1.465,0.000
1727361846.025,25.879,-26.367,-19.043,-1.465,0.000
1727361846.029,-84.961,-34.668,-20.508,-43.457,0.000
1727361846.033,-142.090,-48.340,-18.066,-73.730,0.000
1727361846.037,-60.059,-58.105,-15.137,-38.086,0.000
1727361846.040,61.523,-46.875,-6.836,6.836,0.000
1727361846.044,71.777,-36.621,-12.695,11.719,0.000
1727361846.048,-57.129,-48.340,-6.348,-19.043,0.000
1727361846.052,-151.367,-61.523,-6.836,-68.359,0.000
1727361846.056,-88.379,-60.059,-25.391,-47.363,0.000
1727361846.060,37.109,-51.270,-28.320,-1.953,0.000
1727361846.064,59.082,-49.805,-22.461,-11.719,0.000
1727361846.068,-34.668,-50.293,-22.949,-34.668,0.000
1727361846.072,-127.930,-41.016,-34.668,-69.824,0.000
1727361846.076,-82.520,-42.480,-44.922,-62.988,0.000
1727361846.079,33.691,-55.176,-40.039,-20.996,0.000
1727361846.083,48.828,-67.383,-28.320,-18.555,0.000
1727361846.087,-61.523,-69.336,-22.949,-45.410,0.000
1727361846.091,-157.715,-59.082,-21.484,-85.449,0.000
1727361846.095,-112.793,-71.289,-22.949,-73.730,0.000
1727361846.099,1.953,-73.730,-22.461,-20.508,0.000
1727361846.103,40.527,-56.152,-23.438,4.395,0.000
1727361846.107,-31.738,-51.270,-31.250,-18.066,0.000
1727361846.111,-113.770,-49.316,-30.273,-79.102,0.000
1727361846.115,-115.234,-53.223,-32.227,-80.566,0.000
1727361846.119,-22.949,-61.523,-34.668,-41.504,0.000
1727361846.122,46.875,-61.523,-25.391,-23.438,0.000
1727361846.126,-1.465,-44.434,-17.578,-28.809,0.000
1727361846.130,-104.492,-48.828,-17.578,-80.566,0.000
1727361846.134,-112.305,-73.242,-26.367,-92.773,0.000
1727361846.138,5.371,-61.523,-28.809,-42.480,0.000
1727361846.142,59.082,-41.504,-32.227,-13.672,0.000
1727361846.146,-10.742,-38.574,-28.809,-10.254,0.000
1727361846.150,-112.305,-45.410,-12.207,-48.340,0.000
1727361846.154,-109.863,-51.270,-17.090,-72.266,0.000
1727361846.158,-4.395,-57.617,-26.367,-20.996,0.000
1727361846.162,56.641,-52.734,-13.184,20.508,0.000
1727361846.165,20.020,-43.945,-0.488,4.883,0.000
1727361846.169,-84.961,-39.062,-8.789,-55.664,0.000
1727361846.173,-101.074,-34.180,-22.461,-86.914,0.000
1727361846.177,-6.348,-46.875,-19.531,-37.109,0.000
1727361846.181,52.734,-55.664,-13.672,-1.953,0.000
1727361846.185,15.625,-61.035,-15.625,12.207,0.000
1727361846.189,-87.891,-89.355,-20.996,-22.949,0.000
1727361846.193,-115.723,-80.566,-25.391,-64.941,0.000
1727361846.197,-31.738,-29.297,-17.090,-21.973,0.000
1727361846.201,52.734,-29.297,-12.695,18.066,0.000
1727361846.204,32.227,-56.152,-17.578,8.301,0.000
1727361846.208,-80.078,-49.316,-16.113,-50.781,0.000
1727361846.212,-131.836,-31.738,-7.324,-90.820,0.000
1727361846.216,-46.875,-41.016,-4.883,-47.852,0.000
1727361846.220,56.641,-53.711,-6.836,4.883,0.000
1727361846.224,53.223,-39.062,-7.812,6.836,0.000
1727361846.228,-34.180,-40.039,-6.348,-19.531,0.000
1727361846.232,-101.562,-54.688,-5.859,-62.012,0.000
1727361846.236,-60.059,-53.223,-4.395,-40.039,0.000
1727361846.240,41.504,-46.875,-3.906,9.277,0.000
1727361846.244,47.852,-38.574,-9.766,-7.324,0.000
1727361846.247,-47.852,-31.738,-12.695,-31.250,0.000
1727361846.251,-139.160,-42.969,-21.484,-64.941,0.000
1727361846.255,-76.660,-65.918,-25.391,-56.152,0.000
1727361846.259,40.527,-71.289,-27.832,-14.648,0.000
1727361846.263,53.223,-56.641,-21.484,-2.930,0.000
1727361846.267,-26.855,-46.875,-11.230,-8.301,0.000
1727361846.271,-128.418,-46.875,-19.043,-44.434,0.000
1727361846.275,-94.727,-52.246,-20.020,-47.852,0.000
1727361846.279,28.809,-50.781,-16.602,3.418,0.000
1727361846.283,63.477,-40.527,-21.484,17.090,0.000
1727361846.286,-8.789,-32.715,-17.578,0.977,0.000
1727361846.290,-88.379,-24.902,-1.465,-28.809,0.000
1727361846.294,-66.895,-32.227,-5.859,-26.367,0.000
1727361846.298,44.434,-36.621,-14.160,10.254,0.000
1727361846.302,105.469,-30.273,-11.719,11.719,0.000
1727361846.306,31.738,-32.227,-12.207,8.301,0.000
1727361846.310,-76.660,-35.156,-23.926,-35.645,0.000
1727361846.314,-68.848,-19.043,-26.855,-47.852,0.000
1727361846.318,16.602,-25.879,-20.996,0.488,0.000
1727361846.322,63.477,-47.852,-20.508,-0.977,0.000
1727361846.326,13.184,-42.480,-21.973,-25.391,0.000
1727361846.329,-105.957,-30.762,-16.113,-65.918,0.000
1727361846.333,-127.441,-23.438,-19.531,-85.449,0.000
1727361846.337,-29.785,-35.645,-27.832,-42.480,0.000
1727361846.341,55.664,-44.434,-27.344,-3.906,0.000
1727361846.345,6.836,-37.109,-34.668,-16.602,0.000
1727361846.349,-117.676,-36.621,-30.762,-51.758,0.000
1727361846.353,-141.602,-33.691,-21.973,-68.359,0.000
1727361846.357,-38.086,-38.574,-27.832,-40.527,0.000
1727361846.361,48.828,-62.500,-26.367,-8.301,0.000
1727361846.365,25.879,-58.594,-18.066,-1.953,0.000
1727361846.369,-62.012,-25.391,-20.020,-26.367,0.000
1727361846.372,-94.727,-16.113,-27.832,-54.688,0.000
1727361846.376,-9.766,-28.809,-28.809,-15.137,0.000
1727361846.380,53.223,-38.574,-29.785,19.531,0.000
1727361846.384,29.785,-32.227,-31.250,13.184,0.000
1727361846.388,-49.316,-18.555,-25.391,-26.855,0.000
1727361846.392,-102.539,-16.113,-31.738,-63.477,0.000
1727361846.396,-23.926,-21.484,-28.809,-19.043,0.000
1727361846.400,74.219,-27.832,-28.320,6.836,0.000
1727361846.404,62.012,-29.297,-30.762,2.930,0.000
1727361846.408,-34.180,-20.020,-29.297,-14.648,0.000
1727361846.412,-100.586,-3.906,-37.109,-45.898,0.000
1727361846.415,-28.809,2.441,-37.109,-22.461,0.000
1727361846.419,56.152,6.836,-35.645,11.719,0.000
1727361846.423,46.387,-6.348,-33.691,13.184,0.000
1727361846.427,-46.875,-27.832,-36.133,-16.113,0.000
1727361846.431,-94.727,-36.621,-29.785,-43.945,0.000
1727361846.435,-42.969,-38.574,-29.785,-33.203,0.000
1727361846.439,32.715,-36.133,-37.109,-16.602,0.000
1727361846.443,62.012,-31.250,-31.738,-6.348,0.000
1727361846.447,-35.645,-24.414,-26.367,-25.391,0.000
1727361846.451,-126.953,-15.625,-19.531,-60.059,0.000
1727361846.454,-69.336,-23.438,-23.926,-34.668,0.000
1727361846.458,37.109,-37.598,-32.715,6.836,0.000
1727361846.462,70.312,-35.645,-29.785,27.344,0.000
1727361846.466,-3.906,-37.598,-35.156,11.719,0.000
1727361846.470,-104.980,-31.250,-35.645,-52.246,0.000
1727361846.474,-86.914,-32.227,-36.621,-49.316,0.000
1727361846.478,23.438,-50.293,-40.527,10.254,0.000
1727361846.482,58.105,-49.316,-42.969,9.766,0.000
1727361846.486,-20.020,-30.762,-56.152,-22.461,0.000
1727361846.490,-118.164,-30.273,-61.035,-62.500,0.000
1727361846.494,-113.281,-51.758,-69.336,-76.172,0.000
1727361846.497,-1.465,-62.012,-68.359,-25.879,0.000
1727361846.501,60.547,-47.852,-53.711,6.836,0.000
1727361846.505,-2.930,-42.480,-52.246,4.883,0.000
1727361846.509,-105.469,-60.547,-41.016,-37.109,0.000
1727361846.513,-110.352,-61.523,-41.992,-66.406,0.000
1727361846.517,-19.043,-48.828,-48.828,-32.227,0.000
1727361846.521,44.434,-45.898,-51.270,-11.719,0.000
1727361846.525,8.301,-50.293,-59.082,-8.301,0.000
1727361846.529,-84.473,-51.758,-55.664,-34.668,0.000
1727361846.533,-114.258,-39.551,-52.246,-57.129,0.000
1727361846.537,-12.695,-38.086,-58.105,-16.113,0.000
1727361846.540,90.820,-53.711,-65.430,10.254,0.000
1727361846.544,64.453,-46.875,-58.594,9.766,0.000
1727361846.548,-55.664,-43.945,-50.781,-29.297,0.000
1727361846.552,-108.398,-57.129,-53.711,-65.430,0.000
1727361846.556,-29.785,-57.617,-57.129,-20.996,0.000
1727361846.560,53.711,-54.199,-56.641,9.766,0.000
1727361846.564,44.922,-42.969,-58.594,14.160,0.000
1727361846.568,-48.828,-28.320,-58.594,-17.090,0.000
1727361846.572,-100.098,-32.715,-59.082,-70.312,0.000
1727361846.576,-20.996,-41.504,-57.129,-25.391,0.000
1727361846.579,74.707,-45.898,-53.711,32.715,0.000
1727361846.583,71.289,-56.152,-54.688,23.926,0.000
1727361846.587,-32.715,-47.363,-45.898,-17.090,0.000
1727361846.591,-109.375,-29.297,-32.227,-61.035,0.000
1727361846.595,-50.781,-32.227,-37.109,-35.645,0.000
1727361846.599,51.270,-32.715,-47.363,1.465,0.000
1727361846.603,65.918,-25.879,-33.691,9.277,0.000
1727361846.607,-2.930,-39.062,-22.461,-9.766,0.000
1727361846.611,-60.547,-60.059,-26.367,-40.527,0.000
1727361846.615,-31.250,-70.312,-33.203,-12.207,0.000
1727361846.619,62.988,-56.641,-38.574,20.020,0.000
1727361846.622,68.359,-42.969,-39.551,18.555,0.000
1727361846.626,-41.504,-44.434,-39.551,3.906,0.000
1727361846.630,-109.863,-37.109,-41.016,-36.133,0.000
1727361846.634,-69.336,-43.457,-56.641,-38.086,0.000
1727361846.638,39.062,-58.105,-67.871,-0.977,0.000
1727361846.642,80.566,-57.617,-57.129,13.184,0.000
1727361846.646,16.602,-42.480,-49.805,4.395,0.000
1727361846.650,-81.055,-30.762,-60.059,-45.410,0.000
1727361846.654,-80.078,-36.133,-68.359,-44.922,0.000
1727361846.658,41.992,-37.109,-70.801,16.602,0.000
1727361846.661,97.168,-34.180,-63.477,29.785,0.000
1727361846.665,23.926,-54.199,-61.035,20.020,0.000
1727361846.669,-79.102,-57.129,-51.270,-10.254,0.000
1727361846.673,-81.055,-35.645,-52.734,-25.391,0.000
1727361846.677,55.664,-17.578,-57.617,6.836,0.000
1727361846.681,110.840,-16.113,-61.523,24.902,0.000
1727361846.685,21.973,-35.156,-57.617,26.367,0.000
1727361846.689,-66.895,-30.273,-44.922,-11.719,0.000
1727361846.693,-72.754,-8.301,-48.828,-37.598,0.000
1727361846.697,27.832,-5.371,-53.711,5.371,0.000
1727361846.701,96.680,-12.695,-50.293,31.738,0.000
1727361846.704,53.711,-16.113,-41.992,45.410,0.000
1727361846.708,-52.246,-19.043,-33.203,9.277,0.000
1727361846.712,-78.613,-26.367,-25.391,-33.203,0.000
1727361846.716,12.695,-29.297,-20.020,13.184,0.000
1727361846.720,96.191,-32.227,-30.273,45.410,0.000
1727361846.724,61.035,-37.598,-45.410,34.180,0.000
1727361846.728,-56.152,-25.879,-50.781,-17.090,0.000
1727361846.732,-93.262,-29.297,-42.480,-53.711,0.000
1727361846.736,8.301,-34.180,-37.598,-2.930,0.000
1727361846.740,99.121,-25.879,-34.180,25.879,0.000
1727361846.744,58.594,-28.320,-28.809,26.855,0.000
1727361846.747,-66.895,-32.227,-28.809,-5.371,0.000
1727361846.751,-134.766,-40.039,-31.250,-49.805,0.000
1727361846.755,-33.203,-30.762,-27.832,4.395,0.000
1727361846.759,89.844,-20.508,-20.020,50.781,0.000
1727361846.763,78.613,-25.391,-20.996,43.945,0.000
1727361846.767,-26.855,-22.949,-8.301,7.812,0.000
1727361846.771,-99.609,-32.715,-9.766,-36.621,0.000
1727361846.775,-40.039,-37.109,-36.621,-15.137,0.000
1727361846.779,77.148,-31.250,-40.527,14.648,0.000
1727361846.783,85.449,-38.574,-31.738,7.812,0.000
1727361846.787,-24.414,-57.129,-23.926,-20.020,0.000
1727361846.790,-102.539,-51.758,-17.090,-58.105,0.000
1727361846.794,-48.828,-49.316,-28.809,-35.156,0.000
1727361846.798,53.711,-55.664,-32.227,22.949,0.000
1727361846.802,75.684,-26.367,-28.809,32.227,0.000
1727361846.806,-20.020,-14.160,-32.715,-2.441,0.000
1727361846.810,-105.469,-26.367,-26.855,-39.551,0.000
1727361846.814,-55.176,-34.668,-24.414,-24.902,0.000
1727361846.818,39.062,-41.504,-26.367,7.324,0.000
1727361846.822,59.082,-35.645,-35.156,12.695,0.000
1727361846.826,-8.301,-32.715,-40.039,-8.301,0.000
1727361846.829,-84.961,-32.715,-29.297,-40.527,0.000
1727361846.833,-73.242,-32.227,-21.973,-27.344,0.000
1727361846.837,28.320,-42.480,-19.531,22.461,0.000
1727361846.841,90.332,-56.152,-21.973,41.992,0.000
1727361846.845,30.273,-61.035,-18.066,19.531,0.000
1727361846.849,-73.730,-44.434,-12.695,-25.879,0.000
1727361846.853,-57.129,-11.719,-16.602,-29.297,0.000
1727361846.857,54.688,5.859,-4.395,19.531,0.000
1727361846.861,120.605,0.000,2.441,47.363,0.000
1727361846.865,69.336,1.953,0.488,44.922,0.000
1727361846.869,-52.734,-7.812,9.277,-6.348,0.000
1727361846.872,-79.590,-35.645,7.324,-36.133,0.000
1727361846.876,32.227,-37.109,2.930,11.719,0.000
1727361846.880,111.328,-15.625,2.441,57.617,0.000
1727361846.884,52.734,0.977,-7.812,58.594,0.000
1727361846.888,-52.246,-1.465,-11.719,-6.348,0.000
1727361846.892,-86.426,-18.066,-1.953,-42.969,0.000
1727361846.896,8.789,-23.926,0.977,2.930,0.000
1727361846.900,93.750,-21.484,-6.836,22.949,0.000
1727361846.904,66.895,-19.531,-10.254,20.996,0.000
1727361846.908,-48.828,-21.484,-11.230,-11.230,0.000
1727361846.912,-119.141,-22.949,-12.207,-39.551,0.000
1727361846.915,-38.574,-32.227,-19.043,-1.953,0.000
1727361846.919,60.547,-34.180,-28.320,35.156,0.000
1727361846.923,43.945,-34.668,-29.297,30.273,0.000
1727361846.927,-62.500,-38.574,-36.621,-21.973,0.000
1727361846.931,-96.191,-28.809,-34.180,-46.387,0.000
1727361846.935,-2.441,-13.184,-29.297,-17.090,0.000
1727361846.939,94.238,-9.766,-30.273,5.859,0.000
1727361846.943,74.219,-37.598,-27.344,7.812,0.000
1727361846.947,-30.762,-56.641,-28.320,-25.879,0.000
1727361846.951,-85.938,-39.062,-28.320,-65.430,0.000
1727361846.954,-17.090,-37.109,-16.602,-42.480,0.000
1727361846.958,76.660,-40.039,-2.441,-4.395,0.000
1727361846.962,83.008,-34.180,-0.977,21.484,0.000
1727361846.966,-35.645,-32.227,-7.324,4.883,0.000
1727361846.970,-140.137,-34.180,-18.555,-55.176,0.000
1727361846.974,-66.895,-40.039,-19.043,-38.086,0.000
1727361846.978,47.852,-41.992,-13.672,7.324,0.000
1727361846.982,47.852,-36.133,-13.184,19.043,0.000
1727361846.986,-43.457,-24.902,-15.137,3.906,0.000
1727361846.990,-112.305,-21.484,-7.324,-39.551,0.000
1727361846.994,-46.875,-29.785,-2.441,-28.320,0.000
1727361846.997,67.383,-31.738,-5.371,16.113,0.000
1727361847.001,71.289,-20.508,-1.953,23.926,0.000
1727361847.005,-8.301,-12.207,0.000,13.672,0.000
1727361847.009,-83.496,-32.227,4.883,-25.391,0.000
1727361847.013,-72.266,-46.387,4.395,-29.297,0.000
1727361847.017,43.457,-36.133,-3.418,17.090,0.000
1727361847.021,118.164,-30.762,1.465,19.531,0.000
1727361847.025,30.273,-19.043,4.395,10.742,0.000
1727361847.029,-98.145,-9.277,0.488,-21.484,0.000
1727361847.033,-89.355,-36.621,-5.371,-38.574,0.000
1727361847.036,23.926,-55.176,-15.625,-1.953,0.000
1727361847.040,81.055,-49.805,-9.766,20.508,0.000
1727361847.044,23.926,-53.223,-7.812,5.371,0.000
1727361847.048,-84.961,-39.551,-3.906,-25.879,0.000
1727361847.052,-102.539,-29.785,2.930,-20.020,0.000
1727361847.056,2.441,-55.176,-3.906,17.578,0.000
1727361847.060,73.242,-50.293,-8.301,24.902,0.000
1727361847.064,23.438,-33.691,-3.418,7.812,0.000
1727361847.068,-81.055,-40.527,5.371,-37.598,0.000
1727361847.072,-78.613,-45.410,0.000,-63.965,0.000
1727361847.076,16.113,-40.039,-14.648,-11.230,0.000
1727361847.079,56.152,-38.574,-30.762,5.859,0.000
1727361847.083,14.160,-35.156,-32.715,-12.207,0.000
1727361847.087,-83.984,-28.809,-25.879,-36.133,0.000
1727361847.091,-116.211,-40.527,-28.809,-65.430,0.000
1727361847.095,-28.320,-54.199,-26.367,-24.902,0.000
1727361847.099,51.270,-67.871,-20.996,10.742,0.000
1727361847.103,15.137,-68.359,-17.578,-0.488,0.000
1727361847.107,-84.961,-60.547,-23.438,-40.039,0.000
1727361847.111,-138.672,-58.105,-31.738,-80.566,0.000
1727361847.115,-62.012,-41.504,-35.156,-48.828,0.000
1727361847.119,65.430,-37.109,-39.062,-13.672,0.000
1727361847.122,44.922,-47.852,-34.668,-11.719,0.000
1727361847.126,-71.289,-60.547,-30.273,-39.551,0.000
1727361847.130,-131.836,-63.477,-26.367,-76.660,0.000
1727361847.134,-57.129,-61.523,-28.320,-43.457,0.000
1727361847.138,37.109,-81.543,-28.809,3.418,0.000
1727361847.142,24.902,-93.262,-41.016,-5.859,0.000
1727361847.146,-50.293,-76.172,-38.574,-34.668,0.000
1727361847.150,-125.000,-61.035,-23.926,-82.520,0.000
1727361847.154,-78.125,-62.012,-41.504,-92.285,0.000
1727361847.158,36.133,-59.570,-33.691,-38.574,0.000
1727361847.162,59.082,-48.340,-22.949,-25.879,0.000
1727361847.165,-12.207,-29.297,-34.180,-15.137,0.000
1727361847.169,-121.094,-43.945,0.000,-61.523,0.000
1727361847.173,-104.004,-65.430,0.977,-80.078,0.000
1727361847.177,34.180,-41.992,-33.203,-0.488,0.000
1727361847.181,68.359,-37.109,-10.254,0.977,0.000
1727361847.185,0.488,-45.898,-53.223,-20.996,0.000
1727361847.189,-69.336,-45.898,-89.355,-25.879,0.000
1727361847.193,-81.055,-66.895,-86.426,-53.223,0.000
1727361847.197,-7.324,-64.941,-155.273,-65.918,0.000
1727361847.201,52.734,-41.016,-228.516,-23.438,0.000
1727361847.204,13.184,-20.996,-269.531,6.348,0.000
1727361847.208,-89.355,-37.109,-362.305,-58.594,0.000
1727361847.212,-89.844,-50.293,-439.453,-74.219,0.000
1727361847.216,31.250,-31.250,-605.957,-4.883,0.000
1727361847.220,93.262,-25.879,-895.020,13.184,0.000
1727361847.224,9.766,-44.434,-996.094,-41.504,0.000
1727361847.228,-100.098,-55.176,-994.629,-81.543,0.000
1727361847.232,-129.395,-78.125,-999.512,-79.590,0.000
1727361847.236,-36.133,-98.145,-1000.000,-61.035,0.000
1727361847.240,78.613,-99.121,-1000.000,-17.578,0.000
1727361847.244,50.781,-94.727,-1000.000,-8.301,0.000
1727361847.247,-101.562,-82.520,-1000.000,-86.426,0.000
1727361847.251,-144.531,-79.102,-1000.000,-127.930,0.000
1727361847.255,-16.602,-71.289,-1000.000,-83.496,0.000
1727361847.259,62.012,-85.449,-1000.000,-51.270,0.000
1727361847.263,19.531,-98.145,-1000.000,-54.688,0.000
1727361847.267,-84.961,-103.516,-1000.000,-86.914,0.000
1727361847.271,-132.324,-104.492,-1000.000,-104.004,0.000
1727361847.275,-49.805,-89.355,-1000.000,-77.148,0.000
1727361847.279,44.922,-75.195,-1000.000,-52.734,0.000
1727361847.283,20.020,-75.684,-1000.000,-53.711,0.000
1727361847.287,-66.406,-76.660,-1000.000,-85.938,0.000
1727361847.290,-108.887,-76.660,-1000.000,-118.164,0.000
1727361847.294,-43.945,-72.266,-1000.000,-76.660,0.000
1727361847.298,58.594,-60.547,-1000.000,-37.598,0.000
1727361847.302,56.152,-65.918,-1000.000,-8.789,0.000
1727361847.306,-54.199,-60.547,-1000.000,-21.973,0.000
1727361847.310,-127.930,-40.039,-1000.000,-94.238,0.000
1727361847.314,-57.129,-47.852,-1000.000,-81.055,0.000
1727361847.318,49.316,-43.457,-998.047,-26.855,0.000
1727361847.322,53.223,-26.367,-1000.000,-8.789,0.000
1727361847.326,-33.203,-27.832,-957.520,-35.645,0.000
1727361847.329,-111.328,-41.504,-884.766,-87.402,0.000
1727361847.333,-40.527,-52.734,-781.738,-48.340,0.000
1727361847.337,81.543,-40.527,-575.684,7.324,0.000
1727361847.341,79.102,-32.715,-361.328,-0.977,0.000
1727361847.345,-20.508,-30.762,-191.406,-20.020,0.000
1727361847.349,-101.562,-15.625,-53.711,-62.012,0.000
1727361847.353,-65.918,-9.766,72.754,-61.035,0.000
1727361847.357,28.809,-17.090,162.109,-9.766,0.000
1727361847.361,64.453,-16.602,212.402,8.301,0.000
1727361847.365,-23.926,-18.066,236.328,-20.996,0.000
1727361847.369,-125.000,-34.180,256.348,-66.895,0.000
1727361847.372,-92.285,-18.555,243.164,-54.199,0.000
1727361847.376,16.602,-9.766,233.398,-3.906,0.000
1727361847.380,60.059,-17.090,277.344,13.184,0.000
1727361847.384,-12.695,-5.371,318.848,-11.230,0.000
1727361847.388,-102.051,-2.930,340.820,-71.777,0.000
1727361847.392,-95.703,-8.789,375.488,-79.102,0.000
1727361847.396,2.441,-13.672,436.523,-22.949,0.000
1727361847.400,68.359,-18.555,470.215,-3.906,0.000
1727361847.404,-0.488,-25.879,451.660,-19.043,0.000
1727361847.408,-134.277,-40.039,488.770,-73.242,0.000
1727361847.411,-140.137,-60.059,582.520,-86.426,0.000
1727361847.415,-11.719,-52.734,647.949,-31.250,0.000
1727361847.419,57.617,-25.879,704.590,-14.648,0.000
1727361847.423,9.277,-37.109,699.219,-31.250,0.000
1727361847.427,-95.215,-39.551,682.617,-59.570,0.000
1727361847.431,-132.324,-15.137,684.570,-71.777,0.000
1727361847.435,-20.020,-6.836,654.785,-34.668,0.000
1727361847.439,85.449,-10.254,622.070,-15.137,0.000
1727361847.443,47.363,-27.344,594.727,-19.043,0.000
1727361847.447,-82.031,-25.879,579.590,-52.734,0.000
1727361847.451,-127.441,-25.879,579.102,-87.891,0.000
1727361847.454,-48.340,-51.758,552.246,-59.570,0.000
1727361847.458,40.527,-48.828,562.500,-15.625,0.000
1727361847.462,23.926,-26.367,810.547,-12.695,0.000
1727361847.466,-67.871,-13.672,984.375,-61.035,0.000
1727361847.470,-117.676,-22.461,956.543,-84.961,0.000
1727361847.474,-47.363,-36.133,965.820,-35.156,0.000
1727361847.478,64.453,-32.227,961.914,-2.441,0.000
1727361847.482,51.758,-23.438,906.250,6.348,0.000
1727361847.486,-67.383,-10.742,842.285,-24.414,0.000
1727361847.490,-130.859,-19.043,796.875,-80.566,0.000
1727361847.494,-61.035,-27.344,744.141,-51.270,0.000
1727361847.497,47.852,-15.625,702.148,-8.789,0.000
1727361847.501,59.570,-5.371,673.828,-5.859,0.000
1727361847.505,-45.410,-17.090,642.090,-18.555,0.000
1727361847.509,-127.441,-25.391,616.211,-62.012,0.000
1727361847.513,-84.473,-22.949,593.750,-42.480,0.000
1727361847.517,29.785,-31.738,577.637,8.789,0.000
1727361847.521,61.035,-44.922,574.707,-0.488,0.000
1727361847.525,-24.902,-44.922,561.035,-26.855,0.000
1727361847.529,-106.934,-33.691,539.551,-69.336,0.000
1727361847.533,-70.801,-39.062,507.812,-58.594,0.000
1727361847.537,30.762,-54.199,470.215,-18.066,0.000
1727361847.540,39.551,-48.340,467.285,-12.695,0.000
1727361847.544,-40.527,-29.785,469.238,-24.902,0.000
1727361847.548,-123.535,-22.461,473.145,-62.500,0.000
1727361847.552,-96.680,-40.039,483.887,-64.453,0.000
1727361847.556,-7.812,-53.711,472.656,-16.113,0.000
1727361847.560,22.461,-55.664,464.355,1.465,0.000
1727361847.564,-20.996,-41.992,470.215,-28.320,0.000
1727361847.568,-108.887,-22.949,456.055,-77.148,0.000
1727361847.572,-119.141,-31.250,447.754,-92.285,0.000
1727361847.576,-14.648,-47.363,447.754,-51.270,0.000
1727361847.579,61.035,-55.176,443.359,-18.066,0.000
1727361847.583,-6.348,-47.852,435.059,-36.133,0.000
1727361847.587,-120.117,-41.016,417.969,-73.730,0.000
1727361847.591,-141.113,-46.387,408.691,-84.473,0.000
1727361847.595,-53.223,-59.082,400.879,-47.363,0.000
1727361847.599,9.766,-49.316,410.645,-13.184,0.000
1727361847.603,-34.180,-31.250,414.551,-36.621,0.000
1727361847.607,-127.441,-38.086,407.715,-86.914,0.000
1727361847.611,-140.625,-50.293,419.922,-93.262,0.000
1727361847.615,-38.574,-57.617,431.641,-39.551,0.000
1727361847.619,34.180,-48.828,422.363,-16.602,0.000
1727361847.622,11.230,-29.785,414.062,-27.344,0.000
1727361847.626,-80.078,-19.043,398.926,-60.547,0.000
1727361847.630,-137.695,-21.973,408.203,-77.148,0.000
1727361847.634,-61.523,-26.367,407.227,-40.039,0.000
1727361847.638,22.949,-16.113,365.234,-13.184,0.000
1727361847.642,-6.348,-23.438,349.121,-22.949,0.000
1727361847.646,-86.914,-23.926,344.727,-67.871,0.000
1727361847.650,-116.211,-18.066,341.309,-104.492,0.000
1727361847.654,-56.641,-39.551,319.824,-63.965,0.000
1727361847.658,37.109,-57.129,292.969,-6.836,0.000
1727361847.662,26.855,-49.805,278.809,-11.719,0.000
1727361847.665,-90.820,-56.152,262.207,-57.617,0.000
1727361847.669,-157.715,-40.039,257.324,-87.891,0.000
1727361847.673,-72.266,-22.461,251.953,-53.223,0.000
1727361847.677,42.480,-35.156,231.934,-19.531,0.000
1727361847.681,48.828,-33.203,220.215,-9.766,0.000
1727361847.685,-57.129,-33.691,210.938,-34.180,0.000
1727361847.689,-144.043,-35.645,211.426,-101.074,0.000
1727361847.693,-102.539,-56.152,231.445,-89.355,0.000
1727361847.697,0.488,-83.496,228.516,-30.273,0.000
1727361847.701,7.324,-83.496,211.426,-27.832,0.000
1727361847.704,-83.984,-63.965,208.008,-39.062,0.000
1727361847.708,-152.344,-42.969,208.984,-80.078,0.000
1727361847.712,-105.957,-27.832,217.773,-70.312,0.000
1727361847.716,-8.789,-32.715,212.891,-24.902,0.000
1727361847.720,5.371,-59.570,193.848,-28.809,0.000
1727361847.724,-69.824,-60.547,182.617,-40.527,0.000
1727361847.728,-169.434,-50.781,165.039,-90.332,0.000
1727361847.732,-146.973,-60.059,145.020,-91.309,0.000
1727361847.736,-36.133,-74.707,136.719,-58.594,0.000
1727361847.740,17.578,-52.734,126.953,-48.340,0.000
1727361847.743,-41.992,-17.578,123.047,-45.410,0.000
1727361847.747,-152.832,-20.020,140.625,-65.430,0.000
1727361847.751,-150.879,-29.297,139.648,-89.844,0.000
1727361847.755,-46.387,-26.855,126.465,-78.125,0.000
1727361847.759,14.160,-29.785,135.742,-53.711,0.000
1727361847.763,-38.574,-45.410,132.324,-70.801,0.000
1727361847.767,-138.672,-40.039,139.648,-105.469,0.000
1727361847.771,-154.297,-39.551,138.184,-110.352,0.000
1727361847.775,-45.410,-48.340,121.094,-61.523,0.000
1727361847.779,32.227,-29.785,117.188,-37.109,0.000
1727361847.783,-2.930,-10.742,115.723,-43.945,0.000
1727361847.786,-118.652,-10.254,129.395,-72.266,0.000
1727361847.790,-153.320,-23.438,143.066,-91.309,0.000
1727361847.794,-43.945,-18.555,144.531,-43.945,0.000
1727361847.798,45.898,-15.137,140.625,-12.207,0.000
1727361847.802,20.508,-35.156,133.789,-25.391,0.000
1727361847.806,-94.727,-31.738,137.207,-77.637,0.000
1727361847.810,-148.438,-18.555,141.113,-101.074,0.000
1727361847.814,-51.270,-31.738,132.324,-65.430,0.000
1727361847.818,42.969,-46.875,125.488,-35.156,0.000
1727361847.822,4.883,-43.945,122.559,-22.949,0.000
1727361847.826,-109.375,-38.574,117.676,-47.363,0.000
1727361847.829,-149.414,-40.527,105.957,-88.379,0.000
1727361847.833,-64.941,-45.410,101.074,-51.758,0.000
1727361847.837,19.531,-34.668,95.703,-21.484,0.000
1727361847.841,1.953,-33.203,95.215,-43.457,0.000
1727361847.845,-107.422,-45.410,99.609,-83.008,0.000
1727361847.849,-171.875,-51.758,98.145,-123.047,0.000
1727361847.853,-105.957,-43.457,103.027,-80.566,0.000
1727361847.857,11.230,-37.598,106.934,-27.832,0.000
1727361847.861,17.578,-72.266,77.148,-38.086,0.000
1727361847.865,-67.383,-102.539,55.664,-76.172,0.000
1727361847.869,-150.879,-82.031,51.758,-117.676,0.000
1727361847.872,-112.793,-48.340,41.504,-88.867,0.000
1727361847.876,3.906,-33.203,38.574,-41.016,0.000
1727361847.880,11.230,-32.715,50.781,-36.621,0.000
1727361847.884,-80.566,-36.133,58.105,-52.734,0.000
1727361847.888,-163.086,-39.062,52.734,-94.727,0.000
1727361847.892,-108.887,-35.645,55.176,-88.867,0.000
1727361847.896,18.066,-48.828,53.223,-36.621,0.000
1727361847.900,36.133,-53.711,47.852,-14.160,0.000
1727361847.904,-40.039,-35.645,54.688,-28.809,0.000
1727361847.908,-143.066,-33.691,49.316,-77.148,0.000
1727361847.912,-146.973,-42.969,36.133,-76.660,0.000
1727361847.915,-35.156,-36.133,24.414,-43.457,0.000
1727361847.919,23.926,-32.227,21.973,-35.645,0.000
1727361847.923,-32.715,-34.668,27.832,-52.246,0.000
1727361847.927,-136.719,-41.016,31.250,-93.262,0.000
1727361847.931,-127.441,-57.129,33.203,-74.707,0.000
1727361847.935,-20.508,-54.688,25.391,-36.133,0.000
1727361847.939,28.809,-41.992,16.113,-39.062,0.000
1727361847.943,-20.020,-36.621,12.207,-52.734,0.000
1727361847.947,-106.934,-33.203,24.414,-90.820,0.000
1727361847.951,-136.719,-26.367,41.016,-97.168,0.000
1727361847.954,-56.641,-31.738,37.109,-58.594,0.000
1727361847.958,18.066,-52.246,31.738,-46.387,0.000
1727361847.962,-26.367,-52.246,34.668,-56.641,0.000
1727361847.966,-141.113,-49.805,32.227,-100.586,0.000
1727361847.970,-166.992,-60.547,32.227,-115.723,0.000
1727361847.974,-61.523,-50.781,24.902,-56.641,0.000
1727361847.978,16.602,-39.062,21.973,-31.738,0.000
1727361847.982,-17.090,-41.992,27.344,-52.734,0.000
1727361847.986,-97.656,-52.246,32.715,-78.125,0.000
1727361847.990,-150.391,-60.547,33.691,-96.191,0.000
1727361847.994,-94.727,-48.828,20.020,-69.824,0.000
1727361847.997,16.113,-54.688,18.066,-47.363,0.000
1727361848.001,5.859,-63.477,24.902,-49.805,0.000
1727361848.005,-99.121,-51.270,24.902,-75.195,0.000
1727361848.009,-168.945,-53.711,18.066,-112.793,0.000
1727361848.013,-97.168,-40.527,-2.441,-83.496,0.000
1727361848.017,7.812,-22.461,-11.230,-38.574,0.000
1727361848.021,-6.836,-42.969,-12.695,-35.156,0.000
1727361848.025,-89.844,-36.133,-12.207,-68.359,0.000
1727361848.029,-157.227,-29.785,-12.207,-105.957,0.000
1727361848.033,-114.258,-50.293,-11.230,-78.125,0.000
1727361848.036,-7.812,-46.387,-1.953,-31.250,0.000
1727361848.040,8.789,-47.852,-1.953,-21.973,0.000
1727361848.044,-89.844,-57.617,-4.395,-54.688,0.000
1727361848.048,-175.781,-41.504,-4.883,-104.980,0.000
1727361848.052,-114.258,-22.949,-4.395,-87.891,0.000
1727361848.056,9.766,-26.855,-0.977,-45.410,0.000
1727361848.060,34.668,-31.738,9.277,-31.738,0.000
1727361848.064,-62.988,-16.113,16.602,-40.527,0.000
1727361848.068,-154.297,-13.672,19.531,-80.078,0.000
1727361848.072,-96.191,-20.508,17.578,-72.266,0.000
1727361848.076,23.438,-26.855,17.578,-39.551,0.000
1727361848.079,48.828,-19.531,22.461,-26.367,0.000
1727361848.083,-39.551,-22.949,20.508,-51.758,0.000
1727361848.087,-148.926,-32.227,18.555,-92.773,0.000
1727361848.091,-122.070,-30.273,21.484,-83.984,0.000
1727361848.095,0.977,-29.297,29.297,-49.805,0.000
1727361848.099,38.574,-10.254,35.645,-24.902,0.000
1727361848.103,-40.039,-13.672,32.227,-29.785,0.000
1727361848.107,-125.977,-34.180,29.785,-89.844,0.000
1727361848.111,-117.676,-40.039,26.855,-105.957,0.000
1727361848.115,-20.996,-42.480,29.297,-36.621,0.000
1727361848.118,32.227,-44.434,35.156,-22.461,0.000
1727361848.122,-30.273,-44.434,31.738,-47.852,0.000
1727361848.126,-145.508,-29.785,39.551,-87.402,0.000
1727361848.130,-167.480,-30.273,42.480,-100.586,0.000
1727361848.134,-57.129,-36.133,33.203,-59.082,0.000
1727361848.138,35.645,-23.926,31.738,-38.086,0.000
1727361848.142,-11.230,-20.020,35.645,-46.387,0.000
1727361848.146,-122.070,-40.039,38.574,-88.867,0.000
1727361848.150,-131.348,-51.758,37.598,-102.051,0.000
1727361848.154,-35.156,-30.273,28.809,-48.828,0.000
1727361848.158,40.527,-20.020,26.855,-24.414,0.000
1727361848.161,14.160,-21.973,34.180,-34.180,0.000
1727361848.165,-83.984,-14.648,35.645,-70.312,0.000
1727361848.169,-130.859,-23.438,28.320,-91.797,0.000
1727361848.173,-56.641,-33.203,15.625,-46.875,0.000
1727361848.177,28.320,-43.457,10.742,-19.043,0.000
1727361848.181,11.230,-30.762,20.508,-22.461,0.000
1727361848.185,-93.750,-24.414,28.320,-63.965,0.000
1727361848.189,-142.578,-33.203,20.020,-115.234,0.000
1727361848.193,-60.547,-27.832,12.695,-73.730,0.000
1727361848.197,19.043,-43.945,15.137,-30.762,0.000
1727361848.201,-2.930,-60.547,16.602,-34.668,0.000
1727361848.204,-99.609,-37.598,21.973,-60.547,0.000
1727361848.208,-146.973,-16.113,25.391,-97.656,0.000
1727361848.212,-81.543,-17.578,17.090,-68.848,0.000
1727361848.216,10.742,-32.227,16.113,-21.973,0.000
1727361848.220,22.461,-26.367,19.043,-21.484,0.000
1727361848.224,-55.664,-1.465,13.672,-51.270,0.000
1727361848.228,-133.301,-1.465,8.789,-94.727,0.000
1727361848.232,-106.934,-38.574,-0.977,-74.707,0.000
1727361848.236,-7.324,-71.289,4.883,-29.297,0.000
1727361848.240,34.180,-42.480,21.484,-24.902,0.000
1727361848.244,-43.945,-16.602,16.602,-39.062,0.000
1727361848.247,-129.395,-19.043,16.602,-64.941,0.000
1727361848.251,-101.074,-13.184,26.855,-57.617,0.000
1727361848.255,-6.348,-8.789,14.160,-26.367,0.000
1727361848.259,20.996,-17.090,7.812,-24.414,0.000
1727361848.263,-48.828,-34.668,12.695,-43.457,0.000
1727361848.267,-137.207,-30.762,12.207,-78.613,0.000
1727361848.271,-126.465,-21.484,8.301,-77.148,0.000
1727361848.275,-3.906,-24.414,7.812,-30.273,0.000
1727361848.279,38.086,-19.043,3.906,-19.531,0.000
1727361848.283,-41.992,-23.926,0.000,-23.926,0.000
1727361848.287,-142.578,-34.180,6.348,-65.430,0.000
1727361848.290,-125.000,-37.598,11.230,-96.680,0.000
1727361848.294,1.953,-34.668,4.883,-51.758,0.000
1727361848.298,55.176,-21.973,6.836,-20.996,0.000
1727361848.302,-4.395,-18.555,14.648,-31.738,0.000
1727361848.306,-104.492,-23.438,7.324,-70.801,0.000
1727361848.310,-129.395,-22.949,0.000,-92.285,0.000
1727361848.314,-35.156,-17.090,0.977,-38.086,0.000
1727361848.318,32.715,-20.020,6.348,-15.137,0.000
1727361848.322,-10.254,-20.020,5.371,-42.969,0.000
1727361848.326,-111.328,-41.504,-0.488,-70.801,0.000
1727361848.329,-147.949,-59.570,5.859,-79.590,0.000
1727361848.333,-58.594,-41.504,23.438,-42.480,0.000
1727361848.337,45.898,-20.508,45.898,-20.020,0.000
1727361848.341,31.250,-17.578,50.293,-30.762,0.000
1727361848.345,-92.773,-24.414,48.828,-55.664,0.000
1727361848.349,-128.418,-30.762,49.805,-68.359,0.000
1727361848.353,-34.668,-45.898,54.688,-42.480,0.000
1727361848.357,44.922,-42.480,52.246,-13.672,0.000
1727361848.361,10.254,-40.039,40.039,-0.488,0.000
1727361848.365,-97.168,-50.293,34.668,-50.781,0.000
1727361848.369,-135.254,-31.250,40.039,-114.258,0.000
1727361848.372,-69.824,-11.719,33.203,-68.848,0.000
1727361848.376,25.391,-11.719,17.578,-17.578,0.000
1727361848.380,16.602,-28.809,4.395,-30.762,0.000
1727361848.384,-82.031,-37.598,6.348,-61.523,0.000
1727361848.388,-135.742,-41.504,15.625,-96.191,0.000
1727361848.392,-72.754,-55.664,17.578,-55.664,0.000
1727361848.396,17.090,-45.410,22.949,-9.277,0.000
1727361848.400,-2.441,-28.809,20.020,-21.973,0.000
1727361848.404,-92.773,-29.297,12.695,-57.129,0.000
1727361848.408,-163.574,-23.926,4.395,-95.215,0.000
1727361848.411,-92.773,-20.508,-5.371,-74.219,0.000
1727361848.415,26.367,-17.578,-10.742,-36.133,0.000
1727361848.419,41.504,-13.672,-13.184,-19.531,0.000
1727361848.423,-41.016,-13.672,-15.625,-35.156,0.000
1727361848.427,-135.254,-20.508,-20.508,-90.820,0.000
1727361848.431,-92.773,-41.992,-17.090,-83.984,0.000
1727361848.435,7.324,-49.805,-16.113,-42.969,0.000
1727361848.439,24.414,-39.062,-25.391,-33.203,0.000
1727361848.443,-44.434,-31.250,-19.531,-37.598,0.000
1727361848.447,-129.883,-21.973,-9.766,-76.660,0.000
1727361848.451,-109.375,-14.648,-15.137,-77.148,0.000
1727361848.454,-2.930,-24.902,-20.020,-35.156,0.000
1727361848.458,49.316,-55.664,-17.578,-26.367,0.000
1727361848.462,-1.465,-49.805,-13.184,-35.645,0.000
1727361848.466,-100.586,-26.855,-19.531,-70.801,0.000
1727361848.470,-113.281,-30.273,-24.902,-73.730,0.000
1727361848.474,-28.809,-42.480,-29.785,-28.320,0.000
1727361848.478,34.180,-32.227,-32.715,-17.578,0.000
1727361848.482,-14.648,-22.461,-29.297,-31.738,0.000
1727361848.486,-117.188,-35.156,-20.508,-69.824,0.000
1727361848.490,-112.305,-36.621,-18.066,-87.891,0.000
1727361848.493,-16.602,-29.297,-20.508,-54.199,0.000
1727361848.497,36.133,-25.391,-16.113,-24.902,0.000
1727361848.501,-13.184,-32.715,-15.625,-28.320,0.000
1727361848.505,-113.281,-40.039,-12.207,-75.195,0.000
1727361848.509,-135.254,-44.922,-15.137,-99.121,0.000
1727361848.513,-35.156,-44.434,-16.113,-53.223,0.000
1727361848.517,58.594,-51.270,-12.695,-16.113,0.000
1727361848.521,29.297,-55.664,-12.207,-21.484,0.000
1727361848.525,-89.844,-44.434,-1.953,-40.527,0.000
1727361848.529,-140.625,-49.316,1.465,-43.945,0.000
1727361848.533,-49.316,-47.852,-14.648,-31.738,0.000
1727361848.536,53.223,-29.297,-21.484,-25.391,0.000
1727361848.540,36.621,-26.855,4.395,-15.137,0.000
1727361848.544,-84.473,-33.691,15.137,-53.711,0.000
1727361848.548,-155.762,-38.574,7.812,-107.910,0.000
1727361848.552,-84.473,-34.668,10.742,-69.824,0.000
1727361848.556,37.598,-11.719,13.184,-14.160,0.000
1727361848.560,39.062,-7.324,13.672,-0.488,0.000
1727361848.564,-80.566,-16.602,1.953,-41.992,0.000
1727361848.568,-148.438,-23.438,-8.789,-80.078,0.000
1727361848.572,-87.891,-29.297,-8.301,-49.805,0.000
1727361848.576,18.066,-31.250,-14.648,-25.391,0.000
1727361848.579,25.879,-38.574,-19.043,-23.438,0.000
1727361848.583,-62.988,-39.551,-10.254,-41.992,0.000
1727361848.587,-121.094,-33.691,-19.531,-81.055,0.000
1727361848.591,-80.566,-22.949,-25.391,-60.059,0.000
1727361848.595,14.160,-17.578,-21.484,-10.742,0.000
1727361848.599,38.086,-13.184,-21.973,7.324,0.000
1727361848.603,-50.293,-10.742,-28.809,-28.320,0.000
1727361848.607,-147.949,-25.879,-35.645,-100.098,0.000
1727361848.611,-113.281,-41.016,-38.086,-95.215,0.000
1727361848.615,18.555,-37.109,-33.691,-39.062,0.000
1727361848.619,60.059,-28.809,-28.320,-17.578,0.000
1727361848.622,-32.715,-42.969,-38.086,-38.574,0.000
1727361848.626,-122.559,-42.969,-35.645,-81.543,0.000
1727361848.630,-111.328,-23.438,-32.227,-78.613,0.000
1727361848.634,0.977,-6.836,-39.062,-42.480,0.000
1727361848.638,41.992,-9.277,-39.551,-33.691,0.000
1727361848.642,-36.133,-14.648,-31.738,-41.504,0.000
1727361848.646,-125.000,-18.555,-22.949,-65.430,0.000
1727361848.650,-118.652,-30.762,-26.367,-79.590,0.000
1727361848.654,-20.020,-29.785,-28.809,-46.387,0.000
1727361848.658,66.406,-49.805,-13.184,-3.906,0.000
1727361848.662,14.160,-68.848,-3.418,-15.625,0.000
1727361848.665,-127.441,-45.410,0.977,-65.918,0.000
1727361848.669,-139.648,-5.859,3.906,-78.125,0.000
1727361848.673,-20.020,8.789,5.371,-26.855,0.000
1727361848.677,48.340,-12.695,1.465,-5.859,0.000
1727361848.681,-8.301,-24.902,-2.930,-19.043,0.000
1727361848.685,-118.652,-28.320,0.488,-57.617,0.000
1727361848.689,-136.230,-28.809,6.348,-77.148,0.000
1727361848.693,-29.297,-38.086,-0.977,-35.156,0.000
1727361848.697,44.434,-45.898,-10.254,-9.766,0.000
1727361848.701,15.137,-30.762,-7.812,-11.719,0.000
1727361848.704,-94.727,-36.621,-4.883,-56.641,0.000
1727361848.708,-151.855,-41.504,-9.766,-101.074,0.000
1727361848.712,-69.824,-17.090,-13.672,-65.918,0.000
1727361848.716,29.785,-0.977,-17.578,-26.855,0.000
1727361848.720,31.250,-7.324,-24.902,-21.973,0.000
1727361848.724,-72.266,-14.648,-27.344,-53.711,0.000
1727361848.728,-133.301,-10.254,-22.461,-86.426,0.000
1727361848.732,-48.340,-27.832,-17.090,-56.152,0.000
1727361848.736,51.270,-37.109,-24.902,-21.973,0.000
1727361848.740,26.855,-27.344,-21.484,-17.090,0.000
1727361848.744,-70.801,-21.973,-19.043,-47.363,0.000
1727361848.747,-143.066,-28.809,-27.344,-77.637,0.000
1727361848.751,-82.031,-33.691,-17.578,-50.781,0.000
1727361848.755,30.273,-35.645,-4.883,-24.902,0.000
1727361848.759,44.922,-29.297,-0.488,-20.020,0.000
1727361848.763,-36.621,-12.695,10.254,-14.160,0.000
1727361848.767,-119.629,-29.297,12.695,-45.410,0.000
1727361848.771,-76.172,-50.293,8.301,-49.316,0.000
1727361848.775,23.926,-39.062,0.488,-19.531,0.000
1727361848.779,41.016,-25.879,-5.371,-12.695,0.000
1727361848.783,-48.828,-25.391,-13.184,-22.949,0.000
1727361848.786,-123.535,-20.996,-28.809,-65.918,0.000
1727361848.790,-85.449,-35.645,-23.438,-65.918,0.000
1727361848.794,0.000,-42.480,-11.719,-20.508,0.000
1727361848.798,42.480,-33.203,-27.832,-15.625,0.000
1727361848.802,-9.277,-27.344,-38.574,-22.461,0.000
1727361848.806,-120.117,-24.414,-27.832,-57.617,0.000
1727361848.810,-113.281,-24.902,-15.137,-63.477,0.000
1727361848.814,11.230,-20.996,-13.184,-2.930,0.000
1727361848.818,57.617,-16.602,-21.484,15.625,0.000
1727361848.822,-34.180,-22.949,-30.762,-31.250,0.000
1727361848.826,-136.230,-30.273,-33.203,-80.078,0.000
1727361848.829,-130.859,-21.973,-41.016,-75.195,0.000
1727361848.833,-16.602,-37.598,-46.875,-39.551,0.000
1727361848.837,56.152,-51.758,-50.293,-26.367,0.000
1727361848.841,-8.789,-41.992,-46.875,-27.832,0.000
1727361848.845,-109.863,-27.344,-33.691,-55.176,0.000
1727361848.849,-106.934,-26.855,-29.297,-55.664,0.000
1727361848.853,-16.602,-30.762,-23.926,-16.113,0.000
1727361848.857,50.293,-24.414,-26.367,-2.930,0.000
1727361848.861,18.555,-20.020,-21.973,0.977,0.000
1727361848.865,-101.562,-23.926,-13.184,-49.316,0.000
1727361848.868,-139.648,-36.133,-13.672,-89.355,0.000
1727361848.872,-31.738,-49.316,-20.996,-39.551,0.000
1727361848.876,55.664,-49.805,-26.367,-5.371,0.000
1727361848.880,15.625,-32.715,-20.996,-7.324,0.000
1727361848.884,-91.309,-15.625,-15.137,-62.012,0.000
1727361848.888,-138.672,-18.555,-25.391,-102.051,0.000
1727361848.892,-50.293,-20.996,-39.062,-57.617,0.000
1727361848.896,71.289,-15.137,-35.645,-23.438,0.000
1727361848.900,53.223,-13.184,-28.809,-13.184,0.000
1727361848.904,-78.613,-25.391,-23.926,-51.758,0.000
1727361848.908,-141.602,-36.621,-23.926,-96.680,0.000
1727361848.911,-61.523,-45.898,-20.508,-52.246,0.000
1727361848.915,54.688,-33.203,-19.043,-6.348,0.000
1727361848.919,49.805,-16.602,-26.367,-2.930,0.000
1727361848.923,-70.312,-14.648,-25.391,-29.297,0.000
1727361848.927,-153.809,-18.555,-24.414,-80.566,0.000
1727361848.931,-91.309,-17.578,-24.414,-72.266,0.000
1727361848.935,44.922,-31.250,-17.090,-24.902,0.000
1727361848.939,41.016,-46.387,-7.812,-4.883,0.000
1727361848.943,-86.426,-48.828,-11.719,-34.180,0.000
1727361848.947,-135.742,-39.551,-2.930,-87.891,0.000
1727361848.951,-79.102,-18.555,0.977,-69.824,0.000
1727361848.954,18.066,-15.625,0.488,-17.090,0.000
1727361848.958,52.734,-14.160,9.766,-6.348,0.000
1727361848.962,-37.109,-2.441,5.859,-27.344,0.000
1727361848.966,-125.488,-5.371,9.277,-72.266,0.000
1727361848.970,-81.055,-32.227,23.926,-62.988,0.000
1727361848.974,37.109,-30.762,34.180,-15.137,0.000
1727361848.978,74.219,-21.484,41.504,1.953,0.000
1727361848.982,-12.207,-26.855,40.527,-13.184,0.000
1727361848.986,-119.629,-18.555,38.086,-62.500,0.000
1727361848.990,-95.215,-40.039,34.668,-61.523,0.000
1727361848.994,23.438,-58.105,29.297,-7.812,0.000
1727361848.997,59.082,-28.320,25.879,7.324,0.000
1727361849.001,-20.020,-21.973,27.832,-16.602,0.000
1727361849.005,-121.582,-33.203,29.785,-81.055,0.000
1727361849.009,-116.211,-32.715,17.578,-98.145,0.000
1727361849.013,-3.906,-28.809,13.184,-44.434,0.000
1727361849.017,60.547,-19.043,13.184,-16.602,0.000
1727361849.021,-2.930,-21.484,13.184,-13.672,0.000
1727361849.025,-115.723,-35.645,18.066,-57.617,0.000
1727361849.029,-131.836,-42.969,15.625,-77.148,0.000
1727361849.033,-38.086,-40.039,8.789,-33.203,0.000
1727361849.036,34.668,-41.504,3.418,-4.395,0.000
1727361849.040,4.395,-29.785,0.488,-2.441,0.000
1727361849.044,-103.516,-15.625,-2.930,-57.617,0.000
1727361849.048,-125.977,-20.020,-5.859,-84.473,0.000
1727361849.052,-35.645,-24.414,-12.207,-49.316,0.000
1727361849.056,26.855,-37.109,-20.020,-24.902,0.000
1727361849.060,6.348,-42.480,-7.324,-17.090,0.000
1727361849.064,-96.191,-28.809,9.766,-41.504,0.000
1727361849.068,-146.973,-22.461,6.348,-61.035,0.000
1727361849.072,-61.035,-38.574,5.371,-37.109,0.000
1727361849.076,41.016,-36.621,11.719,-13.184,0.000
1727361849.079,31.250,-19.531,12.695,-12.695,0.000
1727361849.083,-78.125,-31.738,2.930,-60.059,0.000
1727361849.087,-141.113,-41.504,-1.953,-105.469,0.000
1727361849.091,-73.242,-32.715,0.000,-66.406,0.000
1727361849.095,22.949,-37.598,15.625,-20.020,0.000
1727361849.099,35.645,-46.387,32.227,-19.531,0.000
1727361849.103,-60.547,-40.527,29.785,-53.223,0.000
1727361849.107,-138.672,-33.203,30.762,-97.656,0.000
1727361849.111,-57.617,-32.715,32.715,-50.781,0.000
1727361849.115,48.828,-27.832,31.250,19.531,0.000
1727361849.119,50.781,-24.414,39.062,10.254,0.000
1727361849.122,-38.086,-27.344,43.457,-38.574,0.000
1727361849.126,-136.230,-27.344,31.250,-76.660,0.000
1727361849.130,-89.844,-15.137,23.438,-46.387,0.000
1727361849.134,25.879,-14.160,19.531,-3.906,0.000
1727361849.138,48.828,-17.578,19.043,3.906,0.000
1727361849.142,-26.367,-24.902,28.809,-20.508,0.000
1727361849.146,-120.117,-44.434,23.926,-67.871,0.000
1727361849.150,-78.125,-48.828,17.090,-54.688,0.000
1727361849.154,51.758,-28.809,23.926,-16.602,0.000
1727361849.158,71.777,-21.484,30.762,-4.883,0.000
1727361849.161,-35.156,-24.902,16.602,-29.785,0.000
1727361849.165,-118.652,-33.691,6.836,-80.566,0.000
1727361849.169,-105.957,-49.316,9.766,-69.336,0.000
1727361849.173,0.488,-50.293,14.160,-13.184,0.000
1727361849.177,74.707,-31.250,17.090,-2.441,0.000
1727361849.181,-0.488,-23.926,20.020,-8.789,0.000
1727361849.185,-123.535,-28.809,21.484,-61.035,0.000
1727361849.189,-125.488,-42.969,5.859,-86.914,0.000
1727361849.193,-13.184,-44.434,-7.324,-35.645,0.000
1727361849.197,50.781,-19.043,2.930,-4.883,0.000
1727361849.201,3.906,-5.859,14.160,-4.395,0.000
1727361849.204,-103.027,-12.207,6.836,-50.781,0.000
1727361849.208,-118.164,-15.625,0.000,-70.312,0.000
1727361849.212,1.953,-12.695,3.906,-8.789,0.000
1727361849.216,83.008,-22.949,0.977,8.789,0.000
1727361849.220,27.832,-23.438,1.465,-7.324,0.000
1727361849.224,-88.867,-30.273,4.395,-40.039,0.000
1727361849.228,-111.328,-38.574,7.812,-69.336,0.000
1727361849.232,-11.230,-24.902,-0.977,-34.668,0.000
1727361849.236,46.875,-34.668,-9.277,-13.184,0.000
1727361849.240,10.254,-39.551,-8.301,-11.230,0.000
1727361849.243,-88.867,-8.301,-2.930,-51.270,0.000
1727361849.247,-143.066,-2.930,3.906,-90.820,0.000
1727361849.251,-61.035,-22.949,-8.301,-33.203,0.000
1727361849.255,57.617,-13.184,-10.742,1.465,0.000
1727361849.259,36.621,-6.836,-3.418,-10.742,0.000
1727361849.263,-96.680,-20.508,-8.789,-44.434,0.000
1727361849.267,-155.762,-29.785,-7.324,-81.543,0.000
1727361849.271,-61.523,-21.973,-10.742,-49.316,0.000
1727361849.275,49.805,-18.066,-25.391,-20.508,0.000
1727361849.279,53.223,-20.508,-12.695,-16.113,0.000
1727361849.283,-47.852,-20.020,3.906,-39.551,0.000
1727361849.286,-133.789,-8.301,0.977,-84.961,0.000
1727361849.290,-71.777,4.395,5.371,-49.316,0.000
1727361849.294,24.902,-5.371,7.324,-3.418,0.000
1727361849.298,39.062,-8.789,7.812,0.488,0.000
1727361849.302,-37.598,-17.090,12.695,-10.742,0.000
1727361849.306,-126.953,-18.066,5.371,-58.105,0.000
1727361849.310,-79.590,-15.137,0.977,-53.711,0.000
1727361849.314,23.926,-22.949,3.906,-3.906,0.000
1727361849.318,43.457,-25.879,6.348,1.465,0.000
1727361849.322,-27.344,-28.320,18.066,-12.695,0.000
1727361849.326,-120.605,-32.715,20.996,-34.180,0.000
1727361849.329,-97.656,-28.809,3.418,-35.156,0.000
1727361849.333,39.062,-25.879,-7.324,-25.879,0.000
1727361849.337,79.102,-21.973,-13.184,-19.531,0.000
1727361849.341,-34.668,-22.461,-10.742,-18.066,0.000
1727361849.345,-141.602,-34.180,-7.812,-61.523,0.000
1727361849.349,-120.605,-40.039,-19.531,-67.383,0.000
1727361849.353,2.441,-20.020,-20.996,-20.996,0.000
1727361849.357,54.688,-3.906,-15.625,-1.465,0.000
1727361849.361,-30.273,-11.719,-11.230,-10.742,0.000
1727361849.365,-127.441,-12.207,-1.953,-46.875,0.000
1727361849.369,-109.375,-5.859,-0.977,-48.828,0.000
1727361849.372,15.137,-14.648,-11.719,-19.531,0.000
1727361849.376,79.590,-24.414,-18.555,-6.348,0.000
1727361849.380,2.441,-20.508,-20.996,-7.324,0.000
1727361849.384,-99.121,-8.789,-6.836,-46.387,0.000
1727361849.388,-109.863,-6.836,6.348,-64.453,0.000
1727361849.392,-12.207,-17.578,4.395,-23.926,0.000
1727361849.396,64.941,-20.508,9.277,13.672,0.000
1727361849.400,33.203,-18.555,13.672,14.160,0.000
1727361849.404,-53.223,-12.207,17.578,-40.039,0.000
1727361849.408,-99.609,-13.672,12.207,-67.383,0.000
1727361849.411,-16.602,-30.273,7.812,-13.672,0.000
1727361849.415,90.820,-27.832,13.184,19.531,0.000
1727361849.419,51.270,-18.555,10.254,9.766,0.000
1727361849.423,-69.336,-10.254,6.348,-27.832,0.000
1727361849.427,-117.676,-3.906,5.371,-66.895,0.000
1727361849.431,-25.391,-11.719,0.488,-21.973,0.000
1727361849.435,57.617,-16.113,-3.906,15.625,0.000
1727361849.439,31.250,-13.184,-3.906,-3.906,0.000
1727361849.443,-65.430,-22.461,1.465,-50.293,0.000
1727361849.447,-132.812,-40.039,2.930,-91.797,0.000
1727361849.451,-55.664,-41.504,4.883,-53.711,0.000
1727361849.454,47.363,-21.484,1.953,-0.977,0.000
1727361849.458,36.133,-14.648,-2.930,5.859,0.000
1727361849.462,-49.805,-7.812,2.441,-20.996,0.000
1727361849.466,-124.512,1.953,6.348,-70.801,0.000
1727361849.470,-76.660,-6.836,5.371,-50.293,0.000
1727361849.474,36.133,-15.137,2.930,-16.113,0.000
1727361849.478,54.199,-20.996,1.465,-22.461,0.000
1727361849.482,-50.293,-33.691,-1.465,-47.852,0.000
1727361849.486,-131.836,-25.391,3.906,-76.660,0.000
1727361849.490,-90.820,-20.508,7.324,-50.781,0.000
1727361849.494,14.648,-31.738,16.602,-7.324,0.000
1727361849.497,45.898,-27.832,23.438,9.277,0.000
1727361849.501,-44.922,-38.086,5.859,-25.391,0.000
1727361849.505,-133.301,-40.527,-2.930,-81.543,0.000
1727361849.509,-97.168,-24.902,1.953,-69.824,0.000
1727361849.513,26.855,-21.484,3.418,-18.066,0.000
1727361849.517,57.617,-24.414,3.906,-2.930,0.000
1727361849.521,-27.832,-42.480,0.977,-23.926,0.000
1727361849.525,-131.836,-37.598,3.418,-77.637,0.000
1727361849.529,-127.441,-31.738,-4.883,-84.961,0.000
1727361849.533,-4.883,-34.668,-15.137,-28.320,0.000
1727361849.536,60.059,-9.277,-17.090,-8.789,0.000
1727361849.540,-12.695,-8.789,-13.184,-28.809,0.000
1727361849.544,-118.164,-24.902,-8.789,-72.266,0.000
1727361849.548,-113.281,-24.902,-9.277,-78.125,0.000
1727361849.552,-13.184,-36.133,-7.324,-22.461,0.000
1727361849.556,46.387,-43.457,-6.348,-3.906,0.000
1727361849.560,-1.953,-49.316,-16.602,-19.531,0.000
1727361849.564,-103.027,-63.965,-26.367,-66.406,0.000
1727361849.568,-108.887,-40.527,-22.949,-80.566,0.000
1727361849.572,-9.277,-23.926,-20.020,-38.574,0.000
1727361849.576,41.016,-34.180,-17.090,-11.230,0.000
1727361849.579,-7.812,-28.809,-18.555,-10.254,0.000
1727361849.583,-105.957,-25.391,-16.113,-52.246,0.000
1727361849.587,-137.207,-38.086,-18.066,-79.590,0.000
1727361849.591,-49.805,-42.480,-34.668,-49.805,0.000
1727361849.595,29.785,-49.805,-36.133,-23.926,0.000
1727361849.599,15.625,-56.641,-38.574,-22.461,0.000
1727361849.603,-69.336,-30.762,-41.992,-46.875,0.000
1727361849.607,-135.742,-23.926,-34.668,-73.242,0.000
1727361849.611,-71.289,-41.016,-33.691,-44.922,0.000
1727361849.615,33.691,-44.922,-20.996,-14.160,0.000
1727361849.618,22.949,-40.039,-17.578,-13.672,0.000
1727361849.622,-87.402,-40.039,-30.762,-39.551,0.000
1727361849.626,-146.973,-35.156,-27.832,-83.984,0.000
1727361849.630,-60.059,-30.273,-19.531,-55.664,0.000
1727361849.634,47.852,-49.316,-30.762,-2.441,0.000
1727361849.638,38.574,-48.828,-33.691,-5.371,0.000
1727361849.642,-73.242,-20.996,-18.066,-41.504,0.000
1727361849.646,-141.602,-23.926,-16.113,-82.031,0.000
1727361849.650,-80.078,-42.480,-16.113,-64.453,0.000
1727361849.654,30.762,-37.598,-17.578,-15.137,0.000
1727361849.658,45.410,-18.555,-23.438,-4.883,0.000
1727361849.661,-48.828,-17.090,-22.461,-19.043,0.000
1727361849.665,-117.676,-20.020,-15.137,-46.875,0.000
1727361849.669,-72.754,-16.113,-8.789,-43.457,0.000
1727361849.673,50.781,-20.508,-15.137,-15.137,0.000
1727361849.677,86.426,-29.297,-15.625,-2.930,0.000
1727361849.681,-16.602,-29.785,-13.184,-22.949,0.000
1727361849.685,-126.953,-39.062,-17.578,-60.059,0.000
1727361849.689,-96.191,-41.992,-17.090,-49.805,0.000
1727361849.693,23.438,-25.391,-29.785,-19.531,0.000
1727361849.697,62.500,-12.695,-41.504,-10.254,0.000
1727361849.701,-6.836,-6.348,-34.668,-1.465,0.000
1727361849.704,-106.445,-10.742,-20.020,-45.410,0.000
1727361849.708,-91.309,-17.090,-18.555,-67.383,0.000
1727361849.712,22.949,-18.066,-23.926,-19.531,0.000
1727361849.716,63.965,-26.855,-18.555,2.441,0.000
1727361849.720,4.883,-30.762,-18.066,-10.254,0.000
1727361849.724,-86.426,-24.902,-18.555,-46.875,0.000
1727361849.728,-112.793,-28.320,-24.414,-54.688,0.000
1727361849.732,-21.973,-32.715,-35.156,-18.555,0.000
1727361849.736,51.270,-37.598,-36.133,4.883,0.000
1727361849.740,2.441,-42.480,-33.691,2.441,0.000
1727361849.744,-98.145,-21.484,-30.273,-47.852,0.000
1727361849.747,-105.469,-22.461,-23.926,-55.664,0.000
1727361849.751,7.812,-51.270,-24.902,-6.348,0.000
1727361849.755,79.590,-45.410,-34.180,3.906,0.000
1727361849.759,8.301,-21.973,-41.016,-18.066,0.000
1727361849.763,-103.516,-7.812,-34.180,-55.664,0.000
1727361849.767,-105.957,-1.953,-26.855,-62.500,0.000
1727361849.771,6.348,21.484,-23.438,-1.953,0.000
1727361849.775,77.637,36.133,-27.344,17.090,0.000
1727361849.779,28.320,32.715,-34.668,-0.488,0.000
1727361849.783,-80.566,37.109,-37.598,-26.855,0.000
1727361849.786,-124.512,34.668,-34.668,-67.871,0.000
1727361849.790,-34.180,7.812,-29.785,-27.344,0.000
1727361849.794,60.059,5.859,-36.621,13.672,0.000
1727361849.798,36.621,35.645,-37.598,-0.977,0.000
1727361849.802,-78.613,38.086,-21.973,-42.480,0.000
1727361849.806,-132.812,27.344,-10.742,-81.055,0.000
1727361849.810,-45.410,30.762,1.465,-32.227,0.000
1727361849.814,56.152,25.391,5.371,10.254,0.000
1727361849.818,54.199,14.160,-12.695,-0.488,0.000
1727361849.822,-36.133,-5.371,-20.508,-39.062,0.000
1727361849.826,-107.910,-28.809,-16.602,-83.008,0.000
1727361849.829,-57.129,-7.324,-16.113,-48.828,0.000
1727361849.833,32.715,11.230,-18.066,-9.277,0.000
1727361849.837,44.922,6.836,-15.137,-11.719,0.000
1727361849.841,-32.715,9.277,-8.301,-35.156,0.000
1727361849.845,-124.023,8.789,-10.254,-67.383,0.000
1727361849.849,-74.707,16.602,-20.508,-48.340,0.000
1727361849.853,46.875,5.859,-28.809,-7.812,0.000
1727361849.857,60.547,-5.371,-29.297,0.488,0.000
1727361849.861,-33.691,-3.418,-24.902,-7.324,0.000
1727361849.865,-123.047,-15.625,-20.996,-40.527,0.000
1727361849.869,-84.473,-21.973,-18.066,-50.781,0.000
1727361849.872,35.156,-1.465,-8.301,-11.230,0.000
1727361849.876,73.730,4.395,9.277,10.254,0.000
1727361849.880,-3.418,-15.625,-1.465,-3.418,0.000
1727361849.884,-111.816,-15.137,-19.043,-64.941,0.000
1727361849.888,-99.609,-20.996,-20.020,-83.008,0.000
1727361849.892,15.625,-28.320,-16.602,-25.391,0.000
1727361849.896,53.223,-11.719,-8.301,-9.277,0.000
1727361849.900,-22.949,-2.930,-19.043,-20.020,0.000
1727361849.904,-124.512,-9.766,-23.926,-66.406,0.000
1727361849.908,-133.301,-18.555,-13.184,-87.891,0.000
1727361849.911,-14.160,-13.184,-12.695,-30.273,0.000
1727361849.915,51.758,-9.766,-12.695,2.930,0.000
1727361849.919,-4.395,-12.207,-15.137,7.812,0.000
1727361849.923,-92.773,-19.531,-18.066,-42.969,0.000
1727361849.927,-92.773,-24.414,-11.230,-71.289,0.000
1727361849.931,0.977,-20.508,-16.113,-24.902,0.000
1727361849.935,60.547,-18.066,-18.555,-4.883,0.000
1727361849.939,16.602,-7.324,-12.207,-6.348,0.000
1727361849.943,-85.938,-10.254,-6.348,-48.340,0.000
1727361849.947,-115.723,-21.973,3.906,-70.312,0.000
1727361849.951,-21.484,-15.625,15.625,-23.438,0.000
1727361849.954,66.406,-10.254,34.668,-1.953,0.000
1727361849.958,40.527,-24.902,43.457,-7.812,0.000
1727361849.962,-78.125,-42.969,41.504,-37.598,0.000
1727361849.966,-135.254,-38.574,36.621,-67.383,0.000
1727361849.970,-59.570,-20.020,22.949,-41.992,0.000
1727361849.974,33.203,-0.488,18.555,-16.113,0.000
1727361849.978,23.438,3.418,23.926,-17.578,0.000
1727361849.982,-90.332,-8.301,15.625,-46.387,0.000
1727361849.986,-145.996,-17.578,2.930,-79.102,0.000
1727361849.990,-58.105,-25.879,1.953,-49.805,0.000
1727361849.993,44.922,-26.855,3.906,-20.996,0.000
1727361849.997,41.992,-23.438,6.348,-8.789,0.000
1727361850.001,-49.805,-37.598,16.113,-27.832,0.000
1727361850.005,-112.793,-61.035,30.762,-72.266,0.000
1727361850.009,-59.082,-37.598,40.527,-36.133,0.000
1727361850.013,41.992,-7.812,40.039,3.906,0.000
1727361850.017,41.992,-20.508,33.203,10.254,0.000
1727361850.021,-57.129,-21.973,19.531,-14.648,0.000
1727361850.025,-98.633,-11.230,29.785,-52.734,0.000
1727361850.029,-56.152,-25.879,35.156,-37.109,0.000
1727361850.033,19.531,-41.504,18.066,-11.230,0.000
1727361850.036,32.227,-41.016,12.695,0.000,0.000
1727361850.040,-65.430,-40.527,10.742,-22.461,0.000
1727361850.044,-147.949,-36.133,6.348,-79.102,0.000
1727361850.048,-95.703,-24.414,1.953,-61.035,0.000
1727361850.052,9.277,-17.090,-0.977,-7.324,0.000
1727361850.056,41.504,-21.973,1.465,-10.254,0.000
1727361850.060,-22.949,-34.668,-4.395,-24.902,0.000
1727361850.064,-120.117,-31.250,-16.602,-69.336,0.000
1727361850.068,-95.703,-19.531,-18.555,-74.219,0.000
1727361850.072,21.973,-13.184,-8.301,-18.555,0.000
1727361850.076,70.801,-6.348,-6.348,-2.441,0.000
1727361850.079,0.977,-17.578,-3.418,-19.043,0.000
1727361850.083,-105.469,-43.945,-3.906,-51.270,0.000
1727361850.087,-117.188,-44.922,-12.207,-65.430,0.000
1727361850.091,-13.184,-26.855,-23.438,-39.062,0.000
1727361850.095,54.688,-8.301,-26.855,-16.113,0.000
1727361850.099,2.441,-6.348,-32.227,-20.020,0.000
1727361850.103,-117.188,-26.855,-30.273,-58.105,0.000
1727361850.107,-145.996,-28.320,-21.973,-68.848,0.000
1727361850.111,-35.645,-30.273,-22.949,-31.738,0.000
1727361850.115,47.852,-24.902,-28.320,-21.973,0.000
1727361850.119,13.184,-12.207,-29.297,-30.273,0.000
1727361850.122,-96.680,-30.762,-16.602,-49.805,0.000
1727361850.126,-134.277,-38.086,-16.602,-66.895,0.000
1727361850.130,-32.715,-29.785,-17.090,-36.621,0.000
1727361850.134,60.059,-31.250,-6.836,-9.277,0.000
1727361850.138,33.691,-22.461,-5.371,-9.277,0.000
1727361850.142,-82.031,-20.020,-6.836,-41.992,0.000
1727361850.146,-133.301,-45.410,-6.348,-59.082,0.000
1727361850.150,-28.809,-54.688,-17.090,-15.625,0.000
1727361850.154,62.012,-32.227,-21.484,14.160,0.000
1727361850.158,33.691,-7.324,-20.996,8.301,0.000
1727361850.161,-61.523,-4.395,-27.344,-47.852,0.000
1727361850.165,-144.531,-22.949,-27.832,-103.516,0.000
1727361850.169,-86.914,-37.598,-32.227,-59.082,0.000
1727361850.173,24.414,-43.945,-35.645,-14.648,0.000
1727361850.177,23.438,-38.086,-34.668,-29.297,0.000
1727361850.181,-77.637,-24.414,-36.621,-48.828,0.000
1727361850.185,-144.531,-20.996,-37.109,-80.078,0.000
1727361850.189,-77.148,-25.879,-41.504,-58.105,0.000
1727361850.193,38.574,-28.320,-39.551,-9.277,0.000
1727361850.197,48.828,-37.598,-41.016,-2.441,0.000
1727361850.201,-44.922,-29.297,-38.086,-32.227,0.000
1727361850.204,-120.605,-27.832,-27.344,-76.172,0.000
1727361850.208,-72.754,-29.785,-26.367,-50.781,0.000
1727361850.212,32.715,-15.625,-25.391,-6.348,0.000
1727361850.216,44.434,-17.090,-21.484,15.137,0.000
1727361850.220,-30.762,-13.672,-10.254,8.789,0.000
1727361850.224,-120.117,-11.719,-19.043,-48.828,0.000
1727361850.228,-81.543,-22.949,-32.715,-50.293,0.000
1727361850.232,29.785,-40.039,-29.785,-16.113,0.000
1727361850.236,61.523,-46.875,-22.461,-3.906,0.000
1727361850.240,-12.207,-49.805,-17.578,-9.277,0.000
1727361850.244,-119.629,-48.340,-21.484,-63.965,0.000
1727361850.247,-109.863,-41.504,-20.020,-68.848,0.000
1727361850.251,4.395,-33.691,-25.391,-19.043,0.000
1727361850.255,65.430,-16.113,-31.738,-11.719,0.000
1727361850.259,3.418,-19.043,-28.809,-6.836,0.000
1727361850.263,-101.562,-30.762,-28.320,-32.715,0.000
1727361850.267,-102.051,-31.250,-25.391,-61.035,0.000
1727361850.271,-3.418,-41.992,-28.320,-26.855,0.000
1727361850.275,56.152,-53.711,-40.039,-11.230,0.000
1727361850.279,2.930,-50.781,-41.504,-18.066,0.000
1727361850.283,-114.258,-30.273,-37.109,-66.895,0.000
1727361850.286,-120.117,-19.043,-32.715,-76.660,0.000
1727361850.290,-11.719,-20.996,-22.461,-16.113,0.000
1727361850.294,69.336,-7.812,-10.254,20.020,0.000
1727361850.298,20.508,-11.230,-14.160,13.672,0.000
1727361850.302,-110.840,-26.367,-30.762,-50.781,0.000
1727361850.306,-160.156,-41.016,-35.645,-85.449,0.000
1727361850.310,-53.711,-46.875,-41.016,-39.551,0.000
1727361850.314,49.805,-43.457,-52.246,-19.043,0.000
1727361850.318,24.414,-45.898,-47.363,-24.414,0.000
1727361850.322,-97.656,-43.945,-44.434,-52.246,0.000
1727361850.326,-150.391,-41.992,-45.410,-82.031,0.000
1727361850.329,-52.734,-42.969,-34.668,-49.316,0.000
1727361850.333,25.879,-54.199,-21.973,-11.719,0.000
1727361850.337,14.648,-54.688,-10.254,0.977,0.000
1727361850.341,-59.082,-31.738,-4.883,-27.832,0.000
1727361850.345,-132.324,-23.926,-10.742,-77.637,0.000
1727361850.349,-70.801,-28.809,-15.137,-43.945,0.000
1727361850.353,56.641,-38.574,-15.625,-2.930,0.000
1727361850.357,68.848,-40.527,-18.066,-21.973,0.000
1727361850.361,-44.434,-40.527,-23.438,-46.387,0.000
1727361850.365,-122.559,-38.574,-25.391,-75.195,0.000
1727361850.368,-61.035,-19.531,-27.344,-52.734,0.000
1727361850.372,63.965,-15.625,-23.438,0.488,0.000
1727361850.376,74.707,-29.297,-26.367,22.461,0.000
1727361850.380,-45.410,-41.992,-30.762,-2.441,0.000
1727361850.384,-121.582,-36.133,-22.461,-57.617,0.000
1727361850.388,-75.684,-15.137,-8.301,-36.621,0.000
1727361850.392,40.527,-12.207,-0.488,27.832,0.000
1727361850.396,82.520,-21.484,-8.301,22.461,0.000
1727361850.400,8.789,-20.020,-9.277,-10.254,0.000
1727361850.404,-91.309,-8.301,-6.348,-48.828,0.000
1727361850.408,-84.473,-13.184,-7.812,-44.922,0.000
1727361850.411,20.996,-19.531,-5.859,-5.371,0.000
1727361850.415,62.012,-14.160,-10.254,1.953,0.000
1727361850.419,-21.484,-22.461,-15.625,-3.906,0.000
1727361850.423,-116.211,-29.297,-8.301,-41.504,0.000
1727361850.427,-84.473,-20.508,-17.090,-50.293,0.000
1727361850.431,7.812,-23.926,-29.785,-10.742,0.000
1727361850.435,52.734,-31.738,-19.531,-3.418,0.000
1727361850.439,5.371,-28.809,-24.902,-20.996,0.000
1727361850.443,-110.352,-25.879,-31.738,-55.664,0.000
1727361850.447,-116.699,-33.691,-20.996,-72.266,0.000
1727361850.451,-19.531,-51.270,-23.926,-43.457,0.000
1727361850.454,30.762,-48.828,-23.926,-22.461,0.000
1727361850.458,-9.277,-34.180,-10.254,-18.066,0.000
1727361850.462,-106.445,-21.484,-11.230,-57.617,0.000
1727361850.466,-125.488,-29.785,-24.414,-72.754,0.000
1727361850.470,-33.203,-46.875,-22.461,-14.160,0.000
1727361850.474,36.621,-47.852,-24.414,-2.930,0.000
1727361850.478,7.812,-36.621,-20.996,-23.438,0.000
1727361850.482,-78.613,-22.949,-14.160,-46.875,0.000
1727361850.486,-111.328,-14.648,-23.438,-81.055,0.000
1727361850.490,-39.062,-25.391,-31.738,-51.270,0.000
1727361850.494,50.293,-22.461,-29.297,-5.859,0.000
1727361850.497,30.762,-20.996,-25.879,4.883,0.000
1727361850.501,-72.266,-24.414,-16.602,-31.738,0.000
1727361850.505,-109.863,-16.113,-10.254,-62.012,0.000
1727361850.509,-32.227,-21.484,-15.625,-28.809,0.000
1727361850.513,59.082,-38.574,-16.602,3.906,0.000
1727361850.517,68.359,-39.062,-4.395,15.137,0.000
1727361850.521,-27.344,-32.715,-5.371,-7.324,0.000
1727361850.525,-102.539,-19.531,-17.578,-39.062,0.000
1727361850.529,-38.086,-2.441,-5.371,-28.809,0.000
1727361850.533,68.359,-1.953,2.930,0.000,0.000
1727361850.537,67.871,-5.859,-10.742,4.395,0.000
1727361850.540,-25.391,-22.949,-20.508,-17.578,0.000
1727361850.544,-89.844,-10.742,-15.137,-52.246,0.000
1727361850.548,-31.250,4.883,-8.789,-44.434,0.000
1727361850.552,79.102,-11.230,-15.137,-12.695,0.000
1727361850.556,77.148,-20.508,-10.742,-0.488,0.000
1727361850.560,-20.996,-8.301,1.465,-15.137,0.000
1727361850.564,-114.258,-12.695,0.977,-58.594,0.000
1727361850.568,-84.473,-42.969,-15.625,-42.480,0.000
1727361850.572,37.598,-49.805,-18.555,18.066,0.000
1727361850.576,67.871,-43.945,-6.348,24.414,0.000
1727361850.579,-23.926,-41.992,1.465,-14.160,0.000
1727361850.583,-132.812,-44.922,-2.930,-56.641,0.000
1727361850.587,-125.488,-40.039,-9.766,-46.875,0.000
1727361850.591,8.789,-19.531,-1.953,-1.465,0.000
1727361850.595,72.266,-21.484,-1.953,14.648,0.000
1727361850.599,-13.184,-33.691,-17.578,-11.719,0.000
1727361850.603,-121.582,-39.551,-29.785,-61.523,0.000
1727361850.607,-115.234,-31.738,-35.156,-55.664,0.000
1727361850.611,-7.324,-29.785,-34.180,-13.672,0.000
1727361850.615,42.480,-33.691,-24.902,-2.441,0.000
1727361850.619,-2.441,-38.574,-17.090,2.930,0.000
1727361850.622,-84.961,-41.992,-17.090,-27.832,0.000
1727361850.626,-115.723,-57.129,-19.043,-62.012,0.000
1727361850.630,-17.090,-57.129,-14.648,-32.227,0.000
1727361850.634,67.383,-22.949,-9.277,0.000,0.000
1727361850.638,26.367,-21.973,-9.766,-11.719,0.000
1727361850.642,-95.703,-29.297,-8.301,-65.918,0.000
1727361850.646,-121.582,-25.879,-9.277,-87.891,0.000
1727361850.650,-19.531,-29.785,-16.602,-41.992,0.000
1727361850.654,52.734,-62.012,-21.973,1.465,0.000
1727361850.658,31.250,-76.172,-20.020,6.836,0.000
1727361850.662,-82.031,-32.715,-25.879,-35.156,0.000
1727361850.665,-140.625,-1.465,-26.855,-79.590,0.000
1727361850.669,-51.758,-2.930,-20.996,-49.805,0.000
1727361850.673,30.273,-24.414,-27.832,-26.367,0.000
1727361850.677,4.883,-30.273,-33.203,-40.039,0.000
1727361850.681,-101.562,-29.785,-36.621,-67.871,0.000
1727361850.685,-151.367,-36.621,-34.180,-104.004,0.000
1727361850.689,-55.664,-39.062,-33.203,-73.730,0.000
1727361850.693,46.387,-43.457,-48.828,-31.738,0.000
1727361850.697,22.461,-49.316,-61.035,-38.086,0.000
1727361850.701,-85.938,-54.688,-58.594,-73.730,0.000
1727361850.704,-155.762,-51.758,-55.176,-114.746,0.000
1727361850.708,-107.422,-39.062,-54.199,-99.121,0.000
1727361850.712,8.301,-35.156,-44.434,-46.387,0.000
1727361850.716,31.250,-35.156,-34.668,-29.297,0.000
1727361850.720,-61.035,-41.504,-30.273,-48.340,0.000
1727361850.724,-136.719,-47.852,-23.438,-70.801,0.000
1727361850.728,-83.984,-42.480,-29.785,-52.246,0.000
1727361850.732,17.090,-41.992,-36.621,-20.996,0.000
1727361850.736,51.270,-39.062,-27.832,-8.789,0.000
1727361850.740,-48.340,-47.852,-33.203,-34.180,0.000
1727361850.744,-163.574,-52.734,-21.973,-71.289,0.000
1727361850.747,-130.859,-59.570,-17.090,-59.570,0.000
1727361850.751,-18.555,-66.406,-21.484,-16.113,0.000
1727361850.755,34.668,-56.152,-13.672,1.953,0.000
1727361850.759,-60.547,-70.312,-21.973,-31.250,0.000
1727361850.763,-160.645,-64.941,-31.738,-78.125,0.000
1727361850.767,-117.188,-60.547,-31.250,-83.984,0.000
1727361850.771,-0.977,-73.730,-29.785,-42.480,0.000
1727361850.775,45.898,-52.246,-53.711,-14.648,0.000
1727361850.779,-32.715,-48.340,-63.965,-41.992,0.000
1727361850.783,-145.996,-59.082,-39.551,-98.145,0.000
1727361850.786,-141.113,-46.875,-81.055,-79.102,0.000
1727361850.790,-19.043,-41.504,-111.328,-26.855,0.000
1727361850.794,44.434,-52.246,-122.559,-31.738,0.000
1727361850.798,-4.883,-47.363,-189.941,-45.410,0.000
1727361850.802,-101.074,-28.320,-225.586,-61.035,0.000
1727361850.806,-157.715,-45.410,-325.195,-86.426,0.000
1727361850.810,-68.359,-54.199,-393.555,-68.359,0.000
1727361850.814,62.988,-34.180,-650.879,-19.531,0.000
1727361850.818,24.414,-36.133,-986.816,-19.043,0.000
1727361850.822,-88.867,-32.227,-1000.000,-67.871,0.000
1727361850.826,-79.590,-21.973,-991.211,-61.035,0.000
1727361850.829,18.066,-32.227,-1000.000,-15.137,0.000
1727361850.833,99.609,-41.992,-1000.000,9.766,0.000
1727361850.837,60.059,-41.992,-1000.000,14.160,0.000
1727361850.841,-46.875,-15.625,-1000.000,-29.785,0.000
1727361850.845,-79.102,-11.719,-1000.000,-64.941,0.000
1727361850.849,-14.160,-37.598,-1000.000,-43.457,0.000
1727361850.853,66.406,-34.180,-1000.000,-19.043,0.000
1727361850.857,48.340,-30.273,-1000.000,-14.160,0.000
1727361850.861,-60.547,-25.879,-1000.000,-55.176,0.000
1727361850.865,-100.098,-18.555,-1000.000,-91.797,0.000
1727361850.869,-9.766,-30.273,-1000.000,-29.785,0.000
1727361850.872,78.613,-71.777,-1000.000,4.883,0.000
1727361850.876,69.336,-94.727,-1000.000,-21.484,0.000
1727361850.880,-35.156,-81.055,-1000.000,-55.664,0.000
1727361850.884,-94.727,-90.820,-1000.000,-88.379,0.000
1727361850.888,-24.414,-87.402,-1000.000,-50.781,0.000
1727361850.892,86.426,-67.871,-1000.000,-4.883,0.000
1727361850.896,91.797,-57.617,-1000.000,15.625,0.000
1727361850.900,-30.273,-65.430,-997.559,-14.648,0.000
1727361850.904,-124.023,-74.707,-1000.000,-74.707,0.000
1727361850.908,-69.824,-83.984,-988.770,-48.340,0.000
1727361850.912,47.852,-81.055,-884.766,-3.418,0.000
1727361850.915,82.031,-68.359,-792.969,11.230,0.000
1727361850.919,-13.672,-73.730,-732.422,-15.625,0.000
1727361850.923,-124.512,-75.684,-599.121,-74.219,0.000
1727361850.927,-81.055,-50.781,-487.793,-52.734,0.000
1727361850.931,34.668,-46.875,-412.109,-11.719,0.000
1727361850.935,44.922,-64.941,-354.492,-9.766,0.000
1727361850.939,-38.574,-56.152,-236.328,-19.531,0.000
1727361850.943,-129.883,-35.645,-56.641,-53.223,0.000
1727361850.947,-95.215,-34.180,-0.977,-51.758,0.000
1727361850.951,23.926,-44.922,5.859,-11.230,0.000
1727361850.954,77.148,-41.504,9.766,18.066,0.000
1727361850.958,8.301,-41.992,18.555,1.465,0.000
1727361850.962,-104.492,-32.715,57.129,-70.312,0.000
1727361850.966,-101.074,-16.113,170.410,-86.914,0.000
1727361850.970,13.184,-8.789,271.973,-18.555,0.000
1727361850.974,68.848,-10.254,310.059,4.395,0.000
1727361850.978,-6.836,-21.484,397.461,-12.207,0.000
1727361850.982,-110.840,-26.367,474.121,-51.270,0.000
1727361850.986,-120.117,-24.414,520.996,-63.965,0.000
1727361850.990,-11.230,-19.531,548.828,-14.160,0.000
1727361850.994,56.641,-15.625,580.566,1.953,0.000
1727361850.997,20.020,-27.832,644.043,-21.484,0.000
1727361851.001,-58.594,-21.484,679.199,-68.848,0.000
1727361851.005,-92.285,3.906,813.965,-82.520,0.000
1727361851.009,-9.766,12.695,968.262,-30.273,0.000
1727361851.013,71.289,8.301,965.820,-4.395,0.000
1727361851.017,38.574,-9.277,963.379,2.441,0.000
1727361851.021,-65.918,-9.766,967.773,-16.113,0.000
1727361851.025,-119.629,-3.906,966.797,-48.340,0.000
1727361851.029,-29.297,-9.766,966.797,-28.809,0.000
1727361851.033,77.148,-7.324,965.820,1.953,0.000
1727361851.037,47.852,-12.207,967.285,-6.836,0.000
1727361851.040,-64.941,-19.531,962.402,-42.969,0.000
1727361851.044,-101.562,-28.320,928.711,-79.102,0.000
1727361851.048,-46.387,-33.691,886.719,-60.547,0.000
1727361851.052,41.992,-35.645,838.867,-24.414,0.000
1727361851.056,45.410,-45.410,778.320,-14.160,0.000
1727361851.060,-69.824,-67.383,732.422,-51.270,0.000
1727361851.064,-150.391,-77.637,713.379,-98.145,0.000
1727361851.068,-98.145,-55.664,700.684,-63.965,0.000
1727361851.072,11.230,-31.738,701.172,-14.648,0.000
1727361851.076,39.062,-31.250,678.711,-11.230,0.000
1727361851.079,-60.059,-38.086,636.719,-31.738,0.000
1727361851.083,-153.320,-40.527,610.352,-65.918,0.000
1727361851.087,-84.473,-47.852,586.914,-55.176,0.000
1727361851.091,32.715,-46.387,578.613,-20.020,0.000
1727361851.095,38.574,-49.805,549.805,-11.230,0.000
1727361851.099,-55.664,-49.316,510.742,-35.645,0.000
1727361851.103,-134.277,-55.176,493.164,-80.566,0.000
1727361851.107,-96.680,-72.754,476.562,-57.129,0.000
1727361851.111,15.137,-55.176,463.379,-8.789,0.000
1727361851.115,54.688,-24.902,447.266,-3.906,0.000
1727361851.119,-38.086,-24.414,430.664,-27.832,0.000
1727361851.122,-136.230,-29.785,410.645,-76.172,0.000
1727361851.126,-101.074,-38.574,392.090,-63.965,0.000
1727361851.130,19.531,-45.898,368.652,-19.043,0.000
1727361851.134,68.359,-55.176,330.566,-20.996,0.000
1727361851.138,-15.137,-55.664,310.059,-22.949,0.000
1727361851.142,-109.863,-24.414,314.453,-55.176,0.000
1727361851.146,-93.750,-10.742,299.316,-83.984,0.000
1727361851.150,-4.395,-17.578,285.645,-38.574,0.000
1727361851.154,56.641,-15.625,292.969,-9.277,0.000
1727361851.158,13.672,-20.996,302.246,-18.555,0.000
1727361851.161,-91.309,-37.598,310.547,-54.199,0.000
1727361851.165,-104.492,-42.480,299.316,-48.340,0.000
1727361851.169,-19.531,-36.133,278.320,0.977,0.000
1727361851.173,46.387,-37.598,265.625,-3.906,0.000
1727361851.177,13.672,-31.738,262.207,-19.531,0.000
1727361851.181,-79.590,-19.043,254.395,-54.199,0.000
1727361851.185,-103.516,-20.508,252.441,-76.172,0.000
1727361851.189,-22.949,-29.785,256.836,-28.320,0.000
1727361851.193,56.152,-38.086,244.629,4.883,0.000
1727361851.197,43.457,-39.062,230.469,5.859,0.000
1727361851.201,-57.129,-24.902,227.051,-29.785,0.000
1727361851.204,-137.695,-28.809,222.656,-63.477,0.000
1727361851.208,-64.453,-28.320,217.773,-23.926,0.000
1727361851.212,45.410,-16.602,214.844,19.043,0.000
1727361851.216,33.203,-18.555,216.309,10.742,0.000
1727361851.220,-83.496,-36.621,218.750,-44.922,0.000
1727361851.224,-133.789,-43.457,224.609,-77.148,0.000
1727361851.228,-46.875,-49.316,212.891,-41.504,0.000
1727361851.232,41.016,-58.105,191.895,-10.742,0.000
1727361851.236,24.902,-46.387,188.477,-13.672,0.000
1727361851.240,-66.406,-42.969,190.430,-36.133,0.000
1727361851.244,-132.812,-38.574,180.664,-79.102,0.000
1727361851.247,-79.590,-34.668,171.387,-61.523,0.000
1727361851.251,35.156,-40.039,169.922,-11.230,0.000
1727361851.255,46.875,-35.156,160.156,5.859,0.000
1727361851.259,-34.668,-37.109,149.902,-25.879,0.000
1727361851.263,-127.441,-36.621,147.461,-80.566,0.000
1727361851.267,-95.703,-32.227,148.438,-71.289,0.000
1727361851.271,27.832,-23.438,149.902,-22.461,0.000
1727361851.275,56.641,-7.812,145.020,-10.254,0.000
1727361851.279,-30.762,-0.488,133.301,-45.410,0.000
1727361851.283,-121.094,3.906,137.207,-72.266,0.000
1727361851.287,-83.008,0.977,135.254,-59.082,0.000
1727361851.290,48.828,-12.695,115.723,-7.812,0.000
1727361851.294,77.637,-17.578,102.539,17.578,0.000
1727361851.298,-22.949,-7.324,98.633,-2.930,0.000
1727361851.302,-108.887,-19.043,97.168,-48.828,0.000
1727361851.306,-71.777,-29.785,77.148,-63.477,0.000
1727361851.310,23.926,-22.949,62.012,-19.043,0.000
1727361851.314,58.594,-21.973,66.895,-0.977,0.000
1727361851.318,0.977,-27.832,61.035,-19.531,0.000
1727361851.322,-86.426,-13.672,60.059,-58.105,0.000
1727361851.326,-99.609,4.883,57.617,-62.500,0.000
1727361851.329,-7.324,-1.953,45.410,-0.488,0.000
1727361851.333,63.965,-16.602,42.969,20.020,0.000
1727361851.337,18.066,-32.227,34.180,-8.301,0.000
1727361851.341,-76.660,-37.109,31.250,-49.316,0.000
1727361851.345,-92.773,-28.320,27.832,-59.082,0.000
1727361851.349,-10.254,-20.996,5.859,-13.672,0.000
1727361851.353,44.922,-18.066,-3.906,5.859,0.000
1727361851.357,7.812,-11.719,14.160,-7.812,0.000
1727361851.361,-79.102,-15.625,37.598,-30.762,0.000
1727361851.365,-119.629,-18.066,44.434,-44.922,0.000
1727361851.369,-39.551,-20.996,46.387,-17.090,0.000
1727361851.372,56.152,-44.922,36.621,-4.883,0.000
1727361851.376,34.180,-51.758,24.902,-20.508,0.000
1727361851.380,-73.242,-38.574,30.273,-62.500,0.000
1727361851.384,-142.090,-31.738,24.414,-98.145,0.000
1727361851.388,-66.895,-35.645,23.438,-57.617,0.000
1727361851.392,54.688,-21.973,28.320,-8.789,0.000
1727361851.396,16.602,-17.578,25.391,-4.395,0.000
1727361851.400,-96.191,-50.293,28.809,-35.645,0.000
1727361851.404,-130.859,-52.246,23.438,-70.312,0.000
1727361851.408,-57.129,-39.551,19.531,-46.387,0.000
1727361851.412,41.016,-48.340,12.207,-16.113,0.000
1727361851.415,25.391,-48.828,5.371,-31.250,0.000
1727361851.419,-77.148,-38.574,5.859,-59.570,0.000
1727361851.423,-131.836,-26.367,11.230,-80.078,0.000
1727361851.427,-71.289,-34.668,8.789,-42.480,0.000
1727361851.431,27.832,-46.387,4.883,-2.441,0.000
1727361851.435,42.969,-38.574,9.277,10.254,0.000
1727361851.439,-51.270,-42.969,4.395,-30.762,0.000
1727361851.443,-138.672,-41.992,5.859,-76.660,0.000
1727361851.447,-74.219,-41.016,9.766,-45.898,0.000
1727361851.451,54.199,-42.480,14.648,-11.230,0.000
1727361851.454,58.105,-32.227,16.113,-5.859,0.000
1727361851.458,-27.344,-20.020,14.648,-25.391,0.000
1727361851.462,-99.121,-18.555,24.902,-57.617,0.000
1727361851.466,-55.176,-28.809,24.414,-58.594,0.000
1727361851.470,51.758,-29.785,17.578,-22.461,0.000
1727361851.474,54.199,-32.227,17.090,4.883,0.000
1727361851.478,-13.672,-30.762,29.297,-2.930,0.000
1727361851.482,-98.145,-10.254,34.180,-56.152,0.000
1727361851.486,-94.238,-9.277,32.227,-52.734,0.000
1727361851.490,8.789,-39.551,30.273,6.836,0.000
1727361851.494,69.336,-37.598,32.715,11.719,0.000
1727361851.497,14.160,-13.184,33.691,-13.672,0.000
1727361851.501,-99.121,-32.227,17.578,-57.617,0.000
1727361851.505,-107.422,-45.898,14.160,-62.500,0.000
1727361851.509,-0.977,-43.945,33.691,-3.418,0.000
1727361851.513,62.012,-47.852,41.992,22.949,0.000
1727361851.517,-4.883,-44.434,38.086,0.000,0.000
1727361851.521,-123.535,-47.363,29.785,-50.293,0.000
1727361851.525,-137.695,-53.223,21.484,-64.941,0.000
1727361851.529,-35.156,-53.711,23.926,-18.555,0.000
1727361851.533,37.109,-50.293,26.367,-1.465,0.000
1727361851.536,-4.395,-50.293,7.324,-16.602,0.000
1727361851.540,-102.539,-36.133,-0.977,-53.711,0.000
1727361851.544,-140.137,-41.016,8.301,-79.102,0.000
1727361851.548,-52.734,-57.129,10.742,-36.133,0.000
1727361851.552,46.875,-52.246,13.672,1.465,0.000
1727361851.556,22.949,-45.898,27.832,-0.977,0.000
1727361851.560,-91.797,-46.387,31.250,-30.762,0.000
1727361851.564,-126.465,-42.969,24.414,-75.195,0.000
1727361851.568,0.000,-52.734,20.508,-47.363,0.000
1727361851.572,0.000,-59.570,10.742,-6.836,0.000
1727361851.576,0.000,-37.598,5.371,-18.555,0.000
1727361851.579,0.000,-26.367,10.742,-51.758,0.000
1727361851.583,0.000,-33.691,16.602,-86.426,0.000
1727361851.587,0.000,-36.133,21.484,-49.316,0.000
1727361851.591,0.000,-37.109,10.254,-13.184,0.000
1727361851.595,0.000,-29.785,-7.812,-14.160,0.000
1727361851.599,0.000,-44.434,-13.184,-46.875,0.000
1727361851.603,0.000,-58.105,-13.672,-85.449,0.000
1727361851.607,0.000,-36.133,-9.766,-55.176,0.000
1727361851.611,0.000,-29.297,-9.277,-28.320,0.000
1727361851.615,80.078,-41.016,-13.184,-21.973,0.000
1727361851.619,-21.973,-37.598,-4.883,-28.809,0.000
1727361851.622,-130.859,-38.086,0.488,-65.918,0.000
1727361851.626,-74.707,-40.527,-4.883,-37.109,0.000
1727361851.630,27.832,-38.086,-8.301,10.742,0.000
1727361851.634,40.527,-47.363,-7.812,-7.324,0.000
1727361851.638,-31.250,-43.457,-5.371,-36.621,0.000
1727361851.642,-120.117,-34.180,-6.348,-83.984,0.000
1727361851.646,-95.215,-42.969,-15.137,-64.453,0.000
1727361851.650,34.180,-60.547,-19.043,-10.742,0.000
1727361851.654,73.242,-61.035,-19.531,-10.254,0.000
1727361851.658,-26.855,-54.199,-16.113,-20.996,0.000
1727361851.662,-124.023,-57.617,-20.996,-42.969,0.000
1727361851.665,-114.258,-60.547,-39.062,-44.922,0.000
1727361851.669,-9.766,-55.664,-57.129,-38.574,0.000
1727361851.673,64.941,-54.199,-52.734,-18.555,0.000
1727361851.677,1.465,-51.270,-48.340,-10.254,0.000
1727361851.681,-112.305,-45.898,-49.805,-63.965,0.000
1727361851.685,-125.000,-58.594,-46.387,-68.359,0.000
1727361851.689,-19.043,-62.012,-44.922,-16.113,0.000
1727361851.693,63.477,-58.105,-44.922,-8.301,0.000
1727361851.697,17.090,-63.477,-50.293,-18.555,0.000
1727361851.701,-82.031,-67.383,-57.129,-56.152,0.000
1727361851.704,-107.910,-50.781,-58.105,-77.148,0.000
1727361851.708,-20.508,-38.086,-55.176,-23.926,0.000
1727361851.712,64.941,-49.316,-61.035,18.555,0.000
1727361851.716,27.832,-47.852,-69.824,11.230,0.000
1727361851.720,-73.242,-34.180,-69.336,-32.227,0.000
1727361851.724,-118.652,-22.461,-64.941,-67.871,0.000
1727361851.728,-36.621,-19.531,-66.406,-28.809,0.000
1727361851.732,50.781,-39.062,-68.359,14.160,0.000
1727361851.736,31.738,-62.988,-62.012,19.043,0.000
1727361851.740,-49.316,-50.293,-49.805,-20.996,0.000
1727361851.744,-115.234,-26.855,-51.270,-73.242,0.000
1727361851.747,-28.809,-28.320,-65.430,-52.734,0.000
1727361851.751,73.730,-28.320,-78.125,-8.789,0.000
1727361851.755,44.922,-13.184,-68.359,8.301,0.000
1727361851.759,-67.871,-14.160,-48.340,-21.484,0.000
1727361851.763,-124.512,-22.949,-45.410,-46.387,0.000
1727361851.767,-53.223,-36.133,-59.082,-16.113,0.000
1727361851.771,40.039,-44.434,-62.988,0.000,0.000
1727361851.775,52.246,-26.855,-61.523,-5.859,0.000
1727361851.779,-32.227,-18.555,-62.012,-25.879,0.000
1727361851.783,-96.191,-33.203,-43.945,-42.969,0.000
1727361851.787,-47.363,-36.621,-42.969,-30.762,0.000
1727361851.790,26.367,-34.180,-52.734,-6.348,0.000
1727361851.794,34.668,-40.039,-44.434,-3.906,0.000
1727361851.798,-41.992,-27.344,-47.363,-28.809,0.000
1727361851.802,-125.488,-19.531,-51.270,-70.801,0.000
1727361851.806,-84.473,-38.086,-54.688,-48.340,0.000
1727361851.810,41.504,-51.270,-53.223,-3.906,0.000
1727361851.814,71.777,-54.688,-48.340,-9.766,0.000
1727361851.818,-20.996,-55.664,-53.711,-21.973,0.000
1727361851.822,-128.906,-56.152,-49.805,-56.641,0.000
1727361851.826,-93.262,-52.246,-46.875,-62.988,0.000
1727361851.829,36.133,-57.617,-52.734,-8.789,0.000
1727361851.833,64.941,-52.734,-52.246,11.230,0.000
1727361851.837,-10.254,-30.762,-36.621,-2.930,0.000
1727361851.841,-112.305,-24.414,-27.832,-48.340,0.000
1727361851.845,-95.215,-38.086,-41.504,-56.152,0.000
1727361851.849,29.297,-47.852,-51.758,-13.672,0.000
1727361851.853,80.078,-26.855,-46.875,2.930,0.000
1727361851.857,21.973,-14.648,-48.340,-0.488,0.000
1727361851.861,-85.449,-27.832,-50.293,-56.641,0.000
1727361851.865,-100.586,-30.762,-43.945,-54.199,0.000
1727361851.869,15.625,-30.762,-47.363,12.695,0.000
1727361851.872,96.191,-26.855,-49.805,13.672,0.000
1727361851.876,46.875,-9.277,-46.387,-0.488,0.000
1727361851.880,-64.941,-9.766,-49.805,-25.879,0.000
1727361851.884,-87.402,-28.809,-48.340,-38.086,0.000
1727361851.888,-1.465,-19.531,-40.527,8.301,0.000
1727361851.892,63.477,-16.602,-35.645,15.625,0.000
1727361851.896,40.527,-20.020,-48.828,-15.137,0.000
1727361851.900,-54.688,-7.324,-50.293,-41.016,0.000
1727361851.904,-110.352,-11.719,-44.434,-39.062,0.000
1727361851.908,-27.344,-16.113,-50.781,-10.254,0.000
1727361851.911,66.406,-23.438,-52.246,8.301,0.000
1727361851.915,58.594,-17.090,-49.316,15.625,0.000
1727361851.919,-48.828,-2.441,-44.434,-3.906,0.000
1727361851.923,-115.723,-20.020,-38.574,-56.641,0.000
1727361851.927,-36.133,-32.227,-42.480,-36.621,0.000
1727361851.931,52.246,-35.645,-47.363,8.301,0.000
1727361851.935,24.414,-39.551,-48.340,0.488,0.000
1727361851.939,-66.895,-34.668,-40.527,-36.133,0.000
1727361851.943,-120.117,-33.691,-41.504,-78.613,0.000
1727361851.947,-54.688,-38.574,-53.223,-53.711,0.000
1727361851.951,56.641,-41.016,-54.688,-14.160,0.000
1727361851.954,68.848,-41.992,-52.246,0.000,0.000
1727361851.958,-37.598,-53.711,-54.199,-21.484,0.000
1727361851.962,-119.141,-61.523,-47.852,-65.918,0.000
1727361851.966,-65.918,-58.594,-48.828,-34.180,0.000
1727361851.970,19.531,-51.758,-45.410,23.926,0.000
1727361851.974,44.922,-33.203,-29.297,16.113,0.000
1727361851.978,-27.344,-28.809,-24.414,-2.930,0.000
1727361851.982,-107.910,-32.227,-32.715,-32.227,0.000
1727361851.986,-66.406,-29.785,-41.504,-36.621,0.000
1727361851.990,45.410,-35.156,-44.922,-4.395,0.000
1727361851.994,90.820,-47.363,-40.039,9.766,0.000
1727361851.997,5.371,-34.180,-37.109,-1.465,0.000
1727361852.001,-104.980,-10.742,-31.738,-39.551,0.000
1727361852.005,-66.895,-20.508,-33.203,-29.297,0.000
1727361852.009,52.734,-31.738,-35.645,22.461,0.000
1727361852.013,71.777,-15.625,-29.785,29.785,0.000
1727361852.017,8.789,-11.230,-36.133,10.254,0.000
1727361852.021,-82.031,-23.926,-40.527,-31.250,0.000
1727361852.025,-81.055,-36.133,-34.668,-39.062,0.000
1727361852.029,34.668,-33.203,-31.738,4.883,0.000
1727361852.033,84.961,-29.297,-29.785,24.414,0.000
1727361852.037,34.180,-33.691,-28.320,14.160,0.000
1727361852.040,-72.754,-36.621,-18.555,-43.457,0.000
1727361852.044,-83.984,-23.438,-0.977,-57.129,0.000
1727361852.048,22.461,-14.648,-8.301,-5.859,0.000
1727361852.052,81.543,-33.203,-26.367,32.227,0.000
1727361852.056,35.645,-42.480,-27.832,32.715,0.000
1727361852.060,-82.520,-31.738,-29.785,-26.855,0.000
1727361852.064,-104.492,-35.156,-31.738,-48.828,0.000
1727361852.068,3.418,-41.016,-38.086,-4.395,0.000
1727361852.072,62.988,-41.992,-40.527,20.508,0.000
1727361852.076,19.531,-41.016,-42.969,15.625,0.000
1727361852.080,-76.660,-19.531,-36.133,-16.602,0.000
1727361852.083,-103.027,-16.113,-35.645,-50.293,0.000
1727361852.087,-16.602,-37.109,-57.617,-26.367,0.000
1727361852.091,38.086,-53.711,-71.289,-16.602,0.000
1727361852.095,19.043,-61.035,-71.289,-16.602,0.000
1727361852.099,-75.684,-67.383,-60.547,-34.180,0.000
1727361852.103,-142.090,-55.176,-52.246,-70.801,0.000
1727361852.107,-45.410,-35.645,-41.504,-29.297,0.000
1727361852.111,56.641,-24.902,-35.645,30.273,0.000
1727361852.115,42.480,-27.832,-43.945,23.926,0.000
1727361852.119,-57.129,-32.715,-52.246,-30.273,0.000
1727361852.122,-128.906,-40.039,-51.270,-72.266,0.000
1727361852.126,-49.316,-64.941,-44.922,-48.828,0.000
1727361852.130,76.660,-63.477,-49.805,-6.836,0.000
1727361852.134,86.426,-49.316,-48.828,13.672,0.000
1727361852.138,-26.855,-49.805,-42.969,-10.254,0.000
1727361852.142,-109.863,-45.410,-44.434,-52.246,0.000
1727361852.146,-31.738,-34.668,-44.434,-24.414,0.000
1727361852.150,67.383,-30.273,-41.016,28.320,0.000
1727361852.154,70.312,-21.973,-43.945,28.320,0.000
1727361852.158,-15.137,-17.090,-36.133,15.137,0.000
1727361852.162,-106.445,-33.203,-38.086,-24.414,0.000
1727361852.165,-45.410,-34.180,-51.758,-23.438,0.000
1727361852.169,85.938,-32.227,-51.270,18.555,0.000
1727361852.173,83.984,-38.574,-51.758,17.578,0.000
1727361852.177,-12.695,-17.578,-41.992,-0.977,0.000
1727361852.181,-92.773,-8.301,-23.438,-39.551,0.000
1727361852.185,-92.285,-22.949,-30.273,-42.480,0.000
1727361852.189,19.043,-32.715,-40.527,5.371,0.000
1727361852.193,80.566,-30.762,-33.203,30.762,0.000
1727361852.197,20.020,-30.762,-34.668,20.508,0.000
1727361852.201,-75.195,-32.227,-35.645,-19.531,0.000
1727361852.204,-76.172,-17.090,-33.203,-32.227,0.000
1727361852.208,40.527,-12.207,-20.020,0.000,0.000
1727361852.212,98.145,-23.926,-15.625,19.531,0.000
1727361852.216,35.156,-35.645,-19.043,14.648,0.000
1727361852.220,-60.547,-35.645,-19.531,-34.180,0.000
1727361852.224,-82.520,-36.621,-29.297,-51.270,0.000
1727361852.228,9.277,-20.508,-30.273,-7.812,0.000
1727361852.232,89.355,-2.441,-31.250,8.301,0.000
1727361852.236,30.273,-8.789,-26.855,13.184,0.000
1727361852.240,-97.168,-27.832,-30.273,-14.648,0.000
1727361852.244,-114.746,-31.738,-33.203,-55.176,0.000
1727361852.247,-13.672,-40.039,-31.250,-27.832,0.000
1727361852.251,55.176,-55.176,-45.410,11.719,0.000
1727361852.255,20.996,-46.387,-45.410,17.090,0.000
1727361852.259,-63.477,-42.969,-32.227,-34.180,0.000
1727361852.263,-102.539,-41.016,-35.645,-71.289,0.000
1727361852.267,-30.762,-35.156,-42.480,-29.297,0.000
1727361852.271,55.176,-36.621,-46.875,-5.371,0.000
1727361852.275,34.668,-34.668,-44.922,3.418,0.000
1727361852.279,-49.316,-26.855,-39.062,-19.531,0.000
1727361852.283,-89.844,-10.254,-34.180,-56.641,0.000
1727361852.286,-29.785,-25.391,-30.762,-21.973,0.000
1727361852.290,68.848,-35.645,-37.598,15.625,0.000
1727361852.294,68.359,-26.855,-43.945,19.531,0.000
1727361852.298,-29.785,-30.273,-43.457,-5.371,0.000
1727361852.302,-78.125,-26.855,-39.062,-37.598,0.000
1727361852.306,1.953,-16.113,-27.344,-11.230,0.000
1727361852.310,92.285,-20.996,-22.949,30.273,0.000
1727361852.314,83.008,-29.297,-35.645,29.785,0.000
1727361852.318,-8.301,-22.461,-36.621,4.395,0.000
1727361852.322,-75.195,-30.273,-31.738,-38.574,0.000
1727361852.326,-27.344,-30.273,-35.156,-28.809,0.000
1727361852.329,58.594,-12.207,-35.156,13.184,0.000
1727361852.333,89.355,-15.137,-37.109,20.508,0.000
1727361852.337,2.441,-24.414,-31.738,-0.977,0.000
1727361852.341,-98.145,-24.414,-35.156,-40.527,0.000
1727361852.345,-63.477,-28.320,-38.574,-13.184,0.000
1727361852.349,64.941,-25.391,-25.391,52.734,0.000
1727361852.353,105.469,-25.879,-17.578,41.504,0.000
1727361852.357,17.578,-32.227,-20.020,-0.488,0.000
1727361852.361,-82.031,-32.227,-28.320,-45.410,0.000
1727361852.365,-84.961,-29.785,-32.227,-43.945,0.000
1727361852.369,11.230,-26.855,-33.691,-6.836,0.000
1727361852.372,55.176,-35.645,-38.086,0.000,0.000
1727361852.376,-12.695,-45.898,-42.480,-6.836,0.000
1727361852.380,-108.398,-36.621,-31.250,-33.691,0.000
1727361852.384,-83.984,-35.156,-19.531,-33.203,0.000
1727361852.388,25.391,-60.547,-28.320,0.000,0.000
1727361852.392,68.848,-61.523,-33.203,19.531,0.000
1727361852.396,10.254,-29.785,-32.227,18.066,0.000
1727361852.400,-99.609,-11.230,-31.250,-39.551,0.000
1727361852.404,-111.328,-20.508,-30.762,-62.500,0.000
1727361852.408,6.836,-29.785,-43.945,-19.043,0.000
1727361852.412,70.312,-37.598,-40.527,6.836,0.000
1727361852.415,22.949,-53.223,-41.016,-13.184,0.000
1727361852.419,-88.379,-52.246,-52.734,-45.410,0.000
1727361852.423,-138.184,-48.340,-41.992,-43.945,0.000
1727361852.427,-27.832,-44.434,-30.762,-8.789,0.000
1727361852.431,64.453,-37.598,-35.156,11.719,0.000
1727361852.435,37.598,-18.555,-23.926,22.949,0.000
1727361852.439,-65.430,-17.578,-9.766,-3.418,0.000
1727361852.443,-104.004,-20.508,-13.184,-54.199,0.000
1727361852.447,-13.672,-10.742,-10.254,-20.508,0.000
1727361852.451,81.055,-15.625,-9.277,27.344,0.000
1727361852.455,76.660,-9.277,-2.441,40.039,0.000
1727361852.458,-36.133,-12.207,1.953,8.301,0.000
1727361852.462,-105.957,-27.832,-8.789,-34.668,0.000
1727361852.466,-28.320,-34.180,-5.371,-3.906,0.000
1727361852.470,80.566,-26.367,-3.418,30.273,0.000
1727361852.474,92.773,-10.254,-7.324,35.645,0.000
1727361852.478,-23.926,-8.301,-4.395,21.973,0.000
1727361852.482,-110.352,-26.855,1.465,-34.668,0.000
1727361852.486,-31.738,-41.992,9.277,-34.668,0.000
1727361852.490,62.500,-30.273,17.090,1.953,0.000
1727361852.494,51.758,-23.926,22.461,8.301,0.000
1727361852.497,-46.875,-36.133,15.137,-20.996,0.000
1727361852.501,-125.977,-33.203,20.996,-69.824,0.000
1727361852.505,-69.824,-27.344,12.695,-44.434,0.000
1727361852.509,52.734,-33.691,-14.648,-4.883,0.000
1727361852.513,82.031,-38.086,-12.695,18.555,0.000
1727361852.517,-12.207,-38.086,13.184,10.254,0.000
1727361852.521,-119.141,-44.434,28.809,-56.152,0.000
1727361852.525,-68.848,-51.758,20.508,-61.035,0.000
1727361852.529,27.832,-60.059,18.555,-21.484,0.000
1727361852.533,39.551,-41.016,21.973,-9.766,0.000
1727361852.537,-34.180,-24.902,14.648,-35.156,0.000
1727361852.540,-130.371,-36.621,7.812,-82.031,0.000
1727361852.544,-104.004,-41.504,-1.953,-73.730,0.000
1727361852.548,14.160,-56.641,-14.648,-17.578,0.000
1727361852.552,60.547,-70.312,-14.648,-7.812,0.000
1727361852.556,9.766,-59.570,-9.277,-20.996,0.000
1727361852.560,-85.449,-42.480,-3.906,-51.758,0.000
1727361852.564,-88.867,-35.156,0.000,-58.105,0.000
1727361852.568,19.043,-30.762,-4.395,-12.207,0.000
1727361852.572,61.523,-29.785,-20.508,2.441,0.000
1727361852.576,11.719,-36.621,-21.973,-9.277,0.000
1727361852.579,-94.238,-42.969,-14.160,-38.574,0.000
1727361852.583,-114.746,-37.109,-12.695,-53.223,0.000
1727361852.587,0.977,-28.320,-9.277,-16.113,0.000
1727361852.591,87.891,-20.996,-12.695,27.344,0.000
1727361852.595,45.410,-27.832,-18.066,12.695,0.000
1727361852.599,-72.754,-35.645,-24.414,-32.715,0.000
1727361852.603,-112.793,-25.391,-22.949,-35.156,0.000
1727361852.607,-11.719,-24.902,-23.438,-7.812,0.000
1727361852.611,84.961,-38.574,-25.879,-0.488,0.000
1727361852.615,46.387,-31.738,-10.742,6.348,0.000
1727361852.619,-50.293,-20.996,-13.672,-21.973,0.000
1727361852.622,-102.051,-36.133,-25.391,-61.035,0.000
1727361852.626,-59.082,-44.434,-29.785,-22.949,0.000
1727361852.630,21.484,-36.621,-33.203,12.695,0.000
1727361852.634,2.441,-20.020,-28.320,9.277,0.000
1727361852.638,-90.820,-12.695,-19.043,-28.809,0.000
1727361852.642,-131.836,-12.207,-15.625,-62.012,0.000
1727361852.646,-55.176,-32.227,-29.785,-35.645,0.000
1727361852.650,49.805,-49.316,-41.016,-23.926,0.000
1727361852.654,47.852,-52.246,-31.250,-27.344,0.000
1727361852.658,-61.035,-75.684,-23.926,-38.086,0.000
1727361852.661,-126.465,-74.707,-15.625,-69.824,0.000
1727361852.665,-55.664,-38.086,-9.277,-50.293,0.000
1727361852.669,49.805,-32.715,-7.324,-6.836,0.000
1727361852.673,45.898,-43.945,-5.859,7.324,0.000
1727361852.677,-58.594,-36.133,-10.742,-26.855,0.000
1727361852.681,-131.348,-43.945,-17.578,-79.102,0.000
1727361852.685,-77.637,-58.105,-21.484,-51.758,0.000
1727361852.689,30.762,-59.082,-23.438,-2.441,0.000
1727361852.693,55.176,-53.223,-18.066,2.441,0.000
1727361852.697,-43.457,-62.012,-21.484,-32.715,0.000
1727361852.701,-157.227,-61.523,-16.602,-92.285,0.000
1727361852.704,-110.840,-43.457,-0.488,-84.473,0.000
1727361852.708,21.484,-40.527,-3.906,-20.508,0.000
1727361852.712,63.965,-40.527,-7.324,8.789,0.000
1727361852.716,-7.812,-49.805,1.953,4.395,0.000
1727361852.720,-110.352,-51.758,5.371,-24.414,0.000
1727361852.724,-91.309,-47.852,1.953,-36.621,0.000
1727361852.728,21.484,-47.363,8.789,1.953,0.000
1727361852.732,69.336,-32.715,2.930,19.531,0.000
1727361852.736,1.953,-25.879,1.953,1.465,0.000
1727361852.740,-103.027,-29.785,14.160,-43.945,0.000
1727361852.744,-81.055,-24.414,16.602,-46.875,0.000
1727361852.747,40.039,-26.367,21.973,12.695,0.000
1727361852.751,96.680,-29.785,13.184,30.762,0.000
1727361852.755,24.902,-22.461,8.789,11.230,0.000
1727361852.759,-93.262,-33.691,10.742,-36.621,0.000
1727361852.763,-108.887,-62.012,-2.441,-61.035,0.000
1727361852.767,-11.719,-53.223,-9.277,0.488,0.000
1727361852.771,63.965,-26.855,-3.418,31.250,0.000
1727361852.775,28.320,-35.156,1.953,5.371,0.000
1727361852.779,-80.078,-44.922,5.371,-44.434,0.000
1727361852.783,-110.352,-17.578,5.859,-54.199,0.000
1727361852.787,-1.953,-20.508,-1.465,-12.695,0.000
1727361852.790,83.008,-34.668,-8.789,-6.836,0.000
1727361852.794,36.133,-33.203,-15.625,-11.230,0.000
1727361852.798,-79.102,-28.320,-19.531,-40.039,0.000
1727361852.802,-138.672,-42.969,-24.414,-78.613,0.000
1727361852.806,-71.777,-51.758,-29.297,-45.410,0.000
1727361852.810,36.621,-40.039,-26.367,-14.648,0.000
1727361852.814,23.438,-48.340,-16.602,-29.297,0.000
1727361852.818,-78.613,-54.199,-10.254,-54.199,0.000
1727361852.822,-130.371,-43.945,-0.977,-83.984,0.000
1727361852.826,-58.594,-46.875,4.883,-55.176,0.000
1727361852.830,33.203,-47.363,2.441,-14.648,0.000
1727361852.833,19.043,-27.832,-11.230,-17.090,0.000
1727361852.837,-80.078,-33.203,-34.180,-47.363,0.000
1727361852.841,-161.133,-60.059,-35.156,-101.074,0.000
1727361852.845,-86.914,-73.730,-26.855,-81.543,0.000
1727361852.849,23.438,-66.895,-32.715,-39.062,0.000
1727361852.853,30.762,-49.805,-28.809,-12.207,0.000
1727361852.857,-52.246,-46.387,-16.113,-8.789,0.000
1727361852.861,-133.789,-50.781,-13.184,-52.734,0.000
1727361852.865,-94.238,-47.363,-19.043,-58.105,0.000
1727361852.869,20.020,-35.645,-25.879,-35.645,0.000
1727361852.872,46.875,-40.039,-22.461,-25.391,0.000
1727361852.876,-25.879,-46.875,-29.785,-30.273,0.000
1727361852.880,-113.770,-42.480,-29.785,-69.824,0.000
1727361852.884,-88.379,-29.297,-25.391,-74.219,0.000
1727361852.888,33.203,-15.625,-33.203,-22.949,0.000
1727361852.892,87.402,-14.648,-32.227,14.160,0.000
1727361852.896,5.859,-17.090,-27.832,-6.836,0.000
1727361852.900,-104.492,-20.508,-29.785,-67.383,0.000
1727361852.904,-101.074,-36.621,-30.762,-60.059,0.000
1727361852.908,11.230,-34.668,-31.250,2.441,0.000
1727361852.912,50.781,-19.531,-24.414,11.719,0.000
1727361852.915,-24.414,-17.090,-22.949,-7.812,0.000
1727361852.919,-126.465,-18.066,-27.344,-52.246,0.000
1727361852.923,-136.230,-28.320,-24.902,-72.266,0.000
1727361852.927,-11.719,-36.133,-27.832,-20.996,0.000
1727361852.931,71.289,-33.691,-35.156,-1.465,0.000
1727361852.935,19.043,-27.344,-44.434,-13.184,0.000
1727361852.939,-97.168,-40.039,-43.945,-60.059,0.000
1727361852.943,-122.070,-40.527,-35.156,-80.078,0.000
1727361852.947,-27.344,-31.738,-32.715,-29.297,0.000
1727361852.951,39.551,-34.668,-31.738,-17.578,0.000
1727361852.955,6.348,-27.344,-28.809,-20.996,0.000
1727361852.958,-103.027,-29.297,-22.949,-50.293,0.000
1727361852.962,-134.277,-37.109,-21.484,-98.145,0.000
1727361852.966,-33.203,-38.574,-25.391,-62.500,0.000
1727361852.970,31.738,-50.781,-30.273,-28.320,0.000
1727361852.974,-12.695,-52.734,-30.762,-29.297,0.000
1727361852.978,-94.727,-34.668,-28.320,-59.570,0.000
1727361852.982,-133.301,-30.273,-29.785,-89.355,0.000
1727361852.986,-67.871,-47.363,-39.062,-47.363,0.000
1727361852.990,20.996,-56.641,-33.203,-9.277,0.000
1727361852.994,8.301,-35.645,-27.344,-20.996,0.000
1727361852.997,-78.613,-31.738,-27.344,-56.152,0.000
1727361853.001,-138.184,-55.176,-14.648,-83.984,0.000
1727361853.005,-78.613,-55.664,-4.883,-47.852,0.000
1727361853.009,37.109,-45.410,-10.742,-18.066,0.000
1727361853.013,41.504,-36.133,-21.484,-18.555,0.000
1727361853.017,-55.664,-34.180,-17.090,-33.203,0.000
1727361853.021,-140.137,-36.133,-9.277,-69.824,0.000
1727361853.025,-81.055,-28.809,-22.949,-64.941,0.000
1727361853.029,45.410,-44.434,-16.602,-21.973,0.000
1727361853.033,62.500,-52.246,-5.859,7.812,0.000
1727361853.036,-22.949,-33.691,-8.789,2.930,0.000
1727361853.040,-112.793,-15.625,-0.488,-35.645,0.000
1727361853.044,-61.035,-1.465,2.930,-33.691,0.000
1727361853.048,70.801,-9.277,-8.301,-4.883,0.000
1727361853.052,76.172,-19.043,-9.766,16.113,0.000
1727361853.056,-39.062,-27.344,-9.766,-5.371,0.000
1727361853.060,-141.113,-42.480,-26.367,-70.801,0.000
1727361853.064,-101.562,-31.738,-30.273,-61.035,0.000
1727361853.068,19.531,-28.320,-27.344,-5.371,0.000
1727361853.072,71.777,-38.574,-32.715,13.672,0.000
1727361853.076,19.043,-34.180,-37.598,-5.859,0.000
1727361853.079,-93.262,-19.043,-33.691,-52.734,0.000
1727361853.083,-100.098,-2.930,-31.738,-56.641,0.000
1727361853.087,5.371,-16.113,-38.086,-8.789,0.000
1727361853.091,46.387,-41.992,-41.016,-2.441,0.000
1727361853.095,-21.484,-44.434,-47.852,-32.715,0.000
1727361853.099,-115.234,-32.715,-52.734,-82.520,0.000
1727361853.103,-116.211,-30.762,-44.434,-88.379,0.000
1727361853.107,-9.766,-35.645,-29.297,-35.156,0.000
1727361853.111,58.105,-59.082,-36.621,-16.113,0.000
1727361853.115,13.672,-61.523,-42.969,-39.062,0.000
1727361853.119,-98.633,-29.297,-35.156,-75.684,0.000
1727361853.122,-135.254,-21.973,-40.039,-84.473,0.000
1727361853.126,-33.691,-40.527,-36.133,-42.969,0.000
1727361853.130,34.180,-49.805,-36.621,-21.973,0.000
1727361853.134,-19.531,-60.059,-42.480,-31.250,0.000
1727361853.138,-114.258,-63.477,-35.645,-55.664,0.000
1727361853.142,-153.320,-53.223,-27.344,-79.102,0.000
1727361853.146,-58.594,-64.453,-25.391,-43.945,0.000
1727361853.150,33.203,-65.430,-20.996,-10.254,0.000
1727361853.154,15.625,-38.574,-20.508,-11.719,0.000
1727361853.158,-70.312,-21.973,-22.461,-39.551,0.000
1727361853.162,-137.695,-34.668,-31.738,-64.941,0.000
1727361853.165,-45.898,-52.246,-38.574,-41.504,0.000
1727361853.169,66.406,-59.570,-30.762,-0.488,0.000
1727361853.173,39.551,-54.688,-21.484,19.043,0.000
1727361853.177,-73.730,-50.293,-25.879,-18.555,0.000
1727361853.181,-138.184,-53.223,-27.832,-65.918,0.000
1727361853.185,-63.965,-44.922,-20.020,-50.781,0.000
1727361853.189,40.039,-32.227,-23.438,-16.113,0.000
1727361853.193,48.340,-17.090,-24.902,-8.301,0.000
1727361853.197,-35.645,-18.555,-21.973,-23.438,0.000
1727361853.201,-115.723,-36.133,-24.414,-72.754,0.000
1727361853.205,-70.312,-42.969,-23.926,-55.176,0.000
1727361853.208,51.270,-30.273,-20.996,-13.184,0.000
1727361853.212,61.523,-21.484,-18.555,-10.254,0.000
1727361853.216,-31.738,-30.273,-14.160,-17.090,0.000
1727361853.220,-119.629,-38.086,-11.230,-72.754,0.000
1727361853.224,-105.469,-41.016,-22.949,-72.266,0.000
1727361853.228,22.949,-41.992,-27.832,-26.855,0.000
1727361853.232,60.059,-35.156,-29.297,-22.461,0.000
1727361853.236,-39.062,-46.387,-30.762,-38.574,0.000
1727361853.240,-133.301,-51.270,-26.367,-80.566,0.000
1727361853.244,-124.512,-47.363,-29.297,-78.125,0.000
1727361853.247,-18.066,-40.039,-32.227,-32.715,0.000
1727361853.251,39.062,-21.484,-40.527,-19.043,0.000
1727361853.255,-36.133,-26.367,-47.852,-33.203,0.000
1727361853.259,-133.789,-37.598,-42.969,-70.801,0.000
1727361853.263,-108.887,-33.691,-32.715,-72.754,0.000
1727361853.267,-4.395,-48.828,-41.504,-35.156,0.000
1727361853.271,65.430,-61.035,-54.688,-23.438,0.000
1727361853.275,9.277,-47.852,-41.504,-28.320,0.000
1727361853.279,-133.789,-44.434,-34.668,-65.430,0.000
1727361853.283,-144.043,-42.480,-33.691,-76.660,0.000
1727361853.287,-22.461,-48.828,-32.227,-46.387,0.000
1727361853.290,47.363,-58.594,-26.367,-36.133,0.000
1727361853.294,-5.371,-64.941,-16.113,-16.602,0.000
1727361853.298,-111.816,-72.754,-18.555,-45.410,0.000
1727361853.302,-145.996,-64.941,-21.484,-84.473,0.000
1727361853.306,-38.574,-54.199,-27.832,-43.945,0.000
1727361853.310,52.734,-33.203,-29.785,-11.719,0.000
1727361853.314,12.207,-25.391,-15.137,-15.625,0.000
1727361853.318,-91.797,-35.156,-13.184,-46.875,0.000
1727361853.322,-138.184,-32.227,-26.367,-70.312,0.000
1727361853.326,-49.805,-32.227,-34.180,-43.457,0.000
1727361853.330,44.922,-38.086,-26.367,-9.766,0.000
1727361853.333,15.137,-46.875,-15.137,-7.812,0.000
1727361853.337,-88.867,-66.406,-19.531,-46.875,0.000
1727361853.341,-112.793,-66.895,-26.855,-86.914,0.000
1727361853.345,-29.785,-46.387,-29.297,-63.477,0.000
1727361853.349,39.062,-41.016,-32.715,-30.762,0.000
1727361853.353,30.273,-34.668,-29.297,-21.973,0.000
1727361853.357,-65.918,-24.414,-23.438,-30.762,0.000
1727361853.361,-131.836,-35.645,-10.254,-63.965,0.000
1727361853.365,-57.617,-42.480,-2.930,-37.598,0.000
1727361853.369,45.898,-30.762,-7.812,-0.488,0.000
1727361853.372,42.969,-40.527,-18.066,-16.113,0.000
1727361853.376,-48.828,-44.434,-21.484,-52.734,0.000
1727361853.380,-126.465,-20.996,-9.766,-86.914,0.000
1727361853.384,-69.336,-19.531,-7.324,-65.430,0.000
1727361853.388,35.156,-36.133,-16.113,-21.484,0.000
1727361853.392,53.223,-42.480,-24.902,-25.391,0.000
1727361853.396,-27.832,-41.016,-26.367,-60.547,0.000
1727361853.400,-149.902,-38.086,-23.926,-93.262,0.000
1727361853.404,-117.676,-49.316,-19.043,-77.148,0.000
1727361853.408,22.461,-56.641,-15.625,-27.344,0.000
1727361853.411,59.082,-38.086,-19.043,-11.230,0.000
1727361853.415,-26.367,-14.160,-26.855,-22.949,0.000
1727361853.419,-141.602,-10.742,-16.602,-65.918,0.000
1727361853.423,-114.258,-17.578,-12.207,-86.426,0.000
1727361853.427,12.695,-48.828,-20.020,-38.086,0.000
1727361853.431,52.246,-59.082,-26.367,-19.043,0.000
1727361853.435,-17.578,-31.738,-17.578,-10.254,0.000
1727361853.439,-125.000,-10.742,-11.719,-37.598,0.000
1727361853.443,-124.512,-8.301,-19.043,-63.477,0.000
1727361853.447,3.906,-28.809,-21.973,-22.461,0.000
1727361853.451,66.406,-37.109,-27.344,-6.348,0.000
1727361853.454,2.441,-26.367,-26.367,-19.531,0.000
1727361853.458,-93.750,-17.090,-16.113,-60.547,0.000
1727361853.462,-100.098,-23.926,-17.090,-70.312,0.000
1727361853.466,-15.625,-27.832,-20.020,-6.348,0.000
1727361853.470,47.852,-20.508,-14.648,21.484,0.000
1727361853.474,14.648,-5.859,-9.277,10.742,0.000
1727361853.478,-87.891,4.883,-1.465,-22.949,0.000
1727361853.482,-115.234,8.301,-0.488,-49.316,0.000
1727361853.486,-10.254,-5.859,-3.906,-9.766,0.000
1727361853.490,77.637,-26.367,-10.254,13.672,0.000
1727361853.494,39.551,-13.672,-20.508,8.301,0.000
1727361853.497,-49.805,0.000,-11.719,-14.648,0.000
1727361853.501,-105.469,-10.742,-2.441,-47.363,0.000
1727361853.505,-41.992,-7.812,-13.672,-15.137,0.000
1727361853.509,54.199,-0.488,-25.391,0.488,0.000
1727361853.513,34.668,-19.043,-34.180,-19.531,0.000
1727361853.517,-64.941,-20.508,-30.273,-35.645,0.000
1727361853.521,-128.906,-0.977,-20.996,-64.941,0.000
1727361853.525,-52.734,-4.395,-20.020,-39.062,0.000
1727361853.529,54.688,-25.879,-20.508,-14.160,0.000
1727361853.533,26.367,-51.758,-32.715,-14.648,0.000
1727361853.537,-87.891,-45.898,-49.316,-33.691,0.000
1727361853.540,-152.344,-17.578,-52.734,-83.984,0.000
1727361853.544,-87.402,-22.461,-38.086,-74.707,0.000
1727361853.548,17.090,-32.227,-26.367,-22.461,0.000
1727361853.552,41.992,-36.621,-27.832,-6.348,0.000
1727361853.556,-57.617,-44.434,-31.738,-36.133,0.000
1727361853.560,-152.832,-46.387,-29.785,-87.891,0.000
1727361853.564,-107.910,-32.227,-24.414,-58.594,0.000
1727361853.568,10.742,-12.207,-26.367,5.859,0.000
1727361853.572,42.969,-19.043,-21.484,7.324,0.000
1727361853.576,-32.715,-24.414,-8.301,-22.461,0.000
1727361853.580,-119.629,-31.250,-2.930,-75.195,0.000
1727361853.583,-87.402,-51.758,-9.766,-83.984,0.000
1727361853.587,32.715,-52.734,-15.137,-33.691,0.000
1727361853.591,57.617,-47.363,-12.695,-0.488,0.000
1727361853.595,-20.996,-44.434,-2.441,-0.488,0.000
1727361853.599,-106.934,-41.016,7.324,-37.109,0.000
1727361853.603,-82.031,-26.367,4.883,-38.574,0.000
1727361853.607,35.645,-12.695,-0.488,9.277,0.000
1727361853.611,78.125,-11.719,3.906,22.949,0.000
1727361853.615,-4.395,-23.926,-0.977,21.484,0.000
1727361853.619,-111.816,-39.551,-0.488,-19.531,0.000
1727361853.622,-94.238,-34.668,0.977,-57.129,0.000
1727361853.626,18.066,-11.719,-21.973,-20.996,0.000
1727361853.630,64.453,-5.371,-29.297,-4.883,0.000
1727361853.634,12.207,-9.766,-19.043,-15.137,0.000
1727361853.638,-90.820,-26.855,-16.113,-48.828,0.000
1727361853.642,-109.863,-37.109,-28.809,-80.078,0.000
1727361853.646,-8.789,-17.090,-33.691,-40.527,0.000
1727361853.650,54.199,-1.953,-28.320,-8.789,0.000
1727361853.654,0.977,-12.695,-30.762,-17.578,0.000
1727361853.658,-105.469,-26.367,-32.227,-57.617,0.000
1727361853.662,-151.855,-33.203,-35.645,-75.684,0.000
1727361853.665,-49.316,-23.438,-31.738,-25.391,0.000
1727361853.669,58.105,-25.391,-28.320,7.812,0.000
1727361853.673,31.250,-44.434,-27.832,-5.859,0.000
1727361853.677,-77.637,-33.203,-29.785,-52.734,0.000
1727361853.681,-128.906,-20.020,-34.180,-93.262,0.000
1727361853.685,-39.062,-27.344,-34.668,-55.664,0.000
1727361853.689,60.059,-29.297,-25.391,-5.371,0.000
1727361853.693,22.949,-18.555,-15.137,1.465,0.000
1727361853.697,-83.984,-22.949,-15.625,-38.574,0.000
1727361853.701,-144.531,-42.480,-20.508,-90.332,0.000
1727361853.705,-83.008,-40.039,-28.809,-67.871,0.000
1727361853.708,23.438,-35.645,-32.227,-32.715,0.000
1727361853.712,21.973,-44.434,-25.879,-30.273,0.000
1727361853.716,-77.148,-38.574,-29.297,-54.199,0.000
1727361853.720,-141.113,-36.621,-39.551,-80.078,0.000
1727361853.724,-83.984,-45.898,-40.527,-47.852,0.000
1727361853.728,32.227,-39.062,-28.809,-4.883,0.000
1727361853.732,52.734,-33.203,-11.230,6.348,0.000
1727361853.736,-41.992,-31.738,-13.184,-16.113,0.000
1727361853.740,-122.070,-24.902,-25.391,-67.871,0.000
1727361853.744,-82.520,-37.109,-26.367,-65.430,0.000
1727361853.747,20.996,-50.293,-28.320,-8.301,0.000
1727361853.751,43.945,-36.133,-24.414,13.184,0.000
1727361853.755,-27.832,-27.832,-21.973,-13.672,0.000
1727361853.759,-107.422,-21.484,-26.367,-65.430,0.000
1727361853.763,-93.750,-30.762,-22.461,-64.941,0.000
1727361853.767,10.254,-46.875,-29.785,-19.531,0.000
1727361853.771,48.828,-42.969,-34.180,-10.254,0.000
1727361853.775,-14.160,-48.340,-36.621,-27.344,0.000
1727361853.779,-103.027,-51.270,-40.039,-65.918,0.000
1727361853.783,-81.055,-39.062,-26.367,-68.848,0.000
1727361853.786,29.785,-41.016,-20.020,-10.742,0.000
1727361853.790,62.500,-45.898,-26.367,0.977,0.000
1727361853.794,4.395,-33.203,-28.809,-19.531,0.000
1727361853.798,-111.328,-29.785,-30.762,-66.895,0.000
1727361853.802,-117.676,-29.785,-30.762,-79.102,0.000
1727361853.806,3.418,-20.020,-33.691,-26.367,0.000
1727361853.810,50.293,-20.020,-38.574,-6.348,0.000
1727361853.814,-14.160,-14.648,-43.945,-5.859,0.000
1727361853.818,-118.652,-8.301,-39.062,-37.598,0.000
1727361853.822,-125.000,-24.414,-31.250,-67.871,0.000
1727361853.826,-9.766,-43.945,-39.062,-45.898,0.000
1727361853.829,57.129,-48.340,-45.898,-22.949,0.000
1727361853.833,13.672,-35.645,-42.969,-20.508,0.000
1727361853.837,-90.332,-19.043,-41.016,-59.570,0.000
1727361853.841,-135.742,-35.156,-43.945,-90.332,0.000
1727361853.845,-36.621,-47.852,-45.410,-41.016,0.000
1727361853.849,59.082,-29.297,-43.457,6.348,0.000
1727361853.853,30.273,-6.836,-36.133,5.859,0.000
1727361853.857,-71.777,-16.113,-26.367,-36.133,0.000
1727361853.861,-121.094,-52.246,-24.414,-67.871,0.000
1727361853.865,-34.668,-53.223,-31.250,-47.363,0.000
1727361853.869,72.266,-25.879,-31.738,-17.090,0.000
1727361853.872,45.410,-25.391,-27.832,-2.930,0.000
1727361853.876,-72.266,-31.250,-32.715,-45.898,0.000
1727361853.880,-134.277,-23.926,-42.480,-97.168,0.000
1727361853.884,-69.336,-20.996,-41.016,-53.223,0.000
1727361853.888,26.367,-17.090,-37.598,-14.648,0.000
1727361853.892,18.066,-22.461,-29.297,-17.578,0.000
1727361853.896,-72.754,-44.922,-25.879,-33.203,0.000
1727361853.900,-148.926,-55.176,-31.250,-78.613,0.000
1727361853.904,-102.051,-40.527,-33.691,-59.570,0.000
1727361853.908,30.762,-29.297,-31.738,-16.602,0.000
1727361853.912,76.172,-23.926,-18.066,4.883,0.000
1727361853.915,-16.113,-34.668,-20.508,-8.789,0.000
1727361853.919,-111.328,-32.715,-32.227,-54.688,0.000
1727361853.923,-72.266,-12.207,-29.297,-32.227,0.000
1727361853.927,26.855,-21.484,-20.996,11.230,0.000
1727361853.931,75.684,-47.363,-9.766,3.418,0.000
1727361853.935,16.113,-35.156,-4.395,-23.926,0.000
1727361853.939,-107.422,-11.230,-15.137,-66.406,0.000
1727361853.943,-94.238,-10.742,-19.531,-54.199,0.000
1727361853.947,27.832,-23.438,-14.648,-7.812,0.000
1727361853.951,52.734,-24.414,-24.902,-14.160,0.000
1727361853.955,-23.438,-20.020,-32.715,-31.738,0.000
1727361853.958,-105.957,-17.578,-30.762,-61.035,0.000
1727361853.962,-102.051,-22.461,-31.250,-74.219,0.000
1727361853.966,-5.371,-40.527,-30.273,-38.086,0.000
1727361853.970,52.246,-49.316,-27.832,-10.254,0.000
1727361853.974,-15.625,-45.898,-28.320,-22.949,0.000
1727361853.978,-115.234,-48.340,-24.902,-54.688,0.000
1727361853.982,-117.188,-33.691,-28.320,-59.570,0.000
1727361853.986,1.465,-6.348,-36.133,-21.973,0.000
1727361853.990,72.754,-2.930,-36.621,-2.930,0.000
1727361853.994,-1.953,-24.414,-30.762,-14.160,0.000
1727361853.997,-97.168,-36.621,-20.020,-63.965,0.000
1727361854.001,-111.328,-27.832,-13.672,-78.613,0.000
1727361854.005,-11.230,-34.668,-28.809,-36.621,0.000
1727361854.009,75.684,-40.527,-40.527,-16.113,0.000
1727361854.013,26.855,-38.574,-30.273,-15.625,0.000
1727361854.017,-89.355,-39.062,-20.020,-48.828,0.000
1727361854.021,-119.629,-38.574,-11.719,-62.500,0.000
1727361854.025,-38.574,-43.945,-17.578,-30.762,0.000
1727361854.029,43.457,-36.621,-16.113,-10.742,0.000
1727361854.033,42.969,-21.973,-7.812,0.977,0.000
1727361854.037,-52.734,-34.668,-13.184,-38.086,0.000
1727361854.040,-119.141,-46.875,-16.113,-88.867,0.000
1727361854.044,-45.410,-39.551,-14.648,-47.852,0.000
1727361854.048,41.992,-36.621,-14.160,-14.160,0.000
1727361854.052,24.902,-34.180,-13.184,-9.766,0.000
1727361854.056,-83.008,-38.574,-19.531,-12.207,0.000
1727361854.060,-153.320,-45.898,-20.996,-59.570,0.000
1727361854.064,-69.824,-42.969,-17.578,-54.688,0.000
1727361854.068,52.246,-33.691,-16.113,-17.090,0.000
1727361854.072,41.504,-33.203,-22.949,-15.625,0.000
1727361854.076,-78.125,-40.527,-27.344,-35.156,0.000
1727361854.080,-143.066,-51.758,-25.391,-68.848,0.000
1727361854.083,-75.195,-59.570,-30.273,-43.945,0.000
1727361854.087,25.879,-35.156,-32.715,-4.883,0.000
1727361854.091,45.410,-20.020,-40.039,-3.906,0.000
1727361854.095,-34.180,-32.715,-38.574,-21.484,0.000
1727361854.099,-127.930,-32.227,-42.969,-70.801,0.000
1727361854.103,-95.703,-29.785,-57.617,-58.105,0.000
1727361854.107,15.625,-25.879,-54.688,-16.602,0.000
1727361854.111,38.086,-26.367,-52.734,-18.555,0.000
1727361854.115,-41.504,-24.902,-43.457,-19.043,0.000
1727361854.119,-115.234,-9.277,-22.461,-43.457,0.000
1727361854.122,-92.773,-16.602,-26.367,-53.711,0.000
1727361854.126,-4.395,-25.879,-46.875,-24.414,0.000
1727361854.130,38.086,-10.254,-49.316,-21.973,0.000
1727361854.134,-19.043,-12.695,-47.363,-44.434,0.000
1727361854.138,-130.859,-24.414,-48.340,-76.172,0.000
1727361854.142,-116.699,-15.625,-41.992,-70.801,0.000
1727361854.146,-1.465,-21.973,-40.039,-27.344,0.000
1727361854.150,39.551,-26.855,-39.551,-21.484,0.000
1727361854.154,-31.738,-22.461,-33.203,-21.973,0.000
1727361854.158,-138.672,-34.180,-19.531,-45.898,0.000
1727361854.161,-142.578,-65.430,-11.230,-98.633,0.000
1727361854.165,-53.711,-84.473,-23.438,-92.285,0.000
1727361854.169,34.668,-53.223,-22.949,-37.598,0.000
1727361854.173,-2.930,-45.410,-17.578,-19.043,0.000
1727361854.177,-117.676,-38.574,-12.695,-54.688,0.000
1727361854.181,-135.254,-8.789,6.836,-68.848,0.000
1727361854.185,-54.199,-21.484,3.906,-45.898,0.000
1727361854.189,39.062,-39.551,-21.484,-17.578,0.000
1727361854.193,30.273,-42.480,-30.762,-19.043,0.000
1727361854.197,-68.848,-33.203,-20.508,-58.594,0.000
1727361854.201,-110.840,-33.691,-19.531,-80.566,0.000
1727361854.204,-12.207,-48.828,-76.660,-36.133,0.000
1727361854.208,69.336,-60.547,-132.812,-3.906,0.000
1727361854.212,37.109,-46.875,-174.316,-8.789,0.000
1727361854.216,-88.867,-35.645,-296.875,-54.688,0.000
1727361854.220,-163.086,-57.617,-425.781,-101.562,0.000
1727361854.224,-59.570,-59.570,-492.188,-50.293,0.000
1727361854.228,63.477,-36.621,-586.426,-23.438,0.000
1727361854.232,56.641,-21.484,-732.910,-20.996,0.000
1727361854.236,-53.711,0.000,-929.688,-16.602,0.000
1727361854.240,-145.508,2.930,-999.023,-64.453,0.000
1727361854.244,-79.102,-5.371,-996.094,-63.477,0.000
1727361854.247,26.367,-24.414,-1000.000,-50.781,0.000
1727361854.251,39.062,-33.203,-1000.000,-59.082,0.000
1727361854.255,-38.574,-16.602,-1000.000,-62.500,0.000
1727361854.259,-116.699,-31.738,-1000.000,-97.656,0.000
1727361854.263,-54.688,-42.480,-1000.000,-83.008,0.000
1727361854.267,63.965,-20.020,-1000.000,-46.875,0.000
1727361854.271,34.668,-20.996,-1000.000,-41.504,0.000
1727361854.275,-65.430,-16.602,-1000.000,-29.297,0.000
1727361854.279,-121.582,-12.207,-1000.000,-99.121,0.000
1727361854.283,-74.219,-20.020,-1000.000,-108.887,0.000
1727361854.286,33.691,-41.016,-1000.000,-55.664,0.000
1727361854.290,75.684,-55.664,-1000.000,-39.062,0.000
1727361854.294,2.441,-45.898,-1000.000,-37.598,0.000
1727361854.298,-109.375,-48.828,-1000.000,-65.918,0.000
1727361854.302,-83.496,-41.504,-1000.000,-70.801,0.000
1727361854.306,21.484,-49.805,-1000.000,-60.547,0.000
1727361854.310,79.102,-60.547,-1000.000,-37.598,0.000
1727361854.314,20.020,-50.293,-998.047,-7.324,0.000
1727361854.318,-103.027,-44.434,-1000.000,-41.504,0.000
1727361854.322,-96.191,-38.574,-978.516,-62.012,0.000
1727361854.326,6.836,-53.223,-911.621,-27.832,0.000
1727361854.329,62.012,-59.570,-868.164,-11.230,0.000
1727361854.333,13.672,-48.828,-851.074,-17.090,0.000
1727361854.337,-94.727,-43.457,-827.148,-55.176,0.000
1727361854.341,-111.328,-29.785,-812.988,-68.359,0.000
1727361854.345,3.906,-30.762,-713.867,-30.762,0.000
1727361854.349,81.543,-32.715,-546.875,-7.812,0.000
1727361854.353,29.785,-26.367,-463.379,1.465,0.000
1727361854.357,-56.152,-35.156,-398.926,-35.645,0.000
1727361854.361,-92.773,-42.480,-264.648,-56.641,0.000
1727361854.365,-18.555,-27.832,-126.953,-15.137,0.000
1727361854.369,58.594,-23.438,-74.707,-9.277,0.000
1727361854.372,25.391,-35.645,-82.520,-20.020,0.000
1727361854.376,-73.730,-40.527,-61.523,-43.945,0.000
1727361854.380,-122.559,-43.457,-24.902,-75.684,0.000
1727361854.384,-23.438,-53.711,-20.020,-51.270,0.000
1727361854.388,70.801,-35.645,21.484,-16.113,0.000
1727361854.392,26.367,-6.836,92.285,-17.090,0.000
1727361854.396,-84.473,-8.789,231.445,-43.945,0.000
1727361854.400,-115.723,-18.555,312.988,-73.730,0.000
1727361854.404,-45.898,-28.809,308.105,-45.898,0.000
1727361854.408,58.105,-46.387,353.027,4.395,0.000
1727361854.411,50.781,-51.758,405.273,15.137,0.000
1727361854.415,-69.336,-37.598,439.453,-32.227,0.000
1727361854.419,-121.582,-34.668,470.703,-72.754,0.000
1727361854.423,-49.805,-44.922,500.488,-44.922,0.000
1727361854.427,35.645,-28.320,528.809,-9.277,0.000
1727361854.431,20.020,-21.973,541.992,-11.230,0.000
1727361854.435,-77.148,-42.969,530.762,-48.828,0.000
1727361854.439,-145.020,-46.387,552.734,-75.684,0.000
1727361854.443,-87.402,-45.410,572.266,-54.688,0.000
1727361854.447,24.902,-58.594,576.172,-25.391,0.000
1727361854.451,34.180,-64.453,617.188,-0.488,0.000
1727361854.454,-40.527,-55.664,637.207,-13.672,0.000
1727361854.458,-120.605,-59.570,622.070,-90.332,0.000
1727361854.462,-124.512,-75.684,605.469,-93.262,0.000
1727361854.466,-13.184,-69.336,587.891,-34.180,0.000
1727361854.470,44.922,-51.758,587.402,-15.137,0.000
1727361854.474,-35.156,-48.340,548.828,-28.320,0.000
1727361854.478,-118.164,-50.293,610.352,-74.219,0.000
1727361854.482,-88.867,-54.199,822.266,-72.266,0.000
1727361854.486,20.508,-44.434,887.207,-3.906,0.000
1727361854.490,67.383,-36.133,839.355,22.949,0.000
1727361854.493,-18.066,-49.805,797.363,4.395,0.000
1727361854.497,-115.723,-59.082,769.043,-46.875,0.000
1727361854.501,-104.004,-50.781,745.605,-50.781,0.000
1727361854.505,9.277,-36.621,700.195,-10.742,0.000
1727361854.509,84.473,-32.715,711.914,-3.418,0.000
1727361854.513,15.137,-26.855,779.785,-7.812,0.000
1727361854.517,-98.633,-19.043,781.250,-38.574,0.000
1727361854.521,-107.910,-27.344,751.465,-62.012,0.000
1727361854.525,0.488,-35.645,718.750,-20.508,0.000
1727361854.529,70.801,-16.602,686.523,14.648,0.000
1727361854.533,18.066,-8.789,652.832,7.324,0.000
1727361854.536,-90.332,-11.719,627.930,-40.527,0.000
1727361854.540,-113.281,-2.930,604.980,-68.848,0.000
1727361854.544,-8.789,-20.020,583.008,-36.621,0.000
1727361854.548,76.172,-29.785,574.219,-20.020,0.000
1727361854.552,40.527,-17.578,549.805,-19.531,0.000
1727361854.556,-94.727,-22.949,522.949,-34.668,0.000
1727361854.560,-126.465,-28.320,503.906,-67.871,0.000
1727361854.564,-20.996,-29.297,481.445,-46.387,0.000
1727361854.568,46.875,-38.574,463.379,-2.930,0.000
1727361854.572,20.020,-29.785,432.129,-13.184,0.000
1727361854.576,-83.008,-15.137,396.484,-62.988,0.000
1727361854.579,-152.344,-26.855,381.348,-103.516,0.000
1727361854.583,-64.453,-40.527,366.699,-64.453,0.000
1727361854.587,26.855,-43.457,341.797,-16.602,0.000
1727361854.591,3.906,-53.711,323.730,-25.879,0.000
1727361854.595,-77.148,-59.570,302.246,-71.777,0.000
1727361854.599,-157.227,-57.617,289.062,-115.723,0.000
1727361854.603,-106.934,-57.617,305.176,-68.848,0.000
1727361854.607,12.695,-70.801,296.875,-29.785,0.000
1727361854.611,27.832,-77.148,295.410,-46.875,0.000
1727361854.615,-59.570,-49.805,319.336,-63.965,0.000
1727361854.619,-150.879,-43.945,331.543,-83.008,0.000
1727361854.622,-118.652,-62.988,324.707,-72.266,0.000
1727361854.626,-5.371,-70.312,300.781,-43.945,0.000
1727361854.630,18.066,-65.918,294.434,-14.648,0.000
1727361854.634,-68.848,-54.199,294.434,-20.996,0.000
1727361854.638,-160.645,-46.387,292.969,-69.824,0.000
1727361854.642,-98.633,-43.457,291.016,-54.688,0.000
1727361854.646,27.832,-50.781,282.227,-19.531,0.000
1727361854.650,49.316,-56.152,274.902,-10.254,0.000
1727361854.654,-16.602,-51.270,266.113,-21.484,0.000
1727361854.658,-123.047,-51.270,252.930,-69.824,0.000
1727361854.662,-105.957,-41.992,240.723,-63.965,0.000
1727361854.665,28.320,-26.855,235.840,-16.113,0.000
1727361854.669,73.730,-18.066,251.465,-3.418,0.000
1727361854.673,-18.066,-7.324,257.812,-8.301,0.000
1727361854.677,-114.258,-8.789,248.047,-36.621,0.000
1727361854.681,-107.910,-21.973,233.398,-46.387,0.000
1727361854.685,-11.719,-41.992,213.379,-25.879,0.000
1727361854.689,50.293,-40.527,188.965,-13.672,0.000
1727361854.693,-6.836,-29.297,157.227,-27.832,0.000
1727361854.697,-127.441,-36.133,134.277,-75.684,0.000
1727361854.701,-142.090,-37.109,140.625,-92.773,0.000
1727361854.704,-20.508,-43.457,149.414,-55.176,0.000
1727361854.708,47.852,-35.156,127.441,-27.344,0.000
1727361854.712,5.859,-15.137,115.723,-24.414,0.000
1727361854.716,-80.566,-8.789,101.562,-53.223,0.000
1727361854.720,-104.980,-8.789,68.848,-77.637,0.000
1727361854.724,-15.137,-24.902,58.594,-35.156,0.000
1727361854.728,51.270,-24.902,55.664,-4.395,0.000
1727361854.732,6.348,-24.902,49.805,-6.348,0.000
1727361854.736,-94.727,-24.902,45.898,-40.527,0.000
1727361854.740,-139.648,-11.719,51.270,-80.566,0.000
1727361854.744,-48.340,-24.414,65.918,-47.852,0.000
1727361854.747,65.918,-40.039,62.500,-18.555,0.000
1727361854.751,51.270,-37.598,52.246,-17.090,0.000
1727361854.755,-79.590,-25.391,50.781,-37.598,0.000
1727361854.759,-158.203,-22.949,50.781,-69.824,0.000
1727361854.763,-82.031,-27.832,46.387,-44.922,0.000
1727361854.767,40.039,-27.344,44.922,-20.508,0.000
1727361854.771,42.480,-30.762,43.945,-19.043,0.000
1727361854.775,-55.664,-42.480,36.621,-41.016,0.000
1727361854.779,-125.977,-36.621,39.551,-80.566,0.000
1727361854.783,-84.473,-35.645,37.598,-48.828,0.000
1727361854.787,18.555,-52.246,29.297,1.953,0.000
1727361854.790,41.016,-58.105,34.180,9.277,0.000
1727361854.794,-48.828,-46.875,40.527,-16.113,0.000
