,TP9,AF7,AF8,TP10
0,-0.42656015286330673,-0.485947899222937,-0.6525632596149802,-0.5803474662907655
1,-0.9123004081762778,-1.11101742459814,-1.4244105139264522,-1.3479486581157325
2,-1.5750105367977194,-1.985505410096292,-2.511569846764581,-2.3934865864905768
3,-2.398805535260136,-3.094747753197575,-3.9102481444482624,-3.694434398967818
4,-3.3678331985147323,-4.409965946431832,-5.58579409647885,-5.207610129973672
5,-4.460894896509155,-5.887233819204514,-7.475679244074756,-6.863613220113336
6,-5.632099578437615,-7.472282593114956,-9.500376884009642,-8.57610956725561
7,-6.815222862847834,-9.10692893076109,-11.574718713685456,-10.265694258963276
8,-7.954356469487442,-10.733155181815672,-13.620088750643102,-11.87965836101661
9,-9.037239208402239,-12.305295100851415,-15.5841777022409,-13.40221318109762
10,-10.101504178572632,-13.814111831823652,-17.46777091653685,-14.861513137984565
11,-11.152417720354029,-15.246271656360653,-19.25520041809726,-16.27391722719969
12,-12.177781315849062,-16.612024969015877,-20.934369199512822,-17.657358719535992
13,-13.177765010625603,-17.93514806305256,-22.490140857991037,-19.017462599711703
14,-14.170147794540819,-19.232834677918902,-23.902565499402403,-20.332192444097537
15,-15.162734259711797,-20.503946335644965,-25.154577321094504,-21.557750985590328
16,-16.135375524005273,-21.73204501215662,-26.2372741853972,-22.663471214311492
17,-17.064525692591523,-22.896684582073608,-27.149912030665416,-23.650551831257022
18,-17.945219173669386,-23.982867037993994,-27.89949302523212,-24.532360864322047
19,-18.781890901924086,-24.975544361011433,-28.496560188881205,-25.314211568342348
20,-19.57375312913873,-25.84405326400423,-28.94937527936624,-25.989590373065305
21,-20.305343521251302,-26.551428347964016,-29.265264664171685,-26.541973057506254
22,-20.954315738154936,-27.08045333210311,-29.45515899534563,-26.956538587931824
23,-21.515133464202993,-27.439540986341,-29.532910307905254,-27.233283060286944
24,-22.00553649917368,-27.653104430482788,-29.512555903602003,-27.374765122914816
25,-22.43637632840467,-27.75280647235768,-29.40505299327075,-27.371921866578223
26,-22.784903845994688,-27.77305660159991,-29.212027293653676,-27.212002329950728
27,-23.013346295496635,-27.7439904347158,-28.92599903430116,-26.89193694393651
28,-23.109672311922846,-27.67999818314752,-28.541052639092786,-26.42466821527942
29,-23.094324654319426,-27.574689874128193,-28.05833266051506,-25.826717572864794
30,-22.98474915104887,-27.40843822287291,-27.48133795388541,-25.104715096697827
31,-22.7780569498027,-27.156202774155915,-26.812804611375302,-24.259931450703725
32,-22.473247479951898,-26.8001957361241,-26.05760159207971,-23.301775475629956
33,-22.092518238553982,-26.34986081963029,-25.22718404769614,-22.259383244001086
34,-21.673695898524866,-25.84145184336468,-24.340452704020432,-21.169019263035196
35,-21.24327770986141,-25.318376334897298,-23.41902335588494,-20.058353722537262
36,-20.808876287386955,-24.812578392461123,-22.486029666628355,-18.952673195545753
37,-20.3753598723209,-24.34329152658845,-21.57091947269796,-17.882730709460525
38,-19.95958472366807,-23.925818227080438,-20.70355109751534,-16.888723543385503
39,-19.59073219720856,-23.56650157029786,-19.899359728928893,-16.01133603561061
40,-19.293395194102796,-23.258530268134088,-19.156173981397426,-15.268236047356817
41,-19.071419753875183,-22.9914537810077,-18.463900231792202,-14.647075442945825
42,-18.909837988171812,-22.75685408153639,-17.81152366248699,-14.12808698686431
43,-18.79487515023657,-22.545968276124103,-17.18642417931046,-13.700281540302363
44,-18.7197790400785,-22.34721623852673,-16.57201528270699,-13.354090698949728
45,-18.66843550827918,-22.14775380233814,-15.946491820044967,-13.07334084889808
46,-18.60870870269235,-21.936418961069098,-15.288307014591139,-12.834598124525703
47,-18.49898556516214,-21.70435685078906,-14.587762524453156,-12.622885466614884
48,-18.30510608623892,-21.44557765833471,-13.85210123609012,-12.446386204930182
49,-18.013696720540036,-21.15379763118177,-13.101456854129326,-12.318471645792027
50,-17.633755722693994,-20.81366888770036,-12.358077238155026,-12.227380972252586
51,-17.189070380512394,-20.407569441011958,-11.635947006244022,-12.131724372698123
52,-16.698229524084997,-19.93849909228077,-10.94162762766893,-11.990283419685888
53,-16.172273094325526,-19.437570547621473,-10.27802370357352,-11.784219067591676
54,-15.631445064286245,-18.944495533599333,-9.6431042349815,-11.507949635588338
55,-15.108275338624875,-18.479537555250538,-9.031675250811274,-11.15743373733503
56,-14.630669530124802,-18.03874690386623,-8.441463050040161,-10.731296393625422
57,-14.203140018423367,-17.607899051080246,-7.875291879814698,-10.237313101580838
58,-13.815857982844125,-17.166719787748832,-7.341611304917554,-9.695695158244172
59,-13.466533361848748,-16.690153468741208,-6.8572730047447,-9.136690838620138
60,-13.160882211522582,-16.155545387833502,-6.4464070317144815,-8.58554755284256
61,-12.89585873526311,-15.545264397268364,-6.132287109121336,-8.051179101207959
62,-12.648110379748582,-14.84736151908189,-5.930072057692986,-7.532966977103449
63,-12.384624372850189,-14.062191536482395,-5.845930734172541,-7.030830492308761
64,-12.08299279594619,-13.208478396691529,-5.87612376743511,-6.550974259759823
65,-11.735750099156274,-12.316550227915382,-6.003499383447137,-6.095574679623794
66,-11.330731954600598,-11.409839470882927,-6.196334811292843,-5.656879563469459
67,-10.833271843869767,-10.493414755356742,-6.416948827368449,-5.2351922114376315
68,-10.204840502275879,-9.560865682933057,-6.637003592652773,-4.847692563296466
69,-9.442108841108002,-8.609015163207575,-6.839552793949618,-4.510671755615946
70,-8.58409793815492,-7.642123240458836,-7.009656185363697,-4.216060720504107
71,-7.67398063753703,-6.667418322289823,-7.133693802294147,-3.9341547421855227
72,-6.730000199380043,-5.703594797244689,-7.203016305949029,-3.6331882601458916
73,-5.760753059454821,-4.793152917319097,-7.211782831789579,-3.2935409664889312
74,-4.794425397743029,-3.9964870865805344,-7.156090602041331,-2.921847372787934
75,-3.8816655077569604,-3.3767025461416416,-7.037564402941965,-2.545155608690179
76,-3.0644947106789817,-2.984430480920903,-6.861153699165798,-2.1840534898001565
77,-2.3568259477575917,-2.8426566735253798,-6.629530127481207,-1.843746093747322
78,-1.7547844515072915,-2.9415870173644345,-6.346100724160464,-1.5318155639903188
79,-1.2496190848697313,-3.2464047316676137,-6.020137435766991,-1.2702698345620305
80,-0.8324755357867444,-3.7010674180924026,-5.66370395908163,-1.081061710615556
81,-0.49238275319788444,-4.2244911226013135,-5.285992378052291,-0.9672501972454131
82,-0.21233071162977263,-4.71838251849978,-4.895058271275422,-0.9151515100575071
83,0.03319155083487432,-5.094585295229562,-4.504149125488911,-0.9124164729681908
84,0.26689211094950904,-5.2991691481676915,-4.128593306931536,-0.9553448349604484
85,0.5007075435671366,-5.314049055364292,-3.7736345084679344,-1.0392190622653104
86,0.7465739935029045,-5.149163928620259,-3.432697183264865,-1.1524691526090196
87,1.0196816382124378,-4.837239831597983,-3.098407620377132,-1.281053749804096
88,1.3295204082806333,-4.425997523514921,-2.7715874924664816,-1.4138841191587148
89,1.6660860641263708,-3.962532160914739,-2.4629196414413417,-1.545890016134311
90,1.9974112742465673,-3.476965831055743,-2.188443449192713,-1.6700892027921364
91,2.2845262405946607,-2.9832819227789553,-1.960903649469993,-1.7607908512794304
92,2.5012616775074514,-2.4880525537337217,-1.7846625861773973,-1.7750886842664297
93,2.6482357062228137,-1.990238860158859,-1.6604719910974155,-1.683185049857956
94,2.742028621945823,-1.4831809547743153,-1.592225309229925,-1.4900952052979972
95,2.7940859103829387,-0.9585103376735589,-1.5824452581360282,-1.2216903384860438
96,2.8023274543512184,-0.4044152113927065,-1.6218901705028275,-0.8987542940929677
97,2.766501987063912,0.1920668511196105,-1.6912931508426459,-0.5253019870954767
98,2.7127765024422485,0.8336190608914913,-1.7697383215150955,-0.09962625491823815
99,2.6804716271048004,1.507409351965589,-1.8343731288777128,0.37393102373150466
100,2.6853598786136357,2.1954651185815957,-1.8560323565474355,0.8932930863671147
101,2.7175089273698796,2.8863239017665285,-1.803198480258717,1.4693307875246622
102,2.772294076286958,3.5785455505718593,-1.6539338870734823,2.11970084522841
103,2.8673933889698255,4.2786412556267095,-1.3999644764644332,2.8528564906527167
104,3.027033831480598,4.993192297926757,-1.0397097908076973,3.660537142323605
105,3.2559207089323294,5.720030555999803,-0.5739702617095683,4.52126466558511
106,3.5327758091009622,6.443738867323613,-0.004195643718110209,5.411858072725287
107,3.8346890693097717,7.137780226908803,0.6692105095258685,6.315306050361896
108,4.163526543864148,7.773439236059115,1.4430684007605574,7.20784534432007
109,4.531650279265837,8.32027036378153,2.3069572230674713,8.051838121420502
110,4.925164810951814,8.740622419114112,3.24270384276968,8.81324147498372
111,5.303989355316298,9.000610965691997,4.224075860847706,9.48127009721992
112,5.637948293436691,9.089259657457198,5.2173727994172685,10.06485424752875
113,5.926113741235965,9.025535823406761,6.1843562479007295,10.5718485762447
114,6.183690750581015,8.851974673205405,7.08565589789491,10.99778319703885
115,6.414189286277648,8.625262649369082,7.884593816349934,11.3273562700457
116,6.598314108341759,8.409325095975564,8.550730310257261,11.545826766723676
117,6.725775063565306,8.267452268988158,9.063587871302817,11.64432320420348
118,6.808259303501729,8.234252929077863,9.440242533929077,11.639621051292579
119,6.907184259995396,8.369381458865059,9.643126067429472,11.481152421588916
120,7.045567378873411,8.682466315928442,9.66953426511473,11.158884582045053
121,7.2249455077839855,9.141573782570983,9.544072130008635,10.699791570360766
122,7.446916078463553,9.689844514661537,9.308085602146722,10.15526853634863
123,7.716164661805922,10.261337167172929,9.008391758914946,9.583418622317074
124,8.025426051293369,10.793753720740586,8.68633063661958,9.033019035548518
125,8.344557350949497,11.238893673346404,8.37348769603033,8.540687756430968
126,8.63217745399536,11.57048992198683,8.095388377341292,8.137430495321663
127,8.86240390295423,11.789739321078102,7.872566045289897,7.845105949990209
128,-0.1299643369130905,-0.31795657284683787,-0.5576633793299608,-0.07504630080401142
129,-0.4035402832178156,-0.6940924210167241,-1.0961608072226519,-0.2427801081520377
130,-0.8048178775040262,-1.2381543843558922,-1.7808672467933682,-0.523205790735694
131,-1.3442504182843247,-1.9715464616541667,-2.568642351800767,-0.9545163651370634
132,-2.045454227270249,-2.9123019523429585,-3.400119394978613,-1.5794343260447692
133,-2.931072114468026,-4.077925658814001,-4.206966783125536,-2.4335790525604324
134,-4.005536123769369,-5.482318755627157,-4.926792637032718,-3.5403287293057994
135,-5.25487808596281,-7.129209457028561,-5.509390313019362,-4.91963608044186
136,-6.663604770951089,-9.012096722604296,-5.908493283252266,-6.583108040166941
137,-8.220868678751048,-11.115221574166776,-6.09729202486465,-8.512935087135403
138,-9.916597747686081,-13.41676300000271,-6.102937844121605,-10.654355747297569
139,-11.716062797204517,-15.854537054708723,-5.960802693135872,-12.924014874690236
140,-13.575438207868277,-18.34849080516749,-5.72803395890562,-15.243854579779322
141,-15.450713650735103,-20.811767110983556,-5.472533024587355,-17.54704467028044
142,-17.293969842638006,-23.156295578284414,-5.265912137521697,-19.771478637592562
143,-19.050461736642028,-25.297485885146582,-5.18425465543173,-21.863165803924137
144,-20.662860777910677,-27.168918771560797,-5.297590756057228,-23.78742718275982
145,-22.089833083663137,-28.739628721658356,-5.658730430677595,-25.537621390367637
146,-23.322814956980373,-30.00844355291054,-6.301757294357338,-27.126498010733364
147,-24.37759878584756,-30.98650038475951,-7.239812988050677,-28.566971165193117
148,-25.272945867752306,-31.68994873126701,-8.46161599325032,-29.85734245138853
149,-26.022885901512698,-32.13468832183517,-9.929553931856578,-30.981810324899712
150,-26.642424340232026,-32.32898618360787,-11.58288564593549,-31.92244849642268
151,-27.144167534241387,-32.27084568584531,-13.348113776652067,-32.66265496940317
152,-27.525829609025145,-31.95504928265182,-15.153721221071327,-33.17954574069901
153,-27.758403929071083,-31.383438874990304,-16.94845769359553,-33.44862248472026
154,-27.79328485774438,-30.572849250995745,-18.704063410409105,-33.46901927514902
155,-27.58535770946107,-29.566408470408604,-20.39818368740707,-33.27304683347967
156,-27.10319802554381,-28.439009249410105,-22.009701552229924,-32.905334269904706
157,-26.326130546166507,-27.280324916409832,-23.52242212549148,-32.395990676095366
158,-25.24469914950333,-26.169785319848398,-24.92368194868442,-31.755702665355475
159,-23.862113873572927,-25.169960886258224,-26.205806524364423,-30.997890105548272
160,-22.191474440762637,-24.332140862945053,-27.366116630014584,-30.152575089819535
161,-20.266593442953308,-23.688044952165374,-28.402613407824603,-29.260045517927065
162,-18.15383518160032,-23.232858384232898,-29.309599872007443,-28.357024067125803
163,-15.932533213414233,-22.9267844581348,-30.07575453313366,-27.46907473331614
164,-13.664766719710915,-22.711511677897676,-30.690064737027868,-26.61680098502181
165,-11.396949772634636,-22.523179424828797,-31.150291171251922,-25.819408948146293
166,-9.185492120847476,-22.30456833597121,-31.46176080947672,-25.090675772868114
167,-7.107734634725567,-22.018207964146136,-31.630157770258656,-24.428056240378016
168,-5.244688781649837,-21.649269751812675,-31.655899194314586,-23.805707982574642
169,-3.655286300614136,-21.197034008075715,-31.533260105119197,-23.180560737198558
170,-2.3695038908686414,-20.671315048926793,-31.255973489931748,-22.50644865849341
171,-1.3992181767358234,-20.09704288633738,-30.8238192769634,-21.751382158659602
172,-0.7476504929683657,-19.50770171077578,-30.23940950711173,-20.897391484704585
173,-0.4064703452980794,-18.927682044789783,-29.502301260382954,-19.931350415022163
174,-0.3463309014540915,-18.37127155319819,-28.613829377644986,-18.850958777537148
175,-0.5138093146261372,-17.857577550845146,-27.584456428645762,-17.676029582829493
176,-0.8471106275903215,-17.40753191653929,-26.43707623396954,-16.446193859406304
177,-1.3055453037320444,-17.023912467187444,-25.20751898644618,-15.203209389285384
178,-1.8715575860613476,-16.684790018387464,-23.9417275392578,-13.977056945557711
179,-2.522209863533914,-16.358738296012657,-22.688582413566763,-12.783689198018035
180,-3.218940396766762,-16.019978374533004,-21.489123922290055,-11.630105089167838
181,-3.9282111410096956,-15.65323556534158,-20.36828273691013,-10.520094816499588
182,-4.6322375936231985,-15.254443885030883,-19.33427644476733,-9.45092931161907
183,-5.31147524288631,-14.825116283130855,-18.386368965153352,-8.408422535537342
184,-5.940793495830933,-14.366967440778367,-17.52440005309911,-7.372055219681508
185,-6.505298851972134,-13.883009451987796,-16.755958706748807,-6.333199384325986
186,-7.004323583491516,-13.381340564559277,-16.09923671118952,-5.3085444077396
187,-7.444001807940795,-12.872117839932875,-15.572654492976294,-4.3265294801803895
188,-7.83205005868538,-12.349444660811667,-15.179138869275759,-3.4029048670037367
189,-8.167563736588813,-11.783309953639243,-14.90521413668213,-2.536059700057841
190,-8.427119324281902,-11.142652126263282,-14.733164548513933,-1.7263893560500634
191,-8.57896445621873,-10.418043901631851,-14.646061779054875,-0.987823153151939
192,-8.606535883800827,-9.618431862276868,-14.621436315469968,-0.3325122888849396
193,-8.5103007735783,-8.763123189651846,-14.629373232427447,0.24844106135964675
194,-8.294400996845264,-7.8868731771496785,-14.637329109550828,0.7862025759608291
195,-7.957381455209411,-7.0432086515046235,-14.615646544945873,1.315390073492338
196,-7.5100436011822715,-6.292077866800219,-14.540328929253995,1.8540802358918491
197,-6.998164093230576,-5.679978337562041,-14.392323892713573,2.4006194926785605
198,-6.497759241183406,-5.229849249257497,-14.158244776233056,2.945526331495607
199,-6.082806973378685,-4.940511137515827,-13.83261938549807,3.4825193567505193
200,-5.796921264253914,-4.794915509320672,-13.418123506107214,3.99953278320919
201,-5.656015992926903,-4.776646846703798,-12.924344513022923,4.465030844883907
202,-5.662441967358042,-4.874394712565756,-12.367068472862327,4.837545384443813
203,-5.812472463838448,-5.0759615146928,-11.762562352709352,5.088246336622977
204,-6.087222539460021,-5.36444798122015,-11.123854966697424,5.209417048642186
205,-6.433268017392956,-5.717282046983419,-10.468211536368699,5.199549887807509
206,-6.776775350807789,-6.1114061300818685,-9.81884503924799,5.050447423125132
207,-7.069217905712408,-6.521403941428161,-9.196195550114702,4.754174156906502
208,-7.300886093643037,-6.905151050681784,-8.612544862924588,4.318039199873268
209,-7.469975517062702,-7.208873916180188,-8.073673885268894,3.7677524560554
210,-7.5644712560162635,-7.390606378646041,-7.582739233335307,3.1328942017044468
211,-7.575100179352984,-7.426449929490849,-7.140733832844245,2.4364640799513757
212,-7.5158521601968005,-7.298446618706437,-6.747258095447188,1.6980181379491956
213,-7.427030587335077,-6.987005018292721,-6.404762559803509,0.9435787636771764
214,-7.34478400325544,-6.477603843293063,-6.122101106774625,0.2091584234157261
215,-7.273656357021083,-5.769548897299021,-5.913080280999576,-0.46759146382943545
216,-7.192652454058187,-4.878432052882004,-5.789670691798741,-1.0596376983874256
217,-7.080565917538852,-3.8325467792241614,-5.755389047129024,-1.5566249576330955
218,-6.931012129530516,-2.6607242311997705,-5.801955096008476,-1.950891808711112
219,-6.73904914846952,-1.3852526236086777,-5.907663452392209,-2.227269431943136
220,-6.490482752222485,-0.030180543962994577,-6.038958004653297,-2.3742692456445225
221,-6.173258819572645,1.369812994371509,-6.161252976524755,-2.395963154690253
222,-5.796028057466883,2.765736832901083,-6.24785712814387,-2.314993298986149
223,-5.389218862038801,4.100675024929758,-6.275724254636173,-2.1595271310600923
224,-4.98092854170538,5.325514934100764,-6.221768280679107,-1.9467048216335687
225,-4.583273673297792,6.404992544318516,-6.066865605144833,-1.6815671671722083
226,-4.199714903038018,7.314837507889156,-5.800502911949578,-1.369865964422894
227,-3.83632689451481,8.045133284713586,-5.4215814874702675,-1.0296364695269347
228,-3.5049678602579437,8.60396357352235,-4.937104054636259,-0.68655036811447
229,-3.2126870554757327,9.00918067077282,-4.362577005711318,-0.3619563657396175
230,-2.951148548372181,9.27560383509885,-3.718837063686415,-0.06729785207878969
231,-2.705429640427133,9.412864913911644,-3.0241263428603644,0.18647487910354116
232,-2.474010902257357,9.428545610873247,-2.2939290352476283,0.3788385104341933
233,-2.2663088985830764,9.325513476416335,-1.5471929893664127,0.4909033182714398
234,-2.0794637161019884,9.102873243865062,-0.8071225728675778,0.5226024379189599
235,-1.883881095907971,8.757925459847991,-0.09922194048807353,0.4898364863298408
236,-1.6319845336125058,8.2848762111038,0.5478331461806758,0.40302154327691714
237,-1.2791275224550034,7.680161099404152,1.1062622299059988,0.25736332973375803
238,-0.7903872611019527,6.95494055047847,1.5616500857355466,0.049561035275776724
239,-0.13556095791480904,6.144157614387203,1.9204988281298274,-0.20149594509568686
240,0.7117640289598559,5.301796878177374,2.2034521260929547,-0.4547565210826923
241,1.7663294724320548,4.4838273579245564,2.4305282090368427,-0.6741545155933885
242,3.017030896556753,3.7347141258141585,2.6124111499039038,-0.8526662903449392
243,4.426912840871108,3.0887959146062727,2.751959728839803,-1.0042873485429717
244,5.949186910908256,2.575219980898739,2.84796366972416,-1.1368388296026286
245,7.544003553197644,2.215327743671992,2.8972588704940407,-1.23622377927218
246,9.189327074203785,1.9917033149971337,2.898707463741233,-1.2984612290247477
247,10.88286455869304,1.9353615150386083,2.8446744986420325,-1.2793857995073574
248,12.58120306732818,2.04262091336354,2.732948578364782,-1.1651512547351723
249,14.222545794125692,2.28725786798338,2.56650016985497,-0.9557464424683293
250,15.744002552091487,2.6324339022548546,2.35911701667798,-0.6613303098301817
251,17.087882974978196,3.037392275753466,2.1342135837675253,-0.30852792898901665
252,18.209053105747266,3.460634808014019,1.917804025313801,0.06567491539411284
253,19.08171197075442,3.8658608865908546,1.7349840275578916,0.42821832955201433
254,19.701769555471795,4.224230415520609,1.6049385524264979,0.7564119839631448
255,20.08663852286526,4.512488699285934,1.5319817141964858,1.033622020052834
256,-0.3014379183745399,-0.3208727524838045,-0.612372303403811,-0.42860527486573907
257,-0.8094085175937582,-0.8084568044990137,-1.2801632570439259,-1.0938132376340894
258,-1.5641815873206313,-1.5338086501219554,-2.2135712496170523,-2.0818989039711444
259,-2.590113262508967,-2.513294908704447,-3.4057287303137387,-3.420219292561591
260,-3.8969667090799294,-3.7395025199927745,-4.823311943465922,-5.095967947375378
261,-5.453545035060522,-5.174776743428991,-6.408255639930647,-7.0518455207353385
262,-7.190063237747794,-6.754917777894645,-8.087594633576229,-9.199380958636185
263,-9.02559545296484,-8.403254801345739,-9.793626418649309,-11.438454732821688
264,-10.88881430440655,-10.046619288988373,-11.476606440091885,-13.667902684550643
265,-12.727192326929277,-11.629112185657858,-13.109633092756429,-15.79071250089408
266,-14.513587798428864,-13.127509104886412,-14.704748349429677,-17.74235217997344
267,-16.21165040130613,-14.524437004979646,-16.249464719037316,-19.468455803582334
268,-17.807525358104826,-15.818361195223043,-17.732723330306026,-20.93901100993053
269,-19.3061121181639,-17.01824577500007,-19.147462174108746,-22.140214666590374
270,-20.705921018445974,-18.1485980838048,-20.490539598675383,-23.069080868581775
271,-21.99361968452258,-19.24991651051888,-21.76402861914121,-23.742005027761046
272,-23.158684570680766,-20.363913931762617,-22.976006188534438,-24.20246261852636
273,-24.208322686031,-21.512449852458857,-24.13880583459764,-24.511767881881287
274,-25.166628045525442,-22.680190484216254,-25.263505995953153,-24.731291878158114
275,-26.048782465527662,-23.815357593085714,-26.354350640735206,-24.89881275930937
276,-26.841993448215373,-24.850396984260858,-27.4105265691101,-25.017676465455935
277,-27.508507046852902,-25.719286212306567,-28.433339938274685,-25.08255747099571
278,-28.012538656810563,-26.36748608551718,-29.432608987193625,-25.106251302042555
279,-28.343380614862614,-26.76084244075243,-30.41976869407092,-25.109554650389757
280,-28.496331383290606,-26.887143788085364,-31.388566381262375,-25.104022023353494
281,-28.45402387245594,-26.758994261834474,-32.316971398232305,-25.08942830219899
282,-28.19558814447645,-26.4229214181748,-33.19266722521109,-25.066492449513284
283,-27.709522757275987,-25.9594384844293,-34.012883312866954,-25.049384669157195
284,-26.99780289891543,-25.46237924046578,-34.75882192796591,-25.04539295614699
285,-26.07466294436695,-25.013786014091817,-35.392799110361054,-25.0310916940141
286,-24.96163389008455,-24.675273883577027,-35.877922289187445,-24.961896633581087
287,-23.6708510387207,-24.46347297595027,-36.18373213109309,-24.78522801195588
288,-22.212702900454353,-24.315040742060077,-36.27693648829786,-24.45533343491947
289,-20.63271025641994,-24.13076727733183,-36.11812644022602,-23.956801594520797
290,-19.0102410761545,-23.877448707520884,-35.66782717546176,-23.30509182522363
291,-17.406472159240714,-23.59160023409249,-34.89965723158764,-22.5127131709411
292,-15.858556985109681,-23.28127909136068,-33.80859286629529,-21.5976322841899
293,-14.449785251415898,-22.934022282240843,-32.424975578939,-20.664528681382023
294,-13.278761141456346,-22.633976600187857,-30.832126365783868,-19.844299231438477
295,-12.324027361435174,-22.561684907654353,-29.143480698815647,-19.098817088307456
296,-11.409992380995575,-22.871062069292257,-27.464808430186075,-18.217530850096768
297,-10.317644818031546,-23.61225008295408,-25.885390415464755,-16.99230596779777
298,-8.893638219259053,-24.761219292706908,-24.460369572940923,-15.30019575135168
299,-7.043867617158953,-26.29042534653318,-23.185440779237837,-13.072511296843782
300,-4.701325374107817,-28.196874809285458,-21.988449633387,-10.257767832669984
301,-1.836910267296669,-30.4988589558012,-20.705522822211428,-6.811890946222164
302,1.5692768886495239,-33.22545378198437,-19.151032968246533,-2.7004461231278647
303,5.587613695871636,-36.3869275600721,-17.267624686236868,2.116606281901428
304,10.268643201697207,-39.934432267650394,-15.152308315411624,7.652692721459694
305,15.513349185345307,-43.73412039557686,-13.001337554786382,13.818204398936082
306,21.092227272527076,-47.6149115318415,-11.053385635126086,20.402666177613398
307,26.72213193545392,-51.44467081199617,-9.517171874502953,27.096758194729833
308,32.08493885242004,-55.1380967066098,-8.497580362157569,33.51973196916056
309,36.8583786812688,-58.615829718458734,-7.969810616831301,39.28568077966965
310,40.78422075244184,-61.672227809150534,-7.810043771752465,44.09697708371174
311,43.66808555420798,-63.81545210637339,-7.804452591755874,47.74218993231681
312,45.304371911497014,-64.3234943450033,-7.683264444644385,49.98112479260902
313,45.51536420856453,-62.43594369093104,-7.215666467536184,50.57953794128344
314,44.2754711573867,-57.4125858015009,-6.240928922525768,49.49964255264999
315,41.7388534591284,-48.49460355224435,-4.625754368838226,46.94784755499017
316,38.177768850001826,-34.92423700060217,-2.236402200396595,43.27226934363405
317,33.92374903862961,-16.051358128482008,1.0755608028173405,38.88689981281712
318,29.343042111530664,8.527995845302936,5.494219186386749,34.2184028392302
319,24.77815273072973,38.87553281743945,11.298899110197997,29.632721737868074
320,20.47361158377117,74.66339712721714,18.956557477435595,25.40506064485126
321,16.61580201899993,115.1799779012559,29.05656471383817,21.759575043183123
322,13.442523407159225,159.4243397158151,42.130589055143055,18.93104237610519
323,11.217766075612635,206.28883881801977,58.5876686353985,17.149409585514977
324,10.111419560041481,254.75092018674135,78.6907690655581,16.566804328524746
325,10.170652823206975,303.9147712983815,102.51114680704768,17.232002295176482
326,11.353402188748467,352.94226803492865,129.9166509374728,19.107705799259076
327,13.551522843015134,401.052173533217,160.6192431188018,22.098588855312492
328,16.619011462565215,447.5599397569896,194.2427652839825,26.080165721909754
329,20.397080199570066,491.90220404939686,230.35319273074256,30.920979895555412
330,24.721868668360134,533.6551562572542,268.4848345810444,36.49476195135316
331,29.431673981063057,572.5257157610484,308.1406863067231,42.676980175701196
332,34.38756437538837,608.3202781538524,348.73679691140046,49.33016407826778
333,39.47913175807574,640.9047126935263,389.56013706161457,56.29044489323436
334,44.600465859851475,670.1699656286489,429.78288428947445,63.35808757515644
335,49.63431207832643,696.0113938192728,468.5122574559084,70.30616390450096
336,54.44861131663372,718.3016317616721,504.84205280946566,76.91810555827038
337,58.91322286400388,736.8620760608478,537.9073528646562,83.00698155745683
338,62.92614611762679,751.4635092898629,566.9370371814331,88.39754572799312
339,66.40104260090952,761.8462366872745,591.2653377730093,92.91707632983831
340,69.24588041808647,767.7274635430441,610.3261430629506,96.40483885070286
341,71.36088077913583,768.8122429967464,623.6760349481834,98.73668145563451
342,72.65512682427311,764.8458252925785,631.0244142803946,99.83956312185806
343,73.06841655992939,755.6656971914587,632.2384006623249,99.66895744403593
344,72.55862700616338,741.2014841360459,627.3215653864487,98.18808704089807
345,71.07599485465623,721.4530331891648,616.3664057643172,95.37230568577748
346,68.57115102269968,696.4708386241424,599.5143937205122,91.22947346530601
347,65.03097049701555,666.327102110275,576.9636462901137,85.81521595791874
348,60.4975752908493,631.082457725143,548.987860903914,79.21742542965715
349,55.05143026367132,590.7841832019578,515.9371762533915,71.5308359748698
350,48.784189286627736,545.5012475625415,478.2364504646812,62.858707562466954
351,41.79304845422043,495.35367772009414,436.3814214171755,53.33620980782804
352,34.19828543508539,440.537325478725,390.91997454031656,43.13779357064377
353,26.146065755087733,381.36231052326644,342.4346509897096,32.44520444417906
354,17.783632060714872,318.2790081552956,291.5440020940408,21.41258746991789
355,9.225965888001586,251.8666967594105,238.89788804146096,10.168849085429637
356,0.5508856271828932,182.80388426191664,185.16674497256062,-1.1633757512195184
357,-8.17602338138236,111.84961644001423,131.03157538186542,-12.456602297291651
358,-16.89045121268058,39.82045511159971,77.15101877547573,-23.58262362715002
359,-25.526241314592944,-32.465816550296076,24.122522603845102,-34.42924159527873
360,-34.02180747976557,-104.24503012418539,-27.533430690259323,-44.90448842452032
361,-42.325174868117635,-174.80693175780766,-77.38017422333989,-54.9264483720902
362,-50.367874571400705,-243.4782527771972,-125.06711912466531,-64.42288709799527
363,-58.051907224183694,-309.64318180219857,-170.3174256760242,-73.33685748836784
364,-65.2732050328008,-372.7699637452151,-212.9175204917796,-81.63137699856188
365,-71.95345233582411,-432.4061710862429,-252.71836516208788,-89.29210725749415
366,-78.05335128112851,-488.16985697883376,-289.6274995812795,-96.3156350272819
367,-83.5551842794435,-539.7540250826117,-323.5857162301813,-102.6959474203277
368,-88.4418449966378,-586.9235496540797,-354.5464262072445,-108.42468005677057
369,-92.69375320264307,-629.5122447118878,-382.4662205906354,-113.49816627617136
370,-96.30459841316704,-667.4295475846354,-407.30997036554254,-117.91631574712159
371,-99.29134800600735,-700.6506944409977,-429.06567761365653,-121.66782373430772
372,-101.67984393072429,-729.1937675245208,-447.75096679572334,-124.72410403766618
373,-103.49064104560382,-753.1100036738601,-463.4090670132311,-127.051078875708
374,-104.8342735221064,-773.0609222620607,-476.45904473286106,-128.78323017222235
375,-105.57309310811392,-788.3060805392221,-486.50972620305373,-129.71870430178188
376,-105.68496554510446,-798.6381182443423,-493.4832671277056,-129.81322948872122
377,-105.23409562376241,-804.3059456584724,-497.5582997864664,-129.13981388960934
378,-104.33316301757716,-805.9199883638344,-499.11375585896525,-127.85543055255468
379,-103.12352077287193,-804.346023824344,-498.6708719900434,-126.16967469054359
380,-101.77095500088559,-800.5877402939885,-496.82827657687716,-124.31025262928763
381,-100.4425495386251,-795.6656437785145,-494.19815273795047,-122.48859098387531
382,-99.27067059903167,-790.5140523056263,-491.3441582389325,-120.86948676411406
383,-98.33556452101148,-785.9011321381748,-488.7293581219207,-119.56223133668122
384,-0.7234812543338717,-6.205735733171888,-3.138933161723528,-1.0377803251485225
385,-1.839395418985922,-13.440231235447992,-7.074231382616048,-2.4411347032780486
386,-3.4796190424960542,-23.710574515228526,-12.742307920968566,-4.519018164600403
387,-5.664600253686711,-37.00522000482156,-20.144478031214586,-7.304477764011867
388,-8.370891034286615,-53.04352115170622,-29.18265335604589,-10.750117544007344
389,-11.520496009859592,-71.30676007992031,-39.64214552501428,-14.738120228006036
390,-14.988837475097755,-91.10855162454743,-51.14048602370252,-19.11627610524207
391,-18.63255875059966,-111.69657400890534,-63.14503114592715,-23.717733073939673
392,-22.317405397904786,-132.37738008520637,-75.04917278998909,-28.367728542682016
393,-25.940963466889603,-152.6730631255112,-86.29761170518093,-32.91268520245028
394,-29.460969163109773,-172.53389995494513,-96.55181629129316,-37.27402814158846
395,-32.82037276749208,-191.64874507270565,-105.38242551134734,-41.34876773364713
396,-35.97966739602582,-209.68356855876038,-112.42584001160168,-45.0597808111119
397,-38.91771921429622,-226.30268790679204,-117.4135097494818,-48.35215845408699
398,-41.61607686751939,-241.1982527125077,-120.21605757792159,-51.18940619768578
399,-44.04697088370223,-254.1143445005974,-120.84282789592204,-53.55827226932417
400,-46.179787776451846,-264.8591755678088,-119.37175679947896,-55.47659286345666
401,-47.99726519729485,-273.3217020816134,-115.94556424608953,-56.99110090733443
402,-49.500464787545,-279.4831555628428,-110.81627742180088,-58.15156785610363
403,-50.68970150026102,-283.40708534525663,-104.34490920109447,-58.993259330455885
404,-51.552958593609326,-285.21520931149183,-96.95510316972167,-59.546379462400175
405,-52.07680908875689,-285.06131358685826,-89.04977550425144,-59.838623562769214
406,-52.26181024428988,-283.1122774390061,-80.9999733368028,-59.88700948774356
407,-52.12732381766145,-279.53295421709925,-73.20091084294538,-59.68669511810951
408,-51.69745994348731,-274.46371324877396,-66.0374164440533,-59.21165497334531
409,-50.99077237991126,-268.00665073679204,-59.81072170768475,-58.43432934274283
410,-50.02740800709633,-260.2407330353726,-54.70880454301701,-57.34169444838393
411,-48.83650482202778,-251.24094910067842,-50.79341989296008,-55.94477388888821
412,-47.45428795586149,-241.08873234953026,-48.003704897591405,-54.27525616116153
413,-45.91115194926862,-229.88832044477442,-46.17616818087348,-52.37136024851201
414,-44.2212808075327,-217.7744451131652,-45.075163141420376,-50.27001891771738
415,-42.38694802007739,-204.90579407341716,-44.435800517861686,-48.0155307823238
416,-40.41315976966649,-191.46062568954235,-44.02350790071207,-45.67076713926421
417,-38.32366869322036,-177.63141938300427,-43.706419882940864,-43.30417151359438
418,-36.163823527372244,-163.6079551607288,-43.452060435008136,-40.963949007873524
419,-33.981024740165296,-149.55143235803854,-43.244329828989976,-38.66398235950565
420,-31.803584780638126,-135.57841953616852,-43.063043897946656,-36.39820360071978
421,-29.649138814776666,-121.7685354847724,-42.897777312057904,-34.16036865791387
422,-27.538866828406668,-108.17558674649106,-42.734706615761866,-31.941149114871873
423,-25.490899258810135,-94.8252132717466,-42.54587418057924,-29.71711571144563
424,-23.508418104188415,-81.72111367232984,-42.28687209697746,-27.44951978727337
425,-21.57449136662712,-68.87588997464795,-41.90922896439946,-25.109442622800586
426,-19.66900254376984,-56.34605483550011,-41.37647809503096,-22.70736671652484
427,-17.79072731889348,-44.23749381461491,-40.668308690983636,-20.287269001526827
428,-15.957611256070871,-32.685220817488194,-39.77611722395653,-17.893741362704954
429,-14.188328126593296,-21.831780274603858,-38.69793219943168,-15.552639097967603
430,-12.482028597322255,-11.805833178229797,-37.43604478976,-13.285831516826434
431,-10.825768121033818,-2.707772988508264,-35.999889503036044,-11.125802410334277
432,-9.215429766207503,5.39574056527179,-34.40882461337575,-9.100286612020302
433,-7.660016817769769,12.480062483418681,-32.688543483740105,-7.207011098564022
434,-6.169325322769881,18.56850469783878,-30.86659829371211,-5.416536304753108
435,-4.745676009807618,23.722630122474865,-28.969787353444907,-3.7083273152092877
436,-3.3966977430010874,28.013118235821825,-27.021844360338697,-2.10033437690113
437,-2.152160197837646,31.49959259100672,-25.038559640482987,-0.6321224136764556
438,-1.0508854295148835,34.245568272661274,-23.01941372488823,0.6828374703711986
439,-0.10763611319874591,36.34025400285083,-20.94603458621136,1.8697743738151287
440,0.6913963020744138,37.898618063341296,-18.794659726057084,2.963079333778463
441,1.3664801006478284,39.04812903438291,-16.551180160344096,3.9809684938736014
442,1.9288031729756767,39.92051563860273,-14.216781729788915,4.9265774540299
443,2.3844824313648414,40.65244839279759,-11.80549835745483,5.808207346995175
444,2.7597474719411634,41.378714004440155,-9.339754031477623,6.645771767173817
445,3.1120115506713963,42.21626119789695,-6.8493012554919614,7.45873210322636
446,3.498853502743783,43.24885111114278,-4.3737153720105875,8.252147705788088
447,3.940633712845055,44.5158802895603,-1.9612996704591181,9.012043711179187
448,4.418588205754578,46.01709761363926,0.3389656678092887,9.720525838559423
449,4.904789204039804,47.72422292952106,2.4855261481125823,10.364872038619298
450,5.38440889531475,49.587572463723546,4.449565771603431,10.934993157197674
451,5.84856796028,51.54596210721968,6.220178639319054,11.428052301550688
452,6.277626071928046,53.543261795942186,7.807046775424806,11.853455961184348
453,6.6452567864690515,55.556288881779544,9.237754084979409,12.238093070727336
454,6.931657889287521,57.61481972383992,10.54796074548022,12.619944587146072
455,7.130269370760063,59.769214212585744,11.765789094177014,13.021040543957668
456,7.254636821967299,62.03683015446342,12.90519265100059,13.438464076572712
457,7.334299756823793,64.39498813633097,13.974528500156378,13.863646103095999
458,7.401842533088503,66.8013938670554,14.985440244968474,14.300021184160055
459,7.4896719030733365,69.2070139612882,15.951801891630407,14.764169578414345
460,7.62794269362418,71.56220268609054,16.883764338317746,15.26968475839735
461,7.832803649597905,73.82667404734472,17.78445889746764,15.812451617643909
462,8.092979130817998,75.97829952902208,18.651086605464464,16.37042245114481
463,8.372590025717264,78.0063601749521,19.478812647730567,16.914518984545264
464,8.635612313251478,79.91318354894493,20.264495373674738,17.42475247598272
465,8.860714258873436,81.72407864540128,21.008327991935154,17.894505641028804
466,9.039829708474745,83.47801894276125,21.711383592613238,18.315920023755197
467,9.17473068883486,85.21061290921537,22.370085167869288,18.668308497317398
468,9.273173938777663,86.95065109449209,22.974064093635636,18.92567611112997
469,9.345414041452711,88.72503102590517,23.510362683213177,19.074302027435497
470,9.408334488438827,90.55247661387311,23.969992866553817,19.116595821310145
471,9.496254284821354,92.42706203611333,24.353455894474962,19.05671879827108
472,9.652023508407558,94.31764288663291,24.67403479943149,18.894596535919117
473,9.895131468673968,96.19603459781347,24.957240402114063,18.6379737502871
474,10.206977938737696,98.05365568405752,25.23538614733789,18.314727753998337
475,10.55859117583677,99.88861330023346,25.540414288058262,17.973669664862232
476,10.937624408203492,101.69952270535359,25.898882000552227,17.666361526080077
477,11.335971339971884,103.48087108110019,26.328047068529514,17.421483684627077
478,11.731551792684787,105.21127896895942,26.837189779521776,17.242443502102052
479,12.09108342491301,106.85852514973361,27.433494172206498,17.125284547929926
480,12.387415559596052,108.39755480597427,28.121292036275577,17.074432342349034
481,12.61399921967637,109.81167413912036,28.897172638524083,17.095397271262627
482,12.777388821828804,111.07766988035542,29.75051195200453,17.171642103363762
483,12.88215558221762,112.1655450502136,30.660350696548015,17.261368017204447
484,12.925181432001015,113.04792876708794,31.59079469687801,17.320064982901275
485,12.910827045894942,113.69746973618193,32.50226097499353,17.32144132647079
486,12.874855642231228,114.08206448771236,33.36583818314492,17.254213761752318
487,12.865276977825378,114.17828529533335,34.17025472848364,17.11062543129802
488,12.892455993416323,113.99422045309524,34.92583416151709,16.889448831064964
489,12.924845634577421,113.57389561701285,35.66411331699964,16.606792113317436
490,12.929712302699668,112.97937195938515,36.43284679010146,16.294995693885255
491,12.893135758883176,112.27031405064446,37.287936147849535,15.986422845002158
492,12.80969065545588,111.4965457812096,38.285832137037076,15.702061702293108
493,12.666038234889491,110.69669369791674,39.47526898977364,15.453835676358297
494,12.44389521976035,109.89675925948849,40.88257344002493,15.25574417670213
495,12.14159410694936,109.11355296120917,42.50724945523894,15.123126137213362
496,11.779878474174406,108.3502632508446,44.33237549714361,15.051697311572592
497,11.39433529591501,107.58282369484353,46.323818349377596,15.007344359868181
498,11.02193774129045,106.76027004882926,48.42783913759225,14.94189552389448
499,10.688722570447537,105.82198541236632,50.57859458370202,14.819912026940578
500,10.41726494875109,104.72470907292497,52.70506544565619,14.62924670068555
501,10.233399312842254,103.46524208778708,54.739398051976245,14.376274775105344
502,10.162055608989284,102.203445966575,56.67254842157873,14.073142349550992
503,10.155477315343314,100.74199248708906,58.33210102580475,13.705596688613632
504,10.157127988443186,99.01419440402483,59.60261356173177,13.289544311894495
505,10.13404002163297,97.04700861568475,60.42921907335504,12.86093562675525
506,10.081948454470425,94.92875509053952,60.81295850618004,12.4527654025996
507,10.004893668485185,92.77924906185264,60.802979960158865,12.084024941189924
508,9.905455018074576,90.72254861333343,60.4859368761751,11.763987102771548
509,9.786869284908732,88.86716332151698,59.972928153652276,11.500308470206079
510,9.657780761824242,87.29842171986293,59.38432839273732,11.301111749901636
511,9.535107337180168,86.07493796329317,58.83285674545861,11.169777244957722
512,-0.24602118122555688,-0.9735955916732573,-0.42411758893290435,-0.3098906165526935
513,-0.7549591639163715,-2.1679521424424615,-1.0270883665769088,-0.8245205723954558
514,-1.5219946784995657,-3.9001735487434055,-1.9168557542919737,-1.556812457521434
515,-2.5548387092933993,-6.197833741820952,-3.0939449449258074,-2.489005845155571
516,-3.8369518433140404,-9.02598928998758,-4.534280933667496,-3.569015472877113
517,-5.315360276359389,-12.279992391846466,-6.193909904239385,-4.72919515810656
518,-6.906658570161665,-15.802571715786717,-8.015064901812393,-5.916317439648149
519,-8.530089659574989,-19.401614065671584,-9.932149885976603,-7.105973248052533
520,-10.135599212113933,-22.86702611120716,-11.877844587113037,-8.297457847265967
521,-11.706339693708472,-26.012788816655753,-13.794529235921093,-9.503559468131735
522,-13.255783967501763,-28.739588267602148,-15.654679766131332,-10.759113686078958
523,-14.791339027955793,-30.93885444110777,-17.418582517421612,-12.109669255159016
524,-16.3095304702469,-32.53740720238293,-19.05339784949817,-13.59454936799331
525,-17.785066084444505,-33.501364223705146,-20.53286663351135,-15.204589450509777
526,-19.16560130286894,-33.83691473399811,-21.83372714105923,-16.878815380597448
527,-20.37876386987282,-33.58682897250636,-22.936489941578362,-18.541082033126795
528,-21.350027692658546,-32.825740758940974,-23.830709780533557,-20.125767806061592
529,-22.014613759144964,-31.648501751600573,-24.518239013261503,-21.58213426369775
530,-22.32555683932415,-30.139149313941015,-25.014154392120005,-22.87515581628489
531,-22.259830514797287,-28.343746047390354,-25.34596672274327,-23.984996124780242
532,-21.82052558480476,-26.285176423970803,-25.54771859366742,-24.914317363287008
533,-21.035821463086418,-24.000038229866576,-25.65128391386056,-25.695062464414757
534,-19.954690088617532,-21.54374177672268,-25.681656389670405,-26.37682153984814
535,-18.639457027553494,-18.968812784589062,-25.651426472555926,-26.99350136568529
536,-17.15306085634554,-16.324243819791835,-25.557215684589764,-27.53647036488432
537,-15.560085562451127,-13.675935298912506,-25.39165551652629,-27.97064689453116
538,-13.93277239239303,-11.111102595811545,-25.159072827743426,-28.265110522831506
539,-12.335685581204581,-8.723084489193495,-24.876138313216206,-28.402552426543686
540,-10.81991493637242,-6.599383610876863,-24.56252312519398,-28.36916952190325
541,-9.440187093239764,-4.8119615189720575,-24.23424571772381,-28.153961815389746
542,-8.257832072145051,-3.4041992074480594,-23.904483958850925,-27.767881719205423
543,-7.326577722272715,-2.3854770715438343,-23.58877662055412,-27.24962768339546
544,-6.679020656749371,-1.7373324830301666,-23.299998508752523,-26.652337644002404
545,-6.317325933317402,-1.4239349839715572,-23.032257557992377,-26.0232873631232
546,-6.2088391479810365,-1.4009922581749958,-22.76299719835647,-25.389485590264353
547,-6.28885780344801,-1.6269812245028838,-22.472644816254366,-24.76388084260077
548,-6.477764688670552,-2.070921010550464,-22.15404558880882,-24.157418141621566
549,-6.7061059157547,-2.7045397838122076,-21.808132257925298,-23.576802834772156
550,-6.931754827623385,-3.4918351363369404,-21.436117317729817,-23.011768056022774
551,-7.14559335165421,-4.397609559207871,-21.039427180919553,-22.428517258156305
552,-7.357711989577591,-5.405253385035142,-20.625899975326963,-21.782512831693516
553,-7.572368001573807,-6.513905640210745,-20.20824103449432,-21.04885848492392
554,-7.7846508102054965,-7.719751825192651,-19.795430658922474,-20.232485669156308
555,-8.00345909428683,-9.01012372919416,-19.38596385473008,-19.349610224464456
556,-8.27644519903726,-10.362528547207368,-18.968595161144563,-18.41711949843742
557,-8.668403121257306,-11.74132430240242,-18.52763061798572,-17.448445069956158
558,-9.203718278501587,-13.111110273737594,-18.05163675765226,-16.46234931911808
559,-9.856334356332372,-14.456149332890671,-17.5444506050388,-15.498962584664998
560,-10.585759751100815,-15.7812746509306,-17.02639429986626,-14.609509925154983
561,-11.36550490223814,-17.100529671334662,-16.52818815829795,-13.831563651364727
562,-12.18181402559496,-18.429987674614438,-16.084974162348384,-13.178592304857615
563,-13.012726277040809,-19.78629289771993,-15.726320761214039,-12.652740912311689
564,-13.826657812044594,-21.1843347333755,-15.46176446710335,-12.257391661787516
565,-14.600185608112682,-22.631713626154422,-15.280232486052663,-11.98752730405448
566,-15.327531811791365,-24.12433222177688,-15.162237600321255,-11.820445577731551
567,-16.014593264767026,-25.644208297347156,-15.086551150581576,-11.72490409358568
568,-16.66500366983944,-27.161355983446825,-15.034901111228022,-11.680361860747897
569,-17.278359083757504,-28.639366144549832,-14.994402953763883,-11.69015844040738
570,-17.861394980063555,-30.03857873358827,-14.957879184429402,-11.77107832006237
571,-18.428928350543487,-31.317809482485938,-14.92484371269509,-11.928342452327009
572,-18.98340986934579,-32.43675609582337,-14.898126186011625,-12.14291337747466
573,-19.494510322382723,-33.35892247885157,-14.880439822327649,-12.38273207378698
574,-19.912721890090896,-34.06359875965562,-14.872923028818608,-12.622448745053507
575,-20.20513529348022,-34.55405669122778,-14.868299832591937,-12.84041637996821
576,-20.367688445499596,-34.83938686796108,-14.841642671848497,-12.996168695731821
577,-20.402905812704166,-34.91694023136685,-14.756225168741874,-13.034797576295503
578,-20.295174175640035,-34.77520803192168,-14.581693545947902,-12.919115228739754
579,-20.028331688804606,-34.40478567831382,-14.303780465672384,-12.646249696828656
580,-19.629557384616614,-33.80904807644384,-13.922896917502717,-12.240930746784372
581,-19.165734930774555,-33.006269894763655,-13.448822610939988,-11.73449452282426
582,-18.693557306148804,-32.02482769410012,-12.89685144437122,-11.148631770647839
583,-18.229584772502047,-30.89704546981115,-12.286785577124821,-10.503738950267609
584,-17.76223709010131,-29.655250377667063,-11.642790548480809,-9.827360274738053
585,-17.280200037346553,-28.331453877496873,-10.988741584455585,-9.145857432396674
586,-16.784331075556732,-26.955594621398312,-10.343562039275415,-8.47351651883957
587,-16.27065007499842,-25.551218265569677,-9.71747223696464,-7.810878468894497
588,-15.71676308906522,-24.134409017517513,-9.10295169422552,-7.157737664606192
589,-15.09503381209953,-22.715784054521798,-8.47932821578205,-6.527761340986332
590,-14.394722436174122,-21.302868326646458,-7.831049173271998,-5.9434642896466094
591,-13.623523337650242,-19.89821377060284,-7.153637261492035,-5.412744128254338
592,-12.785710533109265,-18.49185920586201,-6.449585792423708,-4.919494495744398
593,-11.876367328947667,-17.07032975452579,-5.727257298090622,-4.437450683841155
594,-10.897997822841338,-15.642466218285499,-5.000974157617498,-3.9465962947250848
595,-9.878840148499409,-14.246358324399466,-4.286277689124205,-3.4438488357856953
596,-8.86910915450708,-12.930688510802032,-3.594174535023348,-2.9351641853064168
597,-7.905033762537713,-11.7355111932899,-2.9321018386856372,-2.421071354922061
598,-6.992873077739308,-10.688465427398905,-2.3071046044103833,-1.9015430323572733
599,-6.132195196072858,-9.808432041875163,-1.727532932028744,-1.3883766636713721
600,-5.334267360572062,-9.1056442955625,-1.204439189488588,-0.9026666067236147
601,-4.616239238309526,-8.580556399488975,-0.7473302820575598,-0.45311848665646726
602,-3.9800005991391183,-8.222362296107061,-0.3594655759846941,-0.02048006359037162
603,-3.399328771100379,-8.009616713661456,-0.04096754726049781,0.4301169195331739
604,-2.832596272133963,-7.917498807450451,0.20452871352042765,0.9193337472043669
605,-2.248362764936491,-7.9255892144136135,0.3636462175511874,1.437631333015533
606,-1.63600288765609,-8.01702159784068,0.41934738738273564,1.961308993595472
607,-1.0025442570368925,-8.174126351825421,0.36860241306867886,2.470244247854616
608,-0.3618611891569281,-8.380777769792305,0.2270867229576722,2.946523735576289
609,0.28162893304173986,-8.62922934376488,0.021306477337540743,3.371655126016387
610,0.9331914472744824,-8.918474617423422,-0.21509439004509268,3.733869875406752
611,1.5972343219721223,-9.239978133585357,-0.44411144400256763,4.044073598122178
612,2.2693506821168716,-9.567912080042241,-0.63086855101066,4.347544077572374
613,2.942263185471705,-9.863770672382792,-0.7520890988126427,4.710115081972618
614,3.616292847523643,-10.086026842694515,-0.7995029789142706,5.187039605473361
615,4.290445133211101,-10.197184839443636,-0.7770818882826811,5.808758024200381
616,4.955376090058013,-10.170607273084016,-0.6976678932394114,6.584308365900069
617,5.600521772078224,-9.990736293582666,-0.5768011467971008,7.503801202951264
618,6.219141268644696,-9.644713133268118,-0.42588679019778275,8.537972586125377
619,6.810561536068264,-9.121869454107628,-0.25574363365497216,9.629780941939206
620,7.372634202244512,-8.422296769958333,-0.08093467513399702,10.691173693574259
621,7.888040251235341,-7.563068939577042,0.08636242199771868,11.637910996711657
622,8.322983436022108,-6.576033042063871,0.24306041184220328,12.429498131448486
623,8.647295705463211,-5.499225074140622,0.39382100764334427,13.060943736990415
624,8.861154232703589,-4.370511177930344,0.5450885432639611,13.534907749107635
625,8.984343139208667,-3.2230215745988873,0.7022698805098279,13.853098214340363
626,9.025224243468717,-2.0758772919535424,0.8703413592639445,14.0165465302076
627,8.976439067045463,-0.9301173071772998,1.0543254549346306,14.028598627096574
628,8.828373808068175,0.22182770533842916,1.25848156860167,13.899389579272572
629,8.581053374165407,1.3860849119068763,1.485946134660067,13.640806075647491
630,8.212443795268324,2.4743428597685417,1.7212880461649118,13.298193021210981
631,7.779283992345866,3.6378347708371486,1.9962615179094998,12.782053137652797
632,7.327407996244116,4.943105454074675,2.323735501459204,12.068731529787502
633,6.901339848142102,6.394714851305444,2.700153768269564,11.179625360469318
634,6.539994696415575,7.951627146632025,3.107330887275031,10.161483114009297
635,6.264656534712889,9.537571736324875,3.516097636649908,9.075053638141931
636,6.07536220952817,11.058249718908968,3.894545735773395,7.994550764568465
637,5.960968165986215,12.424396467371572,4.219311956745757,7.006099596608706
638,5.917348090823283,13.566870492818222,4.478349246494809,6.188972049377155
639,5.948096064025263,14.442547527973648,4.6668149538589185,5.584636066392745
640,-0.041912072833366315,-0.314573171298485,-0.6816530240803871,-0.6760273366790333
641,-0.032870560134855294,-0.7792416192333759,-1.4233667336613185,-1.3546188676190989
642,0.013349842636517478,-1.4650152275109662,-2.4390596987708673,-2.256415496984799
643,0.08226742179856626,-2.3613113368539675,-3.712544222947548,-3.357127028639316
644,0.14135576768560953,-3.432064482173142,-5.207745869078102,-4.61151249048981
645,0.14837114345299332,-4.625579141974526,-6.875125531422934,-5.967261169976022
646,0.05952850987032368,-5.8806811474475404,-8.659098229929207,-7.384158138794826
647,-0.16633376049469195,-7.128642149816653,-10.50418774922147,-8.834765141662311
648,-0.569633812870927,-8.303814538013055,-12.363604992167817,-10.292737068173512
649,-1.1822501710662119,-9.362423882955454,-14.213948144153187,-11.741676937658422
650,-2.0100834388963085,-10.304198354239393,-16.073384584596837,-13.203193058575177
651,-3.0269763415339863,-11.140565828723094,-17.924487554021404,-14.677742490084901
652,-4.18584567246055,-11.900105443276068,-19.733423690609243,-16.153511570800905
653,-5.437458868944307,-12.61432577618489,-21.45365173516737,-17.593991806692735
654,-6.737409993159123,-13.304943834981179,-23.036187233361513,-18.947379690713156
655,-8.043345925477297,-13.979402080800304,-24.44842003896925,-20.1724922186894
656,-9.319352539718162,-14.63391260645944,-25.68940598940881,-21.258873679636284
657,-10.553985081513359,-15.252693220419955,-26.784524365897266,-22.219995013996385
658,-11.76366678377083,-15.811233843857151,-27.766289022614792,-23.070648122834786
659,-12.959542789120952,-16.29284636092944,-28.6594287854371,-23.813927807710197
660,-14.128335457013465,-16.697312452876915,-29.477963499579836,-24.443698590267573
661,-15.247142723614274,-17.03777936370874,-30.228449002068245,-24.949080332977513
662,-16.29718205104972,-17.337929221457,-30.910035047991713,-25.31099048626356
663,-17.27074172183156,-17.62775488470097,-31.51048527232271,-25.495283209999116
664,-18.159307356745444,-17.94017437108164,-32.004008779952855,-25.456358545815426
665,-18.924637341202573,-18.303498280947398,-32.356766319085565,-25.162678499537247
666,-19.510569001175092,-18.729805443395513,-32.53730895958572,-24.613061091792833
667,-19.890445522661118,-19.209344530959942,-32.527445403773505,-23.824326042004607
668,-20.085519991504906,-19.70907410684559,-32.32970769658855,-22.820604852646664
669,-20.14019853092673,-20.181984923592857,-31.966641765953796,-21.639569350218004
670,-20.086376186816896,-20.588757831480695,-31.472781935134407,-20.341306495046176
671,-19.942523691609995,-20.915523864952693,-30.884018937931856,-19.00830536117719
672,-19.745564358639875,-21.1709379097119,-30.227983213051658,-17.731728161868606
673,-19.56339014419008,-21.370299093532584,-29.518715837493414,-16.588867799257326
674,-19.465539976326234,-21.530273297093707,-28.763427275806173,-15.631473682437287
675,-19.483910934870384,-21.672346636349122,-27.974509312432506,-14.886403079829496
676,-19.610671633242223,-21.82064366131208,-27.171563203289477,-14.355490269506522
677,-19.823850490842137,-21.992945191041887,-26.37460380732914,-14.013805779234922
678,-20.094671180578768,-22.195116502650574,-25.593428421563093,-13.808592339248028
679,-20.37445778892894,-22.422852563177802,-24.827230089579693,-13.666919905989253
680,-20.591823818897417,-22.665467098847788,-24.075945496098697,-13.518106068235864
681,-20.68042564129277,-22.911947117403237,-23.34599184728529,-13.318812896041493
682,-20.619086162583603,-23.160898253555676,-22.644014638439934,-13.052798789419127
683,-20.43220089391719,-23.41901375073806,-21.965751102985845,-12.710896447914763
684,-20.14512544483872,-23.68752303576245,-21.29520884176731,-12.290495031044461
685,-19.7607087774625,-23.959235476782347,-20.612734062742508,-11.808944181293475
686,-19.281473867770092,-24.22894774133511,-19.9026618703477,-11.300477900746607
687,-18.735159875878047,-24.501545093436743,-19.15776274228699,-10.801926140334622
688,-18.167705678625982,-24.787296446387188,-18.381533762387196,-10.338020824901587
689,-17.60449771019797,-25.092007427673146,-17.59145062955876,-9.9078783642325
690,-17.026072188099725,-25.414519360699778,-16.8175270230016,-9.490543054819602
691,-16.394110890566846,-25.746797362402535,-16.09485149970756,-9.071523527888898
692,-15.694821136422494,-26.069307073503868,-15.457507333221141,-8.667280106952878
693,-14.948202621032989,-26.35261862133264,-14.932185240066087,-8.318350642229753
694,-14.184629507882722,-26.568355761068226,-14.529995038710705,-8.060437034177397
695,-13.431783667973603,-26.699466477966244,-14.244019903095385,-7.91203197102592
696,-12.718104984798927,-26.745092881975225,-14.051836757323018,-7.880037658477565
697,-12.076895237210113,-26.722686367867524,-13.919115367467004,-7.96438691914242
698,-11.546127375892954,-26.66821347691697,-13.808000707014841,-8.154247327118181
699,-11.152193172442527,-26.62476053599377,-13.686222619541278,-8.425912258951392
700,-10.897039438614488,-26.63073177274554,-13.53223798594514,-8.746603116684483
701,-10.764439053462104,-26.723060166048487,-13.334728879449507,-9.079363651496797
702,-10.727515604028472,-26.93354457687572,-13.087208325212922,-9.390023699911735
703,-10.744147533124393,-27.271660684601002,-12.785525968895202,-9.651490990409533
704,-10.747171950133325,-27.715189195989804,-12.427571982287494,-9.840274106813357
705,-10.655089809745062,-28.222444244548004,-12.01167514122595,-9.931495795268143
706,-10.397750561042091,-28.755780948256835,-11.535975908738267,-9.914602807387604
707,-9.93406234146999,-29.289734375639593,-11.000297847856567,-9.81352983383387
708,-9.249504323828308,-29.801849765808182,-10.407523509873348,-9.671961661300974
709,-8.337889538294696,-30.259636969249435,-9.760092028759034,-9.519459077402056
710,-7.201508627399173,-30.617270561354676,-9.056199063418067,-9.356030099292207
711,-5.860184330322605,-30.821191541001568,-8.294848909852917,-9.17415065695899
712,-4.345208942110557,-30.81946351634675,-7.482967763345839,-8.980785874335716
713,-2.6957658878549484,-30.5744678203632,-6.635652146125123,-8.786128622876376
714,-0.9628019361235116,-30.067066604482317,-5.770956840059083,-8.582295724565226
715,0.8017483458243748,-29.290881490829353,-4.902655203939275,-8.336696016716752
716,2.5646651191588803,-28.25619755245782,-4.04050804617671,-8.011328452804632
717,4.300282288497491,-27.004298445740563,-3.197207836182468,-7.589456496311555
718,5.9622623551614815,-25.601458757442824,-2.3886970115408634,-7.081342034730921
719,7.47562969531057,-24.111728408200953,-1.6293533515272283,-6.510496755102272
720,8.75626688265452,-22.57442022237424,-0.9327840565773656,-5.905353065859026
721,9.742584501455843,-21.000771298272923,-0.31478124527920615,-5.305175267207637
722,10.405517811113953,-19.385462592583757,0.20889443298860572,-4.758896455401821
723,10.737564025481216,-17.71687667543138,0.6263870863433145,-4.3044369020689714
724,10.742934676981234,-15.98460035668003,0.9328811532166074,-3.9387165217442495
725,10.442243754678735,-14.183287694283102,1.1311112754446224,-3.614672284409203
726,9.886915966943674,-12.312044155054616,1.2254339425509246,-3.277700725974137
727,9.151822110570205,-10.377818881127443,1.217104049520222,-2.8983255574076905
728,8.305666678098191,-8.394236547527491,1.1084104693549148,-2.4740337024306576
729,7.386442482219823,-6.37339085812616,0.9092155542891497,-2.0066695938374557
730,6.4096231138007695,-4.323350283738181,0.6365087284626909,-1.4917220474633917
731,5.399804582207803,-2.25487548417369,0.3080198322032554,-0.9346306214103146
732,4.388872222362646,-0.1910778570390539,-0.06242607462651062,-0.3597108360180089
733,3.389449386007709,1.8353323953044418,-0.462446904925948,0.2013893285276646
734,2.3986635392354048,3.8007979373698775,-0.8753629156323021,0.7263473916360061
735,1.4225093688524935,5.699497032863666,-1.2818952023839667,1.2079346273870926
736,0.4847628483368634,7.526054339364146,-1.664370461372005,1.6500796351681764
737,-0.3805025143996351,9.259021015963015,-2.0030339628851617,2.061195931550902
738,-1.1489705753725061,10.863308105824716,-2.275217394760865,2.4480010166942203
739,-1.8168111611877524,12.302616035649983,-2.464579452777372,2.8136917931887133
740,-2.3833296733532556,13.549075267393231,-2.567512476398866,3.154780327635064
741,-2.8386363072025294,14.585481572821351,-2.5909843597349953,3.4592263861424155
742,-3.1775145103506333,15.402288383957824,-2.550063787974967,3.702969954302531
743,-3.418590377486859,15.99184083158012,-2.466183253916662,3.849913614518297
744,-3.5966330331449905,16.35212815568817,-2.3612000565698663,3.8726260240198327
745,-3.736290964158295,16.4997212909767,-2.2518787715012056,3.773236971444006
746,-3.842193040130891,16.473374668246223,-2.1482401775169695,3.5828872992499003
747,-3.9057198292584596,16.32570921960661,-2.0528090959660727,3.3418218484526716
748,-3.9194923069071583,16.109576593927716,-1.9603117533387897,3.080398426426203
749,-3.886110883432221,15.87437777212517,-1.8580335181221619,2.8241117733358303
750,-3.8127695601920424,15.670861637400902,-1.7283757125374744,2.6059372478015206
751,-3.703850318008449,15.53593539947148,-1.556419625434558,2.4628050823837926
752,-3.553657321440119,15.470887269828918,-1.337029165851141,2.418336846903272
753,-3.349987593671429,15.446126294275487,-1.0759679796510269,2.466198891908292
754,-3.0956639329743596,15.420412968343147,-0.7897689344897805,2.5738277198605806
755,-2.819277413398287,15.34891223638102,-0.5012957155668438,2.700652809276739
756,-2.5518004594514005,15.18678388392602,-0.22931709867375033,2.8108821292878052
757,-2.3004103483431066,14.898217036042759,0.015298001518685975,2.874361405041669
758,-2.0714491659863414,14.465419357358003,0.20888417239626733,2.8459793603450363
759,-1.86076317218755,13.873341529732462,0.382227599366524,2.7095414870248105
760,-1.6613928505169597,13.148731180459132,0.5564827084678031,2.4834137936846203
761,-1.4624544611944494,12.34599105594452,0.7453212131643083,2.2103238915256584
762,-1.2587494220760331,11.52845893118725,0.9540346063227161,1.9298852870820078
763,-1.055068550426395,10.755925233966048,1.1800316950896574,1.6661250465075386
764,-0.8665262646979314,10.081442045628235,1.414990000364185,1.4351555544282477
765,-0.7109333404430748,9.548520384358874,1.6462641420093411,1.2551177309168493
766,-0.5937806307109226,9.181096385143766,1.8580166902384017,1.140483491725824
767,-0.5067882797635471,8.970093264061923,2.0336305703336075,1.0868788479736256
768,-0.052055902045425734,-0.7552667029328983,-0.6931514215524837,-0.31939841562857146
769,-0.2541550523510827,-1.645401827518958,-1.4388501336187738,-0.6973546281309476
770,-0.5960131263809181,-2.88453152356701,-2.4942182464260974,-1.2610628265774915
771,-1.116179484568026,-4.4504739125813515,-3.8644952714728897,-2.0322234314891805
772,-1.8370431154652722,-6.279351210908646,-5.522473734724351,-3.008046594242581
773,-2.757576535615148,-8.271183484851292,-7.410685820556998,-4.162755479956534
774,-3.8601530649327973,-10.302518239424103,-9.454785064384714,-5.457277721415115
775,-5.122215185768008,-12.241901782368043,-11.5785776168454,-6.844274748054808
776,-6.516723015093245,-13.972910159080334,-13.715016670465003,-8.267487640423996
777,-8.005417740526465,-15.424054739499166,-15.819055029166815,-9.674836102817292
778,-9.541586505297877,-16.602724231042504,-17.889616416713878,-11.043167026782886
779,-11.075050741711562,-17.519864348007992,-19.89498045443736,-12.350031454811912
780,-12.563521433174783,-18.204428380388958,-21.797278667954746,-13.577062110831115
781,-13.967322553543864,-18.691859319762223,-23.55493099335587,-14.708344067805601
782,-15.239443545888525,-19.026282854966617,-25.13285144783159,-15.73220067361446
783,-16.336026265798807,-19.266338346386302,-26.51240692904604,-16.645123534059714
784,-17.24008222079783,-19.472364075541577,-27.692803617068506,-17.456694176249474
785,-17.969484835229746,-19.68688731988344,-28.682858578680065,-18.184382442199926
786,-18.55701181828894,-19.925779866859596,-29.491426469896698,-18.837692745434794
787,-19.027870305478565,-20.17636101675541,-30.12587598013613,-19.413567234361658
788,-19.402954772302884,-20.405110773123774,-30.594989303518535,-19.915445737532337
789,-19.714585016356974,-20.580788535476447,-30.913443350176927,-20.372284059048326
790,-20.00502860381612,-20.69813789819461,-31.10433117680991,-20.82583976879519
791,-20.306463638553733,-20.775121478156663,-31.19012834210087,-21.30131121250468
792,-20.62500785774139,-20.83517952830176,-31.18327710143691,-21.79593073162566
793,-20.94439778670915,-20.898615828184955,-31.08934376502091,-22.295009038790084
794,-21.24374156502084,-20.98055796763716,-30.91033733947954,-22.791558999297038
795,-21.507648864372122,-21.090132481341772,-30.651474602546564,-23.278894026258293
796,-21.722090602719085,-21.227312915475046,-30.332962707963418,-23.734742984410264
797,-21.867987610270767,-21.379264564428635,-29.984289415145426,-24.117928442834074
798,-21.9220708550768,-21.527706588076462,-29.628630695710957,-24.386658943744493
799,-21.875962717713428,-21.66100112125333,-29.270775461594237,-24.532005520334632
800,-21.749700754496036,-21.772131797689315,-28.887698080061316,-24.576880896379958
801,-21.571496959928425,-21.85363910098724,-28.429619562106677,-24.539252710920827
802,-21.353808196159285,-21.90050182814829,-27.833152781526653,-24.4136785996809
803,-21.09174072008729,-21.917169022835353,-27.038524247750097,-24.193168852351622
804,-20.778868237060934,-21.920985745693816,-26.000149107907507,-23.894482164108908
805,-20.41626848497399,-21.93005920150765,-24.687791912621694,-23.545032615574744
806,-20.00747942201389,-21.945904627049043,-23.089968449622287,-23.15127708858117
807,-19.553323449240004,-21.943380059317864,-21.213346006151472,-22.69752117172847
808,-19.048315747195385,-21.884570982719925,-19.072317002171303,-22.17970224299422
809,-18.489686770564425,-21.75156253362714,-16.693346782532505,-21.622864366549692
810,-17.897233453191976,-21.55178357757985,-14.126170197132417,-21.062635892106396
811,-17.322795638529314,-21.297346073298307,-11.441735676314407,-20.522628270400823
812,-16.830759943527244,-20.992736939138304,-8.72345022306056,-20.01300417224839
813,-16.46559613137163,-20.639805426103898,-6.0538389892696705,-19.548920042423262
814,-16.24744731705869,-20.245810333013345,-3.5127379275851847,-19.156218774368647
815,-16.18739427426072,-19.81846825211992,-1.184132013432471,-18.854365868483125
816,-16.291413419443526,-19.355085649853137,0.8557669259702277,-18.634383399275677
817,-16.5414543734544,-18.846323369438792,2.553021023703171,-18.45663183918623
818,-16.877382499314976,-18.291118869375094,3.8770766995344967,-18.283019803978267
819,-17.227973972306927,-17.702027252043358,4.817437171255762,-18.102953990108272
820,-17.55593090189088,-17.097233636559235,5.380632193657913,-17.921297281978504
821,-17.85068910903393,-16.486569411199284,5.589548274318742,-17.729428808630466
822,-18.099854341939487,-15.87284731461873,5.483259878886022,-17.500237104242856
823,-18.282613661459106,-15.265807335157461,5.114513358075013,-17.216328432292265
824,-18.37644452829204,-14.681766456940343,4.539151882289973,-16.882363644692678
825,-18.364209416854674,-14.130712153480596,3.79700206099862,-16.507581089173787
826,-18.226807629979294,-13.610955172346554,2.90903269194746,-16.092842621809382
827,-17.92421398517265,-13.120168504395535,1.899711582024121,-15.629780283536812
828,-17.396491749451616,-12.667047552798518,0.8105427904759097,-15.100557188154442
829,-16.590787760900252,-12.26877994000054,-0.30802577672279685,-14.49071063593286
830,-15.48922424898569,-11.940426195151685,-1.4096623085906175,-13.813097084705761
831,-14.108575011161072,-11.688629347472745,-2.460113836109573,-13.105609232356292
832,-12.469944404771576,-11.508218557870066,-3.4393174989187094,-12.408409050207524
833,-10.581876164660843,-11.375033863396697,-4.34030090205883,-11.745445794275119
834,-8.464382938148736,-11.25030626244852,-5.166677159115645,-11.12894702553114
835,-6.180229406461827,-11.100201696711618,-5.928505477022265,-10.575279366565422
836,-3.825929180913754,-10.910539970842086,-6.632872596135421,-10.093198346628299
837,-1.4884342049615267,-10.683201370063983,-7.274021469888513,-9.666809997481684
838,0.7729844964464465,-10.421965575952216,-7.8344768827604785,-9.257367056511946
839,2.91271692798214,-10.129746669522,-8.295872423178185,-8.823528586033998
840,4.889578573127512,-9.814424085600388,-8.647805731158169,-8.346213285303476
841,6.656671545861139,-9.489796814918792,-8.885973791429684,-7.824886224615363
842,8.15509539453188,-9.171686020546046,-9.005445225000141,-7.262689347066443
843,9.327631324288445,-8.869960598906356,-9.001488555288125,-6.662693392636667
844,10.140625209966064,-8.581224571451028,-8.87518257853289,-6.034830529875963
845,10.590537103831222,-8.291593659119298,-8.633602755600018,-5.406971870987711
846,10.691451716188112,-7.98578926356404,-8.283596352920576,-4.812438502656989
847,10.462480394768972,-7.651557060996909,-7.825818441497702,-4.2593637751200095
848,9.931721454398906,-7.280038448180947,-7.258247441189682,-3.733400324206802
849,9.146608492474549,-6.8679632310516014,-6.584547327107482,-3.2297566375494995
850,8.169090577407504,-6.423027357155231,-5.815213257788796,-2.7612890333241484
851,7.065894185553584,-5.963185291015054,-4.963621675636383,-2.339408379516366
852,5.899463533866775,-5.507306941423078,-4.042830882528507,-1.950657668450289
853,4.726949053729375,-5.07086265605819,-3.067460425483742,-1.5603167368268887
854,3.6142268515475773,-4.669499877207652,-2.060386062687282,-1.1450907108293518
855,2.6199907495261976,-4.322153357008173,-1.0506909854290318,-0.709360698601048
856,1.7600036408644881,-4.044306183160824,-0.06299146524400856,-0.26747528834463385
857,1.0177228053298617,-3.8318978740432192,0.8872464616006848,0.18452623472247728
858,0.3799274706949729,-3.6598858417322435,1.7912152521549753,0.6687151433581646
859,-0.15284249812842557,-3.4992492433882774,2.6419781978413566,1.196016966993261
860,-0.5762067808866767,-3.3300168441992577,3.431860004966712,1.7507833693455164
861,-0.8889867232935316,-3.14391829978304,4.15497976053225,2.303185699167105
862,-1.0859528069772364,-2.9424261355669072,4.811617920278268,2.831858706547968
863,-1.1441844750808807,-2.7364710369386787,5.411303217808578,3.33129826433581
864,-1.025140532034031,-2.5473492722908797,5.973547509094905,3.8001274122114777
865,-0.6954261466834137,-2.403851190432662,6.523482528102003,4.230438774550696
866,-0.14726358969918024,-2.3391558661086633,7.0809342627321925,4.604957353747083
867,0.6028052428886429,-2.385858748860132,7.649016172532974,4.902782033295828
868,1.5410004343902652,-2.563975853583722,8.212383181094411,5.1096449546838
869,2.6755761924238293,-2.869704793144662,8.741928524136867,5.2179502978101375
870,4.012458878078975,-3.2779493089179903,9.200306873087452,5.219537184999673
871,5.509391538789099,-3.7570240632416465,9.54963174720248,5.108310195372264
872,7.07922041268478,-4.271284688459401,9.76135723979074,4.892728692020238
873,8.638597657100265,-4.772178138927807,9.824093565822471,4.600873842944468
874,10.123114398192355,-5.2059889805222594,9.744706169859843,4.271524809568594
875,11.472842890962184,-5.532720259544646,9.544711336531794,3.942350286101695
876,12.632703707098992,-5.72705037283692,9.25581945389362,3.6410266042115973
877,13.554391024472896,-5.769505862252749,8.916435958161228,3.3902983362311994
878,14.200900693055702,-5.646238462449173,8.56399788295857,3.2168393948890572
879,14.55983919282282,-5.348484594545976,8.222433617758167,3.142998887411973
880,14.64515044428434,-4.875759481639134,7.895897596363082,3.1709981672729657
881,14.48722401591592,-4.249466221860982,7.571541158464455,3.27653149951227
882,14.124792545913678,-3.5188087131151,7.2266228018445915,3.4259519423672327
883,13.599845751606914,-2.746881672814622,6.839036171131237,3.600311569277076
884,12.951437409471156,-1.988038766487026,6.397051237985104,3.796818840743831
885,12.21056231971378,-1.273794293107261,5.901726588693479,4.018886873084958
886,11.42823051213664,-0.6520061184835055,5.3793433081118485,4.244361377842143
887,10.559618112836324,-0.03467347240989152,4.82002246055126,4.53489840795697
888,9.609294834056756,0.6289308688006292,4.237035388734145,4.925420694612718
889,8.619077904623204,1.3575453095971501,3.654507879036909,5.420967930374913
890,7.643488906839324,2.1394884319676275,3.0983060093691175,5.997739344222383
891,6.73304742826431,2.9428701902547614,2.592015422892746,6.613896596738064
892,5.926843339900615,3.7335576804687176,2.155703498038807,7.224840358034076
893,5.25263496111087,4.478819942283545,1.8029647660987942,7.793251230294169
894,4.730436228257145,5.140245956965008,1.5378590462129413,8.287858935999063
895,4.368266618738303,5.676495815081459,1.3554269180134833,8.67509205435792
896,-0.3106960795516424,-0.5974783847394602,-0.49863565601296944,-0.6755337214209765
897,-0.8004922948116291,-1.2086817599094277,-1.0155496441620842,-1.2634812634295016
898,-1.5249819990382454,-2.045940851095927,-1.748339319853193,-2.0478282127579663
899,-2.490511535757341,-3.1103461018633274,-2.7034952309282723,-3.006464251945739
900,-3.6668995893518623,-4.390075572352876,-3.871059152884511,-4.105716313188194
901,-4.994595870797111,-5.8579368000415,-5.227170743450506,-5.317385732702305
902,-6.405033364563037,-7.469301709828849,-6.735031160927544,-6.618333968458667
903,-7.833960292107133,-9.167124709780838,-8.346859036011185,-7.977679197433105
904,-9.221861171736919,-10.894529414980305,-10.012007501561232,-9.356930585374645
905,-10.511256989207505,-12.608983157121925,-11.689986398261755,-10.72818247805902
906,-11.669450254572165,-14.29534650798662,-13.368429553384878,-12.099532855996335
907,-12.685075270958878,-15.906390768086421,-15.009849878425815,-13.452356495871673
908,-13.582192903111691,-17.39863841344996,-16.581094509462506,-14.758795012054918
909,-14.392571053913276,-18.737319400557457,-18.063971394116262,-15.986462707363861
910,-15.124647295670046,-19.890548861156198,-19.451494513923528,-17.120219628541626
911,-15.76757965665426,-20.83248037668756,-20.74064353527961,-18.16936973765487
912,-16.319170132470507,-21.553127494237344,-21.932190681735403,-19.156047540993864
913,-16.794794781675215,-22.06212648744554,-23.029453781839592,-20.09363606089626
914,-17.203480786887326,-22.38177250642459,-24.033464579646548,-20.974141847769925
915,-17.526676737442518,-22.535734375477354,-24.941728541624396,-21.781907116705217
916,-17.736475676325654,-22.544882967879442,-25.75191313734635,-22.50013097345298
917,-17.818893232879518,-22.427950564087713,-26.459864903078486,-23.101736859588318
918,-17.776208756533176,-22.20108177881789,-27.0515366620815,-23.550159327094867
919,-17.61751685436165,-21.880072104250555,-27.508460196817563,-23.814904926897434
920,-17.3534732819891,-21.479439713703407,-27.82416756586353,-23.889415048323123
921,-17.01042486724964,-21.015212908932916,-28.007363850823126,-23.79395785997278
922,-16.643613366707843,-20.515489142920067,-28.073272803110466,-23.565350026924914
923,-16.323200366888603,-20.021186830633045,-28.037699657505343,-23.243647479773475
924,-16.099740859982393,-19.573459240041103,-27.913072281410713,-22.860092477653296
925,-15.99017392700748,-19.200720084318867,-27.704375359761215,-22.431563580212668
926,-15.99584868154163,-18.92339082897059,-27.413346474647767,-21.970098816940016
927,-16.12351748923005,-18.762415118637215,-27.04812367041905,-21.49835330142738
928,-16.384342043890427,-18.72586302644178,-26.62473946278376,-21.040458772289263
929,-16.76732848673311,-18.79434735984464,-26.16282170599508,-20.59779683284114
930,-17.224981522319478,-18.929577024260112,-25.68338462637525,-20.14550875993834
931,-17.69088717625329,-19.091770988490797,-25.208671108134737,-19.660005201131316
932,-18.108309759056336,-19.250284049609416,-24.759273875906867,-19.14234010490437
933,-18.443019994495415,-19.380111127310155,-24.347547410258723,-18.607109081806637
934,-18.67804775407097,-19.444775532331338,-23.97555701610123,-18.064747036504873
935,-18.807991328785988,-19.40603032450297,-23.639812842321973,-17.51627531385929
936,-18.830982134370636,-19.25444310128774,-23.330390258028476,-16.961372012538025
937,-18.752199099005537,-19.013370024274927,-23.02387396035063,-16.413631551380906
938,-18.594648175662833,-18.722494749934686,-22.68811382442532,-15.896160988388164
939,-18.383917539807456,-18.41482781033906,-22.29432388646292,-15.419407902279358
940,-18.127910529400406,-18.105553236595707,-21.820232169101008,-14.96836969731544
941,-17.818389893459862,-17.79568158712702,-21.250499142181962,-14.51931662776657
942,-17.441963326567667,-17.47211466533882,-20.580954045115703,-14.064738800701265
943,-16.98799832368431,-17.10990379169219,-19.81954431343316,-13.607352135131976
944,-16.451165325404375,-16.680207815267792,-18.97948937063121,-13.134945839358858
945,-15.824729531211663,-16.156449862833178,-18.072380066773356,-12.616135510148009
946,-15.095410008382832,-15.51736351464837,-17.109505756474142,-12.028914155710922
947,-14.258627313928857,-14.749834172353452,-16.108073323933542,-11.377581350366382
948,-13.333827454849889,-13.848727330407263,-15.090046373845167,-10.678428444308137
949,-12.363144486890464,-12.814596032815167,-14.073121407857352,-9.93819020288224
950,-11.390956121511406,-11.657435170245757,-13.06979711827701,-9.145151383382743
951,-10.434043156545357,-10.406273533341007,-12.093382682103337,-8.29465961813185
952,-9.48995817979775,-9.102113142653817,-11.158584807020473,-7.417206671268915
953,-8.574391438458001,-7.769982430324552,-10.277868980806522,-6.566983135311871
954,-7.727757402433412,-6.418598890253059,-9.458132400045214,-5.7922237323936905
955,-6.9869197157382725,-5.063745335431275,-8.700695323027022,-5.124452519488007
956,-6.368191244768242,-3.733189847765038,-8.006368155976649,-4.593053941282029
957,-5.8825274306853395,-2.462160168843238,-7.380362315537824,-4.230992794090854
958,-5.548338655086348,-1.2858863904158948,-6.829425981114283,-4.054661848135875
959,-5.3861903165799445,-0.2320348183589448,-6.354659542536105,-4.038598621075701
960,-5.40042245662178,0.6806101636041268,-5.951761811291789,-4.119165421631601
961,-5.558142784650533,1.4414337664256531,-5.617307102602849,-4.230287267848739
962,-5.801699766956657,2.04552423687446,-5.350983185711281,-4.327689662624054
963,-6.087558682653014,2.496839971266933,-5.150241190688258,-4.388182769454976
964,-6.402763811492211,2.819198613451279,-5.0028828423425,-4.399985914382748
965,-6.740256751076533,3.048519357277161,-4.890886133990961,-4.360449770271478
966,-7.069986203119436,3.204875997885222,-4.803215061933919,-4.281610652690638
967,-7.353665140091896,3.2799257168034566,-4.739281283338883,-4.194383866481016
968,-7.585518005464755,3.2522916306434353,-4.702380337418916,-4.1407747752305175
969,-7.7945153388406965,3.1101341968233776,-4.6953662870860615,-4.144713573518705
970,-8.003128539872584,2.8566662151201543,-4.717858409225605,-4.202450377149144
971,-8.204001975985694,2.5067291921781836,-4.762341646546621,-4.300420524842989
972,-8.37771418703349,2.087311885972658,-4.815683792144383,-4.426258506979093
973,-8.518355622254711,1.6302538513734584,-4.863394917118456,-4.576407181641526
974,-8.63304554471976,1.1583252407866456,-4.890151144173097,-4.749035250367006
975,-8.71989176460988,0.681890743152102,-4.880412683081557,-4.929159197326139
976,-8.759609610940759,0.20260247893943517,-4.8216298697086275,-5.08987430449674
977,-8.72868049949399,-0.2830950512843896,-4.706212127448872,-5.202760119525695
978,-8.61775300370869,-0.7794568969716532,-4.530787014308756,-5.246461299959112
979,-8.433271954092532,-1.2886471964251336,-4.293648549355232,-5.201453185959393
980,-8.173707822582353,-1.8076877882791957,-3.9922195374804943,-5.040105802555634
981,-7.812018894384323,-2.3302022767030843,-3.624887565116173,-4.730320807748207
982,-7.306086618920623,-2.85184962900377,-3.193200447278527,-4.2555573858750995
983,-6.63269158146134,-3.361843439609785,-2.7014461779836374,-3.6336168827861957
984,-5.8039828342748345,-3.8326535403641326,-2.1553916413675327,-2.912314499846576
985,-4.846397551157666,-4.228077437774069,-1.5613091660477036,-2.1459962657215437
986,-3.7900058535952397,-4.521609616732601,-0.9304504065164735,-1.375491189493431
987,-2.6746508930269774,-4.708329141114082,-0.2855307650723802,-0.6349423601685873
988,-1.5538344606094576,-4.802527862846756,0.3384757528659356,0.03674952203936081
989,-0.4941347388901902,-4.830216884101554,0.901317919106447,0.608370260854879
990,0.4351437514235111,-4.818455209777662,1.368939066399656,1.075332293844973
991,1.1809261641198672,-4.78300917384926,1.7197178493650307,1.4578427409871204
992,1.726977739463997,-4.728702799003572,1.9452407533286522,1.7728121381590718
993,2.089694458225187,-4.65768860991848,2.0511483386936273,2.0143690134852266
994,2.2955408966886504,-4.570052796325624,2.0549443105389016,2.1673058908372043
995,2.370510880822769,-4.460730238874769,1.9802738101467747,2.229938403817145
996,2.348121666916758,-4.3226318339319345,1.851222194277462,2.219082508303473
997,2.2802684648222344,-4.152207368503968,1.688301352604687,2.153021159626503
998,2.2190805072540996,-3.947749758223323,1.5095019598480468,2.0398027771444838
999,2.1843886053973613,-3.7026062919182516,1.3355692447725627,1.8898472468015621
1000,2.1619486760409035,-3.408669725658701,1.1911923989383397,1.7353156030219847
1001,2.1316854961249962,-3.0701696628732553,1.100553283817043,1.6316098403575223
1002,2.0823684362641517,-2.7054545448406917,1.0799792274658573,1.6271722437021408
1003,2.0068394138311056,-2.3349981540986193,1.1327592322329831,1.7292337037196823
1004,1.902992303672582,-1.9725274552512595,1.2541841464284533,1.910542733869006
1005,1.7833730502949325,-1.625798176867844,1.4399233695772415,2.145292638510133
1006,1.6873852623518493,-1.30210449829137,1.686648104158666,2.4225852104827683
1007,1.6783980342791238,-1.0078531902207641,1.9874823500946055,2.727874135447826
1008,1.819926783683163,-0.7485175011219176,2.3269874043419905,3.0280867673524368
1009,2.150535587147488,-0.5324852287416553,2.6792379587338524,3.285111236164094
1010,2.6799734985557295,-0.3696565726780542,3.0117707569462477,3.481328248952113
1011,3.4175006446297544,-0.2671472908128706,3.2940646716131248,3.6223351924005875
1012,4.390659340698221,-0.22546069733281215,3.5042384385419676,3.715765418731022
1013,5.615096195394258,-0.23617012493474962,3.6286353780671217,3.7622213567460783
1014,7.060122373399483,-0.2840900335760551,3.682068944457846,3.7574689731351887
1015,8.637852483491852,-0.34197874536754763,3.617505834637081,3.714695335391868
1016,10.24419464748544,-0.3896440898230429,3.4214904697988047,3.6549738788919646
1017,11.791008432204467,-0.41575317542060825,3.104884325863521,3.5921397537563857
1018,13.20514426134897,-0.41541995015132593,2.6953079915716676,3.527315250941915
1019,14.42297401190891,-0.38860839153290183,2.2328618129464086,3.4591656806881543
1020,15.398214424723559,-0.3399319760683222,1.7648384271615583,3.3987339744618925
1021,16.11046395446325,-0.2773509779072134,1.3363942073504405,3.3631441181416135
1022,16.566085091750175,-0.21058428556119,0.9795044786946688,3.3533042037159526
1023,16.79617876505428,-0.1503866214166428,0.7094369812766895,3.3527804657118465
1024,-0.3277489690406158,-0.9561925425961986,-0.6184121192454047,-0.8207910846645945
1025,-0.9384070770975861,-1.8825813490073662,-1.3903758841840774,-1.6165139409485938
1026,-1.8601213962299625,-3.124596458162125,-2.511231306815687,-2.7011441610748648
1027,-3.0991884338999682,-4.660382055895978,-3.981434865462065,-4.051845841704347
1028,-4.620056655652213,-6.44724649908324,-5.767167801287064,-5.62723372335573
1029,-6.359143499846203,-8.421172346598546,-7.804081509187037,-7.377236219073369
1030,-8.243845321285502,-10.50315775078492,-10.003942714833986,-9.247199329153768
1031,-10.200532893248091,-12.61286108069978,-12.266939540306234,-11.177926563552713
1032,-12.151733502254451,-14.684747677345275,-14.499227070576147,-13.10454436147208
1033,-14.022196590848182,-16.685975447523063,-16.633900575897542,-14.977368757578407
1034,-15.769417535595574,-18.6420898409265,-18.657451110536247,-16.802535314626354
1035,-17.37315399521761,-20.535553835732312,-20.54224686657555,-18.553626664011578
1036,-18.829333177438617,-22.335196810617525,-22.275121404543686,-20.192563367806784
1037,-20.140174772456575,-24.002618198402473,-23.85608003021971,-21.678849522449333
1038,-21.30884365071121,-25.501173481155657,-25.293573364256392,-22.99216065995946
1039,-22.339767617120717,-26.799296062186308,-26.601174296262094,-24.146613134581088
1040,-23.25117823290209,-27.872921307412152,-27.790953655156123,-25.176964659315374
1041,-24.074917628056088,-28.707431161803637,-28.86639673961152,-26.11822313891872
1042,-24.83943868157352,-29.300751575135244,-29.82454690580915,-26.99453263021388
1043,-25.554182502343984,-29.662886940971777,-30.66340050685896,-27.816108000238874
1044,-26.21660224418953,-29.80876167794764,-31.382151166915296,-28.579467824789592
1045,-26.825432325580348,-29.756841378217352,-31.975442394454245,-29.25817448609585
1046,-27.368877823099925,-29.53251633317331,-32.43237110131543,-29.79858078078385
1047,-27.807362021285268,-29.165581559205375,-32.74223616641908,-30.13424011913425
1048,-28.080431045421538,-28.68648304182068,-32.901044346693226,-30.21186022256895
1049,-28.138916582469776,-28.12710605200867,-32.91636895696854,-30.01751210953489
1050,-27.971299088487793,-27.521270440160617,-32.81016372140504,-29.576186279887196
1051,-27.598219795224352,-26.903549329235055,-32.61285473954416,-28.925926631681744
1052,-27.04764778203477,-26.298773948925664,-32.3492749991141,-28.10485237992794
1053,-26.3382423435048,-25.707140948875086,-32.029648704589704,-27.162102347664874
1054,-25.48943963604746,-25.11283909647584,-31.65168195811028,-26.16261122858473
1055,-24.54163876922797,-24.504150283895537,-31.205422767360183,-25.165932535983785
1056,-23.556507273160786,-23.878687459075532,-30.678124995278008,-24.20064305382332
1057,-22.5877641998428,-23.23980925203303,-30.063697249595954,-23.263602455387954
1058,-21.658225185619283,-22.592629820310716,-29.366972310191287,-22.33999790112501
1059,-20.772273085885143,-21.94429391457284,-28.597987725883687,-21.415578888913082
1060,-19.937392089212064,-21.307575007811845,-27.766431686894762,-20.476849178010884
1061,-19.167850962279566,-20.697445206504664,-26.881656432302687,-19.50917329291382
1062,-18.46731359254467,-20.123035289973437,-25.955782991098424,-18.497288029756522
1063,-17.822978032829724,-19.58640268976031,-25.004133129474766,-17.4297138034863
1064,-17.221823463371607,-19.084282996724948,-24.04184746857,-16.303159164413685
1065,-16.657540689981396,-18.607076076262278,-23.07954456273573,-15.12155670771698
1066,-16.125799161278252,-18.137168473332878,-22.121167719956155,-13.890640975735066
1067,-15.612371021901389,-17.648667223209934,-21.165412832691757,-12.61979948678544
1068,-15.086045425191697,-17.11067329730159,-20.211847544897157,-11.335156941877958
1069,-14.510833155107422,-16.500527175223173,-19.268276404118573,-10.086657357390605
1070,-13.86773242652621,-15.824024755134689,-18.35163064127802,-8.937159078197757
1071,-13.164409138764436,-15.11255159504879,-17.483420689292984,-7.9385835384723045
1072,-12.416452081987465,-14.395277104188393,-16.683545535417654,-7.1171570336730365
1073,-11.633259056670548,-13.686540791663296,-15.963397318162858,-6.474506830079836
1074,-10.826696766640044,-12.993901897132371,-15.319820192803823,-5.996702845570265
1075,-10.025676756658163,-12.322027512323343,-14.737669461356383,-5.6695067129080465
1076,-9.279372944496732,-11.669465805081568,-14.197913976848401,-5.479764315841993
1077,-8.632219282535576,-11.024756479082644,-13.678069519693725,-5.403964228976317
1078,-8.099083295875134,-10.372004625754757,-13.152013991605859,-5.401719612518148
1079,-7.669196458184607,-9.705539072050524,-12.595485049163887,-5.426051172223305
1080,-7.322319254660961,-9.030398672684795,-11.991365994049877,-5.444889168652207
1081,-7.031802505806466,-8.35212390755789,-11.331292541257138,-5.441730025366938
1082,-6.761411223791327,-7.67539461686588,-10.613490229543453,-5.395483607947847
1083,-6.463810136944578,-7.005754641284867,-9.841104982230371,-5.271113463396967
1084,-6.082165755583905,-6.347563304170673,-9.022256529482343,-5.032799661343757
1085,-5.574104008490982,-5.703098773102022,-8.171039712217231,-4.660131682990371
1086,-4.934323903856695,-5.071425139452855,-7.304719646147206,-4.148210751661999
1087,-4.183387128651656,-4.442460104212584,-6.4356326010085745,-3.5004256492509045
1088,-3.339030331673428,-3.79514620868991,-5.566461401453806,-2.728333074775865
1089,-2.40436716027087,-3.1138812763912487,-4.695988695998921,-1.860060359699922
1090,-1.390045318593699,-2.409771740814732,-3.831672716783175,-0.9453600365542834
1091,-0.3344606791754192,-1.7152535533615911,-2.9915894705934067,-0.045545416175925654
1092,0.7049437703534343,-1.0612532717395964,-2.1955168277541888,0.7880365847257592
1093,1.6732232005875003,-0.4697549953281543,-1.4621148779074549,1.522881659308774
1094,2.530237233874481,0.04150767951663196,-0.8118318477946471,2.1381347041527388
1095,3.2400674158402665,0.4583813660102282,-0.26511009818045356,2.620929547956467
1096,3.761062835859139,0.7755488251743532,0.16293031860822535,2.9656705729568205
1097,4.0525974332189065,0.9984054523839652,0.46748523868973785,3.1822021538292766
1098,4.08994923971774,1.1392150466500675,0.6574374808839283,3.2994241938193754
1099,3.880763342497522,1.214228560956781,0.7525481780006504,3.347082781318612
1100,3.4643919088829547,1.2388069772510457,0.7768872063529275,3.3419662418003018
1101,2.8880838238501254,1.2202387382107394,0.75465558464907,3.293781256860348
1102,2.18888469435631,1.1594298059419441,0.7089662354461915,3.2194225009762287
1103,1.412025475117466,1.0611239189981412,0.6601066187639337,3.145146558116189
1104,0.6295006377919876,0.934113228595561,0.6187341599490757,3.0939676651167742
1105,-0.08327391153652301,0.7832875318538406,0.5820579138976927,3.074538230487507
1106,-0.6756946227884374,0.6115936435788002,0.5432161983213739,3.077858459219929
1107,-1.1248939466853267,0.42973814908071384,0.5005554824909002,3.092466828420184
1108,-1.4178449452350552,0.2534008960737774,0.4580298459647683,3.1243660624714846
1109,-1.5397360304361791,0.0896120809074443,0.423116294938395,3.190749705354972
1110,-1.4905456729064601,-0.0640406301805176,0.40646434230867395,3.2970040102249873
1111,-1.3039948912944952,-0.21166054702262915,0.4213780158497368,3.4237397657037176
1112,-1.0446263645043785,-0.3587787831967882,0.47829088700779276,3.5363876040957227
1113,-0.7825006738441603,-0.508505578271897,0.582654469941452,3.6093034193167073
1114,-0.5709842189054252,-0.6483000068119538,0.739468591001062,3.638035606424728
1115,-0.44820203964921973,-0.7584288484463318,0.9493437110839104,3.6239974082738575
1116,-0.44632654143608375,-0.8375136510438593,1.2010518475664922,3.558606143003434
1117,-0.5884299278728946,-0.9023079688715077,1.4758286684950068,3.4312747284679364
1118,-0.8757468322534004,-0.9730997864790116,1.7555736658525054,3.2403706637690446
1119,-1.2815559451476635,-1.0677855492936819,2.025567543920133,2.9896839945681206
1120,-1.7613823158393418,-1.200746357759797,2.273745421763942,2.6796376574781537
1121,-2.2810576975197137,-1.3770269838981124,2.494146741526607,2.30897654854488
1122,-2.827032954142096,-1.5825296964930546,2.693767510390799,1.8843001072134478
1123,-3.3862129158518117,-1.7858662910563172,2.8896245775352045,1.427155793673165
1124,-3.9356248434768326,-1.9475579250527233,3.096243084491193,0.9755816550796494
1125,-4.454664565774119,-2.028550118520626,3.315384554842077,0.5621229798761944
1126,-4.9462376406491115,-1.9994096473194767,3.532189234934549,0.19036545209604827
1127,-5.433542682676709,-1.8440411513959252,3.722952708802731,-0.1452487930176089
1128,-5.934984445163211,-1.559447544708011,3.8702074989899935,-0.4298978789445363
1129,-6.446600778331291,-1.1565134249966549,3.968382110642716,-0.6316062618422518
1130,-6.93370658343404,-0.6595291692463545,4.0208372781126815,-0.7275199156643593
1131,-7.346480252609042,-0.10872796084379333,4.0360533271219206,-0.7244747015949403
1132,-7.647592538674352,0.4452957951387423,4.028137462865343,-0.6454899101120004
1133,-7.821993618985204,0.9695595935141071,4.02119513028908,-0.49952486780011973
1134,-7.863437203918962,1.4619555174904937,4.044415253005688,-0.2784588946357275
1135,-7.753547790467475,1.9280233303863377,4.11808091036644,0.019948536468841732
1136,-7.4698951873465536,2.3609948792032935,4.245669671462102,0.37469916558661887
1137,-7.015267713698001,2.7461885802182295,4.417108605224436,0.7545192577753825
1138,-6.42538491375959,3.071750888187297,4.616713651456028,1.14297036353964
1139,-5.7439186720005635,3.3302037195874363,4.828217837606182,1.5407233496607982
1140,-4.994491828014826,3.5176461373549377,5.038012155326274,1.9493688197383499
1141,-4.188161229388206,3.637302607058958,5.241498899289989,2.356494789080874
1142,-3.373690333687296,3.7003628546408143,5.435323207333627,2.7366861632703223
1143,-2.523032939718944,3.7293894351398533,5.645587311331513,3.0941509568674106
1144,-1.6258113577209596,3.7472544508115524,5.887408534544392,3.4421756297478225
1145,-0.6906225466456274,3.7729956756665857,6.162202331876669,3.7760870015826904
1146,0.25220166405140226,3.818173203604333,6.460196999434216,4.072979049866556
1147,1.148862642241771,3.883326869664053,6.764745418238458,4.314605037111495
1148,1.9374468499358377,3.9605051151638415,7.054762178942368,4.4982408060223875
1149,2.5802428962639894,4.042360035590476,7.308089816731328,4.630007350605261
1150,3.0713491063346723,4.1221497836347325,7.506646218514645,4.710736070479392
1151,3.4182943285659473,4.186663040331871,7.640601976141604,4.738371992178685
1152,-0.628817296990851,-0.4620655264794283,-0.37734470191051417,-0.5174883856071875
1153,-1.3913572296870969,-0.9782957938984078,-0.903209740127286,-1.0870536437847402
1154,-2.4563593597469,-1.7006249064941692,-1.6711030096143622,-1.873468478876572
1155,-3.800898118630083,-2.6210110235389563,-2.68032096207819,-2.8501201061033985
1156,-5.358772228465809,-3.7258254940302065,-3.9131470612140946,-3.9697262679281695
1157,-7.0386040720884955,-5.003558396084007,-5.339698450884223,-5.174624931817009
1158,-8.747421105053604,-6.441091380519225,-6.919098626559765,-6.401847382282855
1159,-10.403299754764364,-8.01386844233367,-8.600966862741695,-7.584058206175254
1160,-11.938100653693091,-9.682478971708123,-10.333879166414382,-8.66238984770687
1161,-13.313580632136341,-11.409089938516601,-12.080658964385268,-9.614485469241707
1162,-14.553988239066664,-13.185951266338572,-13.837374433517457,-10.487515194120789
1163,-15.697065928288527,-14.990602962722539,-15.5899560869135,-11.329705870391603
1164,-16.783324076953527,-16.793710427457967,-17.317898966112196,-12.177818362290948
1165,-17.831554592565613,-18.557700538342434,-18.994213234126896,-13.049929631426279
1166,-18.847815542718536,-20.252619612965717,-20.596799203611837,-13.959815481653623
1167,-19.838007360281434,-21.866395483910512,-22.113023600852117,-14.925098115035356
1168,-20.807302389307676,-23.394741152601927,-23.53328621662156,-15.955070439350076
1169,-21.751695457662272,-24.8359394887186,-24.844832953936134,-17.040812063921646
1170,-22.6521483332485,-26.198301774633165,-26.03462962906224,-18.15889292416917
1171,-23.483312022669818,-27.498053514271035,-27.094865066376155,-19.279315904306152
1172,-24.234530122801914,-28.744555516248777,-28.02376211547343,-20.377656784740264
1173,-24.915394397790696,-29.92829867961537,-28.81909058063482,-21.434542832127615
1174,-25.535114683631086,-31.015943392703473,-29.471533985392057,-22.419937575662587
1175,-26.087204763773716,-31.957383110986445,-29.966591051846812,-23.284486204383406
1176,-26.55433200335447,-32.70659921977118,-30.293091145685,-23.976716307669186
1177,-26.922522370374587,-33.24867591637295,-30.450945272192484,-24.463635631271938
1178,-27.184591584649358,-33.61265693860981,-30.449877191328323,-24.72665142692098
1179,-27.33286375744185,-33.84641982516252,-30.303274443016445,-24.749774821031018
1180,-27.351462695511902,-33.98258797347153,-30.025523748627098,-24.52110555723042
1181,-27.21327099034729,-34.0377459737278,-29.636464420870237,-24.060266228480934
1182,-26.8970117797343,-34.02711213471064,-29.1638147201277,-23.434145167291256
1183,-26.403084653618986,-33.96076968556215,-28.63221817819753,-22.726361133269705
1184,-25.753785683642665,-33.82639463147756,-28.05668671496449,-22.005309217494304
1185,-24.982784198228085,-33.58884685879861,-27.450605690738872,-21.319465758416523
1186,-24.113971440409497,-33.21134961105266,-26.831898497240132,-20.705734487154572
1187,-23.162419521071342,-32.672698417115555,-26.218525854645296,-20.191737552968068
1188,-22.15529297156316,-31.96872111574849,-25.622160682524605,-19.785435138294105
1189,-21.13670255820486,-31.109989306896193,-25.04837955038946,-19.458254980633665
1190,-20.14732167416668,-30.124256540763415,-24.499563133575197,-19.148129398508463
1191,-19.20202584618285,-29.060293220941997,-23.97880063245235,-18.794275742415046
1192,-18.29429377665401,-27.98457950491256,-23.48916331839124,-18.362530387804345
1193,-17.413650262409973,-26.960883209316357,-23.027599454930783,-17.84108813478877
1194,-16.558057726792942,-26.02072210183278,-22.58085284426044,-17.223696643382297
1195,-15.726790145555695,-25.15079863848824,-22.12755692348793,-16.505854832621385
1196,-14.900468746907949,-24.316328168680467,-21.648985752318602,-15.699318791268514
1197,-14.046367033401557,-23.49881263226483,-21.136818211753237,-14.841392115902252
1198,-13.14618615903986,-22.701530277925308,-20.58892914508875,-13.985417727128587
1199,-12.210527135694205,-21.9273306338806,-20.001857751226613,-13.171382814749723
1200,-11.256068735899564,-21.171615061164065,-19.369999528498024,-12.408978481445766
1201,-10.275225042482917,-20.43304249140182,-18.692526668346886,-11.696210036920855
1202,-9.250510488677977,-19.7169165659591,-17.977457085332418,-11.034571750387952
1203,-8.195772916096587,-19.031887452081428,-17.23825769935818,-10.422429024475758
1204,-7.161690632176766,-18.389786443233387,-16.489298642346505,-9.845382944509172
1205,-6.1922890262171055,-17.803985088923067,-15.740069069111867,-9.2774292498769
1206,-5.293790364273547,-17.28536268603198,-14.989550286941435,-8.692794571475714
1207,-4.453783977740567,-16.838333636518005,-14.228965434995903,-8.079050467637359
1208,-3.6768113487812286,-16.461304762195187,-13.450474197834732,-7.442947157792084
1209,-2.9921171016985184,-16.14486057993755,-12.650669020221752,-6.799321669410686
1210,-2.4232554042532204,-15.865873787297327,-11.82902754764972,-6.15759330190552
1211,-1.9593207993180337,-15.594049442551096,-10.988776673898062,-5.52731250771934
1212,-1.5613162582449547,-15.303735341576926,-10.140458983493422,-4.931063149167887
1213,-1.194396160589716,-14.976869303123111,-9.301926768962716,-4.4017517491683575
1214,-0.8454875938448133,-14.60025347971027,-8.492814510614165,-3.9626165840989636
1215,-0.5052893449960593,-14.165142277021136,-7.733213629994185,-3.6114984778295227
1216,-0.15343154017499144,-13.675363150042019,-7.047188596266963,-3.3311809392268374
1217,0.2290957581413545,-13.150490771383332,-6.459970391360116,-3.1160510310986655
1218,0.63359491190043,-12.612809626172718,-5.989875894214653,-2.9798576920590274
1219,1.0192599145125099,-12.074994887551384,-5.641537828098544,-2.9353057002760443
1220,1.3511625679272155,-11.534630396585362,-5.405814045552649,-2.97900426666334
1221,1.6257844743645145,-10.971631970906907,-5.265926439468171,-3.094790977778454
1222,1.8526975373573564,-10.35880838828098,-5.202700144735289,-3.2653405084004703
1223,2.027468749760665,-9.68243829457025,-5.197815084707261,-3.4859339342518414
1224,2.130296626409153,-8.952354848014787,-5.234198799702447,-3.761212765536868
1225,2.1492512106209425,-8.193409165864049,-5.292853401977321,-4.085493698849128
1226,2.0991972642234487,-7.43514534672329,-5.351789564207876,-4.431970357217958
1227,2.021636993961797,-6.714667359340994,-5.392644726584874,-4.769367755825113
1228,1.9566655528025743,-6.074844588814849,-5.40954728860649,-5.082722483648877
1229,1.911779710282884,-5.548468950492293,-5.409142975624443,-5.367787172055064
1230,1.8593890171420344,-5.1490450583484435,-5.405252960652415,-5.617436264908772
1231,1.76500786281057,-4.8689410006385385,-5.415664766689198,-5.816924815159691
1232,1.6165467053550462,-4.679505621259903,-5.456970403645267,-5.9550289311345335
1233,1.41861369699842,-4.538185993442319,-5.536958435164147,-6.038450800776397
1234,1.1776590118113694,-4.402861246307546,-5.653317442137799,-6.084148615164928
1235,0.8951509791036527,-4.248823006056419,-5.798504734222502,-6.104073473029563
1236,0.5769354227801444,-4.070190854746543,-5.961316536514399,-6.102168187734599
1237,0.25299540828259265,-3.8696288309075855,-6.125549226392668,-6.084717622862334
1238,-0.03992511269035984,-3.6577011841708726,-6.271382726588745,-6.0653056002376164
1239,-0.28813613145397243,-3.448140627726367,-6.37912402456644,-6.050833290869253
1240,-0.505236966785267,-3.239671484290468,-6.433231641160644,-6.025804866188767
1241,-0.7128512432857087,-3.0079574164856577,-6.4256294261034625,-5.958907474400583
1242,-0.9150985194885817,-2.719384220466134,-6.358371726309452,-5.828686843806177
1243,-1.1057648213774967,-2.35031624778152,-6.244329399748798,-5.637651755608437
1244,-1.2956670099102123,-1.8917987220092818,-6.1016240311569065,-5.401889831699734
1245,-1.5146850087833923,-1.3431772650547886,-5.943754393771932,-5.12901938253526
1246,-1.7752007276860395,-0.7127520844117218,-5.776665016497182,-4.814341343252975
1247,-2.0436262777778493,-0.02625295439274443,-5.6035107205709656,-4.459312684801247
1248,-2.26605433936804,0.673362678091168,-5.426641053479899,-4.079314252977206
1249,-2.41693229104376,1.3372940222394445,-5.245319892997446,-3.6905782459023606
1250,-2.5128444031001096,1.9245576194704128,-5.053916930718212,-3.291036334940168
1251,-2.5740585788704027,2.4154950896992755,-4.8413394694805305,-2.859591023898955
1252,-2.5842721494413436,2.8199365092443305,-4.593914200266177,-2.3740788419651273
1253,-2.5064431510194343,3.1727266264819605,-4.3022515414297455,-1.8246904274473805
1254,-2.330537865329423,3.519825552658214,-3.964284459319052,-1.2147084421505778
1255,-2.0812633967324166,3.9057488893259,-3.5826401589265537,-0.5475327555208196
1256,-1.7767392716919743,4.363571462108813,-3.1607086291148323,0.18186153838958313
1257,-1.4036202561615772,4.904621444927062,-2.700514278661518,0.9758755858087402
1258,-0.9472847033745043,5.5167108174711785,-2.2044916941808093,1.8188358329809633
1259,-0.4324003547113357,6.1752168403454455,-1.6777762251028905,2.6733073988019687
1260,0.0843477415653647,6.854379840231245,-1.1274637075816945,3.4919925890105667
1261,0.5491903228091346,7.530518785548131,-0.5612457475656879,4.230587587408556
1262,0.9285001201009899,8.183844605254743,0.010752521076385205,4.851302194591778
1263,1.2076282097568192,8.802918458253625,0.5743966064865097,5.321452075567568
1264,1.3759986345298518,9.388413081274978,1.1152982235467936,5.613365411386438
1265,1.4234189281784588,9.951039805898901,1.622010047666066,5.7135770931864345
1266,1.3647437278196215,10.503343771370632,2.086421349905498,5.635584885525791
1267,1.2502038818776486,11.053570403293163,2.505593096889153,5.422722323289905
1268,1.1397463967455361,11.60360436731737,2.8829405673463198,5.1362946170669845
1269,1.071056524785498,12.147683438868746,3.2287066351198765,4.839055326874748
1270,1.019685864401731,12.663892431252485,3.533926711101797,4.588998363937865
1271,1.0576748662951263,13.16110790687842,3.8638291248977206,4.414294571700312
1272,1.233720772440053,13.639108567914453,4.251938148456718,4.322915010221006
1273,1.5588151778920802,14.093554638308515,4.704385219812836,4.296797859821901
1274,2.0011414282873994,14.51715950062275,5.206513229619016,4.303434527668764
1275,2.5024556252030377,14.901622899127059,5.7299630870344895,4.317161468454431
1276,3.0089983073746462,15.238511633354278,6.240105970436443,4.327262675415263
1277,3.4817409159293895,15.519570908822157,6.701595629200848,4.330568488411641
1278,3.891127728519777,15.73860236075856,7.0839449008491515,4.323004894907481
1279,4.216469715883578,15.893620432977318,7.368364563820474,4.300783772759052
1280,-0.16886005677281513,-0.5136171694590312,-0.39959486576267284,-0.36208987715162677
1281,-0.5850198390837609,-1.2321167440618472,-0.9305460777905379,-0.819980979474618
1282,-1.288947502072597,-2.2755447675349534,-1.7150627875820583,-1.5051741777321341
1283,-2.3306086231115204,-3.6423961167878494,-2.7656744806961195,-2.4233070550921276
1284,-3.7184993242735502,-5.30303444469581,-4.074853371662143,-3.578169590447402
1285,-5.414653966112982,-7.20802757164358,-5.611598320083585,-4.966797927877181
1286,-7.341297090954981,-9.293120213865988,-7.318865268557777,-6.551724353439658
1287,-9.388628189937153,-11.478366867380974,-9.119085011354429,-8.256269693161729
1288,-11.419631712070382,-13.673425044421451,-10.930892490197282,-9.98934118344558
1289,-13.298133041331207,-15.803313261926387,-12.693489320737616,-11.683248648855718
1290,-14.937038095202555,-17.847178916533213,-14.387318345860331,-13.31405150075531
1291,-16.297858696938906,-19.78779095935425,-15.982478347979184,-14.841019129519406
1292,-17.378683393520273,-21.61880892135948,-17.452687303121827,-16.223147868256053
1293,-18.18763997977668,-23.33673068210413,-18.779149641916938,-17.433884261126526
1294,-18.742353553908693,-24.938543065229183,-19.95317468890309,-18.47279171339577
1295,-19.08946204608815,-26.421334115551613,-20.97579220868407,-19.363328644120703
1296,-19.31128114692411,-27.78680168836838,-21.855657076100968,-20.132524028390733
1297,-19.49064932952849,-29.046517237620012,-22.606084802361995,-20.79819726298858
1298,-19.671294227476366,-30.219474975683177,-23.238730854092594,-21.377654993223352
1299,-19.86511306496773,-31.320906908159866,-23.763389606864454,-21.890525114989295
1300,-20.07576356258229,-32.349983687437835,-24.196471205718844,-22.346965658826203
1301,-20.305788889338352,-33.28637098042725,-24.556876275252502,-22.730610172262818
1302,-20.55218067352539,-34.09177947819657,-24.85630098070892,-23.002765191448095
1303,-20.797774783768016,-34.716553008849814,-25.096426288699863,-23.135812943383915
1304,-21.018198237905466,-35.118699549870946,-25.265169504163865,-23.127456872128466
1305,-21.20322303745653,-35.28010453818053,-25.33246086290739,-22.991769423435883
1306,-21.36080039706477,-35.200922471602944,-25.251602562396144,-22.747273726148155
1307,-21.49277625727313,-34.88274693690561,-24.969835139767515,-22.410449023990815
1308,-21.579644283938066,-34.332051793732404,-24.44409456113692,-22.003310889882375
1309,-21.602880348421166,-33.57799054791564,-23.649173968090654,-21.556674690731956
1310,-21.578841427284004,-32.670909458713524,-22.580604058902892,-21.106166077561024
1311,-21.557731965258963,-31.668010485264777,-21.2517959117294,-20.68213828546238
1312,-21.578637183163515,-30.617706799547207,-19.68075294212318,-20.29313431690766
1313,-21.63532903100679,-29.54492922065777,-17.887770087608956,-19.922519653834723
1314,-21.688969984018883,-28.449182295843695,-15.907223270723328,-19.54689311090991
1315,-21.70264942081681,-27.3163255569624,-13.795096875002372,-19.15426179233242
1316,-21.656381430542996,-26.1345121618916,-11.625458295848471,-18.74151538845294
1317,-21.538703842481237,-24.899952136505057,-9.475703826272552,-18.30790796002198
1318,-21.341481300843743,-23.612423193750903,-7.419770949612752,-17.855561216429987
1319,-21.060000847585226,-22.280770877160027,-5.534587371492658,-17.391390668165247
1320,-20.698246447965115,-20.938156253293048,-3.8959812397712663,-16.924300285844218
1321,-20.27050226458395,-19.63574445767864,-2.5656058000073036,-16.45358238854846
1322,-19.787450808094803,-18.418510393409868,-1.5802984427811717,-15.954199964880466
1323,-19.24852119023183,-17.317593743478216,-0.9474466945563781,-15.37666988549903
1324,-18.648732438702684,-16.358249102333993,-0.6481792156085737,-14.675659136840595
1325,-17.9908215340551,-15.553910687433715,-0.6445230488608542,-13.835969321267456
1326,-17.286390036348283,-14.887622031046133,-0.8855994750456666,-12.866830260565441
1327,-16.535799698013108,-14.317336013471927,-1.3128242950993405,-11.780292999672852
1328,-15.720752575557462,-13.799790028488342,-1.8705948422360752,-10.58427400008494
1329,-14.826790537952823,-13.300894964833784,-2.5242313789503523,-9.308313954763214
1330,-13.864337947005469,-12.805025873220384,-3.2655191679951074,-8.0268727497618
1331,-12.867322218009633,-12.329453386883372,-4.095417565351975,-6.836810759283948
1332,-11.880849609505292,-11.910555870350514,-5.011892809897007,-5.815148133061041
1333,-10.944164968007271,-11.571099342546031,-6.009947317171828,-5.003813716372461
1334,-10.072531785211737,-11.318489232031949,-7.0813313581393,-4.42311867586931
1335,-9.263821107441915,-11.166372382245191,-8.21349947834893,-4.083055210526845
1336,-8.523577779429898,-11.136641928319534,-9.386201573399605,-3.973669151942625
1337,-7.872519922706585,-11.232973329784267,-10.57011852242664,-4.047994968463022
1338,-7.328335908081166,-11.418397278856098,-11.729699454184642,-4.2220594630186286
1339,-6.889629633100201,-11.641624119480976,-12.835085637363665,-4.4044833295462995
1340,-6.534048088894568,-11.881460591532136,-13.879613131618054,-4.532518515927882
1341,-6.2294796333532405,-12.142109037646222,-14.870066460742144,-4.5721914014654415
1342,-5.953917763725888,-12.42528158084611,-15.800179992597904,-4.4967765700464195
1343,-5.689444108540933,-12.73253292707723,-16.6495659131511,-4.285750106782932
1344,-5.400453238414093,-13.066358161745828,-17.399363339579615,-3.9364420322820814
1345,-5.042470743694293,-13.431409313834129,-18.037086390350723,-3.4592180605458513
1346,-4.578109481003475,-13.86030568470057,-18.554126499210106,-2.864957899163028
1347,-3.979804877775713,-14.412212492209092,-18.961793524710732,-2.155991867506451
1348,-3.2365363862074883,-15.122195949937261,-19.301068667013674,-1.3196403683286548
1349,-2.3434303011861655,-15.95349532806706,-19.609845429244373,-0.3403322837279076
1350,-1.2900577630604637,-16.77803006329805,-19.894077400938937,0.7889398715888065
1351,-0.08942362845316465,-17.45376941975953,-20.131927455247965,2.04773940251558
1352,1.2541099701621001,-17.964546546876637,-20.286008033501705,3.4316531914384782
1353,2.8555264132735174,-18.409270415235802,-20.308344077743627,5.07321135354532
1354,4.918331234814014,-18.919613926836693,-20.162822499212876,7.181670218495257
1355,7.581148678951166,-19.64399262545188,-19.865236983524014,9.845701893604591
1356,10.85674293863632,-20.655126782592276,-19.469556814778066,13.009227165980707
1357,14.670999018324077,-21.79922450683096,-19.01608359010379,16.575957485306578
1358,18.8838259109741,-22.710887372497968,-18.519781358811063,20.42800600158687
1359,23.27798551752752,-22.970641481950253,-17.999891705626617,24.375601967561735
1360,27.5701911304725,-22.19637511920138,-17.473622301273682,28.163595217608293
1361,31.441569784437487,-20.059568545955344,-16.904172477816598,31.522879397783075
1362,34.5935544762539,-16.346344229481502,-16.211128692219255,34.210124184827045
1363,36.8171253095749,-10.992388856036442,-15.329886394285799,36.04410706216612
1364,38.026754130917766,-4.055164452517754,-14.223227798655737,36.92731066849544
1365,38.26504195451782,4.278716713814991,-12.867786467184608,36.83246505688299
1366,37.687649830727715,13.70230851313948,-11.273043607469711,35.79872853506324
1367,36.52149806474909,23.87600195881395,-9.498863002253442,33.952787888465835
1368,35.019461579111876,34.56969514046929,-7.632547256392632,31.496212497770735
1369,33.40248942828707,45.81088891758787,-5.771056170300749,28.639110207004116
1370,31.788225959321373,57.867458873655835,-4.013297806768649,25.50377923506941
1371,30.200769501342833,71.08892684747593,-2.427389487417868,22.140470429517002
1372,28.65725517353072,85.84719023098178,-1.0081485138832795,18.679347212506602
1373,27.177675193429337,102.47393629378736,0.3155885618475885,15.327532040055877
1374,25.74290239273088,121.12118871240169,1.6204456720119595,12.235606256839695
1375,24.326096297704332,141.75099903589953,2.9646592762179234,9.487086418510641
1376,22.95190412630854,164.23669264401428,4.401085956319312,7.150171162171094
1377,21.687263627916245,188.39810492554622,5.973971995452183,5.273140128405161
1378,20.59956240082169,213.98236113092506,7.7048917726711466,3.8688811285341385
1379,19.755703807339,240.6918871656629,9.60850575607121,2.9352512301026668
1380,19.23205746683342,268.2266533199925,11.738037282227864,2.4689285607015936
1381,19.096787701701093,296.24653209097966,14.1771695210405,2.456198421993498
1382,19.384161489424002,324.3363477504502,16.98713548069675,2.8761585972640065
1383,20.07924882218278,352.04873678460274,20.19083873093844,3.699670188285966
1384,21.123925746101463,378.937743832511,23.783822873331573,4.873036604489362
1385,22.44137458553378,404.560059112961,27.737721298888673,6.319332362347382
1386,23.943421272543134,428.46769685145506,32.00114807083891,7.947246459169071
1387,25.52375352014428,450.2085338700716,36.50616432101914,9.6577234479665
1388,27.063768858302883,469.34432187046855,41.1747364200131,11.363399007830372
1389,28.46570445014716,485.47019148670506,45.917579842367296,13.00069891077267
1390,29.676391108938045,498.2364782052314,50.63111305470202,14.51684497285108
1391,30.662960761303307,507.3734768356156,55.208540879984135,15.85862556102435
1392,31.39340167827914,512.7026109080596,59.554856349867514,16.979857789760644
1393,31.834401657739388,514.1276011799612,63.581608093167425,17.86254541262914
1394,31.960656157113746,511.6163985464741,67.19403903427012,18.515385954240838
1395,31.770304709420415,505.1850230000769,70.28704733526803,18.936135954583914
1396,31.26829337140697,494.88469378142486,72.74504747052927,19.09240905910521
1397,30.446677663876883,480.8013435746675,74.44855919613056,18.944471002913062
1398,29.44387168020759,464.8456603957615,75.61017086584364,18.598740140398885
1399,27.995468309700904,444.2595664357524,75.6303892181417,17.855388676396046
1400,26.026348970574766,418.26825395238177,74.26708292906962,16.651155054091056
1401,23.589801646001295,387.5299094583835,71.55940522998655,15.018487642079311
1402,20.814255003081623,353.6505585939919,67.75512977931807,13.056543976638553
1403,17.87273299931007,318.763275774105,63.241227057893816,10.910421262039744
1404,14.971887310466514,285.1492713051179,58.468697394891976,8.752285545131887
1405,12.323158502785503,254.90904865976796,53.878511467804564,6.753163046400891
1406,10.099114308421166,229.70905820291435,49.84584044800677,5.051141072842195
1407,8.400676952545467,210.6033215269978,46.64693010442816,3.7350196993420868
1408,-0.8714248262655325,-1.90397980905093,-1.0504559188856084,-0.7244310485562353
1409,-1.806906117827908,-4.657386529626661,-2.29295687987788,-1.3498620255285776
1410,-3.126232051042268,-8.802510215220298,-4.0549632025884295,-2.177277414002405
1411,-4.808773856746074,-14.459898212739276,-6.331149866365552,-3.1899178526670395
1412,-6.791096973825809,-21.652448002419817,-9.07334318930881,-4.367961728760435
1413,-8.987135708978029,-30.29543555628183,-12.186212653501157,-5.690525632678028
1414,-11.302941931998406,-40.21006259921289,-15.537348097251268,-7.12483487900805
1415,-13.640781134501816,-51.15860146417489,-18.98284517744986,-8.622377936182168
1416,-15.905825367651964,-62.89269002558979,-22.394873890513722,-10.136887549727822
1417,-18.038981530955887,-75.22043087965092,-25.68975531984266,-11.656228014802966
1418,-20.067878549372615,-88.09384934032137,-28.8636619895985,-13.221998253096032
1419,-22.00847252364918,-101.38552049192509,-31.873391396552503,-14.8294109541798
1420,-23.879144787398808,-114.95615060763242,-34.67516838899151,-16.44399525249038
1421,-25.6935212034269,-128.65641311998505,-37.229359067805326,-18.029798017550704
1422,-27.465648954663678,-142.3383461068358,-39.507088192888915,-19.573688893791886
1423,-29.21211826493401,-155.8612911193683,-41.489271907853926,-21.079569956402988
1424,-30.9449083712309,-169.08103675882856,-43.158917722212635,-22.55350874136732
1425,-32.66077823099668,-181.84388055029223,-44.498382140585996,-23.99377733356966
1426,-34.3307242497929,-193.99195763766343,-45.49708753019554,-25.394936805738602
1427,-35.90946440214511,-205.3734523134501,-46.15356993159659,-26.758790531640926
1428,-37.36162399338894,-215.8596054715142,-46.46873502319477,-28.088275558439868
1429,-38.67197359840359,-225.35260522235518,-46.449203175009735,-29.37354100888024
1430,-39.82613700833924,-233.78183745475968,-46.116644168868575,-30.59141567915351
1431,-40.78651063963244,-241.08799197186462,-45.50224207666337,-31.715926136058787
1432,-41.51053797438424,-247.21671500037306,-44.63518214581587,-32.723630479878615
1433,-41.98671173709445,-252.14711666407703,-43.54478968032399,-33.58807615837001
1434,-42.23355703571957,-255.91581119139423,-42.269824289924365,-34.27310038079889
1435,-42.271069537506115,-258.6035041106822,-40.86129132398984,-34.74105490755232
1436,-42.10701705300573,-260.3049762134433,-39.37601859625079,-34.97435687520938
1437,-41.75267268096953,-261.09625108364986,-37.86728694756443,-34.98269302376479
1438,-41.236945439995615,-261.01482055791405,-36.376026129493674,-34.790325647656516
1439,-40.603371420391696,-260.06676841775504,-34.92285548562305,-34.41813728103203
1440,-39.88820870062874,-258.2356860483287,-33.5109218013835,-33.88094578254725
1441,-39.09629101820602,-255.49045285317513,-32.138060537284126,-33.204721552041384
1442,-38.21603983738541,-251.8074952477868,-30.803500923592967,-32.43431442729989
1443,-37.25559722643611,-247.18417448646807,-29.508164168655828,-31.62169067862852
1444,-36.24473682763547,-241.62864939499022,-28.252280036543624,-30.805525922943342
1445,-35.201428384181874,-235.1495418961737,-27.03445266996663,-30.00306703764551
1446,-34.113365066147516,-227.76942733250587,-25.854466565923545,-29.221603237338805
1447,-32.96624116749585,-219.5552072244864,-24.718519674351768,-28.469472922219637
1448,-31.788031487121433,-210.6191329577651,-23.64361158418632,-27.761698736012463
1449,-30.645060809349395,-201.08095205282038,-22.65413458648467,-27.115283097910837
1450,-29.590992561679442,-191.02626581721086,-21.770571936240792,-26.534865957420237
1451,-28.644680800756472,-180.49752425120403,-21.001686657214492,-26.00328785553334
1452,-27.805997612417205,-169.52515712742832,-20.344991643231662,-25.49128794366347
1453,-27.066643378366447,-158.16769354397837,-19.791452495759717,-24.980100365928624
1454,-26.407798349313378,-146.53096124174104,-19.32865319350605,-24.46216097628996
1455,-25.78792374434252,-134.75759804587682,-18.93853553913714,-23.91883635737973
1456,-25.141326351137437,-122.99641142023201,-18.59842229107657,-23.30641691695684
1457,-24.400786063703638,-111.38781734094766,-18.28913532892224,-22.57826347846362
1458,-23.527583860800615,-100.07877354906074,-18.000512849126444,-21.72148125828905
1459,-22.51838589369916,-89.21150121407314,-17.729276578790785,-20.75388076967282
1460,-21.384617894824466,-78.88034388970004,-17.473829977867275,-19.7014545298397
1461,-20.14318463689092,-69.11309957623648,-17.23045016250344,-18.59112723838173
1462,-18.821925830830168,-59.883070255025174,-16.992308758067633,-17.4561678515825
1463,-17.465792665002354,-51.116779333858254,-16.749357979907877,-16.345284254473302
1464,-16.133245629788217,-42.691393190475615,-16.486151394306226,-15.305377120630483
1465,-14.863992129374962,-34.45317429801651,-16.1794203562192,-14.351879001477213
1466,-13.658992175759684,-26.258717852031666,-15.801807301007909,-13.467995435699637
1467,-12.49917219421943,-17.998406370928375,-15.330435586730996,-12.628127100285882
1468,-11.362694013818208,-9.602491060047127,-14.753785916035723,-11.819335464502544
1469,-10.228970918799574,-1.0458164759228783,-14.07688569038058,-11.038845534152443
1470,-9.087391440685915,7.664901135471533,-13.317700940118831,-10.271066499548656
1471,-7.934224188506447,16.515739169427874,-12.497260436622453,-9.479533896543654
1472,-6.753871105117332,25.489107092261683,-11.638724903364494,-8.641193716756554
1473,-5.525959456481132,34.54932681763079,-10.76879257151863,-7.777512447373929
1474,-4.246073240371053,43.64223988311511,-9.912107730387008,-6.929515130529885
1475,-2.9290049064557646,52.714578704422784,-9.084103903643257,-6.10914439238678
1476,-1.598423837116679,61.7235042212338,-8.290322767627343,-5.292497844779487
1477,-0.2714086589566137,70.61222046998611,-7.531052692718693,-4.456618160367419
1478,1.0354499971139732,79.29100467325172,-6.8039988259101625,-3.5999739993042317
1479,2.2872377693246344,87.65169167023791,-6.105984803329441,-2.73435313605509
