,TP9,AF7,AF8,TP10
0,-0.11151762587559222,-0.3761040147346757,-0.6518916139846704,-0.6370778805184949
1,-0.3891131202953031,-1.0039293667680844,-1.350674718048425,-1.2281439391492837
2,-0.8375337826685111,-1.9601345045511245,-2.331671557929816,-2.008628042495667
3,-1.502751454653924,-3.2715178096769084,-3.5985490274792484,-2.967159236394781
4,-2.4067348740432215,-4.9362910766062535,-5.134863594279015,-4.073893239910485
5,-3.540944550228603,-6.914849104071183,-6.904038515609295,-5.287299970729734
6,-4.879763216596774,-9.132018198511108,-8.853126691280973,-6.5748595107636225
7,-6.393146214232507,-11.49198713424797,-10.91821198292371,-7.920097489014811
8,-8.049393727972712,-13.892836407310266,-13.033060460871537,-9.314314473898024
9,-9.813264058396552,-16.23673197930003,-15.14234966290495,-10.750666516819841
10,-11.65026250475283,-18.458392868294297,-17.226661090461366,-12.242723538545293
11,-13.521413474503987,-20.50722647149157,-19.239293076996216,-13.778079570648096
12,-15.394427076544181,-22.37115261160949,-21.133584742334442,-15.337060558350466
13,-17.2460133239122,-24.06022252226713,-22.86664564081639,-16.884245327184757
14,-19.056408318160646,-25.584969295290495,-24.40430295006099,-18.373247080794346
15,-20.80050618589537,-26.952692201805263,-25.722545780188632,-19.76417955388485
16,-22.452139044463806,-28.17442044496534,-26.80864549785819,-21.035617020591353
17,-23.986987342000685,-29.26244720558913,-27.659934122026954,-22.175523021059604
18,-25.369407095003343,-30.221247140526593,-28.278407805581242,-23.166425359730695
19,-26.546709250673242,-31.04026843889791,-28.667010819987507,-23.98130507379177
20,-27.456718137812306,-31.691348498318476,-28.827257201337627,-24.593762903574607
21,-28.051841637216548,-32.138778204690674,-28.76082051426156,-24.993669711910684
22,-28.315893364491707,-32.35788386205296,-28.47441321066706,-25.188138733925477
23,-28.254837222381337,-32.34043592898105,-27.980733533388168,-25.184268046236113
24,-27.88411366647651,-32.090416447789906,-27.300225933362373,-24.981575716405306
25,-27.220201725694412,-31.624673851845113,-26.464180588455314,-24.59177651137429
26,-26.287399592800675,-30.977889532594048,-25.51240232413355,-24.053729357873035
27,-25.13674048435686,-30.198763016045806,-24.486343969741192,-23.420903038035757
28,-23.84976536736216,-29.32594562961891,-23.421858757644095,-22.733913155088004
29,-22.513751230578738,-28.371792571555588,-22.349745128836986,-22.00823839320719
30,-21.192868160454346,-27.337362055241424,-21.302411173880873,-21.24988357115795
31,-19.926256842209003,-26.234704855358654,-20.314193681604646,-20.468711197583453
32,-18.740726083627646,-25.08366713248775,-19.413803370776797,-19.674995059440203
33,-17.646245253819377,-23.890477107093016,-18.61537200146341,-18.8730519103364
34,-16.622519293578495,-22.64700109240584,-17.919768895347662,-18.06360555768793
35,-15.625427897692187,-21.35153079401681,-17.326257347449864,-17.25298118377092
36,-14.606034288257568,-20.023113995033533,-16.837001526916413,-16.458120481417268
37,-13.524645319758275,-18.698336425182593,-16.453035726883677,-15.702442235465044
38,-12.357771905063599,-17.41840334050323,-16.173173689718972,-15.005407576394095
39,-11.083349751956408,-16.220154542238586,-15.99343238273616,-14.379023100383197
40,-9.666990432511518,-15.134570247379,-15.905688872707485,-13.8341018376151
41,-8.08681141144221,-14.189836040014194,-15.898774427370054,-13.387061093894992
42,-6.365400580577449,-13.413229824187047,-15.958768032283,-13.06102197913422
43,-4.5744428276351865,-12.820144435660003,-16.06598533767371,-12.870563376963556
44,-2.801787823372369,-12.39577601422821,-16.19245525585881,-12.808587592770932
45,-1.1099153157127915,-12.0982362359583,-16.304620607717794,-12.857197330712467
46,0.4553993545883317,-11.882983483444804,-16.370338106024224,-13.006430670708673
47,1.823600561617039,-11.718473431811283,-16.367153085752538,-13.257356491761039
48,2.8889737926648476,-11.583138217797485,-16.2846789378437,-13.609811494948392
49,3.5414981844313473,-11.463261428448574,-16.121009632432102,-14.053690852643637
50,3.7114117938500413,-11.360236130785124,-15.885815841954374,-14.563535783589206
51,3.3802387463381307,-11.292116195000332,-15.604222524684088,-15.10533826551784
52,2.558930016343195,-11.283843281680998,-15.308491481101026,-15.657785639366926
53,1.287390617188724,-11.358112641877733,-15.027474057008309,-16.214222842661925
54,-0.35337049315077906,-11.529043014350089,-14.780803447608918,-16.765906809147886
55,-2.2445602483983174,-11.794406807443453,-14.574640906839688,-17.2938725911969
56,-4.246115997065498,-12.13375711754195,-14.400203036353421,-17.77487582865343
57,-6.224280609712483,-12.514974434556068,-14.236818380890725,-18.188921710806557
58,-8.061388877600386,-12.903252690771826,-14.057221478294057,-18.517557369369722
59,-9.644198999435238,-13.263552265768485,-13.831286841512611,-18.735490861790726
60,-10.8724230215213,-13.559446537956164,-13.529066246939259,-18.80827648220527
61,-11.681071179967928,-13.76903656571039,-13.129709730856739,-18.703641213396345
62,-12.056629710187238,-13.899182887717688,-12.62881817383637,-18.397513714756943
63,-12.0285315655178,-13.97024409029129,-12.034574448453162,-17.87106130840223
64,-11.634811894726386,-13.998097135878464,-11.36298665064942,-17.10940424126699
65,-10.90207450531812,-13.991435544308137,-10.63691912768928,-16.103333813677473
66,-9.852964173179654,-13.953262777091677,-9.885603193371258,-14.860458548666475
67,-8.528503087720793,-13.88025671749152,-9.140174575724531,-13.41612511729427
68,-6.996272617636244,-13.763016141907725,-8.423300359118247,-11.826709347605387
69,-5.333283359182617,-13.585506355166133,-7.7462641394246505,-10.146970663267737
70,-3.616503684080361,-13.32449411695837,-7.115615915077897,-8.423399901347647
71,-1.924722957676774,-12.956774509010959,-6.537612882704815,-6.7096179180657165
72,-0.3301640345110743,-12.470116917503166,-6.020856687479789,-5.069888605908323
73,1.1023942856214124,-11.863529497904606,-5.576905763981328,-3.5661882712745716
74,2.3046684093540004,-11.13734202913877,-5.217031308837569,-2.242294497463076
75,3.2187231574069495,-10.292629684665435,-4.949351968915322,-1.1179876723363915
76,3.8276664599935493,-9.34209510370862,-4.78082725031697,-0.1985805765722198
77,4.16121911750393,-8.316409405342348,-4.721427785169299,0.515558710412577
78,4.276088574440742,-7.253090866229066,-4.77633668422752,1.0296678486751172
79,4.229416022845919,-6.1765970098666045,-4.930339297359671,1.3638892266002816
80,4.072371741687348,-5.0990548870253765,-5.149018663793023,1.5601893146266603
81,3.8619477813816796,-4.035863167894022,-5.392566181904368,1.6709201509642526
82,3.649381925711281,-3.0069340362846533,-5.624519752063074,1.7347513612504988
83,3.4490329259979284,-2.0321943975145413,-5.81601918355042,1.7715248494796791
84,3.230547417843322,-1.1311573539303499,-5.946077997269815,1.7974571061829234
85,2.9550451859455817,-0.31704567441303255,-6.00012128100937,1.8337150120347085
86,2.613883778328589,0.4080483649367591,-5.97220636630182,1.898681960091166
87,2.2181110025234494,1.0456448590914376,-5.8666359023535595,1.9944396018297614
88,1.7631622434320606,1.593647094264621,-5.693689997427181,2.1105202098958284
89,1.2244520529915959,2.0518955568407584,-5.463040579156789,2.2415773954273677
90,0.5890009060334098,2.4284102840559436,-5.180819327585305,2.393569242927409
91,-0.11713600236667923,2.736547062637853,-4.851523235142708,2.5761640604744205
92,-0.8434103775417444,2.989620673978551,-4.4804315755988515,2.7914048945182803
93,-1.5578955551018532,3.2018036598448107,-4.072712621393177,3.028097155068792
94,-2.2609173199306922,3.391312435007325,-3.630637130364407,3.2676589254304464
95,-2.956211565359375,3.575001676795886,-3.1546362240289993,3.495543116547941
96,-3.6288430352534964,3.75976430569845,-2.6488098707266814,3.711725526948935
97,-4.253376495737257,3.9425771756782395,-2.121392250089978,3.924414143235267
98,-4.819810246078027,4.115761788011014,-1.5792313403959481,4.135121094474157
99,-5.340578032193154,4.271991766193806,-1.0246623085310176,4.344843066674476
100,-5.821241835666829,4.412143759054184,-0.45456705219216,4.564600094920251
101,-6.236662875149899,4.553406924885919,0.13841690217234978,4.807338783792183
102,-6.542158302088683,4.718979977250293,0.7608877286953863,5.077026624565949
103,-6.707334626171651,4.91601567486045,1.4126964378525242,5.37211278148063
104,-6.7278168254818205,5.136174601987122,2.083604700910593,5.697100787988094
105,-6.6049991858116135,5.375583828568567,2.7557737787105485,6.063621958218765
106,-6.339883197149139,5.644407081033963,3.4085429432448047,6.479003108873817
107,-5.9454487498622495,5.954851205209249,4.021544404155893,6.940269275820993
108,-5.4549298757868465,6.305271856791599,4.5786266225823455,7.439889507045983
109,-4.914754206211332,6.684440303417404,5.072413567523833,7.973397331866341
110,-4.365472828302721,7.086187609850951,5.505523511820253,8.542516428076269
111,-3.828675624927967,7.515040231510934,5.887733198403481,9.15051196551012
112,-3.3056137441988978,7.979774960595001,6.2303228591926505,9.785870738857634
113,-2.792600956274263,8.47983550930368,6.541053460728376,10.4077870397624
114,-2.29336868653426,8.999187120219093,6.823777051151782,10.957361602494037
115,-1.8074950245789725,9.510331063904179,7.079161347034636,11.389836952076372
116,-1.3180177086438742,9.983634347819798,7.30266226498208,11.692309669433403
117,-0.7978761310186152,10.401026369405939,7.483317482275429,11.867950189536352
118,-0.28136842429800013,10.754922517276567,7.6124625193870905,11.91762985358052
119,0.3064518488222493,11.094033153852015,7.66267647412308,11.82979173849813
120,0.9877435022573692,11.454889488223296,7.627418986015602,11.625377805599545
121,1.7584871656132266,11.86311174246538,7.519206315615699,11.341042054303792
122,2.598531694604203,12.32083382958693,7.361055413746126,11.016330148163224
123,3.470654503198287,12.807682190036529,7.177170707713304,10.685430655148494
124,4.322321602904592,13.29579258617533,6.989838707921561,10.375549608782393
125,5.097303112901126,13.762488800176826,6.819214035383933,10.108605790748172
126,5.750810844112517,14.18786023539585,6.679853678011744,9.898401390847443
127,6.257288508909501,14.541746943236294,6.57801988107847,9.74742279455685
128,-0.08151225156839134,-0.13168939942958102,-0.45104027009426456,-0.4689855730534883
129,-0.382861111326242,-0.3449368850807089,-0.9698704521516861,-1.019932446182583
130,-0.8227954276230482,-0.737819847579201,-1.729814123731345,-1.74919565421922
131,-1.4062981581884886,-1.3422992459742062,-2.7385994779450686,-2.6203120588238065
132,-2.107998271593823,-2.164071883508037,-3.977514065195367,-3.584893041084144
133,-2.881865265422306,-3.1855457923458723,-5.4063795117332045,-4.6020356388445
134,-3.7031503467523037,-4.3724630584806174,-6.9749290849962815,-5.652679646747023
135,-4.588133341496653,-5.682929390649814,-8.628799237159981,-6.741197919106822
136,-5.579947343980059,-7.065401784860371,-10.315024634103349,-7.890697104574269
137,-6.719271925103253,-8.45179586725033,-11.989711944286917,-9.136979553823663
138,-8.043458679758562,-9.781920531476171,-13.627853294286881,-10.537868684981525
139,-9.608781302835895,-11.010801629749983,-15.179764981424492,-12.145408171346377
140,-11.474772826715373,-12.130358464785543,-16.599793992191326,-13.986294306513757
141,-13.647692047951505,-13.172342617904464,-17.853586787376663,-16.03363023050008
142,-16.039670396002215,-14.214165970080808,-18.93192824101225,-18.20296897785436
143,-18.504102120440148,-15.34972415561887,-19.861428961787617,-20.380949691858916
144,-20.915282178471983,-16.63213333181922,-20.683378111300456,-22.476747499783098
145,-23.20292295888408,-18.08922980660247,-21.43393173375393,-24.437267284188714
146,-25.335241199731772,-19.727983781789852,-22.161117680476583,-26.221219021496935
147,-27.28807090622845,-21.403347667537755,-22.92282572661098,-27.790628352123587
148,-29.02341884842495,-22.898300952573155,-23.760052557397536,-29.115989626611732
149,-30.48813165569017,-24.218886751586684,-24.704579597714794,-30.158309342602838
150,-31.596295500943075,-25.59661034212401,-25.751199427819756,-30.841840216146593
151,-32.20681491633578,-27.299740692646232,-26.78263112607815,-31.04142609360709
152,-32.12247510763745,-29.545541715106076,-27.592543654922448,-30.585484526376717
153,-31.087691897155963,-32.4148581612006,-27.977148281796786,-29.26873183433736
154,-28.875126657037377,-35.74412753039964,-27.786299390454104,-26.911264184044803
155,-25.41720447078371,-39.13840650912558,-26.95824023433987,-23.45082365809516
156,-20.826428909421765,-42.02903701611367,-25.559178003528633,-18.9829789526257
157,-15.38180173283915,-43.819235146216144,-23.779328246461027,-13.752939807168712
158,-9.501667750563355,-44.14248263116707,-21.8766005777329,-8.124616941931123
159,-3.6392440009883056,-42.879242661910325,-20.11320795946059,-2.4902102616590565
160,1.8304262300209215,-40.05462017000673,-18.70445847690717,2.8280704914778214
161,6.683731716163823,-35.84393500544469,-17.7759543210268,7.6235094316246474
162,10.84092823579434,-30.494235728241463,-17.336460519950403,11.784135321446067
163,14.281703711208891,-24.21246316727223,-17.27846406130819,15.215759562496073
164,16.975078028233085,-17.123365587868342,-17.42617448447223,17.81127955660864
165,18.858322220713298,-9.111260317851963,-17.592786808047077,19.491481673802298
166,19.860724018092096,0.4462598178569941,-17.5731063006987,20.239869418374308
167,19.939326811071602,12.58540798239971,-17.14335802331348,20.102203282305844
168,19.09436073702865,28.351690277277974,-16.12607142492738,19.15997424971961
169,17.36228809035865,48.592360023915234,-14.380568774538824,17.505762685533885
170,14.78921377505221,73.8438368610143,-11.706880929685868,15.250788000705118
171,11.471788117108035,104.16612670188731,-7.794095314298202,12.572166191412531
172,7.673899471988949,139.12980628882764,-2.189360174127204,9.769656640985215
173,3.8263649508522897,177.96681874512416,5.727600346861975,7.245714441557979
174,0.4026757073461137,219.7178940215183,16.69401769974669,5.406285088047072
175,-2.1908776756244497,263.4091811608794,31.432275251623654,4.570408509945137
176,-3.7134041691952766,308.13817762972576,50.516054701433234,4.911942850644861
177,-4.123606559126954,353.00797078921187,74.28566454536275,6.439842296503963
178,-3.5093374391681023,397.20863892086015,102.79132181994812,9.04866442618162
179,-2.0087241795950055,440.1012687121952,135.77003878032173,12.59137664858878
180,0.23897755114772345,481.15978982865033,172.68524480406086,16.924502516036764
181,3.11585608167254,519.9678171889574,212.8054290662392,21.926463116511375
182,6.525437161924646,556.2113504245538,255.27132798750156,27.48582224472281
183,10.39433276667126,589.6374783890483,299.1403122529634,33.48612391008136
184,14.659027833179982,620.0513590386345,343.44769705527847,39.79574238918647
185,19.242228424675467,647.3179826304913,387.31788995941247,46.269614610311876
186,24.04328804265061,671.3512314636553,430.055637907373,52.76966272689893
187,28.95782148087497,692.1140336846131,471.15479627084375,59.17063137026862
188,33.9036780922963,709.6203106030823,510.2482779542281,65.34708445872509
189,38.796206066456016,723.9438394818702,547.0197199666202,71.16329177478816
190,43.51729968913025,735.2289481556571,581.1398210238117,76.47175340519179
191,47.924596500158394,743.6215616758607,612.2669956550587,81.12966801487657
192,51.85567926522158,749.238548768267,640.0439718707847,85.01340196253273
193,55.16123189444079,752.2156206301813,664.0719192003219,88.02344092007054
194,57.78662678454127,752.6457625036777,683.916275203836,90.12283000505334
195,59.7996608878502,750.4731900078045,699.1535390835543,91.37720868699054
196,61.32368250501828,745.4629234809137,709.4181895392223,91.91405601062529
197,62.44023436429414,737.2509829095579,714.4150155534467,91.83683135039689
198,63.16554840523439,725.4383737424778,713.9182364993525,91.19164251175899
199,63.49022473964151,709.6735524607273,707.8062364857567,89.98081601797317
200,63.371792785508994,689.7313445606152,696.1060476500109,88.1730627670251
201,62.71281115935081,665.5425004078711,678.9953205372012,85.71914028945415
202,61.38536378485276,637.2014842013723,656.763864926174,82.57717012650954
203,59.26804133786946,604.9898006933447,629.7580881866169,78.71949778714402
204,56.274238154250384,569.3416241374085,598.3469449193606,74.12531159137123
205,52.355244033173555,530.7620135338941,562.9169064478725,68.78501167853149
206,47.50384603398229,489.7619011604978,523.8755340834616,62.72298655854907
207,41.78464507995037,446.8166962491564,481.6488789793137,56.0201837050141
208,35.346430914513945,402.360804306182,436.66125202782746,48.81105393276971
209,28.41081796771262,356.7891483270092,389.32968518794127,41.25293090181102
210,21.225158198647335,310.39852655694705,340.08451491111134,33.49138373685905
211,13.962202804574243,263.4228703768885,289.36921012095513,25.63149724274242
212,6.687502671571224,216.16827587675974,237.61930659055344,17.72990716815276
213,-0.5480863214023368,169.02443644974235,185.26408373204666,9.838448166506511
214,-7.628879466295811,122.38966438711043,132.75266941166515,2.055038859717922
215,-14.407122899635477,76.61591468149295,80.56474519147744,-5.496316744320733
216,-20.788177235425987,32.00258805955089,29.179137415254257,-12.718083671088523
217,-26.740192563003802,-11.199362560360898,-20.96759043141324,-19.54577276820922
218,-32.23231729072496,-52.79806859251859,-69.48530041960883,-25.928681044122424
219,-37.20972700851944,-92.64845151533753,-116.02633473368681,-31.828238209725782
220,-41.62433143286334,-130.6698769719526,-160.29890445112153,-37.225040977743575
221,-45.46911500324013,-166.84777547063717,-202.06714447922073,-42.11991808931569
222,-48.780618728684935,-201.17679140791762,-241.144771703493,-46.52197041204616
223,-51.602533263793916,-233.6324998806213,-277.39512366141525,-50.43456717587862
224,-53.951647886247244,-264.1792417631399,-310.728081643615,-53.8649994278711
225,-55.83333171775247,-292.79108627974506,-341.0950099246821,-56.83753876530079
226,-57.27893967759915,-319.474412598892,-368.487320116289,-59.38852888361561
227,-58.352458062054,-344.2717064803097,-392.9325944077317,-61.55589594613874
228,-59.11946141800482,-367.2542644640686,-414.4837098246726,-63.37204735707896
229,-59.61767801666351,-388.52396336692675,-433.2135692768782,-64.86377431239006
230,-59.864188330429045,-408.2197091778953,-449.21613459075786,-66.0550717056245
231,-59.88171899177172,-426.50309110013495,-462.60627887750076,-66.9693232623413
232,-59.70341737907263,-443.52142884314526,-473.5183076202581,-67.62936804467549
233,-59.35053179095668,-459.3943371765986,-482.1055411779361,-68.05299716568445
234,-58.820579700213294,-474.2271544538582,-488.5423694328118,-68.25167469989752
235,-58.104732820793664,-488.11654344127527,-493.02104912197524,-68.24020398839639
236,-57.21274432115749,-501.14498789431815,-495.7343800104476,-68.04732017635975
237,-56.17812870049296,-513.3588409918177,-496.8553750978915,-67.71030563028651
238,-55.0315003890058,-524.7507587780278,-496.535468088966,-67.25952794103577
239,-53.78230650151575,-535.284779266634,-494.92104233569734,-66.71909570071881
240,-52.442547493913814,-544.9418538847943,-492.1646924250609,-66.12607515186122
241,-51.056659053188575,-553.7418513820635,-488.41903323858503,-65.53490528456419
242,-49.69272603129858,-561.7342511080112,-483.8212061116826,-64.99591079275194
243,-48.408173745034766,-568.9666450506768,-478.4837489582667,-64.54211381128034
244,-47.23610478614459,-575.4623463717628,-472.50462332968493,-64.19356087371501
245,-46.191752803655135,-581.2400155337313,-465.98572488983075,-63.966967671225284
246,-45.30497050771554,-586.3092793621419,-459.5822646503026,-63.874806258399
247,-44.57887875061735,-590.8455647945516,-452.498373164176,-63.96859683853467
248,-44.00498546105021,-594.932882205679,-444.44678527136847,-64.24676884542393
249,-43.56031582152272,-598.6086389272959,-435.510145319999,-64.67011751154836
250,-43.21844954798606,-601.889549282148,-426.01985758624323,-65.18599983505719
251,-42.96099660648325,-604.7648173978863,-416.44781951666255,-65.74407467081926
252,-42.77623782237391,-607.1909781522695,-407.3124360566333,-66.29705023338335
253,-42.64755524202217,-609.1184476916858,-399.10358640447697,-66.7981089031277
254,-42.55254624012869,-610.5334473409256,-392.2249771065848,-67.20852423445551
255,-42.473127784766156,-611.4758466375214,-386.9478311813708,-67.50921046995931
256,-0.4283185549370584,-5.395425160101103,-1.1199149898680427,-1.1374065192010983
257,-1.23494338990068,-11.915667652917904,-2.556277243560177,-2.5562398517724425
258,-2.451352877034366,-21.281927413996534,-4.640812246106874,-4.6039994631207595
259,-4.1107185531751655,-33.52469966248123,-7.374445855890944,-7.274020284641561
260,-6.1920874093013865,-48.41874553903125,-10.702395553953691,-10.490074754746763
261,-8.619141318189472,-65.51421619304905,-14.521991264012627,-14.123469327209394
262,-11.28712999365767,-84.19596335479956,-18.691769815156587,-18.015014372061877
263,-14.095012337729608,-103.77002644578968,-23.04665017956412,-21.996674192340222
264,-16.9538681276994,-123.58456511167819,-27.42744990954681,-25.913506072464138
265,-19.77468708097013,-143.1968947140328,-31.731276369492164,-29.649533487639722
266,-22.500129540596546,-162.5857361363055,-35.97383945086042,-33.17832106652696
267,-25.104452207610862,-181.54994428951852,-40.17641605026491,-36.45650033157419
268,-27.59960724468534,-199.90798907144264,-44.41425746439897,-39.455874396155686
269,-29.99949576892349,-217.49297574583034,-48.798380671637126,-42.15527142729855
270,-32.292519055502225,-234.15006316160253,-53.43716888586487,-44.54755569141686
271,-34.44787005820609,-249.74463421420916,-58.39795457653437,-46.6437591411522
272,-36.44560479489735,-264.17036557538177,-63.686140554601025,-48.46367969921823
273,-38.28972349933126,-277.34326825850496,-69.24459120331385,-50.01390758222635
274,-39.98527698507564,-289.18782146489593,-74.96382697331813,-51.28054801964817
275,-41.51223864433215,-299.6391447086208,-80.69755474603913,-52.24923377150402
276,-42.83620408029841,-308.6599931852833,-86.27806044480224,-52.92143035073128
277,-43.941358514154025,-316.24025430195445,-91.53085404180365,-53.31616506931618
278,-44.84346887184025,-322.37983631897663,-96.29597757659188,-53.462625589559615
279,-45.564771574641256,-327.0873981402613,-100.45206318245849,-53.39092922942096
280,-46.11314707768672,-330.39781111169617,-103.9341615797374,-53.1285544382975
281,-46.49331604395001,-332.3901765083074,-106.73796591999202,-52.708442971499
282,-46.73535120838642,-333.18591426569327,-108.90368108064887,-52.182276308507284
283,-46.89743827774929,-332.9294833397797,-110.48923802107429,-51.6126514879631
284,-47.02059896727931,-331.76980128550156,-111.54933432211611,-51.04415597388072
285,-47.10844784826502,-329.8438467198101,-112.12254679380561,-50.48513832397325
286,-47.1488760354419,-327.2689369908577,-112.23464858067621,-49.92031396401995
287,-47.12998191528435,-324.14045900739256,-111.91623286693013,-49.329797240194004
288,-47.04048111306252,-320.5183048757456,-111.20844738999473,-48.69034651853495
289,-46.85833263698437,-316.41423528658004,-110.15439193284087,-47.97246170812629
290,-46.5433832967305,-311.79477981930097,-108.78970061259139,-47.14130696965023
291,-46.042426008794536,-306.6023853061591,-107.1408662554066,-46.170937823203474
292,-45.31281011205051,-300.78286552450226,-105.23045742095286,-45.06152359684296
293,-44.342264599221195,-294.2905896247399,-103.07457382342709,-43.83141640038629
294,-43.14654660513324,-287.08532597279157,-100.67783700020213,-42.496369190025796
295,-41.75140305981451,-279.1389286188356,-98.03814651646435,-41.05859220988801
296,-40.17391726014969,-270.45241660302975,-95.15484084807255,-39.515425954525796
297,-38.42960579742387,-261.07032503236036,-92.03292883482207,-37.872994007635775
298,-36.54182787809363,-251.06377584288822,-88.68126833223998,-36.142013866702776
299,-34.53735829042237,-240.5074077654434,-85.10945664673572,-34.32036759468783
300,-32.43372790313098,-229.4685992529995,-81.33410387302995,-32.38919606630243
301,-30.232701273695536,-217.99095264143995,-77.38915689934498,-30.335480075393725
302,-27.939343569168027,-206.0903181628426,-73.32244738062843,-28.177174938481944
303,-25.575230221182082,-193.7724164811639,-69.18398285709407,-25.953559082711315
304,-23.174417043623837,-181.05095697515443,-65.01797003329207,-23.69065325054499
305,-20.767979589348375,-167.9611230715893,-60.86056850332979,-21.39645846577771
306,-18.366396365329805,-154.56779289640698,-56.744159351059984,-19.083012713645594
307,-15.970427887339623,-140.96175043685693,-52.700066789131306,-16.776593773615488
308,-13.599045439582484,-127.24238755703294,-48.75253775983872,-14.511112927364119
309,-11.297908874639418,-113.49500155663526,-44.908738830364285,-12.30790076341971
310,-9.111795533613174,-99.7886957404259,-41.16102535139603,-10.169884786950208
311,-7.054511574349187,-86.19729854140019,-37.50540999226111,-8.102178252473035
312,-5.12497821265799,-72.80594887143769,-33.95338984470531,-6.1297520758707345
313,-3.3506278184804135,-59.691375299370094,-30.52590294672627,-4.29993333470956
314,-1.79437599871988,-46.899449395148515,-27.245441890502054,-2.6637507776108214
315,-0.510793016293114,-34.4545833835084,-24.133542925070664,-1.256451216810844
316,0.49524350892990365,-22.391736133055414,-21.20826947640218,-0.098139284177549
317,1.2673588311799173,-10.762356973851507,-18.47860061511595,0.8030082995220955
318,1.8644016805763095,0.3677499687047301,-15.937197590681627,1.4537954805398206
319,2.3304276757831923,10.919522614531207,-13.562434517374925,1.8836708188634836
320,2.7045991246157417,20.8308208292139,-11.328135697812058,2.141180144916918
321,3.0432447174744652,30.0823954244012,-9.206203950912666,2.2711488024582662
322,3.4043457796738625,38.69043488128579,-7.1678989546654455,2.298935063850975
323,3.8117981878315055,46.68744958182662,-5.19047688496267,2.232166934393294
324,4.245761798399924,54.11438307466066,-3.260421043004016,2.071508440026289
325,4.667347204660465,61.02234275763196,-1.3756900693210876,1.8225765955474695
326,5.039358785053593,67.47098138965646,0.45051168431439015,1.4996026028978606
327,5.330793122246829,73.52918105165905,2.1960892879175278,1.1209055253511644
328,5.509416441335575,79.2707471301014,3.84477263413263,0.7099729094346352
329,5.540363584162442,84.75570010923907,5.394464327863208,0.3068698592242314
330,5.419626069960651,90.02247297090152,6.855206394334759,-0.021004286744884776
331,5.19807803153578,95.09282031808151,8.244336760757298,-0.1828437126841914
332,4.95548439161724,99.97595512154146,9.5824921091624,-0.09609404957105105
333,4.758138286457994,104.67158616222956,10.886123203661894,0.28394753063016814
334,4.645647545495059,109.16985609745902,12.163369731117296,0.9645403864072248
335,4.650644659620246,113.45808911672911,13.417057547136135,1.9252747712398657
336,4.815796289493696,117.54002991587058,14.648130574867746,3.124912244027599
337,5.184351341627969,121.4318868779845,15.85409662754295,4.502198820310787
338,5.765324243552886,125.13373948724774,17.026178898396257,5.977672367858847
339,6.523621848495104,128.62953185153862,18.154658106727517,7.472179105956202
340,7.408202061213273,131.90702331580968,19.238401567801347,8.93254784506004
341,8.374079111481592,134.95932514410808,20.288158285814212,10.340240356725028
342,9.39190427290107,137.77184999775932,21.322123855119635,11.694988825340584
343,10.438664539326833,140.31667804974464,22.36177491824325,12.996465062174389
344,11.482021050951278,142.55999423538208,23.42744996085855,14.240690490875531
345,12.484013057068575,144.47030215126307,24.53422521922155,15.429243196823737
346,13.417243168903388,146.0269465443186,25.692575706753576,16.57812410047808
347,14.266579795207676,147.22252860861812,26.90410823773159,17.698894885651956
348,15.007473783037394,148.05226793485434,28.15091331527646,18.768586202027844
349,15.59785247682657,148.51317183916123,29.395206105653944,19.733708201090373
350,15.990412122524388,148.6189668585355,30.593309932523688,20.541358249481966
351,16.153421523914467,148.4114517981182,31.705781017151413,21.1555872739415
352,16.092412972446503,147.9533617236867,32.69899273241039,21.55138861389525
353,15.8403375452074,147.30760627569765,33.54877665864091,21.707832272819523
354,15.4282759630925,146.5324941507394,34.245976450360004,21.61068097152591
355,14.87130031786485,145.6984080841817,34.80087967818899,21.267230119393304
356,14.186398184918879,144.88975634207682,35.24127476220838,20.71679059540028
357,13.419125612654051,144.1728501111349,35.60108661719304,20.015661103696324
358,12.628445450446149,143.56767543189233,35.91011722494817,19.214818047243025
359,11.847452520759127,143.05502262419708,36.191765958968354,18.359250632273174
360,11.075572544823117,142.59529219138972,36.46391260668576,17.504654844529682
361,10.308121441354729,142.1433381900995,36.7375003699895,16.717371260636046
362,9.556838691262357,141.66212005838617,37.01363176933684,16.051919534536903
363,8.841921838164472,141.12786256336327,37.28337148180641,15.53555076190938
364,8.181592364565251,140.52717111576646,37.53673218692623,15.17831199769771
365,7.590510925759804,139.8583709050982,37.77767609365057,14.997158179124886
366,7.090855884269738,139.145020303864,38.025122313611114,15.01858695487387
367,6.7233707087761845,138.44386204393393,38.29967680719894,15.264109558282989
368,6.528381327111597,137.82511081073957,38.61477072458629,15.73423369143935
369,6.510975387576848,137.34597558371232,38.974479136028144,16.395257191826627
370,6.6392365235327135,137.04270622897613,39.37594464128376,17.1900727483024
371,6.8822969792837245,136.92859330543388,39.8157220659282,18.06050328129288
372,7.236974710358281,136.98900235028603,40.28936048762254,18.957858152240803
373,7.70689006452262,137.18466481880037,40.7867088922416,19.835734125694458
374,8.224387954883753,137.4646889748283,41.27059706231618,20.630083936730507
375,8.801442551164655,137.8087209059901,41.767312249405,21.315083536968658
376,9.435998957131428,138.19430685662618,42.284777791705906,21.88657457170391
377,10.127215734361744,138.59038497712527,42.81707633026033,22.352096818329812
378,10.859083648554762,138.963521879656,43.348991220498725,22.72107039232646
379,11.592686828349457,139.28944356629142,43.861175503547884,23.005320660728273
380,12.279240592144891,139.5603048005172,44.33366337892522,23.221619313748327
381,12.880738072999826,139.78471315272077,44.74698512445552,23.387711051245873
382,13.376841763347752,139.97515608029022,45.082479479195584,23.515294921684045
383,13.757603881910526,140.13334502858947,45.32656403020478,23.60624851113348
384,-0.15847015793420355,-1.3960161136827702,-0.5978659475936369,-0.28020844039883924
385,-0.6296350488955608,-3.0989930547993403,-1.3902043600434881,-0.753659636479483
386,-1.3872743765506559,-5.61348772125107,-2.5668539692617407,-1.496185148434133
387,-2.4727227345032152,-8.981829930194781,-4.144824282803907,-2.5211698987856734
388,-3.8888153297125347,-13.164840428355653,-6.105552757681885,-3.804725956030359
389,-5.59746468207909,-18.055451392311856,-8.403597722177842,-5.308929024416634
390,-7.535445087362674,-23.489153834541227,-10.974051990931494,-6.989646438015218
391,-9.626839925369579,-29.253936708832175,-13.736834515758007,-8.789836347421433
392,-11.784854789137169,-35.1227182640281,-16.60392745539097,-10.636951612725749
393,-13.913471700348975,-40.909212552461085,-19.500128736336272,-12.462515673511064
394,-15.92847060620167,-46.54170676851382,-22.397412762855637,-14.239540724803643
395,-17.766224161545452,-51.91422581016116,-25.252667109259868,-15.954729873447736
396,-19.388805514350928,-56.94080512869946,-28.028499510976257,-17.59899848141738
397,-20.77433194732952,-61.554074325669745,-30.68593078844702,-19.155896646762965
398,-21.90325255575889,-65.71470172681462,-33.18536502390821,-20.597940323420445
399,-22.764076823310862,-69.41403104549778,-35.49542812144948,-21.89677662293802
400,-23.371692824187143,-72.65502951423903,-37.597113087794426,-23.03748963666337
401,-23.76907417995487,-75.42871931328145,-39.47856134465821,-24.00839200595911
402,-24.00090785354112,-77.71198268640757,-41.131708644023846,-24.79178638438978
403,-24.082952108693533,-79.49262380690892,-42.55693623855936,-25.37822008355754
404,-24.01015049554466,-80.78585069184597,-43.762666544349344,-25.782350231216615
405,-23.786371048813503,-81.62348904868526,-44.75475328832356,-26.039895305548075
406,-23.4361293959171,-82.03517862763655,-45.52626339573001,-26.177624551685486
407,-22.982827809121968,-82.04596122825109,-46.057672108689886,-26.19660006419553
408,-22.423305130648735,-81.69000813808643,-46.32682748093938,-26.08756753454128
409,-21.742442637678177,-81.00934542809031,-46.32087326773591,-25.841842732208562
410,-20.94649011289262,-80.0405187407399,-46.040731386603426,-25.449468320294088
411,-20.073087675974097,-78.8062996410473,-45.49304268080295,-24.889209762271907
412,-19.163181569863447,-77.31326412619865,-44.6826753649796,-24.12973188636596
413,-18.22771343328622,-75.56105867799863,-43.614914824915516,-23.149192582367544
414,-17.251470391108516,-73.55851369325782,-42.303536050635564,-21.94882775032376
415,-16.224401342637506,-71.33638225974855,-40.77471695389657,-20.55845314462826
416,-15.161007888856062,-68.93789772999195,-39.0595873833901,-19.027986346451495
417,-14.076977297310771,-66.3982292386932,-37.18418580454829,-17.399190085595695
418,-12.963924357759844,-63.746481516376384,-35.16569761362337,-15.6915316350839
419,-11.809361408792412,-61.01800853930413,-33.019646555130706,-13.924380712517442
420,-10.630955543277333,-58.25629960212432,-30.769329789953616,-12.137867288699066
421,-9.477845233680172,-55.50596225505404,-28.446773813830603,-10.380328860883054
422,-8.398473654200945,-52.81237010925875,-26.09138960849062,-8.686502000966481
423,-7.432040915530017,-50.226649206653164,-23.74894306397617,-7.077140363299975
424,-6.6290464314970725,-47.79993391229014,-21.468923008979637,-5.58245075098209
425,-6.054319039129205,-45.57300918602242,-19.30123623174462,-4.258798260122839
426,-5.758386291869505,-43.570190367362876,-17.288620729292646,-3.170732355772122
427,-5.739470312976504,-41.79584619108587,-15.455171802465072,-2.362380415181441
428,-5.939105899753084,-40.231050942850246,-13.802573972890858,-1.8464844284681476
429,-6.271394049058263,-38.83936712545648,-12.323127780271278,-1.6166186891170236
430,-6.653453629067372,-37.57959085752172,-11.015134034309744,-1.664340320588753
431,-7.009972874351939,-36.4089686401618,-9.879396220938837,-1.9740444171031677
432,-7.25948199007107,-35.27918299341009,-8.905629165564008,-2.5060987432651562
433,-7.316696298758197,-34.14204851234994,-8.075736666210704,-3.1935083798100203
434,-7.11611353701552,-32.972304553076334,-7.38078028508713,-3.9667709481499718
435,-6.642338215351732,-31.77295913968892,-6.826608302816169,-4.783815207727787
436,-5.926396218172567,-30.550308553650655,-6.423980821757524,-5.622645157270909
437,-5.016438573531965,-29.296495800018374,-6.1734491534575,-6.450548737366975
438,-3.9607507332337977,-27.985778691541697,-6.058784661904561,-7.2174799383138435
439,-2.7914904175131565,-26.57841119149049,-6.053863402456317,-7.885883193817083
440,-1.5271790278438628,-25.03500991048892,-6.131944045256002,-8.454069463062583
441,-0.19462864539756924,-23.328375497303877,-6.269227864114364,-8.940888873017114
442,1.1521275697973663,-21.443385918517063,-6.44160329368369,-9.358046264042912
443,2.438834465271897,-19.374334210075304,-6.62165375634831,-9.703995439847109
444,3.607873469744472,-17.12454910456285,-6.787087064657719,-9.977967421507246
445,4.631011209536501,-14.711521996288255,-6.931038959392994,-10.183505726847562
446,5.488980205511433,-12.173635443700952,-7.055478440610129,-10.317796405878864
447,6.1519720822984345,-9.555450292276133,-7.155695754104514,-10.36391376141141
448,6.588598802854117,-6.884274515157935,-7.2212551627804,-10.2982024528522
449,6.793970863481156,-4.167060818085076,-7.248619569656717,-10.10911434847333
450,6.794408308381781,-1.4010355979824034,-7.238416317870135,-9.806429886923198
451,6.628027498669618,1.4166011990188678,-7.1846426027763695,-9.417092081615293
452,6.322521011616911,4.288314147155638,-7.078197243176349,-8.966257995010388
453,5.8973823651076405,7.217976826618606,-6.913456216582249,-8.465546464129877
454,5.38659263207115,10.196107084517113,-6.686220746639019,-7.925931792101017
455,4.8326737418986685,13.183523818135846,-6.394166095691935,-7.366749631271479
456,4.257062906247501,16.117130137906834,-6.035873642069363,-6.804821347270449
457,3.6569375582653887,18.931958715171238,-5.602595137433103,-6.233092706404109
458,3.034525888475904,21.57939692149469,-5.071406027749406,-5.619802168444575
459,2.4069815388287337,24.021060796725735,-4.424175229540547,-4.936838980077475
460,1.780627250108558,26.212644516737665,-3.681520313654987,-4.185576180287816
461,1.126717452136088,28.1072612151418,-2.89636245907748,-3.405061048200471
462,0.39026691653003825,29.67462413633696,-2.1209479405421696,-2.6587661788329027
463,-0.46884533887498214,30.91842264494943,-1.390649304196744,-2.007829227799929
464,-1.4501204971131028,31.86898441217963,-0.7208184952570735,-1.4917686508374517
465,-2.526948756653929,32.55630561473109,-0.10365289785912618,-1.129962409639141
466,-3.6782926512167413,32.99989952980204,0.4940237419142337,-0.9344041902476319
467,-4.899004274950621,33.21609420752967,1.125721565246269,-0.9111100708471066
468,-6.18364755204802,33.221550220567956,1.8557326535051037,-1.0487024978092387
469,-7.510488151697855,33.03107016876838,2.7504525526471904,-1.315241841437108
470,-8.837634430278147,32.654377858815614,3.8609859366777943,-1.6730725125339259
471,-10.125050631102713,32.102419307713376,5.212889922198012,-2.0886242529459547
472,-11.34817744611071,31.39982370187035,6.818397756089984,-2.5288754251146393
473,-12.481467673030485,30.58296399455044,8.674168761295622,-2.9624902594628404
474,-13.491474226626584,29.68993947438889,10.742070547972629,-3.3674392551394385
475,-14.338739089232577,28.75351385166977,12.942974540531914,-3.7362195002292626
476,-14.983258073853174,27.799488131158046,15.172744760511415,-4.069381567384392
477,-15.399624816680172,26.85384785723922,17.33554994821909,-4.359077437222915
478,-15.589840530876291,25.94069847203902,19.353317837144857,-4.582428683248614
479,-15.574863929164023,25.070798416420814,21.149640490657557,-4.713792519695005
480,-15.371169098588144,24.23867027566851,22.65382468703575,-4.741863153259035
481,-14.996473992312806,23.428531602971994,23.811673991529425,-4.6730646549855805
482,-14.486463207637668,22.62732909966718,24.59109121863213,-4.518531342314308
483,-13.878188736320851,21.83575191795882,24.993653461608,-4.271138989768183
484,-13.187392590001638,21.072226744904793,25.060140990051888,-3.8946710889193934
485,-12.40793598732526,20.37171113607798,24.862345815487416,-3.3485970384224872
486,-11.528277961384624,19.77688815209646,24.48567287084171,-2.6211538792179314
487,-10.547679775604006,19.32467112060858,24.009462222605663,-1.7331763685859274
488,-9.470462446445886,19.041389005018367,23.49112512480878,-0.7230358628919894
489,-8.286947176565924,18.946069862275106,22.951961500805695,0.3637411272777501
490,-6.975227569870762,19.045132883256198,22.382103894096858,1.4787508107935232
491,-5.52130441088949,19.321110633172424,21.766013944849583,2.5727636260708553
492,-3.932657913760943,19.729442955456065,21.095112964012884,3.6049011408746474
493,-2.2322538116765305,20.217029518936,20.370284242946248,4.559301872447393
494,-0.4448542917318577,20.74963086767023,19.60069220287993,5.445859560000287
495,1.4134784462351222,21.304111182135582,18.796069265609027,6.281812794470135
496,3.3388812541400648,21.840347428534724,17.96121478688406,7.07484542001087
497,5.314966831608579,22.304149460045384,17.098016861581907,7.82128381981801
498,7.296281961804183,22.646967494090667,16.211561531019118,8.51230563393553
499,9.235488204314958,22.83830015891116,15.309663960363071,9.135777205548434
500,11.104037457829948,22.872706352795873,14.395208895203211,9.672564855060541
501,12.86974742036696,22.76828249573619,13.463492870452793,10.09190041862707
502,14.535053017570352,22.56068367354564,12.543797069049496,10.400334546018705
503,15.911702623933369,22.266576541776715,11.579114051939284,10.491441008414759
504,16.88407220487439,21.918896182353585,10.562450638385096,10.332386393452245
505,17.404233080412197,21.556124867783847,9.520220314390485,9.938766739756424
506,17.484220515092762,21.210971948704437,8.495557153704627,9.358858011607843
507,17.185758672862708,20.906669946624348,7.536724531820797,8.663451030686952
508,16.607700617042095,20.66121357282696,6.688979429661825,7.933088083322109
509,15.871441678889838,20.485749689803665,5.985799885154593,7.2428263027601565
510,15.104561122815213,20.377405175124455,5.441590940411373,6.645262797807718
511,14.422941037671574,20.313328935406258,5.052328747076017,6.166882696040603
512,-0.4207035452822911,-0.44964224307233575,-0.6562122568070494,-0.6592658920789312
513,-0.9451819140183089,-0.8798605980856136,-1.3965287992936166,-1.330135570590115
514,-1.689557222376276,-1.4791477453486157,-2.440369462933088,-2.2811353113146926
515,-2.671279169431589,-2.2483546319311665,-3.7788154770588425,-3.5040257349750896
516,-3.883103897794716,-3.1704575972420592,-5.379003219358455,-4.956276645141788
517,-5.290746792305008,-4.21587296364798,-7.19396045911472,-6.57957896688597
518,-6.841659831256979,-5.356957268256012,-9.164390753559012,-8.308582998765589
519,-8.474640523106459,-6.572921779365216,-11.226368218039958,-10.068458076891606
520,-10.121200476239352,-7.845273265409218,-13.328703253422482,-11.777339025516202
521,-11.705585946610974,-9.165980125244165,-15.442080195961752,-13.370620262614084
522,-13.172935831909752,-10.55999098351835,-17.568825581459986,-14.841116822142727
523,-14.483733935182288,-12.031676351242968,-19.66521528356285,-16.16971206509782
524,-15.61076821530778,-13.565918824382662,-21.66302929305227,-17.338858708113722
525,-16.531130265681266,-15.12738997517453,-23.47817729514134,-18.3289887158252
526,-17.232478899952614,-16.67729967707778,-25.028297455298343,-19.13057474940611
527,-17.728686736646193,-18.18157415546226,-26.240323568931537,-19.751442915006468
528,-18.066053639968143,-19.603308328315055,-27.048921352848485,-20.206839210195646
529,-18.305456621800513,-20.907807704081566,-27.406434832375503,-20.50468238453763
530,-18.498170276739174,-22.078771968424768,-27.304785390374036,-20.644842719521236
531,-18.66244968557631,-23.1203493414125,-26.774272614401927,-20.63940806219447
532,-18.791096492157294,-24.050025462178137,-25.856135795675105,-20.522659680309008
533,-18.88334795259407,-24.89556328954826,-24.593123540841297,-20.336079885113595
534,-18.95854078552218,-25.684968666046192,-23.03497655746501,-20.108593777954116
535,-19.042517266232394,-26.42958646224346,-21.243603464482703,-19.85558080032986
536,-19.15114302488792,-27.123691977702396,-19.2973865417934,-19.593894035469546
537,-19.29468370882515,-27.75976567678432,-17.28523672628805,-19.34565374982433
538,-19.491064984765377,-28.33448184737105,-15.302484483049216,-19.127609899001037
539,-19.76682992568826,-28.840883801089696,-13.44930300591999,-18.937273985973185
540,-20.130453706974485,-29.26884761531602,-11.818520802330127,-18.753865296793684
541,-20.551168833400254,-29.622867040141582,-10.485051340781533,-18.557800022827212
542,-20.980190662946892,-29.932588015666177,-9.503228843504667,-18.34458436750169
543,-21.38533392565909,-30.23910536694168,-8.902375322351524,-18.122957870413217
544,-21.7593973199948,-30.574292786177566,-8.68177848247877,-17.90003340408854
545,-22.09581135465319,-30.95297868355282,-8.809965180556947,-17.668183940077093
546,-22.369262214781436,-31.373401155345118,-9.229662608270885,-17.412047601777466
547,-22.556167433251275,-31.818464542720577,-9.86839846661551,-17.129037893296697
548,-22.66919903075735,-32.26137772491515,-10.653197358459742,-16.83631790393044
549,-22.751385089911892,-32.67065047943748,-11.529468689849717,-16.555133161936958
550,-22.826962391592517,-33.0103162414495,-12.463976013504432,-16.29854359377258
551,-22.871139281665823,-33.242024232610376,-13.427431808912687,-16.07161911398816
552,-22.83290897342738,-33.335207347297676,-14.390322253903765,-15.871392869246876
553,-22.672034332108467,-33.27803314854648,-15.329512208083608,-15.683563710603
554,-22.36663852708731,-33.071110683974744,-16.225621455666076,-15.478451686425194
555,-21.899872503931896,-32.70994264490263,-17.05821131542595,-15.213360947744924
556,-21.252417903968002,-32.188529434556436,-17.808972994333075,-14.840288270969857
557,-20.416956327187933,-31.51931610481477,-18.467686904561344,-14.321554940613321
558,-19.426039521729727,-30.73116705041635,-19.03112009797011,-13.648433680750072
559,-18.346080326928323,-29.850628159221056,-19.496398479546656,-12.838765827122652
560,-17.234855228978493,-28.894730551607346,-19.85649419910048,-11.920815445582184
561,-16.11828561423111,-27.874033480061872,-20.09924243904002,-10.923099029264439
562,-15.002376044880805,-26.795785242512732,-20.21002974151196,-9.882604191391497
563,-13.892867031861163,-25.66654674552251,-20.179185818650495,-8.853450617766715
564,-12.797522462451747,-24.49672651145991,-20.006936498459734,-7.887081598438661
565,-11.708170925177125,-23.298746753778396,-19.69915825831191,-7.008212125816136
566,-10.595639100627782,-22.079365580547783,-19.258173075151767,-6.209913374621361
567,-9.427886493692991,-20.848091526594846,-18.680947568072426,-5.4677840570229
568,-8.196266544504686,-19.63132184190055,-17.965274702277043,-4.758596993029557
569,-6.929014612916814,-18.468011577019443,-17.113440337806612,-4.068236048127549
570,-5.6766622876577175,-17.394675296254974,-16.130522030962872,-3.3913759911022576
571,-4.495597540337345,-16.440582821066577,-15.028560067203498,-2.729160256425036
572,-3.4371903425581043,-15.63629682732453,-13.836965259086783,-2.090899744777032
573,-2.5410379476229443,-15.011133686468998,-12.600442732667172,-1.4951379162172065
574,-1.8371716073839683,-14.576182438572154,-11.36386505450257,-0.9651137700257175
575,-1.3479067808777625,-14.32324466587114,-10.162254888331178,-0.5135019247921182
576,-1.0803268821152299,-14.23940791317234,-9.022307103324474,-0.13315533984845124
577,-1.0140792578281455,-14.310171614416534,-7.963861978776597,0.18548202975136302
578,-1.1095691048139258,-14.520421288870882,-7.0004565119529145,0.44105484161574127
579,-1.3344838255087295,-14.863253977034168,-6.143049728951505,0.6294483650646729
580,-1.6740585218567645,-15.331650485556253,-5.392269351202754,0.7614106608517781
581,-2.1177768860620523,-15.900993932248152,-4.72812618523452,0.8668147091911637
582,-2.6491682401186556,-16.533630398557932,-4.121667897620119,0.9705680525630044
583,-3.2493955139673485,-17.198268025363614,-3.555140346570926,1.0687509899022318
584,-3.898140255246299,-17.87438091042716,-3.0262461677088903,1.1317704811044882
585,-4.560207628278466,-18.537140729486126,-2.5395803486391237,1.1291583999972905
586,-5.17123783814278,-19.150871682330997,-2.1004630874548207,1.0452703525631302
587,-5.6483736155914155,-19.682684214792484,-1.7163883895403194,0.8748186374689048
588,-5.916928562364616,-20.115457886705304,-1.3995446642662306,0.6134892894142787
589,-5.92597293021309,-20.444390131890316,-1.1598581591995014,0.25849767369149357
590,-5.650176874477977,-20.668464642559567,-0.9947543321633878,-0.17805920826084798
591,-5.075510124362256,-20.786654240509865,-0.8880198764758868,-0.6607801062514495
592,-4.18647452442791,-20.79442324346216,-0.8178224990901547,-1.1369009205657894
593,-2.985026299955435,-20.685967266740217,-0.766414491952375,-1.5526627636691845
594,-1.522806075395217,-20.460912174502102,-0.7242312278279694,-1.8637471553467153
595,0.10236463160301973,-20.1211301730116,-0.686380905207542,-2.0317195783013493
596,1.7943444685757228,-19.656642017603662,-0.6444206328462753,-2.0246994681537216
597,3.4946030973979965,-19.040150844957257,-0.587657804996379,-1.8245501011778684
598,5.169835169998181,-18.25314923570306,-0.5179649224155227,-1.4397253851400191
599,6.7845831491282755,-17.31268862002926,-0.4528457038056684,-0.9129935429270972
600,8.289238066639252,-16.25922633893898,-0.40995102008423645,-0.302833638808736
601,9.631059991521328,-15.129160811798627,-0.3961935508592403,0.34061724828144924
602,10.776979768540029,-13.944509472308093,-0.40484681253888016,0.9837032419950483
603,11.720995543431396,-12.724191962311675,-0.41806707236042595,1.6016716387460572
604,12.470931790125572,-11.493517256383369,-0.41515638417069833,2.1695239714907113
605,13.029276981821823,-10.280341232827366,-0.3733090177285846,2.670214249568288
606,13.386667272048676,-9.118705884272313,-0.2677149056694471,3.1077300080119725
607,13.535464383920079,-8.053732728355099,-0.08315642425854056,3.503880985452019
608,13.48695754724309,-7.130506725399354,0.1783966867350411,3.8771262683636527
609,13.262353947824769,-6.38433549548314,0.5055073832391467,4.219539679628185
610,12.876343987324171,-5.839988146796362,0.8879492233676209,4.501296559979153
611,12.338806775847619,-5.509914594876922,1.3170805371820633,4.694972030847285
612,11.660800612817733,-5.396546481600657,1.7811258763230877,4.783129152594996
613,10.858022190019035,-5.505478348411856,2.259314867757482,4.748654843565763
614,9.941069344123552,-5.854201528544817,2.719997933924986,4.568409865408324
615,8.907085754705362,-6.453721038885272,3.1290860875435436,4.22118934642692
616,7.748137945103753,-7.279248178645091,3.458894145880458,3.7042915023076044
617,6.465133327433397,-8.27584357460722,3.6881654376100084,3.037618911851132
618,5.076418370574751,-9.397877020444344,3.7970855662516416,2.2452244434664577
619,3.6058923461412067,-10.627334332258325,3.767949478747798,1.3396023392510716
620,2.070648905127415,-11.95003594858698,3.593042423348244,0.32826511921668344
621,0.48418802784907444,-13.327927744953616,3.28199340672401,-0.7674195804244052
622,-1.1277959392848362,-14.695583614229445,2.859853488508973,-1.9041383817900244
623,-2.713255698224514,-15.97301426176273,2.3551098754463715,-3.034627350029653
624,-4.214225170913837,-17.085629581158457,1.7926586211608142,-4.1303061281012265
625,-5.600156124026697,-17.980673441843262,1.1934026121949364,-5.1809915108341436
626,-6.867941576769677,-18.629521727688946,0.5695751564814213,-6.175165345273094
627,-8.009709066597331,-19.016294744908404,-0.07547613025143138,-7.088737674678312
628,-8.991930328769145,-19.123928459702594,-0.737665816309875,-7.895050683551684
629,-9.769597903378617,-18.936579184440006,-1.4057494832672293,-8.572267599346501
630,-10.358641469113138,-18.557249874756934,-2.0680419121074545,-9.133973225947981
631,-10.678914646585923,-17.83470046544205,-2.689105088885303,-9.512158383206005
632,-10.700264613031093,-16.72744358295714,-3.234420067070179,-9.672144915562399
633,-10.42863042782764,-15.28318210022714,-3.678272473960943,-9.614801114594504
634,-9.908771063729512,-13.608960678991059,-4.006696146575936,-9.37336467819546
635,-9.224167163486896,-11.835037308319055,-4.217456608114406,-9.000943707864165
636,-8.477360177821845,-10.089227536896049,-4.319874153741079,-8.55407512891354
637,-7.757522668683023,-8.487468158537768,-4.334323453676539,-8.085724887032816
638,-7.123879702985146,-7.130524684242802,-4.289797599440498,-7.6484094947978045
639,-6.614065474234633,-6.092218369708634,-4.218924483786873,-7.293840762107083
640,-0.22042158128512793,-0.4754403475512662,-0.49912612178082355,-0.3798492872158452
641,-0.5998244932622989,-0.9965765657689599,-1.088884954389564,-0.7635897983600604
642,-1.1737710768285408,-1.7509192877391042,-1.9302575115706646,-1.3119439252806382
643,-1.9500746407764156,-2.743856579956652,-3.0202173272761494,-2.014872784272641
644,-2.9023432953931034,-3.9629243754508945,-4.332753029817058,-2.838845289401785
645,-3.9870117528576317,-5.377638145128293,-5.824187343224061,-3.744219713203569
646,-5.161131267183329,-6.93623304633795,-7.439458030152093,-4.69568930470102
647,-6.391958684037842,-8.572413764641732,-9.11992012129964,-5.666398742271223
648,-7.658280691159858,-10.221482395329812,-10.814396558199492,-6.640306377487551
649,-8.950056172896318,-11.839203842434713,-12.493183657696653,-7.621343064148005
650,-10.278753238654993,-13.420321225631401,-14.166130717213445,-8.648939218269163
651,-11.669131219824113,-14.938164998058062,-15.828062279665023,-9.752211263735873
652,-13.13486517246745,-16.369894618633932,-17.472369686906003,-10.950526333554224
653,-14.668283118290955,-17.71074621001757,-19.09236455854857,-12.244474554992387
654,-16.24789602627114,-18.970493774504355,-20.685403065602493,-13.623497465059103
655,-17.850504292460865,-20.15838410299373,-22.249206626248075,-15.079124016662817
656,-19.459504661774265,-21.275989988852658,-23.77581349558894,-16.59676271083305
657,-21.058714491044377,-22.313676861654287,-25.249812882513453,-18.13519208378019
658,-22.624541800949903,-23.247056333015927,-26.646920375456403,-19.63020376320169
659,-24.124697377332993,-24.043197319152075,-27.94248500488663,-21.027286800091307
660,-25.531732997151845,-24.67454861978098,-29.12508695500845,-22.30723695966134
661,-26.83712076879141,-25.12402253966354,-30.194249603112784,-23.47739871693355
662,-28.047028498199587,-25.380322974697116,-31.1513964453879,-24.546052721212273
663,-29.1634081109185,-25.433999504883346,-31.996573005088138,-25.508987959733616
664,-30.16144688953404,-25.276304192960264,-32.72807725601956,-26.354571772609173
665,-30.996718972221288,-24.8998504188407,-33.343956855415406,-27.07460325226355
666,-31.632290838904918,-24.301682565096378,-33.84537219806169,-27.66703502351785
667,-32.047636049950015,-23.482464623225106,-34.23474256252628,-28.123732965978963
668,-32.22197728985514,-22.444474500863883,-34.508226734548835,-28.41665014150104
669,-32.11374203701541,-21.19636882787229,-34.65521573485068,-28.511198400309464
670,-31.676819722401774,-19.761295528196626,-34.66362287319644,-28.39225370949478
671,-30.897623710840513,-18.18102052921116,-34.52359985411208,-28.06528724073533
672,-29.805855860266515,-16.510168191584874,-34.232526801500164,-27.53807152973599
673,-28.446487599614898,-14.809002794936298,-33.80015643561462,-26.817713203331028
674,-26.848016324924455,-13.143140073302359,-33.248621708225556,-25.92601406431026
675,-25.033750033545534,-11.579616125211256,-32.60941625678892,-24.902896804481877
676,-23.05470642798817,-10.175529186484942,-31.91509939920776,-23.7919923964751
677,-20.99428772639799,-8.963349733939857,-31.183691028715266,-22.623220228009462
678,-18.933454309388043,-7.945774045938217,-30.414744673634416,-21.41166268073854
679,-16.916022170185453,-7.109506833993546,-29.60286108193352,-20.172743934525958
680,-14.964671803508137,-6.441076542094968,-28.746500902801284,-18.934874139177108
681,-13.119283446593553,-5.927084220055429,-27.847982331541505,-17.74145641996984
682,-11.43474333387192,-5.546279230098917,-26.917141159462506,-16.63643849660819
683,-9.94581822219083,-5.274210581842409,-25.971862334396363,-15.65015673613529
684,-8.652445168477245,-5.095892385412989,-25.029780457132993,-14.797061301467908
685,-7.545075305643397,-5.011927727972221,-24.101908282433126,-14.0856602666974
686,-6.636724888562369,-5.034446449749727,-23.18650117024029,-13.52740835355069
687,-5.958181193127483,-5.1738402656821245,-22.257399217345533,-13.119699942454941
688,-5.517911223868388,-5.428667848378946,-21.256613443340363,-12.832256934123349
689,-5.285391841159263,-5.789274950916323,-20.100140373666125,-12.615689596033137
690,-5.212848831651429,-6.250427498144808,-18.693305093410558,-12.418405136085996
691,-5.264304319092568,-6.819095698683673,-16.950874985263937,-12.204606142270258
692,-5.426233684598846,-7.502087535063992,-14.814686661825439,-11.956418600769378
693,-5.682831148941673,-8.285790943254263,-12.262055042669767,-11.667406220152781
694,-5.99728762336309,-9.135219804877265,-9.312899255804064,-11.341181115190931
695,-6.324868987519774,-10.006419873211872,-6.036177441024691,-10.99286827228082
696,-6.637797652886215,-10.853924034620576,-2.5396418508990495,-10.648456034980477
697,-6.9318174760366205,-11.633344034550893,1.0591633299058727,-10.332543742262951
698,-7.204010440911289,-12.307031190308305,4.658572030002424,-10.047669775453063
699,-7.44132225953796,-12.851364911880868,8.183259548199118,-9.766946297295965
700,-7.626875812866688,-13.259679617231562,11.581163226090204,-9.453524738429165
701,-7.749613779450077,-13.540126466417847,14.808234621909136,-9.082610233466362
702,-7.809336894146131,-13.711007246973246,17.816430442969125,-8.63898711330517
703,-7.805814192509765,-13.793998769168779,20.552294696210446,-8.101817390287595
704,-7.73210370672535,-13.807296123545123,22.955167011291,-7.448190802858812
705,-7.580399526695873,-13.769524608806469,24.94731805606163,-6.67912287420913
706,-7.350370238229365,-13.704850996844248,26.429888589776244,-5.832600403120586
707,-7.055078743904467,-13.630182925581352,27.30063236925964,-4.962379383470107
708,-6.721643117961734,-13.536090704238054,27.477432651321188,-4.106090008187189
709,-6.371375590056159,-13.388955679609769,26.91336998046098,-3.2768867743544017
710,-5.992999563297536,-13.155945436553685,25.602980992414686,-2.4753345725020233
711,-5.560610173892025,-12.8167795135707,23.58385933584565,-1.6954532176172978
712,-5.062640072820115,-12.360168906508747,20.937828017099747,-0.9276300517903238
713,-4.504320724855894,-11.788342047319253,17.782326196379902,-0.1568747980906101
714,-3.8936420933105618,-11.122227756157898,14.249809396263132,0.6393848462682583
715,-3.221853917831654,-10.399508779591189,10.468055031592426,1.4767020728276852
716,-2.4783257644917307,-9.6681247098266,6.551748534757255,2.3479303440408645
717,-1.684573814736458,-8.979663517669753,2.6027369275948757,3.221891904636996
718,-0.9028735205603496,-8.38033583595468,-1.290345583954491,4.0582867844798045
719,-0.20541766349602927,-7.902240939970376,-5.057470107074512,4.819215884578501
720,0.365740260407206,-7.56155433380475,-8.652611850485282,5.464427091691465
721,0.7975309742086465,-7.363593825874185,-12.05166785835135,5.953816037131954
722,1.0758698018319064,-7.312326729388838,-15.24227716648983,6.259815775877152
723,1.1712933475193594,-7.401055332361094,-18.211574975546505,6.3745276575480805
724,1.062259173127837,-7.597569481264297,-20.942561858192015,6.30872109535828
725,0.7648878094307384,-7.860869885264238,-23.418915401183554,6.08494049526405
726,0.32659790909859104,-8.170022773425494,-25.62502970554418,5.7306281540686195
727,-0.2099251640127947,-8.530208557156177,-27.540966320416285,5.2728455013564774
728,-0.8212545594313371,-8.953087373983404,-29.14118557666159,4.74126946180532
729,-1.4752333209741253,-9.437422240789292,-30.401370732138997,4.175777316735557
730,-2.119869697659386,-9.96382688782135,-31.312970240231905,3.6232991395609977
731,-2.71050457453874,-10.497001003243831,-31.892669162876835,3.116065790360727
732,-3.2391222446882413,-10.991407231148504,-32.17762198109396,2.65170225589698
733,-3.729186387655761,-11.397789792429169,-32.21547837425476,2.209961637548993
734,-4.195491151106342,-11.67063871725337,-32.055415493454134,1.783481670202514
735,-4.62888857170826,-11.776326810711197,-31.73914711952413,1.3857108546059602
736,-5.018247779838568,-11.702124015024253,-31.29600213154684,1.0337088761056832
737,-5.373936289565356,-11.45970989750187,-30.743075611139464,0.7299147336688587
738,-5.720410989241204,-11.07257077706239,-30.082554468591344,0.47066738680800563
739,-6.060180743766388,-10.556690822466125,-29.299086242452336,0.2643309949305621
740,-6.358580619179781,-9.920055835830809,-28.36616982298688,0.13530598534963906
741,-6.562235875212324,-9.181734581543848,-27.25782782178531,0.11377542094023597
742,-6.632210552387385,-8.37284690420907,-25.95876954258316,0.21909963225411386
743,-6.560014985084056,-7.512111037566587,-24.469508536831814,0.45233730517244564
744,-6.350188789451683,-6.5953549133661395,-22.80732713142884,0.8054628346806463
745,-6.000876477297733,-5.614593558614597,-21.003725795959618,1.2735030217450545
746,-5.508164193514809,-4.578304204652122,-19.098506129388724,1.8446202131158564
747,-4.885316893574289,-3.513004558146851,-17.1328666119731,2.485690937366483
748,-4.165862022879351,-2.4593490419072728,-15.142482563494456,3.152185629818412
749,-3.3885987434371403,-1.4672986923733033,-13.153743820596357,3.8112346486473605
750,-2.5826507775756284,-0.5863541691535983,-11.181310590856363,4.450693614203014
751,-1.7560500055197799,0.14494380238808588,-9.230396290720957,5.057640045426504
752,-0.9031151888299505,0.7065261162062506,-7.306641947548337,5.603730803171898
753,-0.024407747274659775,1.1028793355324842,-5.418051547658096,6.063673362145369
754,0.863086619177871,1.3672079937383514,-3.5672653405876122,6.438789211069898
755,1.73753131059973,1.5505863304518377,-1.7515255241986336,6.754743701774596
756,2.592490074644975,1.697611554217786,0.027675541123263703,7.0354914715180445
757,3.431485807832318,1.8318828616306309,1.760569134912235,7.292792526243632
758,4.235717603459647,1.9841714425324761,3.4122296898505073,7.538967441803343
759,5.002577683539192,2.111208667682848,5.003778515117389,7.770323136323006
760,5.723897306339837,2.1854743252764646,6.5214453693990535,7.9859668161265205
761,6.3900113044031555,2.18686985010374,7.931700227517611,8.180671316685888
762,6.983411010447493,2.102054061503112,9.195634924843839,8.33976190865665
763,7.483922714531815,1.9302840101894687,10.28124729282047,8.446808963141407
764,7.881883060072,1.6852425893109233,11.171532609484743,8.501992980391977
765,8.183447419423839,1.3950299703557842,11.864761341676271,8.520779064409494
766,8.40553908751354,1.0984554592854852,12.369583002149106,8.516091560995964
767,8.563264046938297,0.8341689285634625,12.701064249154943,8.492249317853073
768,-0.3878292748175861,-0.4166551463900054,-0.5747097051965402,-0.4791783909681109
769,-0.9393257071610263,-1.0293559344077559,-1.3133940115127483,-0.9571070440196265
770,-1.729765043448575,-1.9748709776191427,-2.380463032321159,-1.6054318086178898
771,-2.762192241466999,-3.2635522308010128,-3.781858138417042,-2.410105427539067
772,-4.008915268881228,-4.863699576163384,-5.493707364026456,-3.345868610327989
773,-5.424832012124314,-6.707752590446504,-7.463391302317354,-4.385155080374913
774,-6.962060649789262,-8.700212732439205,-9.612304145703126,-5.499096164477193
775,-8.569605681340661,-10.728983557015603,-11.843615365197524,-6.652956283800627
776,-10.186630670848437,-12.684022399862677,-14.060985469401764,-7.808882518245569
777,-11.7543979521473,-14.482198201308305,-16.198664450334107,-8.940207668596551
778,-13.245554784693137,-16.097116565045326,-18.251324661728493,-10.05731600958035
779,-14.647795503780307,-17.514621145152134,-20.20812122154275,-11.15287572062614
780,-15.936655949909255,-18.75202388232179,-22.060181607604505,-12.198269177818945
781,-17.06896518368781,-19.845492724326913,-23.790145262758077,-13.146998664981057
782,-18.008621276254495,-20.839158839614885,-25.374185007079657,-13.956341744178484
783,-18.748785446858356,-21.77634806946902,-26.792211262159277,-14.60022272828143
784,-19.310836711083073,-22.687860869400883,-28.031231463334976,-15.071013512222788
785,-19.720633233365238,-23.580010254014187,-29.077971065490814,-15.377330478976374
786,-19.992346083780113,-24.442415804675335,-29.912196010405193,-15.540774435763828
787,-20.12526017902045,-25.271855575644505,-30.513877629557875,-15.59555053669728
788,-20.11525056850629,-26.077936852199873,-30.87600209336629,-15.585724888998623
789,-19.969622427374187,-26.87008944392042,-31.009492583971294,-15.555974937881063
790,-19.706434972630642,-27.648395231921835,-30.94206059689435,-15.538868442303185
791,-19.346738222278702,-28.406684715823747,-30.715564246404558,-15.544446141440869
792,-18.909738027447432,-29.14055963649401,-30.381150125879145,-15.570474497243342
793,-18.423570553019633,-29.850421326180697,-29.989945513257062,-15.617505432618714
794,-17.93594534762372,-30.536875318661647,-29.581793649169917,-15.686345877839463
795,-17.507300164619878,-31.195970180995293,-29.179173972677365,-15.76869685504093
796,-17.19208865890321,-31.817392412363176,-28.790449601902232,-15.84659098943981
797,-17.017739058798956,-32.38490648949597,-28.41599832724974,-15.909123227554836
798,-16.98256055194173,-32.8833945553316,-28.05208944773813,-15.959848444366806
799,-17.072500967422176,-33.29899699942702,-27.692347453230056,-16.00459682706902
800,-17.278288627765587,-33.61794342155446,-27.326604886474954,-16.044353375593964
801,-17.5841062143067,-33.83792853416522,-26.94191856273845,-16.071846354962645
802,-17.94365042486517,-33.976526004570395,-26.530497220169206,-16.070144365150934
803,-18.294935949997978,-34.069669615964465,-26.100277333693906,-16.01952379311789
804,-18.599469156098674,-34.15452554160049,-25.66874923647571,-15.903104107665229
805,-18.853967359041793,-34.24757101784522,-25.24349292068497,-15.705421924288174
806,-19.06222055085766,-34.33984889013722,-24.81726558389729,-15.411353196570444
807,-19.21133465100548,-34.405734671393255,-24.379468841097914,-15.018572617681283
808,-19.2828042164677,-34.40948674999243,-23.9284067472298,-14.554555907353468
809,-19.27751579270562,-34.30387092733296,-23.466517634310684,-14.067737648144957
810,-19.217525706941984,-34.031188381283656,-22.983029455779434,-13.597880941309919
811,-19.10958073458,-33.53493275801238,-22.45053367529719,-13.163224178742016
812,-18.913347406012598,-32.77793425333435,-21.83477388968496,-12.768059759436419
813,-18.56325460726331,-31.755973142604766,-21.11144397573037,-12.405599543568286
814,-18.004385029905496,-30.511351650806144,-20.284902793790895,-12.053384391522682
815,-17.211035621816624,-29.112070752977026,-19.38098259047477,-11.67121842317837
816,-16.198760266084477,-27.598550419984907,-18.420628931614814,-11.213089361145022
817,-15.005269310457434,-25.977918873743924,-17.40478691198802,-10.649630712055355
818,-13.666552985827005,-24.2572045375068,-16.328852038470696,-9.971667059455164
819,-12.223833985139649,-22.491359055244168,-15.211176732864034,-9.183476129555652
820,-10.707699165356553,-20.828161612952435,-14.087749561860784,-8.27544585781726
821,-9.082087322079092,-19.4630182056327,-12.99469082357452,-7.160509630474638
822,-7.255422392913806,-18.51092151722917,-11.95803472143068,-5.703544316910771
823,-5.17738717444692,-18.00587634719105,-10.985029118675097,-3.8473480839633476
824,-2.868958396657162,-18.03186872846079,-10.050909725994687,-1.6365182334567654
825,-0.32182514021907305,-18.724685845323542,-9.074656839252647,0.9060234969521992
826,2.587173254397268,-20.16642306108187,-7.949884946847033,3.877494951273718
827,6.03806243454375,-22.3263170578151,-6.6166133718615825,7.427823468045519
828,10.138697308392441,-25.043157628039083,-5.100847063777053,11.626537014078421
829,14.810738044343921,-28.00808119067758,-3.502269043140342,16.376056824090753
830,19.766530854754464,-30.824901258197364,-1.9450626768037944,21.388945100987318
831,24.592722423523742,-33.13385809554878,-0.566397941213686,26.257268302742684
832,28.890925521512642,-34.65278644831696,0.44215669383856315,30.60270412377676
833,32.442750516150205,-35.25639074950374,0.8233669568844302,34.20386063568256
834,35.23986852610454,-35.01725703101603,0.3094164631128562,37.00575561038307
835,37.35423176067004,-33.99941233309931,-1.2929145207160775,39.048826311403744
836,38.832168466159864,-32.07129501864471,-4.0290454597680405,40.38190087795774
837,39.68324867900908,-28.93452188831872,-7.784944002064538,41.021637056019955
838,39.90288151645399,-24.218346337395293,-12.345283025299084,40.9541565848369
839,39.49625623234308,-17.51352605239111,-17.45988708712652,40.1646533154677
840,38.50264331848353,-8.310313328690905,-22.88781218551,38.71277582080071
841,36.9650735373729,4.096062806289808,-28.42014871416041,36.71778204328148
842,34.85135464235175,20.504493010679052,-33.8974386231064,34.237391191598924
843,32.054663206861186,41.54708654784207,-39.210549338473285,31.2286028138488
844,28.514345033301403,67.5515773519386,-44.26884170752801,27.655473963070538
845,24.325478011909684,98.51036682661525,-48.991996200775674,23.62936374659377
846,19.749661451902718,134.0647410914332,-53.318240310270376,19.44371371693825
847,15.181801476908948,173.55004456968933,-57.199019026609214,15.517550236595335
848,11.068698837801053,216.12006400365,-60.572819456236175,12.28359182988864
849,7.77268845059424,260.84556857931045,-63.31703614430276,10.052047379654864
850,5.453593564021173,306.7837027721163,-65.24919423020671,8.945880206229104
851,4.065422342912703,353.08933556764873,-66.18547882400793,8.952100409516852
852,3.48945599827656,398.99574104866895,-65.98645036663478,10.007692886499676
853,3.64344807149164,443.74350535252023,-64.58146982778938,12.025977970337573
854,4.465822392186286,486.685550870712,-61.974405637497576,14.887673615254384
855,5.8614954684969565,527.3728918767265,-58.221047248288464,18.437220278699787
856,7.701081098750574,565.4802417143366,-53.404876986021286,22.505873903412866
857,9.858871597195531,600.7245795705754,-47.63422802958151,26.936850074973258
858,12.239969542182843,632.8658141282585,-41.05543987005812,31.578499358782725
859,14.76104762134463,661.7512130444958,-33.855028815523475,36.2718668380245
860,17.319066863259227,687.3353012593274,-26.244811063954632,40.85515019000846
861,19.789645578441863,709.6484368817141,-18.44190629288837,45.18091029976459
862,22.05384276835105,728.7608060916401,-10.64634706448611,49.12980566955203
863,24.031845498775525,744.7482136090074,-3.0301546192651942,52.60842431344985
864,25.675096124342097,757.6252170647352,4.253547378458972,55.538222122459516
865,26.930354188453745,767.2880248382787,11.06359716594541,57.85486964834638
866,27.73339540546316,773.5015513698406,17.277894367807306,59.515131517171895
867,28.04192028493817,775.905435323768,22.792907344051113,60.49627323443615
868,27.853042515300636,774.0337676382808,27.51187282507168,60.788824837829864
869,27.18185826307913,767.3483533831488,31.34482537456006,60.38819746683039
870,26.0284149801125,755.287778368345,34.22507613305496,59.29450863088759
871,24.37590759934531,737.3359623213057,36.121549942606954,57.520888269187765
872,22.22585770413486,713.0948821703084,37.035990952991035,55.09530961660358
873,19.610640733410474,682.3506051549356,36.999066083398986,52.052511354968146
874,16.581444440598254,645.110456338837,36.076883393983174,48.42953100981959
875,13.190711364653039,601.5857735374816,34.38074630242356,44.26906903651997
876,9.486020536222888,552.1383686765664,32.07555402085532,39.626292789711655
877,5.528644933941105,497.2541325804061,29.37740599806803,34.58144256722833
878,1.404185816603495,437.54896174732517,26.527399409724076,29.24131934153735
879,-2.7801446201093674,373.72954727184344,23.752543376500658,23.71899798029458
880,-6.9204836949163875,306.5199741245985,21.237122317460145,18.11196088630075
881,-10.939763637526019,236.6454595858346,19.11934018308904,12.495900641560718
882,-14.786484475207862,164.8510436374057,17.495262156285225,6.930497561546243
883,-18.422850843258853,91.87814348659995,16.411172005083078,1.4628832818726747
884,-21.8059509922918,18.435654739287124,15.861435100259339,-3.8753214144607386
885,-24.90289444662399,-54.80251729527509,15.801181042453742,-9.068777468439938
886,-27.651592917023773,-125.39873935810579,16.150980370994706,-13.977236137936963
887,-30.21159160534347,-195.91132488586314,16.837293966402655,-18.843802780924364
888,-32.64995115040642,-266.56189165575495,17.746135640915526,-23.729417937915333
889,-34.97285721635094,-336.0807715566766,18.757322605717484,-28.57700033638023
890,-37.15740508163147,-402.4053188013661,19.7704225439236,-33.26057096895907
891,-39.16990124242149,-463.2396404584461,20.710018956775727,-37.620345403540895
892,-40.96912590226029,-516.480398110207,21.521331130260567,-41.49258983824352
893,-42.504552980679094,-560.5303280746915,22.168610154212917,-44.738872287619444
894,-43.72712971341928,-594.5209299763372,22.635921659603017,-47.27248656535217
895,-44.612832886896065,-618.4170075529477,22.928251414877693,-49.07440813521852
896,-0.9925442724431562,-7.574621655032633,-0.4559210256664987,-1.0717031457001793
897,-2.1742398964091287,-16.349499803478178,-1.115565799054607,-2.3087330461338853
898,-3.8592597115818554,-28.842105604132293,-2.1045912978001513,-4.059039402774777
899,-6.049597499132791,-45.0672099727646,-3.4419314291199528,-6.296256713438648
900,-8.693316618770393,-64.71058464271948,-5.121796911656109,-8.964003349835863
901,-11.700539262548011,-87.1457032089192,-7.110530192939827,-11.988037276618737
902,-14.958423745214269,-111.49686634163835,-9.3454632043674,-15.27267543398181
903,-18.339666868208464,-136.7623009980893,-11.739736438090869,-18.698079945327038
904,-21.712013813485935,-161.99045118467265,-14.199532877366492,-22.139468517166804
905,-24.969019787578567,-186.52067781171274,-16.651777188056357,-25.514418133931066
906,-28.087447581323342,-210.28301773281356,-19.06953995767814,-28.838011075162502
907,-31.040638781631145,-232.95689250921387,-21.41330690512991,-32.09768806998516
908,-33.81041222507284,-254.22800815756665,-23.64738528460822,-35.277984148280474
909,-36.357207111696326,-273.80768748792946,-25.744358068115325,-38.34825528734492
910,-38.623593653342084,-291.4921095427148,-27.68897239888521,-41.265063844176986
911,-40.567610965459224,-307.1597973373097,-29.474701235058813,-43.98353527420374
912,-42.17662176266391,-320.71780032292804,-31.096360836412618,-46.456520391678914
913,-43.4465034650485,-332.08223428560666,-32.54976425096331,-48.637133504587545
914,-44.367538910599855,-341.1919244712898,-33.83791410240284,-50.49027096845006
915,-44.933269767552325,-348.02113312673276,-34.96793529381129,-52.001959277570556
916,-45.15352380372224,-352.57219201826365,-35.94203531946865,-53.178846074733514
917,-45.055176535380646,-354.8740620055865,-36.75743902109375,-54.028360024621676
918,-44.666377331989914,-354.9982980920777,-37.41214294917633,-54.54665337414208
919,-44.00840475542467,-353.059424679353,-37.90785832010315,-54.72515219411291
920,-43.10625474225987,-349.1907304223751,-38.24800126495283,-54.56894583298788
921,-42.00011681138285,-343.5335806632033,-38.43238103074947,-54.113219702624306
922,-40.74448695452731,-336.2459887898173,-38.454769339515146,-53.405472347359854
923,-39.39136281176481,-327.48946949203776,-38.30602505535762,-52.47719989782825
924,-37.97077581855058,-317.4126260749629,-37.97904294173387,-51.34375831603275
925,-36.48539064526898,-306.15680876235194,-37.472816602289846,-50.02363417883484
926,-34.94002772649168,-293.85918398038604,-36.79471192126246,-48.551652686915425
927,-33.37415653690629,-280.6450096135223,-35.95698061611151,-46.97736648009809
928,-31.84565799446153,-266.6273372814466,-34.97114125796522,-45.34514878657736
929,-30.39785671736745,-251.91691632337924,-33.85191130370772,-43.67570883236768
930,-29.05110877986225,-236.63409061306376,-32.627743637512886,-41.980895385414875
931,-27.816877196666617,-220.92328068281512,-31.345518880275755,-40.2901063622209
932,-26.71148737583946,-204.94945868593098,-30.059547869674795,-38.64240770061788
933,-25.756732521579732,-188.87815851622415,-28.812742446988757,-37.05632313754486
934,-24.967344704054767,-172.86000425509127,-27.628564200782534,-35.52554152756634
935,-24.3351125143347,-157.0186083629794,-26.51538885221096,-34.04601627309781
936,-23.831854341659103,-141.45155370115532,-25.47301860994685,-32.63704568499579
937,-23.42335350563292,-126.2416282443027,-24.493785712042328,-31.321708553115318
938,-23.077035482725627,-111.45571215115807,-23.560578661171192,-30.088407778012332
939,-22.755454361958552,-97.13241490589824,-22.647474151144472,-28.891277450334282
940,-22.406198977067813,-83.2920827100398,-21.72681347549759,-27.68417736384891
941,-21.977511616667073,-69.96498221257647,-20.780524833737,-26.438468882275213
942,-21.449039236280868,-57.18474827244305,-19.802630211830174,-25.139293846918044
943,-20.836739694325725,-44.96069833271691,-18.79295634958063,-23.777177770188665
944,-20.150793381014857,-33.2778347949516,-17.7568837975324,-22.340639018253437
945,-19.367588784028488,-22.119058638909127,-16.7115280248596,-20.824836972194994
946,-18.458196094177435,-11.479408142185951,-15.68316296424391,-19.25253940858312
947,-17.412185684140255,-1.360543294127324,-14.69144719937733,-17.668765140207803
948,-16.23628714683795,8.244677816421547,-13.740196100711564,-16.106831685917086
949,-14.942337458682305,17.353439253558236,-12.826043000374666,-14.576546152297443
950,-13.534649725966402,25.977939203771342,-11.950125277299337,-13.083249781385497
951,-12.022111506642634,34.12005011322896,-11.115760269422049,-11.631879484587959
952,-10.43985609605667,41.771251633529545,-10.319225863725231,-10.214832193441975
953,-8.847254898472737,48.922944207353375,-9.546268457102453,-8.807731428021988
954,-7.297414541008385,55.593872719208605,-8.77471937709549,-7.377168887382952
955,-5.809198414061995,61.83257737961352,-7.9844502336426295,-5.897406901502645
956,-4.377868860212731,67.68646036862711,-7.166861683243609,-4.3594832067082
957,-3.008959078612259,73.18291011204654,-6.324243893180115,-2.7711412387482
958,-1.7292806063061592,78.3394746891482,-5.461667832426351,-1.153034420562912
959,-0.5582189982654815,83.17140308329594,-4.58273948233147,0.46815993458984395
960,0.5174579570933912,87.6845714008557,-3.696230414430639,2.0639969349831384
961,1.523543283676065,91.8775701468163,-2.8237814255093294,3.5981503708725766
962,2.4617223569434707,95.75389633521218,-1.9975318765150336,5.019455827548471
963,3.3034265213643503,99.33031414653526,-1.2518289972491312,6.2804996478260495
964,4.010989686148507,102.63976020384493,-0.6172615739705041,7.356875399806364
965,4.557084414115454,105.72997178995672,-0.11691619612340277,8.240281594348271
966,4.932169365192162,108.65098731329448,0.23695446697809142,8.929788335542483
967,5.143952026268124,111.43357862676702,0.44442064157784983,9.431730687005716
968,5.223181362152789,114.08098038631097,0.5168915939794128,9.7620992851106
969,5.23320075150157,116.57454838853887,0.4749812814536561,9.952542466451213
970,5.260913433764349,118.87645352856288,0.3442089107059945,10.05657309950804
971,5.39208475938504,120.91999142494892,0.14850192938654833,10.135582757770269
972,5.68922531422177,122.61717052804713,-0.0906832109858082,10.231777512150996
973,6.190968664720656,123.90328505178871,-0.35086715793361145,10.36342369498337
974,6.924437665431627,124.76276852813825,-0.6115450797465715,10.53639606419427
975,7.910367803532445,125.21587624440258,-0.8602372234159262,10.747870197823852
976,9.161864923650539,125.30496662657275,-1.0916346322265835,10.985575817940113
977,10.662756856888912,125.09594171489465,-1.3004129483486508,11.234412893507814
978,12.35322229478723,124.67938901892094,-1.4755558021337773,11.49032220258305
979,14.147569882389924,124.1597867225675,-1.602287359102279,11.773276097922853
980,15.959828651672881,123.63914473858961,-1.667821794986251,12.120299464349275
981,17.72919213042329,123.20336434899428,-1.6679316184948416,12.561570585618494
982,19.417220716583568,122.90985980410888,-1.6146403807620227,13.108046921790484
983,20.980171385733506,122.77947698412532,-1.5368567478513726,13.754986371645582
984,22.359382507376857,122.80331595119257,-1.4688219665449598,14.486846587193888
985,23.50090343405275,122.95308188296737,-1.4354921982064086,15.282458689559403
986,24.390353081224234,123.18917829102156,-1.4515270286106459,16.12371616328366
987,25.049978958657093,123.46771609652852,-1.5286207937270493,16.985972716204028
988,25.502153118229614,123.74325831923991,-1.6737191351752403,17.825927437554103
989,25.76126151127362,123.98358934645657,-1.8811885569602702,18.600687154634493
990,25.844773825793173,124.18512467970241,-2.129096806229821,19.286692105938457
991,25.776542764946097,124.3606600407473,-2.384806455573232,19.878903473687533
992,25.583408880075943,124.52032084988659,-2.6158673976902667,20.381717388691143
993,25.2861258005275,124.6702548940096,-2.798876921485661,20.79302538114629
994,24.9038947233821,124.81562333020868,-2.9231665366379564,21.100541903243617
995,24.474463871110583,124.96246873007584,-2.9903638514473494,21.29315810685813
996,24.051970008281014,125.12257904527887,-3.0123733891264504,21.3644275448375
997,23.68535325482773,125.31020997726228,-3.0092903684030836,21.309380877755192
998,23.404570790995365,125.53268872543231,-3.0063148735110823,21.122599939901374
999,23.221706794215365,125.7893321075546,-3.024942432516619,20.79897145943548
1000,23.150945482321358,126.07748568191688,-3.076662573729689,20.343839339332867
1001,23.2191806572265,126.39143023514542,-3.1649953216438145,19.778381140552522
1002,23.44455870710177,126.71188317332287,-3.2878705100661065,19.130406725119244
1003,23.80559883043492,127.00206663585271,-3.4342779849583676,18.419356612099577
1004,24.24075630382447,127.22051947905034,-3.5777465968735904,17.648683258358574
1005,24.688900485322982,127.34310354501024,-3.680795759336943,16.82431258311865
1006,25.107133657061265,127.36668020814696,-3.708565293627879,15.966876383855212
1007,25.450752247908888,127.29240707125733,-3.639248377174163,15.087279090794999
1008,25.667708507611536,127.12513630452963,-3.463796719756065,14.165709462789605
1009,25.708239097607144,126.88462167389609,-3.178376672272854,13.166626920423589
1010,25.533264722840553,126.59496484533436,-2.785271114862917,12.067756785386333
1011,25.11820156129656,126.26662506709222,-2.2972765878403236,10.871409261835224
1012,24.456744702823837,125.89410658518058,-1.738957276583662,9.591043405863303
1013,23.567658830647378,125.4589904834321,-1.146404653226862,8.240181153345288
1014,22.496685714385205,124.98807530260633,-0.572907203007311,6.851642076161139
1015,21.307215102989648,124.38240771190992,-0.04086454260628073,5.4421951941100755
1016,20.086668929728905,123.60935050171001,0.432624541570466,4.066367708215673
1017,18.922101958644518,122.68401198231025,0.835296626391303,2.786358671911084
1018,17.87802633492421,121.65426051003529,1.159420553314886,1.646675422649415
1019,16.99194593324923,120.58907135421275,1.4037529390634178,0.6710244965010412
1020,16.286486366469386,119.56733539861482,1.5748749582332193,-0.12713298945188728
1021,15.77454865490408,118.6635583862187,1.6864054576122514,-0.7401010996925053
1022,15.452527421698788,117.93049829489611,1.7550663302197806,-1.1718928231800554
1023,15.291696718041978,117.39125801447013,1.7958179332862143,-1.4469058676675555
1024,-0.01829390334785095,-0.9535527137166866,-0.5640937973729083,-0.8535008962890277
1025,-0.022978519758803027,-1.9380674536745484,-1.2591822077001926,-1.799249442903748
1026,-0.020023774228490956,-3.3237943275266932,-2.2685492616392127,-3.1450560855438994
1027,0.00010747846471224898,-5.121954289141906,-3.6024627284214237,-4.8861822335610805
1028,0.04548705420284467,-7.31505741809696,-5.247830879787763,-6.989209407454624
1029,0.09870069545040891,-9.857546808968342,-7.167722907463216,-9.396017182923053
1030,0.11217071143768165,-12.673690554421853,-9.297340486436042,-12.021042630129157
1031,0.030657360883781515,-15.659007121403024,-11.54891968852626,-14.758108161513192
1032,-0.18035354495255412,-18.703145286027468,-13.830821332159461,-17.497176890005335
1033,-0.5341483330021124,-21.731470829570156,-16.074370246244925,-20.15876217703486
1034,-1.0419710512046056,-24.73985831124229,-18.26096076053233,-22.74363638751424
1035,-1.7279883077121019,-27.67809318742365,-20.358798287955942,-25.235913151521004
1036,-2.631895537748562,-30.489349867847693,-22.345992131199353,-27.619920542884326
1037,-3.7903129054821094,-33.130005723016104,-24.20882187539116,-29.88047288127279
1038,-5.214112589725864,-35.575764597308016,-25.942720386712455,-32.012107595472145
1039,-6.8786028209780605,-37.816843929565906,-27.55883924082443,-34.02111436397433
1040,-8.724854487599053,-39.85850961996307,-29.079790332475184,-35.91238344814847
1041,-10.670547978367434,-41.71530373028731,-30.524350607363015,-37.67253309436939
1042,-12.620034644006484,-43.39629904636481,-31.897969824149623,-39.27209042003449
1043,-14.46987147359846,-44.90010582452673,-33.195912841984764,-40.68666482165338
1044,-16.122584009894922,-46.21813465266689,-34.412660536310234,-41.90672264430003
1045,-17.493686430429292,-47.33709168484218,-35.543300902264555,-42.92445780897726
1046,-18.507242703068158,-48.24463188024757,-36.58046036916111,-43.730340053809755
1047,-19.106520288103773,-48.93720294710865,-37.520385981857466,-44.32805902018639
1048,-19.27217698568448,-49.42502287309222,-38.36988992583538,-44.74073821917906
1049,-19.034032302973902,-49.71911071084539,-39.13598477262554,-44.99774195660751
1050,-18.46269798296943,-49.80705523653824,-39.809272476982414,-45.110031218903465
1051,-17.64015893939338,-49.65726990546806,-40.36579187133022,-45.05411021817781
1052,-16.641863283817113,-49.24329182173707,-40.780231637987484,-44.782770257737305
1053,-15.530774137572346,-48.55247558337876,-41.03436493759295,-44.25996638352991
1054,-14.365785744549548,-47.58286415300361,-41.12125808329641,-43.486447702977394
1055,-13.221066591362684,-46.34335949330445,-41.044071470091566,-42.492586640327445
1056,-12.177407062460789,-44.854966468049795,-40.80574081603283,-41.3200028085129
1057,-11.297203362517568,-43.145319067289655,-40.40558637080392,-40.01022019852201
1058,-10.610972843340093,-41.25341331166181,-39.848932352453716,-38.605482947205886
1059,-10.119014796794605,-39.24531643645441,-39.148971980208266,-37.14935236855792
1060,-9.802915540830428,-37.20927972389297,-38.319100584419296,-35.67576042783501
1061,-9.634761024815093,-35.22923296136309,-37.36357564341863,-34.19518769540188
1062,-9.573466021019135,-33.357347334203396,-36.27425085067621,-32.68603202876588
1063,-9.554172841913427,-31.606837813428243,-35.039788831413006,-31.108175092357353
1064,-9.505248527709202,-29.96641298751023,-33.653720476985285,-29.426062059350926
1065,-9.385961955521202,-28.412501439278365,-32.11513524427022,-27.61682608520462
1066,-9.198876586041154,-26.91529588266467,-30.431381044792897,-25.669915014153805
1067,-8.967324335043848,-25.449870923012046,-28.626659149473724,-23.58882192810328
1068,-8.709328053757305,-24.0045879337678,-26.741429137742852,-21.39665692811151
1069,-8.441283565021795,-22.582565431998166,-24.819494730189852,-19.13582978945371
1070,-8.20247893673825,-21.20088796707981,-22.902086282694537,-16.857119296922708
1071,-8.062771118506625,-19.88449278036156,-21.02809481458405,-14.601138977483798
1072,-8.089661900651423,-18.660042871887637,-19.232912819119992,-12.392297976988022
1073,-8.311078635688117,-17.55782153548591,-17.549335649789544,-10.252020849471542
1074,-8.721055713876277,-16.612797378073875,-16.00755334076235,-8.203720773597572
1075,-9.298661074554555,-15.848797107962941,-14.630909551124187,-6.266705074764747
1076,-10.012857921868122,-15.246892954624439,-13.429043478980688,-4.447534702457803
1077,-10.81734860632077,-14.73844303425017,-12.391759446257895,-2.7385013605097326
1078,-11.648178520334222,-14.238185368417058,-11.494669982124892,-1.1280761837145508
1079,-12.443242797709734,-13.677049833889496,-10.715070455932592,0.3902179993651768
1080,-13.169870842862345,-13.013270040041563,-10.035258986532378,1.8190626999926
1081,-13.8277271251693,-12.226585099267487,-9.434133443636345,3.172938252603874
1082,-14.419668047091806,-11.314035532953794,-8.889061747346915,4.484077863149726
1083,-14.932445426859308,-10.295025114241296,-8.387422521883167,5.78132537486749
1084,-15.35179895880852,-9.212010762759453,-7.9318819498521815,7.065214777530281
1085,-15.68651620672259,-8.112820823553212,-7.533332555594683,8.304204745068493
1086,-15.965964188769394,-7.024317326497715,-7.200128898703783,9.461565242970208
1087,-16.20517263725183,-5.950944863689658,-6.932460217935996,10.521882735717208
1088,-16.384670665281398,-4.890790451269778,-6.721919350606857,11.48702932213989
1089,-16.470268506942176,-3.839099947814428,-6.550246778944161,12.359521971091052
1090,-16.4450175370561,-2.7817410404849343,-6.386903557015592,13.143785489491592
1091,-16.315520513154848,-1.6956531618345072,-6.193225540580226,13.859527319489036
1092,-16.094204687803725,-0.5586277909674205,-5.932430834412224,14.544662944187891
1093,-15.791264735563647,0.6417033460126786,-5.578756975603467,15.252187882237616
1094,-15.414524068787506,1.8986707927053983,-5.122773694134291,16.031302817431097
1095,-14.978614741217928,3.1868527118226275,-4.569823910067821,16.897885463215875
1096,-14.514196716229568,4.474124554478884,-3.9330853616544084,17.827559349175562
1097,-14.050425590541748,5.728134204497636,-3.231599707558731,18.769978920844476
1098,-13.599630166819612,6.916518923779058,-2.493670659791176,19.667694027054782
1099,-13.163480486173215,8.001648056173174,-1.7541002931490144,20.460379674499475
1100,-12.741514089043214,8.936449075321992,-1.0416390530662372,21.086329475197935
1101,-12.323806847495437,9.671567917878546,-0.36933750457038184,21.50637939103176
1102,-11.872581303524665,10.163069717154999,0.2627935707304816,21.72751454014262
1103,-11.324934798648016,10.3759043259536,0.8610451768128935,21.799271483484933
1104,-10.618224705134814,10.29097268133902,1.4339321109267242,21.785771094748007
1105,-9.71302699022223,9.910002185216984,1.9896110548055033,21.74560542577772
1106,-8.604590897716852,9.257370055201559,2.5320520913066176,21.73138394399234
1107,-7.312774813948741,8.389000734361998,3.058534687434709,21.78450883765973
1108,-5.852676702307414,7.395999873263882,3.5658512617910856,21.92098712919388
1109,-4.221578154313307,6.378054226038966,4.053833062699661,22.126899632406346
1110,-2.4237952631424826,5.402523699465064,4.5180788173474955,22.36282886447621
1111,-0.5080714930193394,4.497313511434672,4.947175107256725,22.572847916112142
1112,1.4259703609674108,3.6714937860655175,5.326636627961798,22.711305507077242
1113,3.2679733005877583,2.922608667378029,5.64285337733153,22.758825828631505
1114,4.93670447211418,2.2340805609344643,5.886322432772334,22.7088671239748
1115,6.376493463052149,1.5817205777797048,6.0532214199270475,22.558799748243896
1116,7.542437056340868,0.9485694613172397,6.1458328293241635,22.31349429294676
1117,8.394939565666123,0.33504759179910887,6.1713678144183195,21.996002857914412
1118,8.90954318667999,-0.2440055627209029,6.137409038259327,21.649724980225376
1119,9.100897858998591,-0.7728557783280099,6.050738279438641,21.31392474052168
1120,9.02231312985629,-1.2443000758982101,5.921770961172522,21.00138455467071
1121,8.738801124261606,-1.6550097690981573,5.766169647001696,20.704262496443928
1122,8.30398700818976,-1.9940165198254816,5.602951725001196,20.411598223406056
1123,7.757220217851792,-2.244475977798678,5.450862884810735,20.111477962975947
1124,7.130543700046972,-2.4033253374486443,5.3233107640693955,19.7831500654032
1125,6.4378704809422755,-2.4889219994089506,5.2227730860480985,19.397143834856088
1126,5.662810223799371,-2.526258185545992,5.141700418281828,18.922617526777568
1127,4.77913949113298,-2.5229777957831416,5.075023608723917,18.341655783506873
1128,3.7933883823403485,-2.4612777069460003,5.027830846864309,17.66307764808445
1129,2.7663314255090374,-2.3192953341316125,5.010167994180743,16.921559236088385
1130,1.782909283566771,-2.08988708632662,5.03211650082075,16.16118986294977
1131,0.907750314143802,-1.7812869110344132,5.101890561384411,15.421117117826142
1132,0.17619588094170954,-1.413997319716981,5.22489176560601,14.734154878958472
1133,-0.39100013993161714,-1.01648082835119,5.404204380777882,14.127517062278415
1134,-0.7796247650322775,-0.6147487639724176,5.640295411572966,13.617899420336606
1135,-0.9832138721380995,-0.2211833866801325,5.929593881428252,13.201743033476651
1136,-1.0167069781073974,0.16374126044552634,6.266009043788658,12.854529940237407
1137,-0.9181752971003085,0.543653726296213,6.643624814001222,12.54643439967327
1138,-0.7243080450144764,0.9200746095526751,7.055447757682705,12.249967769547958
1139,-0.4586833409759594,1.2854727734322564,7.491598981554189,11.939284526222938
1140,-0.13903381213105273,1.6239265576983035,7.938853708604005,11.589806347068809
1141,0.21083959021906712,1.9206590865386122,8.382505210783501,11.174179817011154
1142,0.5469895606769938,2.151860806333583,8.80412507590247,10.66600819047183
1143,0.8359105764016577,2.359951010457044,9.21079542465627,10.059877079664805
1144,1.071087358617854,2.5704558908085673,9.603535610309091,9.383734832873916
1145,1.2528071784101824,2.788943085444145,9.97358037086346,8.677971210965445
1146,1.3695259948688439,3.008699477065721,10.306027619560032,7.981689659811903
1147,1.4047230455517508,3.2286922406909175,10.58837627896183,7.3320464373339655
1148,1.3608115593591914,3.4552111414479176,10.814436609360305,6.766339803074747
1149,1.2637617041074645,3.689280207787516,10.98392495961035,6.31520915774871
1150,1.1504456050174996,3.921063798039051,11.101136774512925,5.991579931544682
1151,1.0538732806815019,4.130630177868207,11.174287398860157,5.78929429350914
1152,-0.4244734004644857,-1.0264034276588998,-0.5084930433881998,-0.31597160160447835
1153,-0.9443410501811315,-2.0432529594583912,-1.1470218148941889,-0.6532926975537505
1154,-1.7036128625547031,-3.463443711114711,-2.073715286864524,-1.130113316747846
1155,-2.6930801099899004,-5.281810113107818,-3.2857333102966146,-1.7162335027837081
1156,-3.855072828595525,-7.468346395804309,-4.752924564958186,-2.3827591657875185
1157,-5.113133668673842,-9.975925051631796,-6.42325850971985,-3.1141297170273576
1158,-6.404931323389548,-12.7398043563393,-8.228973859488057,-3.901481501942592
1159,-7.684287237106922,-15.679848572680639,-10.09498948847008,-4.73370629971826
1160,-8.900100958853214,-18.71558475568736,-11.951988758854954,-5.598790417753721
1161,-10.007119796837578,-21.793546992246252,-13.75495840014877,-6.495210035464358
1162,-11.004801270133196,-24.919889672210843,-15.503320113319054,-7.443311128793422
1163,-11.905746781544167,-28.041581194431274,-17.17931877581198,-8.438974504429519
1164,-12.731800190495923,-31.086329248880293,-18.766732026390244,-9.46365108765648
1165,-13.49469925971888,-33.97844527667089,-20.25406096137018,-10.495211204366806
1166,-14.198499907592756,-36.656022029149476,-21.637616043345634,-11.51762988788754
1167,-14.855530806685897,-39.08524034686863,-22.918073092988834,-12.519184287177307
1168,-15.488706277710826,-41.25639298612102,-24.092816468004237,-13.474604799823688
1169,-16.10888768365613,-43.16735919139012,-25.151272745427924,-14.340810128825204
1170,-16.69857406260408,-44.818977631154354,-26.077964527305642,-15.084198036539028
1171,-17.227125393652383,-46.22171777034634,-26.8626727671188,-15.69915033348483
1172,-17.6830999674277,-47.3904154280688,-27.503503561789127,-16.19532509715952
1173,-18.08373290036015,-48.322813503259894,-28.000763741929607,-16.572128884965526
1174,-18.442331455141442,-48.99284855197017,-28.356538606385456,-16.816726125016913
1175,-18.744410599952964,-49.36918647698407,-28.581381090206484,-16.92569422821769
1176,-18.96698389760863,-49.435401616535714,-28.697999695764572,-16.918072585317386
1177,-19.11205113017569,-49.195700726043476,-28.73408598530607,-16.82608603197314
1178,-19.205206201916617,-48.67110565877707,-28.710359383199513,-16.67637664058005
1179,-19.262428715977983,-47.8930618256271,-28.637393656924758,-16.48204278503498
1180,-19.27803727127357,-46.89520556641147,-28.51986173742474,-16.242761197889212
1181,-19.242268901088377,-45.714060819918416,-28.360162551327324,-15.953807809601454
1182,-19.16158245585551,-44.395808454628714,-28.158927447159844,-15.617365640870869
1183,-19.056913391985347,-42.989652925236484,-27.911158622038837,-15.239666251462202
1184,-18.944610631343444,-41.52525878814496,-27.602351015642505,-14.820416153262174
1185,-18.822582854735852,-39.99779539866772,-27.212625511813645,-14.349367143760727
1186,-18.668884671946135,-38.38633910428143,-26.725280942766762,-13.822577206977458
1187,-18.459719420652736,-36.68075104591556,-26.133488969817275,-13.255584018626331
1188,-18.187035929955975,-34.8878396250358,-25.441997626436375,-12.675345323305352
1189,-17.852974821634646,-33.02738512652678,-24.662993741089398,-12.108043391849504
1190,-17.453842839560753,-31.131435590670147,-23.815045378466344,-11.56819256285474
1191,-16.976474547909746,-29.24934879336331,-22.924292513175093,-11.061003749081577
1192,-16.411632260349084,-27.441794858445498,-22.01925633587553,-10.594006302265415
1193,-15.759145401373328,-25.758535426740508,-21.125000695069634,-10.174185927243512
1194,-15.026599921013895,-24.223624404432062,-20.26381512885198,-9.802402934206444
1195,-14.223926958061638,-22.83439207018702,-19.456514487486658,-9.477470130641127
1196,-13.346344522130869,-21.565636454129084,-18.715814644414266,-9.197325666649302
1197,-12.381283118423589,-20.379017185842848,-18.039775616087724,-8.958239186095405
1198,-11.330147279944457,-19.228877605726787,-17.413449550660207,-8.749880166287497
1199,-10.209299844326324,-18.059928800885235,-16.811815759493996,-8.543228495075487
1200,-9.039645829225252,-16.813951879949762,-16.207160498588543,-8.29648548346913
1201,-7.837830336288347,-15.45659306449861,-15.583652771058555,-7.9801969284271195
1202,-6.622170453230429,-14.00448490462102,-14.940470760173515,-7.595048319752804
1203,-5.431431233125903,-12.513439183992121,-14.293814681176991,-7.166541128728312
1204,-4.33147107797651,-11.039669153064994,-13.68798449427431,-6.722444199068541
1205,-3.384410600836971,-9.625932249955625,-13.183659051716303,-6.282831177071346
1206,-2.6091553885918555,-8.307188507578276,-12.8306944080128,-5.868415327291385
1207,-1.9920600369222476,-7.107450031189627,-12.64961816435702,-5.506362868901899
1208,-1.5248447225781132,-6.0312994565198945,-12.620741282750268,-5.223659565440273
1209,-1.2200750675728351,-5.060820984192779,-12.685386242390084,-5.02947628812501
1210,-1.0909637347807981,-4.163052779611098,-12.757819095608129,-4.909113599791801
1211,-1.1171719873754848,-3.3008492126946196,-12.739369976697851,-4.84269190782012
1212,-1.253811513222727,-2.440823207246906,-12.533014896605387,-4.827586267682415
1213,-1.4793120350977922,-1.5614146144997876,-12.057125076412623,-4.8837179622985465
1214,-1.8065663102450618,-0.6574982268967392,-11.260165700134005,-5.038823626152176
1215,-2.2441884115149984,0.2632123855138382,-10.122363229604124,-5.310931170035426
1216,-2.7765529151035726,1.1822978497808774,-8.64432997989763,-5.704190598320917
1217,-3.378677052651626,2.069655680200653,-6.851916008834743,-6.210607493297747
1218,-4.033434961997034,2.8949900918584976,-4.80453219356378,-6.808286204534013
1219,-4.732230916931777,3.6506335181715333,-2.587405401937866,-7.458059449564343
1220,-5.4526125463521735,4.354911987046906,-0.2956439304296311,-8.101635191006665
1221,-6.146083437897227,5.029305202538445,1.9855440189598517,-8.665782684364759
1222,-6.753888147289119,5.68837433855374,4.182159737237991,-9.080501210232619
1223,-7.238147318339185,6.348315982441607,6.2160239552910195,-9.300995673498857
1224,-7.5915581198205135,7.022213430072869,8.009514002637115,-9.312128664829572
1225,-7.804478848974573,7.7043340456733365,9.498932906175842,-9.119951867826323
1226,-7.846692054051222,8.372014196674215,10.640343616184136,-8.744819221747804
1227,-7.696747248710095,8.999643801425634,11.41502224440248,-8.221248972044917
1228,-7.3769044475316825,9.566013022651168,11.83236192086086,-7.594671468229028
1229,-6.939421739273039,10.060437855511314,11.928977591808678,-6.904602196536235
1230,-6.419314991252407,10.491991544413809,11.76324342230532,-6.173448046808234
1231,-5.82165591199603,10.891268866954649,11.405439683223415,-5.414387176937764
1232,-5.144064807818488,11.298846863171278,10.922276965357927,-4.649447629551006
1233,-4.392153222167733,11.750874136816297,10.356495872846812,-3.923414534853683
1234,-3.5745140619040754,12.274359575098748,9.726260841246951,-3.288993909563382
1235,-2.6904952733293834,12.884666954323878,9.04601037853972,-2.7763536643414373
1236,-1.7277545260682958,13.571306474610509,8.329765176850035,-2.3863476564077732
1237,-0.6720500714796692,14.288374191409828,7.582920273839915,-2.1110100436432253
1238,0.4789173635391978,14.964641380111338,6.802950278445624,-1.9534975138530994
1239,1.710725910399252,15.521590548456317,5.983971825020299,-1.9237193414511813
1240,2.998614348750932,15.89214157543662,5.121650273241955,-2.017909988847711
1241,4.327255779332421,16.038319487104843,4.216485247070879,-2.2111679409214435
1242,5.701717462637448,15.96040795584772,3.2752390227099824,-2.477586924689286
1243,7.124905341749858,15.683702226483096,2.3101869804363067,-2.8118426698893253
1244,8.573469786437451,15.239085219571464,1.3356009832591658,-3.2230345355368133
1245,9.992146284270822,14.66528510756029,0.36791265890725794,-3.7139185563474144
1246,11.30792051906442,14.011759143894812,-0.5697925463734359,-4.273078938780935
1247,12.45826278040527,13.320568839833431,-1.4512156209196931,-4.884014114523007
1248,13.403122595054523,12.607008107633638,-2.2550664396864577,-5.533338033098491
1249,14.111953108648871,11.864458812135588,-2.968550655036539,-6.205182194292434
1250,14.544732490105364,11.078576629173556,-3.587445765533662,-6.870857757308002
1251,14.662851104129562,10.234261227922449,-4.116036971969452,-7.494979477353918
1252,14.464965350766283,9.316516739566604,-4.568656854793222,-8.055050021045819
1253,13.990638625645499,8.309349492388755,-4.968519394289599,-8.546977575287801
1254,13.288799575655663,7.209925704776277,-5.340062260486814,-8.973767422729939
1255,12.3944888860783,6.042603953365362,-5.7010287050175315,-9.332413258413409
1256,11.336394066043557,4.854945552217916,-6.057974214481018,-9.612350062123456
1257,10.156614566063572,3.708843837248761,-6.404962185750322,-9.804630093005615
1258,8.902212551302044,2.668005390934009,-6.725266829990434,-9.907100094606903
1259,7.601462995619002,1.7855529928540133,-6.994658755201278,-9.918983187839071
1260,6.269416932979945,1.1016999140985781,-7.18448397345003,-9.82962832599609
1261,4.938903830249622,0.6458360624762323,-7.264772416118831,-9.619101816131408
1262,3.6752860508610654,0.43328000977622916,-7.211156059547347,-9.268472651904228
1263,2.550584203014503,0.46086519630469003,-7.015368902093427,-8.769625589548369
1264,1.5995773038980068,0.7148214167646098,-6.690802643015485,-8.134080435711484
1265,0.8127168293975502,1.183651335564055,-6.260918814995615,-7.383547350327462
1266,0.17053741582901108,1.85318661952162,-5.743210711610597,-6.532169429275657
1267,-0.33568060871697736,2.690241672368873,-5.149725377875596,-5.586161031167136
1268,-0.716276189917342,3.641526205115812,-4.494522530258394,-4.557952748839497
1269,-1.0057551108744658,4.646902687943136,-3.7940070821263947,-3.480390231401948
1270,-1.2561658266956344,5.651976475154965,-3.0733898528167702,-2.4277259560013533
1271,-1.5253872705480571,6.621772904185289,-2.328591970079847,-1.3980687218093917
1272,-1.820448547144752,7.512934178224633,-1.5748336698327818,-0.4036310878450673
1273,-2.129190450968531,8.28100165708182,-0.839837741878315,0.5319988921406784
1274,-2.4461522498285175,8.895647246950432,-0.15546038412145471,1.3817205054095034
1275,-2.769429769529517,9.348086770658398,0.44978422077185376,2.124104203451596
1276,-3.0829257748669456,9.654251940003027,0.9552055102425742,2.746770864925182
1277,-3.3592586794472767,9.848188747037781,1.3491291076872565,3.2451932963752608
1278,-3.5773092787997456,9.964365414176271,1.628297536552669,3.619458305318229
1279,-3.7332542922498457,10.027630299023606,1.7990064024766674,3.8720876430295093
1280,-0.5232684208885374,-0.48909756805907606,-0.43686414495476444,-0.45819442798858223
1281,-1.2055448638739321,-1.1391207292244157,-1.060190187298952,-1.0430729864071477
1282,-2.2148879321946957,-2.1174994170890504,-1.9963487183163973,-1.927218061189085
1283,-3.559265435479235,-3.4526380413339224,-3.2604537460547878,-3.1225464023470897
1284,-5.201880274471133,-5.148183842454139,-4.838005091915374,-4.608877958911297
1285,-7.078920866795195,-7.168257451394106,-6.682243431356848,-6.336660186983094
1286,-9.117335458254729,-9.43756818532887,-8.719180941889114,-8.229741288562286
1287,-11.233851634698915,-11.856266598292656,-10.859364040324607,-10.187619151942856
1288,-13.32469347122173,-14.320781186019815,-13.014190470229403,-12.10357115593493
1289,-15.288288487478866,-16.745956421858057,-15.117795856813089,-13.897473802446914
1290,-17.074930880191737,-19.093669831867096,-17.149335045549034,-15.543219288045027
1291,-18.642689116131255,-21.311804005185316,-19.075178714851123,-17.004125900349237
1292,-19.96591183940574,-23.34830982572208,-20.86658331330687,-18.25015348497307
1293,-21.023845029874767,-25.158593304721354,-22.504969764178654,-19.271224729137543
1294,-21.80734369792239,-26.726474182246818,-23.986877287455936,-20.088578459282502
1295,-22.334628689980295,-28.070078379950438,-25.31781711066201,-20.738331289265016
1296,-22.65088070976084,-29.218118789300078,-26.50032241892778,-21.242502485895375
1297,-22.803794694606864,-30.188878987219532,-27.531187703374126,-21.605707790332062
1298,-22.813812774936068,-30.997043491930256,-28.409157404712193,-21.83510177262621
1299,-22.68529391151353,-31.65822233871539,-29.1394565822637,-21.94584332060835
1300,-22.442193813489556,-32.177568245787576,-29.732152350507636,-21.95378761607285
1301,-22.122757424370644,-32.54868247266022,-30.200110990820853,-21.868509681703166
1302,-21.747649205223308,-32.76515023006099,-30.555705812320117,-21.68685084505328
1303,-21.312347545292308,-32.82040331873511,-30.806212034782146,-21.395397863820545
1304,-20.8049712144122,-32.702087608283115,-30.952390794539305,-20.986357623618368
1305,-20.223947180701145,-32.397105439107996,-30.99190932958218,-20.469741879806772
1306,-19.57169507755362,-31.90112955359831,-30.92294139329263,-19.86716126441424
1307,-18.832788311847896,-31.22627328520865,-30.747007607765408,-19.208747895167644
1308,-17.97782936943073,-30.40574697727338,-30.47546406010941,-18.538469204660615
1309,-16.985308560325024,-29.498390688233226,-30.133083094997506,-17.91563911369015
1310,-15.851697127596097,-28.575841679772708,-29.748142479107692,-17.408857790835373
1311,-14.587923021483489,-27.690912940482725,-29.33812376154076,-17.074916568238457
1312,-13.199750400038235,-26.866587156232537,-28.90983605856945,-16.9432912866804
1313,-11.680582306276905,-26.112926271566188,-28.47047147690788,-17.016280334492023
1314,-10.033434382293951,-25.445505836597004,-28.030146087833064,-17.271037846612888
1315,-8.293075716300752,-24.881842939968315,-27.594069125568467,-17.663752593151127
1316,-6.523166132120586,-24.426660295766336,-27.156141444986492,-18.13574952894479
1317,-4.788334827324646,-24.074740501560424,-26.699998162411482,-18.61903119717182
1318,-3.1424065683579214,-23.821271080431945,-26.204333629127106,-19.04115867200973
1319,-1.636032178267183,-23.661305137415365,-25.65197360975067,-19.342148305033312
1320,-0.3173940072298372,-23.589478143537264,-25.04005672663734,-19.49574173961083
1321,0.7635603434631252,-23.604029032976047,-24.379953779258372,-19.507559183808745
1322,1.5525806159808084,-23.702054373358564,-23.688356529358472,-19.39514745055176
1323,2.007738386467892,-23.870616180337823,-22.98129333430107,-19.17289909895874
1324,2.1249863843815304,-24.086788143105778,-22.272599199593046,-18.854213858772848
1325,1.9426672940519891,-24.323294479385172,-21.56979499999531,-18.458426793904987
1326,1.5173512947513874,-24.551813285350196,-20.86769341838529,-18.00380863765485
1327,0.8936840186298991,-24.74590377227144,-20.150239051699653,-17.491712300402778
1328,0.10654489731088357,-24.886455285228543,-19.39996721220367,-16.902822506592642
1329,-0.7940693073707448,-24.963130644360543,-18.60171185702915,-16.216041352992303
1330,-1.7499467930219257,-24.969467933484143,-17.740057600461697,-15.428133821567133
1331,-2.7148028906706645,-24.899272622832207,-16.800884786613523,-14.551437588506438
1332,-3.655342921130581,-24.746735621729197,-15.778295061766983,-13.596277710777017
1333,-4.542149774290701,-24.504148084807124,-14.681171869251344,-12.560761359002358
1334,-5.338268956267846,-24.1555866995167,-13.534074839463718,-11.446270793691092
1335,-6.009854442678735,-23.683528139816193,-12.373091625054427,-10.279695915918262
1336,-6.546923207318546,-23.08735261067297,-11.237327009894525,-9.10674524512204
1337,-6.962141558543334,-22.38385144739441,-10.154526100887136,-7.962526546138258
1338,-7.26915517828101,-21.58978088083443,-9.136954646767716,-6.857542407261526
1339,-7.466707551538666,-20.71758018427168,-8.193398078505325,-5.795177512826579
1340,-7.554799672463428,-19.786810198615907,-7.336184403973558,-4.7934747970082325
1341,-7.562083021216443,-18.8281285872188,-6.574678207000452,-3.8821464234860725
1342,-7.548006916102087,-17.875669446800366,-5.906170584919829,-3.081271103788973
1343,-7.565368972997094,-16.95898493458354,-5.315043688579985,-2.389661870288069
1344,-7.621197802706397,-16.104628132757888,-4.779077046332544,-1.793125622145942
1345,-7.6947217188961865,-15.340610548941584,-4.276413391495876,-1.2760721879403514
1346,-7.791156828829855,-14.69253530463334,-3.790761342864631,-0.8260525214223556
1347,-7.9536211749896415,-14.1797638425942,-3.3140402848839723,-0.42663908193388267
1348,-8.218359553787977,-13.812789255272133,-2.8451211140951567,-0.055235903843245136
1349,-8.584218811750723,-13.58686425239388,-2.3852853165204593,0.3011011175205631
1350,-9.02840876740108,-13.486501823912995,-1.9370453101332916,0.6356872691255236
1351,-9.533854663174393,-13.500928994886012,-1.5077267831147185,0.9290681398374279
1352,-10.096887275945681,-13.62045631328874,-1.1107440144627687,1.1639310028779095
1353,-10.707194472648977,-13.817431690469359,-0.7615267944976845,1.3286434327572005
1354,-11.334899760502324,-14.04824924430139,-0.4703666115331289,1.4118197961402013
1355,-11.946886789522045,-14.275484031693129,-0.24028514320912644,1.3999282468850294
1356,-12.531729421699785,-14.479540947240324,-0.06993918193448119,1.2766928086858171
1357,-13.102806214451716,-14.651025574141665,0.046966347751863584,1.0354171740971596
1358,-13.666410910040497,-14.779668648050992,0.12120120639069855,0.6900243698797807
1359,-14.196464265705712,-14.855165731288547,0.16241775805221914,0.2727380116154186
1360,-14.647755997490052,-14.877436051751832,0.17701690542363285,-0.17524240167712687
1361,-14.988769484222733,-14.853982255660174,0.17114470213879804,-0.6138539864086898
1362,-15.210517213432816,-14.783421993896782,0.1525653168129314,-1.0048362306009302
1363,-15.299468610699588,-14.647449339059632,0.12767885872980636,-1.3051589039707818
1364,-15.224854028015859,-14.40999495350753,0.10207827998820132,-1.4648285722980288
1365,-14.955101173385723,-14.020182087825185,0.08899489138023614,-1.4441974330275786
1366,-14.481479297647823,-13.427019831444792,0.10676043507143448,-1.2308511112398364
1367,-13.824481942480762,-12.591201914535908,0.16771609623316844,-0.8357882160831104
1368,-13.02158056092153,-11.483311176515517,0.27658275221937145,-0.27961605085956415
1369,-12.10697081678027,-10.091527104994862,0.43181397060635185,0.4186987214055018
1370,-11.089569482325917,-8.442790641861082,0.6223491995982333,1.237409942476582
1371,-9.961414860053175,-6.603849197958825,0.8262928923250155,2.1445710688086335
1372,-8.717637140032025,-4.659949721660221,1.018090131175474,3.1032689390338333
1373,-7.361929643843245,-2.6912900309690886,1.1819838991759892,4.086617914843001
1374,-5.90408071069836,-0.7571854381653385,1.3152086892124468,5.081169880021453
1375,-4.35683880088436,1.1035489138892878,1.4164461383892764,6.065637684348448
1376,-2.75089488047029,2.8723601041751636,1.4813609430231087,6.993843343381939
1377,-1.1485688550968733,4.55897811359692,1.508098893927322,7.805417311989163
1378,0.36487901309310256,6.196141782646257,1.4995075447960136,8.449936019318402
1379,1.7086462484844778,7.816782044916302,1.46214155591049,8.897940882394098
1380,2.8366505756730014,9.434745698564177,1.4015375420627523,9.13219915302645
1381,3.7326533923205005,11.03680862010351,1.3151119485716172,9.134361384741865
1382,4.386363130255042,12.581932996334837,1.1904496596073708,8.890667529559718
1383,4.788263510328465,14.01568797260008,1.0158492538979769,8.414400013732886
1384,4.953154752778714,15.292098790541235,0.7982484621353455,7.7523547551589695
1385,4.945128093865466,16.383230380881876,0.5664354611766054,6.96625371748398
1386,4.854010934285443,17.278446060598505,0.35605569169648627,6.111592398167526
1387,4.742165380123457,17.98384647283775,0.19636750143484008,5.231369713471083
1388,4.6254248686287,18.52108291183699,0.1079080609730374,4.362855457230458
1389,4.505128279448582,18.917932757093137,0.10304249407177835,3.541700278817166
1390,4.395896387440644,19.194376465771846,0.18396913860508207,2.7983667718449188
1391,4.31228204316862,19.354296942258777,0.34041567140147416,2.1489313628007416
1392,4.23663022337786,19.38930834410282,0.552185737350304,1.5872159234974326
1393,4.114925096198924,19.28933487910004,0.7953954349192045,1.0915207051706943
1394,3.897951993219842,19.044783505873536,1.048080705077171,0.6344645695116304
1395,3.572960018016475,18.647966270084606,1.2918940777071712,0.18772196710911165
1396,3.1486263357794693,18.09914787945398,1.510591472560631,-0.2704600543745954
1397,2.628866882657401,17.408802378523742,1.6972244614428362,-0.7482171832283655
1398,2.019655219987492,16.609412866909828,1.7857733809234242,-1.2679538959229193
1399,1.3168405013274267,15.710425932272422,1.9281628982510708,-1.7482113773237706
1400,0.566388438458126,14.751901168557982,2.2128810211739136,-2.130197626667879
1401,-0.17644162618035514,13.783942930996494,2.672105428723633,-2.3833022242592303
1402,-0.8779548151794512,12.853761583533352,3.293384695311169,-2.4992825418521165
1403,-1.523440032698215,12.004780795995952,4.035373955468847,-2.482138478467997
1404,-2.0922173384240828,11.275143382105425,4.844424908892492,-2.34585994831206
1405,-2.5545874076385755,10.691351046943437,5.661960096566533,-2.119099023633104
1406,-2.8914114390589805,10.262973396078335,6.425280366479392,-1.8472254421099918
1407,-3.1118443600575296,9.983073041794613,7.07402831006581,-1.5851262732078466
1408,-0.529609345102453,-0.4491055495336812,-0.03859312801459232,-0.2476546016175049
1409,-1.0410954735225508,-1.0679507417331378,-0.04574514358095319,-0.5320752693237488
1410,-1.7250576498152088,-1.9546868781928857,-0.021667717064247888,-0.958470998675747
1411,-2.550923448986522,-3.0874925309995755,0.04136096831811706,-1.526735682225716
1412,-3.464192007309711,-4.425132693740276,0.1256987024731865,-2.2379796410191353
1413,-4.413043856623096,-5.916843999406349,0.18556112231986477,-3.097226775265021
1414,-5.363497986737955,-7.507811736392038,0.15704345791734337,-4.101328921956984
1415,-6.292343590890981,-9.14127958520121,-0.026313878784052003,-5.229630252275545
1416,-7.167904612850066,-10.76820438424276,-0.4236610336772525,-6.447470152474684
1417,-7.962511420433405,-12.371619837869357,-1.0832377484732207,-7.721755917364941
1418,-8.69542943403041,-13.97813642112187,-2.0379501697127944,-9.038616688394537
1419,-9.39338177404075,-15.58336488030463,-3.2982516720654846,-10.368986397319281
1420,-10.089228171438949,-17.166887818085865,-4.846123487799961,-11.675812269929008
1421,-10.793728301493958,-18.699475442782916,-6.636382795552903,-12.924471729809062
1422,-11.49885305438785,-20.143505150436745,-8.602506918151331,-14.092579433886556
1423,-12.201324941494162,-21.458822650677995,-10.665739262155121,-15.165729608523266
1424,-12.917270990769792,-22.60919109720026,-12.750417114204206,-16.127230365053833
1425,-13.668900910915395,-23.5601964773571,-14.802317760040166,-16.958224670623153
1426,-14.456181574965802,-24.28659018316406,-16.794899030554816,-17.65210043773683
1427,-15.257136317442665,-24.79456596168552,-18.722163857165526,-18.227416245721567
1428,-16.05307242957426,-25.13069974383853,-20.59149926469247,-18.720540540943745
1429,-16.84206789947324,-25.359958152112867,-22.41235873025772,-19.15901593722961
1430,-17.61468665378056,-25.541962425657882,-24.186454772987013,-19.550295118256127
1431,-18.331966721247046,-25.72387813500063,-25.904926424203452,-19.893241190916076
1432,-18.948769436602642,-25.93883158490751,-27.55311642292324,-20.18833224218366
1433,-19.452578635875533,-26.204712885098413,-29.118360214478216,-20.440554352637815
1434,-19.87292639382198,-26.517854949147708,-30.586062066246058,-20.652929345934908
1435,-20.241210971003827,-26.852004025366206,-31.933615399156302,-20.821483404859947
1436,-20.55755432591592,-27.173134905180135,-33.13223638614493,-20.939308509123617
1437,-20.808333645076047,-27.446934861926447,-34.15446993428789,-21.007511129097033
1438,-21.000437716250598,-27.63591869559275,-34.98246044849224,-21.04449915813811
1439,-21.16964266957318,-27.706278660489932,-35.61062028694541,-21.074504749799125
1440,-21.34374636980027,-27.638474668500614,-36.045072770050695,-21.110668034600376
1441,-21.510385597867526,-27.435111599458207,-36.300714657629776,-21.151356566599826
1442,-21.6358323819698,-27.127871884983783,-36.397222923622834,-21.187018654197775
1443,-21.706203791551424,-26.765790046231785,-36.354918058758074,-21.20901215625797
1444,-21.736710460837514,-26.386312584666953,-36.1873627278519,-21.208008486629222
1445,-21.741515227393702,-26.003089621865243,-35.89735983076293,-21.16551409246751
1446,-21.70954231192532,-25.615856989417576,-35.48206169846459,-21.04921756373143
1447,-21.609665949020496,-25.224414788123067,-34.94081708699521,-20.82537997611723
1448,-21.421958253739067,-24.82919345205541,-34.27862423942321,-20.476775621890145
1449,-21.152594660467308,-24.42324536963812,-33.501645342530665,-20.001939364480247
1450,-20.80863946078055,-23.992258569567465,-32.609625333196604,-19.402647717964154
1451,-20.38336101932156,-23.52262981915808,-31.60047532736821,-18.678719583235523
1452,-19.871785499208077,-23.013734844856806,-30.484268408440208,-17.8392836661665
1453,-19.2925694455515,-22.482172099411915,-29.28660316523522,-16.915531790142786
1454,-18.68916453983414,-21.952007782281605,-28.039706435799015,-15.952199451183668
1455,-18.110538060474678,-21.444089950714282,-26.776332723440444,-14.986084980386408
1456,-17.588170630840356,-20.97298296672342,-25.53162639990975,-14.04391593036861
1457,-17.123045120049568,-20.553345824774855,-24.346420595552708,-13.160829630622976
1458,-16.701672692679804,-20.209058777527858,-23.264818310969257,-12.38239942100655
1459,-16.308389838046903,-19.969831827173962,-22.325464311257242,-11.747292763249702
1460,-15.920026914249057,-19.857569200970623,-21.551294802291935,-11.270498381122934
1461,-15.498239578278158,-19.87523005135681,-20.942850785423076,-10.93521876186842
1462,-14.982152932289571,-20.004321027637957,-20.480157417314953,-10.70328683743307
1463,-14.317336648513328,-20.210479149542795,-20.131303945651013,-10.53831031435234
1464,-13.496509530179308,-20.448933888941067,-19.86145537722785,-10.41786802816473
1465,-12.55392748414038,-20.66498992928781,-19.636077612326513,-10.324731921551212
1466,-11.534001469333358,-20.797006967820447,-19.420459488188435,-10.243306362090113
1467,-10.483964143715635,-20.791321877608823,-19.18464038028968,-10.168421958061096
1468,-9.465234923535748,-20.62215774070667,-18.910996764526963,-10.113022042825756
1469,-8.541637030437936,-20.295972030345112,-18.595989860213702,-10.107470745979766
1470,-7.7535837023365,-19.843261871827952,-18.24659188976344,-10.178030867349229
1471,-7.102576991043378,-19.308265298632563,-17.8752557992519,-10.328547369324589
1472,-6.549791832432458,-18.73234396737822,-17.492567594333668,-10.547303091384128
1473,-6.035649145913006,-18.14494217391508,-17.101173744218315,-10.813328892741472
1474,-5.5066488141132925,-17.56673416276101,-16.69950910348015,-11.094104566679711
1475,-4.917507564252858,-17.00276611650897,-16.28308985375916,-11.344237476728022
1476,-4.2164248870300645,-16.436110972204222,-15.839004099274572,-11.509278363157243
1477,-3.35054158694772,-15.83945025979825,-15.351598119545404,-11.538428678033586
1478,-2.290121496898423,-15.187287444613192,-14.815651418827024,-11.403356918164544
1479,-1.050869496931543,-14.46329073056885,-14.239030427616301,-11.110997678630588
1480,0.3129400425221611,-13.664864142843069,-13.633723339645602,-10.688391377525038
1481,1.7537772754197416,-12.80346399602917,-13.008231820110435,-10.15629869476286
1482,3.2561156015866737,-11.90522182020854,-12.368358924414881,-9.526134723428996
