,TP9,AF7,AF8,TP10
0,-0.29447694930217744,-0.44152007653671543,-0.440778274996796,-0.31240260995010205
1,-0.752774789843561,-0.9619744245980126,-0.9508195604282987,-0.6681265157557228
2,-1.467404515717559,-1.7424908971917945,-1.69902552482895,-1.213989154222983
3,-2.468614502674719,-2.8038178235836764,-2.694795763501308,-1.9740509871417498
4,-3.7519512705999487,-4.139066509062783,-3.931954456438796,-2.955805194154481
5,-5.291352896253963,-5.717387046396475,-5.392643650744208,-4.162456526558618
6,-7.049186037984154,-7.485777591145998,-7.04713266688381,-5.588361519061762
7,-8.974911742148201,-9.372546684045936,-8.854842022030617,-7.200038430522249
8,-11.003437066457948,-11.302891851753545,-10.769366637818015,-8.936568060699726
9,-13.063372154516307,-13.227316626728182,-12.750770381627428,-10.733535675921017
10,-15.100220751217394,-15.147266258829697,-14.782295778999547,-12.553864390463643
11,-17.06292408298601,-17.055814703226304,-16.815649264319887,-14.35176633723765
12,-18.90286144442844,-18.946638980613788,-18.794715400366933,-16.077126228429282
13,-20.56805928656027,-20.811523647881028,-20.672115884751467,-17.669173416663913
14,-22.006239513717752,-22.640396555136473,-22.421000822249887,-19.06989396776119
15,-23.183539381137912,-24.419900911163076,-24.035661819224995,-20.24785866405252
16,-24.101086509139478,-26.12494975391488,-25.52152535450701,-21.202041500755147
17,-24.777002029879995,-27.707617339130106,-26.881910725744394,-21.945043413478828
18,-25.227334340513952,-29.10617090131686,-28.112546395768355,-22.486398754321023
19,-25.464586133931736,-30.269314191522987,-29.205708469625538,-22.834986873841324
20,-25.50731777030015,-31.169639724324554,-30.150156698140762,-23.008556245414194
21,-25.3883841926372,-31.80284403682286,-30.925072915931786,-23.02753600622861
22,-25.14889373739218,-32.18357079304254,-31.501637940541713,-22.90068213351489
23,-24.820388518028206,-32.348500615617155,-31.850373054656373,-22.624138672534183
24,-24.406519940728863,-32.35594486220566,-31.946991865932784,-22.196111337501875
25,-23.88947762899696,-32.2681289106559,-31.779482212273344,-21.618615397133073
26,-23.253598148839902,-32.12821502951231,-31.355930248045855,-20.884412634452275
27,-22.504831468768046,-31.95226925777206,-30.7070728736348,-19.972858189264077
28,-21.66011288678903,-31.735252518743568,-29.882190954454202,-18.863040048364592
29,-20.718489373815896,-31.45569542522239,-28.935973854071634,-17.558293079291495
30,-19.673193255645423,-31.081898835171252,-27.91276412284511,-16.10125270065289
31,-18.54577980062807,-30.585001081923057,-26.843499077294684,-14.564060454693367
32,-17.390289809288063,-29.946606163762986,-25.751615121648307,-13.01462625706726
33,-16.260279967258757,-29.156471424321268,-24.65411488763805,-11.497395481068319
34,-15.182231838753133,-28.21736394503834,-23.559216194368467,-10.047493114301751
35,-14.171732986091413,-27.154752327756356,-22.469388027581935,-8.702035901202915
36,-13.255618061378998,-26.009276979749817,-21.385250034226164,-7.494616656478479
37,-12.469811710715879,-24.82281933127452,-20.304401694463458,-6.4397373810872365
38,-11.834265183358252,-23.635541112908903,-19.220943825120226,-5.527157218701518
39,-11.334004469508953,-22.483192438413933,-18.12978785315749,-4.737483806315242
40,-10.94110018189346,-21.39398650561648,-17.032624264671647,-4.057809368695107
41,-10.65261317390204,-20.392179653935834,-15.940648345113596,-3.489353898311015
42,-10.489865571096306,-19.50086244040392,-14.872414498262314,-3.0411200229184687
43,-10.46267027268756,-18.737081674690383,-13.848948586318514,-2.713173458058251
44,-10.553320102044173,-18.102797210308427,-12.891060379716503,-2.4985572365318354
45,-10.736838740619238,-17.587825314643965,-12.020820374845059,-2.3989978675523163
46,-11.014080208188854,-17.184110732272497,-11.263002949596554,-2.4252595892371596
47,-11.405735509845671,-16.885771935507442,-10.638170202116981,-2.5802902067092344
48,-11.907999697995233,-16.675637170098046,-10.149052135100982,-2.8465873039584046
49,-12.48404773084205,-16.528520693197642,-9.778131953772206,-3.191678131302286
50,-13.09022300791566,-16.42747279770928,-9.50248586180136,-3.5854999263660274
51,-13.698042703728325,-16.363903379274976,-9.30910843743835,-4.008964687232282
52,-14.293821254464838,-16.327530383701756,-9.192916894656383,-4.444812288814495
53,-14.85806430904048,-16.30767971254363,-9.144895802369046,-4.867317496315406
54,-15.360011102041058,-16.29985795747897,-9.14880176899407,-5.239091651940694
55,-15.767351110972376,-16.29997767977378,-9.18331587284901,-5.5246663726603655
56,-16.059757866698373,-16.292713599591753,-9.222791738270987,-5.7120330006857944
57,-16.233682368520057,-16.24854452718016,-9.239703375655322,-5.8056483073368454
58,-16.291921968240644,-16.12731608826106,-9.20646632520091,-5.805749847280215
59,-16.23384458654947,-15.890549257124986,-9.096443261074,-5.706802760296899
60,-16.04761539706282,-15.520205905544666,-8.889219251596854,-5.514526975801772
61,-15.71842495047581,-15.026913998616887,-8.578053774499853,-5.2593599248382406
62,-15.246104431950295,-14.439712196730873,-8.174136960423027,-4.978792552325343
63,-14.648017698481558,-13.786651334472264,-7.703159071974523,-4.692905462386077
64,-13.952558354836892,-13.09169553433891,-7.196885181325484,-4.4038784772308865
65,-13.194792115196917,-12.388074020705359,-6.692529115504826,-4.114382087685385
66,-12.413385884952195,-11.720264020952625,-6.23505444949524,-3.846723254858811
67,-11.646106177346388,-11.124263223137424,-5.862365067223237,-3.635130233204514
68,-10.93079044934299,-10.610247251005283,-5.585506333976799,-3.4994770875464187
69,-10.296670439932278,-10.165867785786904,-5.392795348445676,-3.4351857962513344
70,-9.747541888113435,-9.764281117351041,-5.267570527842171,-3.4304909786545785
71,-9.267818166727945,-9.370528304237089,-5.194221477177166,-3.4860242459272275
72,-8.845617795788764,-8.956550865023475,-5.157841347177739,-3.611876543464417
73,-8.48522598604929,-8.517644800500245,-5.146950380339065,-3.8083387729790976
74,-8.192589701438425,-8.071110878684246,-5.154849606391226,-4.057696819272927
75,-7.956450663555856,-7.642250343472508,-5.179070560906531,-4.348297124334112
76,-7.760286076082793,-7.253273799454402,-5.220645031735306,-4.692753626975684
77,-7.609028434580743,-6.917522812477249,-5.278933842106665,-5.105972354541045
78,-7.5251957577468955,-6.637477310472777,-5.344731569806042,-5.579531600777239
79,-7.515601094903388,-6.4076316017418495,-5.40125210647153,-6.084115356335563
80,-7.556144431859867,-6.220314712373759,-5.4300523996190195,-6.588685147174216
81,-7.605711400934919,-6.067126422028021,-5.415566338808991,-7.062988243644546
82,-7.625881063939356,-5.9337931369576244,-5.345320461877996,-7.461730082528786
83,-7.591714542987605,-5.7971168522763,-5.207118358473465,-7.717431946604764
84,-7.485569752370717,-5.6324072179321885,-4.9948580422505735,-7.757969386508653
85,-7.284788063586462,-5.426492754141026,-4.720209577246396,-7.538802421251605
86,-6.9657125895975796,-5.178396173125258,-4.408902357172574,-7.056563608874985
87,-6.523345443597026,-4.8887470753185855,-4.084408727577219,-6.330450844885922
88,-5.977219814551789,-4.558963841854015,-3.762456489718157,-5.3735285618079445
89,-5.354788801054028,-4.192641969071362,-3.454119418406026,-4.192493995355567
90,-4.679662080981476,-3.786509232955968,-3.1648989792809377,-2.806842025604088
91,-3.9735063561788766,-3.3300167790526976,-2.8973472132804825,-1.2652289598376267
92,-3.2683783459024447,-2.8182805607473114,-2.65618201514763,0.3479414085739472
93,-2.6098824935546605,-2.2528958036164477,-2.4461129407007576,1.939599561556104
94,-2.035757551640192,-1.6330949940718402,-2.267603115918069,3.436966360311391
95,-1.5580290425249594,-0.9574365352403738,-2.1163190962165594,4.788023471852905
96,-1.1598027645736992,-0.2308069470624918,-1.9841611783585338,5.958581656133364
97,-0.806081750573572,0.5324874455680593,-1.8589044468665252,6.92785243852013
98,-0.46087523138806996,1.3151739945882674,-1.7251779511995813,7.686255649525584
99,-0.09453345656311127,2.1077059547938317,-1.5673188121148363,8.24347674318263
100,0.3195778557441804,2.906209576517317,-1.3707904167499525,8.631323658855843
101,0.8110560729950055,3.7042338103342183,-1.123500275882643,8.892317594207888
102,1.3991313511817483,4.48853129167955,-0.8183277326739905,9.061359594036611
103,2.0707864000004044,5.236539425998184,-0.45650285154985687,9.153022873800891
104,2.7750420380766676,5.919917737017014,-0.049981560042437284,9.159979457976853
105,3.449028847637656,6.517752471961944,0.38004047558656584,9.05779436606857
106,4.061061699061146,7.0302372027683635,0.8073875834333991,8.810968356477355
107,4.609433985523837,7.4750058346511725,1.204499018738601,8.381257388190702
108,5.091689645062679,7.871406223287281,1.5492959881284178,7.745725596522565
109,5.499707619683173,8.234177664593062,1.8346942726155486,6.922428504695352
110,5.838400923682558,8.573728286370658,2.0684614675041235,5.969567644823725
111,6.135736555409725,8.891687013737572,2.263645890901029,4.948260724009052
112,6.418600145966186,9.180601122154027,2.4320290673218112,3.8950630527091334
113,6.681239755315936,9.43046787516784,2.583000717191051,2.832069858238787
114,6.886824572894326,9.63317448466557,2.723012081747393,1.789348148886722
115,7.001691242338291,9.782450712977436,2.8540843379951024,0.8067022206068174
116,7.0217169286297345,9.867867581922162,2.9737327717332795,-0.08440237478813178
117,6.9627917167552225,9.87357580569402,3.0771503613110425,-0.8747456423076532
118,6.827102831221259,9.80566227906227,3.165140603169653,-1.5707297904468673
119,6.6068518990288965,9.598534947728352,3.214077163637312,-2.2093003866566807
120,6.323350029437709,9.238900244254857,3.210478130457885,-2.8037006416645864
121,6.026664752769694,8.749983501109913,3.151455002794857,-3.3569013325534147
122,5.76628051329016,8.170973211831978,3.043786117286612,-3.870619703053057
123,5.558925838185584,7.544037784657637,2.9020190814796556,-4.342839641619957
124,5.3949977464259895,6.912847043267197,2.7469972883404066,-4.759000252903812
125,5.273781400104182,6.323858336259047,2.6011466455966237,-5.099245669720959
126,5.203740528771496,5.819654832343059,2.4798556944921804,-5.35995578180836
127,5.179467415591131,5.428783236664601,2.3883550988587148,-5.553930403689538
128,-0.07166004724505246,-0.493378737088604,-0.439057191033997,-0.35501797761165366
129,-0.3514829294092027,-1.0819059103613649,-0.9917621249390405,-0.8039188977780456
130,-0.8022010432828481,-1.899075018659803,-1.7764437880930282,-1.4805967513706395
131,-1.4479139519493254,-2.9411006740713614,-2.790048226130855,-2.3925114540516748
132,-2.2949457130223134,-4.190536122370153,-4.020118941320525,-3.52165225622389
133,-3.332707272197159,-5.615582511556838,-5.4442950186872325,-4.843797913509959
134,-4.540935542250302,-7.173557435996668,-7.022027015054826,-6.332092284364652
135,-5.895118713488128,-8.816095901313318,-8.698083381951559,-7.947557135050908
136,-7.366701398448382,-10.495109205455815,-10.419120576121955,-9.642991420004497
137,-8.922630048871612,-12.177265544684143,-12.153441063392167,-11.383174539057546
138,-10.534414324396892,-13.867344954380698,-13.905808508843744,-13.169069034582007
139,-12.185047341639144,-15.561971003272715,-15.663958424641034,-14.9911305627888
140,-13.859145293380449,-17.24659694275638,-17.404928614479143,-16.831172155241916
141,-15.531663018737692,-18.881645355165766,-19.09659007963166,-18.656500311874183
142,-17.164915704030726,-20.41985605567994,-20.705754790853465,-20.43256074365706
143,-18.720025918987734,-21.833703380951764,-22.203272824694558,-22.138774911681626
144,-20.170845792669233,-23.12070704322636,-23.566151638283284,-23.761192261596893
145,-21.50330331053246,-24.295585551289342,-24.779840096512444,-25.27760949437394
146,-22.700421070973235,-25.382771694513995,-25.842304565187177,-26.651388286516752
147,-23.721282474473583,-26.40592506320461,-26.763156898230065,-27.84303466534657
148,-24.51001318473913,-27.37453819801103,-27.553944115752255,-28.831930426216854
149,-25.029575608968933,-28.28246910105321,-28.221386433484508,-29.61455811414765
150,-25.27924653516292,-29.11734046985317,-28.769228269758713,-30.184208625305963
151,-25.27848546128409,-29.862761143269104,-29.204372893126294,-30.526329603620564
152,-25.038839777358056,-30.49459862508307,-29.534904202251337,-30.641615054264893
153,-24.56576709164937,-30.98670178345815,-29.76061173128913,-30.563881215487417
154,-23.878590259083854,-31.322531265920258,-29.871730133076856,-30.341148878524496
155,-23.017708231379842,-31.49327570929868,-29.856470950141315,-30.009252701964346
156,-22.02967150861606,-31.490925836041455,-29.710918497167295,-29.588877069188097
157,-20.94649628676333,-31.31806811989794,-29.44351864397084,-29.09512993853057
158,-19.788323435613588,-31.00256952587304,-29.071454588328226,-28.53922675212764
159,-18.578774485217306,-30.58555071663822,-28.614979176879615,-27.92215139417845
160,-17.349642643014523,-30.09123739481015,-28.091943541487485,-27.223508945173585
161,-16.127273733098104,-29.522761724586175,-27.515216950188847,-26.401782466966097
162,-14.920647720152393,-28.87693847799609,-26.893261695439268,-25.417573272522713
163,-13.740053694959114,-28.150097747213458,-26.23067097711899,-24.257776802766585
164,-12.625433529534902,-27.343453005664923,-25.528181950633947,-22.947187309617252
165,-11.63811209869531,-26.467958374499812,-24.783994506835477,-21.527982613908154
166,-10.814797132612439,-25.539312934005867,-23.997657593648796,-20.032094314626995
167,-10.142672273722095,-24.570515431972133,-23.172769294181997,-18.48871240009152
168,-9.581141411684944,-23.57419815735325,-22.319922875801414,-16.935931087675584
169,-9.09724821920769,-22.570083145263254,-21.459623512486345,-15.411042390734147
170,-8.676849653281405,-21.577898177551802,-20.615337819754664,-13.932884164393066
171,-8.308759221149938,-20.599358201782515,-19.802723648387104,-12.503223996168007
172,-7.975378065740418,-19.618803370774952,-19.02631709108393,-11.13064943812126
173,-7.6548343550744145,-18.62569775726062,-18.279758359718635,-9.83992204772429
174,-7.3338421654448505,-17.628298648777378,-17.547234379512922,-8.66026624566442
175,-7.0186589562135895,-16.64341405028115,-16.80982084630152,-7.6110567722426
176,-6.71915841884098,-15.680804677306453,-16.05296809549695,-6.693743804289599
177,-6.431108272129703,-14.737999026559772,-15.268172669407061,-5.894699527462885
178,-6.141989879242486,-13.807612159821542,-14.451945208404679,-5.205152389110936
179,-5.847260989156052,-12.887347797810556,-13.607098677861135,-4.640177995250552
180,-5.558087896673064,-11.98450906989087,-12.745035671096126,-4.222157156587395
181,-5.297698059194464,-11.11678243243517,-11.886047161120544,-3.9510331953974793
182,-5.088614839430166,-10.307729685694268,-11.055391623686562,-3.80415663852973
183,-4.9384459116680155,-9.582831710096283,-10.27573867386316,-3.7648110013844436
184,-4.848233445581824,-8.967717419926752,-9.561956245674658,-3.8322370257498
185,-4.827432330563155,-8.480894163151143,-8.92133252463436,-4.0002884410408415
186,-4.890862411436723,-8.122639340087654,-8.355136657539738,-4.248038752680234
187,-5.0429731373607645,-7.871765029397326,-7.862985046389531,-4.542663572623225
188,-5.262143565745717,-7.699816148351865,-7.450482481334411,-4.849475865062582
189,-5.5130788592364155,-7.583821626616259,-7.129066577579912,-5.152523321407466
190,-5.779921742807862,-7.498493742171262,-6.910300070113988,-5.4512381374123615
191,-6.080878707486103,-7.406870693539269,-6.80223857479285,-5.74066927063419
192,-6.442820453225205,-7.27040734119844,-6.805198952260615,-6.0094519050858715
193,-6.871216010063954,-7.071814864045254,-6.9112272746273185,-6.250251113876042
194,-7.356282539498059,-6.826884091203363,-7.108762116898225,-6.464417859181658
195,-7.88898920071215,-6.574187237695679,-7.385196678562048,-6.650808460686525
196,-8.460287631117627,-6.349292311749494,-7.725158221058242,-6.787960412212693
197,-9.048047931613235,-6.166166533173407,-8.107853732801075,-6.839944104037776
198,-9.608801398291327,-6.017354572836902,-8.511350072008405,-6.787287541823849
199,-10.091601492766115,-5.8841938725096385,-8.922534652295129,-6.639360655972574
200,-10.462445885815411,-5.7490371885376765,-9.338471935039617,-6.422859933165369
201,-10.700455789301742,-5.593859228571762,-9.757657660641415,-6.16780410904269
202,-10.772264804061948,-5.392778000378423,-10.170622336535851,-5.897425450882001
203,-10.633486285155117,-5.125058116407559,-10.559808247070487,-5.6357498281055625
204,-10.251735779477327,-4.794092635125784,-10.908159414469438,-5.417764754606499
205,-9.6222292338352,-4.419986434901237,-11.203369402442206,-5.275928086138058
206,-8.763080944246965,-4.0178003121154315,-11.43324827013265,-5.215658808302392
207,-7.688017499470021,-3.5942482184279188,-11.578723478096972,-5.2138142489293955
208,-6.391587495253378,-3.1576778475281118,-11.616292356636306,-5.245484909833968
209,-4.8708276799095,-2.7211311993985534,-11.530787832929015,-5.296136018386475
210,-3.1559675902056674,-2.2996110742647726,-11.31789182197285,-5.350567690502396
211,-1.3123351709209101,-1.9058017538458376,-10.972584768302237,-5.380512922893227
212,0.5796217609155205,-1.5425871203493329,-10.485761545360551,-5.340803081543965
213,2.44540812307658,-1.197987870663427,-9.850722080496737,-5.182780938846784
214,4.23061762047978,-0.8564287639434932,-9.072530492326935,-4.874699112879061
215,5.89142494136745,-0.5096335180232602,-8.176767350008667,-4.414933812227017
216,7.377032502113277,-0.14987715961091863,-7.203178584784721,-3.828880734168438
217,8.624740318119324,0.2332683972450743,-6.194835591107911,-3.1576471002124875
218,9.57152938132282,0.6469170513668183,-5.197624892838566,-2.4488771816470605
219,10.176432325613069,1.0895902276254454,-4.256446340260667,-1.7568816654079855
220,10.427066164334489,1.5553985310739242,-3.405674006390089,-1.1453674909709435
221,10.33017890136637,2.0456629203181222,-2.6610607948643934,-0.6653459248830261
222,9.907772765897452,2.564445621440152,-2.0183383595233724,-0.33313914462769284
223,9.200662989450771,3.1047275672020467,-1.4618742605583699,-0.13281665578547605
224,8.268696826447549,3.6536076401466833,-0.9736689857928765,-0.029282035752719288
225,7.179374057695792,4.207321374873844,-0.5351327728764956,0.015435694624014673
226,5.995895704844422,4.770599060776032,-0.12563583400726586,0.039136924159344944
227,4.773684043635231,5.343727719178297,0.27165348137325745,0.0841131235735047
228,3.5659488020878225,5.915984757573619,0.6571904311358071,0.19411911243473245
229,2.4334904763230143,6.463928287386708,1.014579285200831,0.3965011968279474
230,1.4317404219622216,6.9496401047592435,1.3256705183962718,0.6873230157829202
231,0.5778715520202424,7.334788969521968,1.5807142687706133,1.0464661695038042
232,-0.15539018168380472,7.607894516538781,1.7794635915500903,1.4608022442694995
233,-0.7998753526385936,7.791021867583439,1.9297137774260138,1.9294150735127138
234,-1.3547260417261067,7.921068847627258,2.044717214144149,2.4533661104490747
235,-1.7988362422284694,8.032342466024758,2.1461327691213365,3.025879623583821
236,-2.1256000260281405,8.15156962162465,2.263599059380259,3.6308431373374193
237,-2.3510957398841446,8.298996799051032,2.4241226145226027,4.259282333145127
238,-2.4896167675758436,8.489108797264624,2.646761268076824,4.922681005816093
239,-2.533748857466766,8.729535366628783,2.944431938527578,5.634510241713635
240,-2.462635231711894,9.017254071809429,3.3233367191769205,6.395144870169795
241,-2.2607429990365144,9.333118972453219,3.781254658608486,7.202211761323318
242,-1.9314883624704824,9.641561468074698,4.306369854105697,8.067821701712495
243,-1.4911825146896645,9.905692944722187,4.878257196080956,9.016728629845206
244,-0.9511087132036561,10.110877054412562,5.471676583944434,10.065403870538798
245,-0.321201609927516,10.265697666400781,6.060738036964852,11.205900976766786
246,0.3686071454246512,10.391658753717135,6.620207276779817,12.401775146239391
247,1.0732158733091284,10.469233065170535,7.134141890487751,13.594646978633882
248,1.7537721765491712,10.495149060814477,7.590273194853669,14.730120522143642
249,2.3873056116422,10.468324111180433,7.983961032239834,15.75135962531175
250,2.9537838313864015,10.384907391820276,8.315925877745002,16.60369225884895
251,3.421928525222546,10.24716580394154,8.58557268950503,17.249019865006176
252,3.761236843166365,10.070350202578998,8.790123421106236,17.679070934142985
253,3.9719367569844435,9.878094299987579,8.930826510859498,17.918940194906
254,4.086057358715016,9.693165921301578,9.017510691166036,18.013388238167956
255,4.140878016957248,9.533355170323397,9.065073494676218,18.006437796109445
256,-0.18672297699058943,-0.386207933548704,-0.5765344984642892,-0.4148976317614002
257,-0.5955801950249746,-0.9782365213478623,-1.2678171011809416,-0.9283324696307832
258,-1.2256597304015926,-1.878410849852107,-2.2606598520054324,-1.688153774579201
259,-2.0996734635175422,-3.1057173010874655,-3.553659158201804,-2.6850334568941485
260,-3.209694039361322,-4.646067294782817,-5.112806391909466,-3.8752474603754345
261,-4.517770607584191,-6.454054279878754,-6.882483127554121,-5.206428124306566
262,-5.97261763112433,-8.461936530796264,-8.792687137151685,-6.624896729997505
263,-7.5176884932202235,-10.588534649269103,-10.763237302724896,-8.067587307549282
264,-9.089450126564369,-12.74782591099909,-12.716376507624027,-9.46658619932165
265,-10.621464379935885,-14.869364889126432,-14.600793480827559,-10.770019713870337
266,-12.063893203745167,-16.930552386615393,-16.42176689507593,-11.97129515896914
267,-13.382368518657332,-18.909518466212074,-18.175856701248453,-13.06548741981392
268,-14.560288985669148,-20.783056779167477,-19.8608539974419,-14.046666410164248
269,-15.580520565068243,-22.521706931219686,-21.4713583314556,-14.899031704960628
270,-16.417689387521328,-24.092768317821754,-23.00059564865919,-15.612538212163466
271,-17.058750149837845,-25.461086053921587,-24.440639007311812,-16.20494103778588
272,-17.5219264673015,-26.593592337091767,-25.77991603202682,-16.712150087129896
273,-17.855173296295877,-27.462937908873403,-27.001963881700767,-17.148916805720976
274,-18.112070043241168,-28.0493859053718,-28.0849179498303,-17.4999189506794
275,-18.318233413011047,-28.34735894377517,-29.003108256070757,-17.757629485164383
276,-18.47325068802058,-28.373194379450847,-29.735965203715185,-17.944073293222477
277,-18.576755769317938,-28.169127290649293,-30.27522600254129,-18.094552207900957
278,-18.642419908367277,-27.797560223920737,-30.62090236467588,-18.23490570454747
279,-18.679464965244154,-27.327148381757773,-30.779165609344265,-18.37425666924324
280,-18.66564252367124,-26.823825300635917,-30.76910110453714,-18.512298376639286
281,-18.567556985513846,-26.34652661664835,-30.623610795936823,-18.64893031092225
282,-18.37885041833359,-25.939667040296698,-30.382191797824557,-18.794210137607894
283,-18.126592950864836,-25.625929885201447,-30.08362123612037,-18.9638685630544
284,-17.855631621612105,-25.40939355628794,-29.763363582014183,-19.16652898692243
285,-17.615542401130817,-25.287125829437358,-29.454043922093987,-19.405981131638967
286,-17.45595871245677,-25.252192158291376,-29.180982854105284,-19.68514557810739
287,-17.42578968607953,-25.290112045514512,-28.95772701425607,-19.998558229501814
288,-17.56340719402365,-25.382162443488202,-28.78578366090759,-20.32149987254315
289,-17.873652901315875,-25.508289115816016,-28.65678606439685,-20.61715108720154
290,-18.32390630009813,-25.64485381208617,-28.556201386309787,-20.861410538559337
291,-18.866635351365677,-25.76967259241663,-28.467542455698837,-21.056788652149507
292,-19.466330885013086,-25.871528126489025,-28.37942273235719,-21.22535494282639
293,-20.101974591383026,-25.948770577688215,-28.288002200925973,-21.38736358468464
294,-20.744962367906606,-26.00070713810296,-28.18917695295685,-21.549722457415374
295,-21.3501698689641,-26.023322091191396,-28.072352023574446,-21.71265585880304
296,-21.86351328038871,-26.01003456579005,-27.92576054096948,-21.87932848795999
297,-22.249000320611287,-25.950999521459426,-27.742527798272405,-22.060005155272506
298,-22.504732768775533,-25.8325560496881,-27.51729618323686,-22.258594853869813
299,-22.640664078772954,-25.64088569647012,-27.241845503715822,-22.45207362828884
300,-22.664445105293805,-25.364519093819325,-26.90504085872365,-22.594006293966213
301,-22.58150601853899,-24.994463787878534,-26.495641570892083,-22.64342941685256
302,-22.399747711353417,-24.527374443012157,-26.00558117981664,-22.5830747217052
303,-22.138735205108592,-23.970296480722475,-25.42997559134749,-22.410726298492115
304,-21.827543879562523,-23.332554631876693,-24.763167899094544,-22.122861700128375
305,-21.488485696747045,-22.611118402242486,-23.998673321973857,-21.70501142468725
306,-21.1169898111477,-21.794584470121134,-23.13480128871324,-21.142441178712126
307,-20.685358084250907,-20.878298183555607,-22.178416875713484,-20.440245165712632
308,-20.168458240528413,-19.86677369366958,-21.14652227019359,-19.620681199252974
309,-19.56136844890616,-18.76164968282873,-20.058481323099308,-18.705240396353794
310,-18.866416423278654,-17.557677933967945,-18.92367771783339,-17.70417116592039
311,-18.07067575876589,-16.254902797185192,-17.744853934504455,-16.618799682093897
312,-17.157260539662747,-14.867983522065403,-16.52821910106636,-15.448578787354299
313,-16.133018089925894,-13.427483807414943,-15.282540799811999,-14.192625789086442
314,-15.034135098474106,-11.976640840171838,-14.013609243336765,-12.849812018741186
315,-13.895069899377276,-10.561825370757987,-12.72807065872158,-11.422207529558685
316,-12.719463586702775,-9.220350923352036,-11.438207184486567,-9.91653348241902
317,-11.49732915699607,-7.978001899755577,-10.158355189582803,-8.348893506648134
318,-10.237352060162634,-6.855057411551561,-8.904360729129397,-6.755180882421148
319,-8.973397654784499,-5.865869965743488,-7.696076826085386,-5.183876402104304
320,-7.7411344434396065,-5.013763604950689,-6.555503577959811,-3.6815046692623956
321,-6.5591164928575765,-4.291772134139312,-5.5026387006794115,-2.301292211223608
322,-5.442324850400425,-3.694330912280264,-4.555969214387401,-1.1131095481673188
323,-4.426181776785365,-3.2232277732115144,-3.736309848414525,-0.1889684920324063
324,-3.5683546824457455,-2.873464529464308,-3.0631313017763317,0.42847341160813096
325,-2.9125517600453583,-2.6223032186626845,-2.545873996207928,0.7397917815300692
326,-2.458165601282358,-2.4373033797884425,-2.1836531620395476,0.7733367267933416
327,-2.175116039022081,-2.2903078679659608,-1.972544547962366,0.5656554782642697
328,-2.038902536156375,-2.1606742631858533,-1.9098606051206346,0.14600322180907252
329,-2.0429521584182053,-2.029486693195125,-1.9953254862976952,-0.4585785112111518
330,-2.1757227221052267,-1.8796721390470668,-2.229416677078377,-1.2061994999863581
331,-2.4072714788921257,-1.7012354765418902,-2.6066367746283436,-2.0414347228616445
332,-2.701795081777994,-1.4939430007035481,-3.110343972155928,-2.913953280808288
333,-3.0390073172690553,-1.2706567866399352,-3.7161190914353677,-3.8012246185669922
334,-3.4182352826629607,-1.05870323261938,-4.400186342540373,-4.698642445949178
335,-3.8365533690743994,-0.8877580031029417,-5.140493652604272,-5.5840110510390195
336,-4.276238688077551,-0.7750384407909049,-5.910516774383491,-6.412588206837787
337,-4.705093851197539,-0.7270263308169849,-6.6828217019968355,-7.144858846785501
338,-5.091514589386856,-0.7480186017582282,-7.438668350510823,-7.763400814904264
339,-5.41899677535676,-0.8361588160682378,-8.163516091540458,-8.256996940207964
340,-5.667905647591375,-0.9720150356789733,-8.832731049225409,-8.599938096755771
341,-5.797256744634927,-1.1185800848276684,-9.408433809277723,-8.748985239531507
342,-5.755164040724644,-1.2359789863277617,-9.857069869536195,-8.666365774120717
343,-5.508385331151907,-1.2866609018053412,-10.165766025634689,-8.349941128914386
344,-5.0586080422269255,-1.2280999053557091,-10.33720675761562,-7.826232250815733
345,-4.43222268083582,-1.0196713936878354,-10.375495355628283,-7.1205616407562955
346,-3.6579421518938147,-0.637657405818254,-10.274688275591362,-6.24735757404874
347,-2.74879041690362,-0.07958686958657846,-10.021748242696228,-5.227938715641423
348,-1.7137699845539645,0.6369198784783492,-9.611990362872367,-4.101548903699707
349,-0.5736287128315152,1.4736131342641083,-9.051983534401765,-2.912362130032527
350,0.6401393011900837,2.383604721046395,-8.3494269139178,-1.689130097404251
351,1.8986720899231948,3.3346207963321937,-7.508644640603589,-0.4409772470779083
352,3.1903431141141083,4.3113537975643,-6.535809448786723,0.8196078551812391
353,4.509864782308246,5.298991774572227,-5.44496931736286,2.0698327957663203
354,5.836920274772289,6.278335132321248,-4.2583395682784015,3.2929317849314788
355,7.129123806875482,7.2359070830149195,-3.002693551806599,4.485102128833123
356,8.341870156989351,8.167290864639622,-1.7113439435647704,5.646865114954199
357,9.444372954311307,9.068400585650991,-0.42938135600182964,6.761504118702181
358,10.40516332962999,9.930719438874295,0.7901267000813574,7.785780942438091
359,11.179715784239617,10.741143482171164,1.8982031549573348,8.66660253055294
360,11.71442646921814,11.481823976632015,2.865180563816957,9.369039775298258
361,11.972418070539941,12.131608095457672,3.684134933237167,9.880646308371242
362,11.959684624494923,12.671751493642766,4.361164389086995,10.190973536461778
363,11.711016084727282,13.090760287526704,4.909465955665423,10.288236245902473
364,11.256080918584237,13.380141846165365,5.347755394160027,10.17211327286564
365,10.61281458273314,13.53523299408594,5.702530551307215,9.866272622245832
366,9.80950215587644,13.563051452392322,6.0076743340241645,9.41768978086025
367,8.892474963197916,13.47570223816128,6.293997445811998,8.880016790571105
368,7.913128078252486,13.27377238413403,6.581945969175902,8.29415998928124
369,6.910415053376835,12.94913842047845,6.884864647378643,7.678277787083054
370,5.903596044083453,12.503298374161119,7.212499748486531,7.03679117985335
371,4.904966564840943,11.952663729265405,7.569933382047004,6.37524073076061
372,3.9324722862977266,11.323136427106176,7.956866621771798,5.715552634752758
373,3.013350197104665,10.642245959971905,8.36922039900271,5.090800989875973
374,2.1420123206380217,9.936946050038312,8.786869227975114,4.492580032045344
375,1.3592199711152504,9.19357116624244,9.213262123916236,3.970344556373391
376,0.7007925092718226,8.424338518705,9.64024777562702,3.563282991338835
377,0.20165324420577377,7.656195319678341,10.053313823658101,3.294264072324663
378,-0.1189970301267692,6.919501824962504,10.434295054024552,3.164010559513036
379,-0.2761943286043346,6.241499633000965,10.765987916081986,3.1536890867748006
380,-0.31105517892096746,5.646081241447364,11.037795545875419,3.2342600609633725
381,-0.2621596874550278,5.155268590423994,11.248580114322527,3.3749824424287493
382,-0.15684965086114216,4.784291913743116,11.403887835106175,3.54469425213843
383,-0.02118966295821919,4.532587151499321,11.509990642228875,3.708374261679335
384,-0.031098046586420985,-0.274100568842352,-0.5898726054560703,-0.3524928717350083
385,-0.1530793184319897,-0.6025220776692612,-1.2022877078775605,-0.67587457884477
386,-0.35754214984556726,-1.1041849599151787,-2.0529010539492187,-1.1436848756502158
387,-0.6781026980202767,-1.7986241254325295,-3.134560904063778,-1.7558921772668525
388,-1.1117997967893043,-2.6895414168831877,-4.4130240333035,-2.4893365661526303
389,-1.619658656668536,-3.765110820634938,-5.833512593121935,-3.311233295293828
390,-2.1649354847376565,-5.000853790655584,-7.334921311624088,-4.188593040884709
391,-2.738321895351734,-6.363774182307103,-8.861465906370068,-5.090714842688757
392,-3.35033575365809,-7.815946272734999,-10.367782429922961,-5.987709306162894
393,-4.006855824788652,-9.319882852021466,-11.82670973544551,-6.862125424784594
394,-4.708659109712235,-10.854192256772249,-13.250377132838846,-7.734954334142809
395,-5.467174041815813,-12.391738295224384,-14.632475942067174,-8.62540469843376
396,-6.303298328970313,-13.916663949033838,-15.968182994672931,-9.534983919729886
397,-7.2290174106728635,-15.422446937485628,-17.255134159965188,-10.448347164853741
398,-8.237242773533168,-16.908468535749346,-18.49892622725499,-11.360823507096214
399,-9.311577400945243,-18.382291036353287,-19.716960214839574,-12.285696293442973
400,-10.446429755896343,-19.852330653216306,-20.935399545319115,-13.24254373446928
401,-11.657592831227984,-21.302899027029795,-22.17760648580386,-14.24028147642016
402,-12.95390517531632,-22.68907448225692,-23.45676509806672,-15.268430808342687
403,-14.303074184325293,-23.964193104995033,-24.77774880211008,-16.313281014131718
404,-15.658011815089901,-25.108622394504582,-26.137536967785447,-17.382062727807384
405,-17.014174360085622,-26.13375808877871,-27.524134175702695,-18.51059121261722
406,-18.40096713686938,-27.074998550914586,-28.91432306526187,-19.732839409339284
407,-19.820309610106516,-27.971656914449305,-30.270566887890624,-21.04241284877262
408,-21.228455822681223,-28.829632380361957,-31.551651745621363,-22.391885778024594
409,-22.561842058607173,-29.629462214001773,-32.71951944886287,-23.712208713055674
410,-23.74952180915109,-30.374892253329815,-33.714134838424776,-24.920161405468765
411,-24.724791876989425,-31.0925905367685,-34.46997095679626,-25.925869250050958
412,-25.447356459748022,-31.78147213099734,-34.98353555551969,-26.655565937236947
413,-25.892977775326383,-32.41814149059217,-35.31278794034715,-27.062009872360473
414,-26.046489490080017,-33.01450938171165,-35.523435106249494,-27.13535942123406
415,-25.93516109850335,-33.62179430131842,-35.6675953840523,-26.93859953948692
416,-25.58886348758731,-34.30549524317913,-35.768999437169825,-26.55315935764662
417,-24.91183125687665,-35.140138357054774,-35.78812098879657,-25.93289841203544
418,-23.653663450817064,-36.19121113410868,-35.613387650693326,-24.87551559686524
419,-21.521994578668057,-37.4953931891073,-35.11905300350648,-23.14211313348699
420,-18.332262381067224,-39.05188303757764,-34.243071312672626,-20.584853052319776
421,-14.099051617556327,-40.76480352054876,-33.01059304211798,-17.202786349674813
422,-8.983381734877579,-42.447751312443906,-31.49686164619437,-13.098497286978667
423,-3.1859623467401215,-43.942677490752615,-29.7737776860243,-8.386648281956958
424,3.0463497841723433,-45.12892234121102,-27.89599183059854,-3.221748820661035
425,9.342755596420744,-45.944376853518015,-25.92859038614929,2.083394672070947
426,15.265574636938984,-46.44459162122015,-23.98891702901765,7.127061506376161
427,20.4921487275285,-46.633461604388074,-22.255254523200648,11.629395940346228
428,24.86932524498488,-46.268652479682515,-20.893185187548923,15.48182071128282
429,28.330845646895607,-44.82482623107324,-19.957945668258393,18.637961512624678
430,30.819408515693407,-41.50569570737724,-19.39216027770949,21.01826477209092
431,32.28274412644514,-35.28894648020451,-19.097979173756283,22.5426290722624
432,32.73380383330667,-25.067996667251602,-18.95867939420748,23.229484703209533
433,32.23796015408061,-9.848289636961097,-18.84391413905844,23.16259006108607
434,30.818442450961584,11.107590949021791,-18.659293124059317,22.352483912469935
435,28.44647877648528,38.16940533473511,-18.334413102306193,20.727763328577538
436,25.143499554570408,71.25497132941895,-17.73720155219309,18.272732095725488
437,21.05444946032083,109.82526271613094,-16.64328680592124,15.114099264694662
438,16.444107834110973,152.9367899505129,-14.804848607151367,11.4979282383681
439,11.63734058681947,199.34599507631566,-12.032715419157434,7.700731040692093
440,6.923583393086561,247.72238630713133,-8.219844469259876,3.9413625328038777
441,2.528715709935262,296.8303226568533,-3.3096302960289443,0.3949220598558514
442,-1.3411806814345866,345.6122867251926,2.7593207360923557,-2.718447613715673
443,-4.535043699209701,393.3049389421956,10.078832709698647,-5.175234116566437
444,-7.060378525319259,439.39455217643865,18.75498045371747,-6.919650307124417
445,-9.034267366246965,483.4293296861872,28.865085995347965,-8.049190374240805
446,-10.504810735638584,524.9934435518916,40.43593449039153,-8.62062997583036
447,-11.41074942623292,563.7484171879539,53.45914399017809,-8.58917658908119
448,-11.67429865464088,599.4397621945585,67.89354698786471,-7.8955272914752745
449,-11.265118450149847,631.8845022478056,83.666359161349,-6.547370139589186
450,-10.199560947544859,660.937440898465,100.68199270723353,-4.6160507227036245
451,-8.519487180564195,686.4820983273715,118.81618661995914,-2.1896814011774715
452,-6.289868452003418,708.4428030120314,137.88771156377615,0.6392076033716683
453,-3.587086904203984,726.7975653750315,157.62357361597333,3.779167694623589
454,-0.4845720352464358,741.5831197959538,177.67661247423155,7.147013559097657
455,2.931058358463046,752.890256954547,197.67466730040007,10.655996431198451
456,6.547192004918838,760.86201804211,217.22939513856846,14.204315034324182
457,10.233481779635094,765.687334183249,235.91744349220443,17.687557971593858
458,13.86273321248821,767.5737556860216,253.28878379584938,21.021971955695186
459,17.330208455811757,766.718715309198,268.9010292435098,24.14459685387814
460,20.551752541155572,763.2877852102373,282.35236862668137,26.990125178187345
461,23.45017502653553,757.3852080172843,293.3118739866088,29.476967514365295
462,25.948211479387254,749.0325862872139,301.54078082643343,31.522526233832178
463,27.96849440852096,738.1677277568907,306.89056427804076,33.060729358320856
464,29.445919361346473,724.6484801430439,309.2830428308927,34.04384686354724
465,30.346418549210686,708.2491140872419,308.69022109170373,34.4365645991432
466,30.660733353617434,688.6761771281247,305.11235362340574,34.20646371463254
467,30.393293357553794,665.6366486188203,298.5612662669885,33.33617223712249
468,29.563651158820132,638.8976189794483,289.0601352688101,31.851984570556098
469,28.2093482395996,608.2985030949303,276.6504587815629,29.822782588219464
470,26.398306993890888,573.7635741008253,261.40956176040675,27.327792715801028
471,24.198748980724197,535.3174038043136,243.47282352808332,24.43121394156747
472,21.626712998837487,493.0824432635329,223.03442576643312,21.185538614481306
473,18.665441979487625,447.25737883418617,200.33620938706255,17.64846853572257
474,15.309576724935498,398.1004411403968,175.66983954728641,13.881410101401524
475,11.581820757625083,345.9397952136089,149.3789657555812,9.925034975948677
476,7.535929727608089,291.16848190172897,121.8429852856527,5.789502149891547
477,3.2559541541458565,234.21658459275466,93.45992013533134,1.4804886230862568
478,-1.1383330883818794,175.55120174580813,64.62977276406879,-2.9729417445985016
479,-5.488313121445034,115.68608876401144,35.72523932879222,-7.51650169599052
480,-9.613364086904431,55.15953499816694,7.0722375971817115,-12.085713016619883
481,-13.342593247563572,-5.493067084120074,-21.04762427245264,-16.618215485492396
482,-16.550515036577025,-65.7463641504937,-48.390689257521146,-21.055358906540086
483,-19.165648941057164,-125.08995380300834,-74.75124996775942,-25.335504416865916
484,-21.14171551799059,-183.05628355100689,-99.96379678912797,-29.39345654431315
485,-22.45238488251894,-239.26155535800186,-123.89922998093084,-33.176900345394806
486,-23.12233229812826,-293.4153754255291,-146.45921621411568,-36.66442908751297
487,-23.251949759928888,-345.30491229915157,-167.57519879001902,-39.86447099432612
488,-22.99795324208289,-394.7806498847847,-187.20042988081735,-42.79221499370313
489,-22.506114656294837,-441.7310759173912,-205.28832663127235,-45.44874192282659
490,-21.88420420036202,-486.0510543112234,-221.77876712225302,-47.82388943042666
491,-21.23421960328556,-527.6313425769987,-236.6046115300184,-49.90609043590138
492,-20.65960009760748,-566.373933182815,-249.69672637060626,-51.681023684877964
493,-20.254892945615477,-602.1908454411013,-260.9848817307389,-53.127046493750115
494,-20.100968219212888,-634.9811048521102,-270.4110507126699,-54.21519418819679
495,-20.24712494669174,-664.6496660868306,-277.94332170580026,-54.91128759679645
496,-20.688184811666098,-691.1468735646383,-283.5726359777581,-55.19275912056216
497,-21.369446986999957,-714.4681824308534,-287.3077604945958,-55.073694701316725
498,-22.21599931487583,-734.6382451539722,-289.18143313975895,-54.602179669570035
499,-23.154990569129456,-751.7093555315531,-289.25383013853394,-53.83803835919914
500,-24.12678937218016,-765.7664023244976,-287.609139331544,-52.83929973511094
501,-25.092876838042184,-776.9259225419886,-284.35100219101986,-51.666872270383294
502,-26.01304476485844,-785.8240391562267,-280.0949768975641,-50.47007005919638
503,-26.951667093817466,-791.8418909165614,-274.1791292985629,-49.187496464323736
504,-27.918906756151106,-794.8094642954377,-266.5053962624678,-47.79926928794741
505,-28.887114718772036,-794.9189308797722,-257.37822218732254,-46.32309588730781
506,-29.818954826372202,-792.632102504202,-247.3566769044698,-44.81595090004701
507,-30.68756938592114,-788.5860986984369,-237.11472313458256,-43.35588699763982
508,-31.47570759817498,-783.4991261969781,-227.3280352522621,-42.014971316388774
509,-32.16234965440642,-778.082092738779,-218.59665597091532,-40.848365743236656
510,-32.71874187627001,-772.9700393235802,-211.38526147575703,-39.89436792385479
511,-33.119919500442215,-768.6752047470289,-205.97160521977912,-39.17564340074063
512,-0.3985031092527306,-5.455543912915477,-1.3812460657275911,-1.010570307513659
513,-1.107545293785838,-11.75143523657919,-3.148210729236536,-2.126701150756536
514,-2.132524387739132,-20.710615878591238,-5.683377773714643,-3.6702158686150366
515,-3.487449339887474,-32.3661222300356,-8.989651426092678,-5.6168252158610965
516,-5.147431409013737,-46.521490312330144,-13.007280755440066,-7.903621251872196
517,-7.050962180320556,-62.75388939607213,-17.619199357392766,-10.44863027282069
518,-9.130625260842162,-80.46314328476028,-22.667420871494805,-13.164917508090081
519,-11.331564619890548,-98.95067532772309,-27.974232481139047,-15.962758166053366
520,-13.606433343004756,-117.53095799860249,-33.36779354588654,-18.750255633376508
521,-15.90362396224009,-135.70100336415433,-38.722310008692105,-21.45849416013525
522,-18.187519912928394,-153.36645943391866,-44.01550384699996,-24.094778900816248
523,-20.43520264200002,-170.24325009332597,-49.17933956720533,-26.64775728356914
524,-22.648063541944524,-186.06528026099178,-54.1483820585374,-29.100678237906077
525,-24.80513057179271,-200.60031238772478,-58.845988061361965,-31.407752892452056
526,-26.836690437373697,-213.6675516619756,-63.17869904223682,-33.498280085368286
527,-28.65489398151744,-225.1519884411112,-67.05772784818217,-35.29898112296086
528,-30.20174930565162,-234.9991874086097,-70.42403685042015,-36.7608614363011
529,-31.45955364299447,-243.19778007529985,-73.25117743399291,-37.86695397693128
530,-32.42215537551918,-249.76815742212398,-75.53837384631949,-38.620541434408324
531,-33.0714613249345,-254.75257262890415,-77.3053641322986,-39.03674430469365
532,-33.38298191211785,-258.20109186912856,-78.58905475184386,-39.141356136573485
533,-33.3534665156568,-260.17125772032546,-79.43546978956851,-38.97146695034719
534,-33.01362299667623,-260.7333599547512,-79.88736333735912,-38.56432542061143
535,-32.399075476959865,-259.957917257113,-79.9775456868,-37.94418445316889
536,-31.531389017960585,-257.9082032524691,-79.72942702055691,-37.12251310021742
537,-30.438642069570356,-254.65588919245548,-79.1662147261551,-36.116881487031
538,-29.17582330737651,-250.29304605281368,-78.31794611780357,-34.9691730245389
539,-27.81935727935807,-244.92009013015416,-77.21534521850505,-33.726664617585925
540,-26.437877151266687,-238.63527305648418,-75.88300472772823,-32.42102407147256
541,-25.06905565147448,-231.54281990089152,-74.34092794655136,-31.077717911109975
542,-23.721927341964005,-223.76012296873876,-72.61057783791567,-29.73492093691052
543,-22.39995577165318,-215.41147140953237,-70.71469591291515,-28.44756513308279
544,-21.12037664505231,-206.6120290658981,-68.6655299401226,-27.260263347785585
545,-19.911944555570788,-197.45883555290857,-66.46118982949673,-26.17619995609144
546,-18.805822039996123,-188.02954502076165,-64.09797312381865,-25.15804913944772
547,-17.82948973144141,-178.38256511320805,-61.577954208518456,-24.161459649968027
548,-17.01531353969724,-168.5640316294373,-58.905972077834484,-23.16236897640082
549,-16.408578907599452,-158.61163377969964,-56.08906478225154,-22.153129209669135
550,-16.052003279950966,-148.55152835674505,-53.13987556946033,-21.127310764875386
551,-15.960927136487165,-138.40122489614882,-50.076892232291456,-20.072782793172866
552,-16.11213753780379,-128.1888980590289,-46.92476749468115,-18.989138570591916
553,-16.460277491273626,-117.97694010834931,-43.71591151583125,-17.910415035652694
554,-16.953932578661426,-107.85625694467052,-40.486837421223335,-16.88396181963444
555,-17.537590380305016,-97.90865343579786,-37.269935365599515,-15.926995701285001
556,-18.149112152807373,-88.18084803986208,-34.089288518225885,-15.025726628051611
557,-18.71877138959332,-78.68367194642461,-30.96257928047344,-14.16308930945588
558,-19.19134819344716,-69.38832294513573,-27.902619236215223,-13.328124465394774
559,-19.551132521442142,-60.22443716296507,-24.919822011716693,-12.513933400519008
560,-19.810915148736928,-51.09835720463063,-22.026744115336687,-11.714302614602504
561,-19.98043675282497,-41.919112887454645,-19.241230170915394,-10.924901467863638
562,-20.056023854727968,-32.616135034969076,-16.58503383314051,-10.15841659145858
563,-20.034382891478202,-23.148606525236087,-14.08108414456581,-9.452416482964757
564,-19.93214592567341,-13.509890521315768,-11.753720876301605,-8.85544283858096
565,-19.7874667765949,-3.7235646774988282,-9.624552754395143,-8.401266886542196
566,-19.630546778685893,6.161353169596944,-7.706160679643029,-8.096605588665831
567,-19.462429413174913,16.06948943309923,-6.000721586031062,-7.930982306698468
568,-19.26624400190742,25.90482123261571,-4.500689988353404,-7.885195207119089
569,-19.02893443936293,35.565330935938256,-3.1855541077459244,-7.930444663226603
570,-18.749722332685323,44.9663995718867,-2.0188113056722856,-8.018143596984693
571,-18.41643070205331,54.054264277431166,-0.9584036504302328,-8.081519798758636
572,-17.979563874669907,62.78712078027325,0.028637980068635438,-8.058840961398904
573,-17.369854091716242,71.11487154880552,0.9619538043993243,-7.9089029112028095
574,-16.53687695386684,78.98083453030516,1.8494548960129265,-7.618589954111842
575,-15.461455866274532,86.32692600646811,2.693613738542036,-7.201601665060553
576,-14.145999844641155,93.09692243810085,3.496231520705362,-6.681283648318137
577,-12.609806801629755,99.24310833166844,4.255304402799039,-6.079296269341084
578,-10.885952102491371,104.72785888257664,4.96486433659252,-5.420030791302576
579,-9.02199493484182,109.51967003246435,5.619746225973167,-4.734640927507935
580,-7.083453026293573,113.59933826859344,6.220249875721476,-4.047372634423536
581,-5.145427640322777,116.9693587089537,6.781127877000339,-3.358826347584582
582,-3.27287579831704,119.6495475102983,7.334253122842744,-2.6525759519874446
583,-1.5071656395408286,121.66546808939637,7.91351418864407,-1.9197516544390618
584,0.122104855183471,123.04273470241192,8.542863425054026,-1.1754722844230314
585,1.5868039048801552,123.81494612312875,9.236125630670632,-0.4484651788996693
586,2.870220152178082,124.03604530353444,9.997162039359422,0.23952044572474424
587,3.977726084593078,123.77443912298874,10.821064911785061,0.877236240129722
588,4.93456710483645,123.09361099168878,11.697839851019742,1.448750058923622
589,5.760414294587268,122.04217341979235,12.614611991347902,1.923691226465272
590,6.4528120759708045,120.65412281317028,13.555256836541382,2.2732081534223427
591,6.997242825253259,118.953075117711,14.50065318903291,2.495594938081001
592,7.381553311349233,116.96030842904996,15.432105374316532,2.6201911937630196
593,7.614245118813037,114.70348644760826,16.337503042608567,2.683870617401058
594,7.718931557662022,112.21811185067658,17.213799842047486,2.7113857947629025
595,7.702685896466078,109.5423286382516,18.060011098973604,2.717860306734582
596,7.548663029202774,106.71612904142876,18.86949945153947,2.7186849935969906
597,7.247289233861429,103.7837896619958,19.631361910564102,2.7294548334868507
598,6.8260024725328545,100.79379291570372,20.33261693626351,2.755684114003428
599,6.3340698789381396,97.79365318544683,20.957378374667037,2.7919022332371957
600,5.807181550091865,94.82378686232866,21.491885039706933,2.835788484182903
601,5.262410676059833,91.91797535120864,21.932363867895415,2.9012560627302473
602,4.723787987293298,89.1041993792522,22.285304547586662,3.0145442165604335
603,4.238155062866427,86.40552360378452,22.56147434907321,3.194188551794232
604,3.8539851545371477,83.84670227400085,22.772890844078994,3.4379840964945014
605,3.5889493780249766,81.46219642567794,22.933375011629394,3.7268016714178183
606,3.4288003386653982,79.29919307925299,23.05788548896278,4.042098738337287
607,3.3578948464515843,77.41340485137654,23.162632749451376,4.37926544755439
608,3.377954875893377,75.85604762376181,23.266551487457104,4.7372473847509085
609,3.4946816605164015,74.65627449746302,23.388291255345997,5.108943854908766
610,3.698748366925041,73.81370972925107,23.539659841488206,5.4876032271973445
611,3.9721275432161542,73.3027576398051,23.72515485768774,5.878058194265065
612,4.312402465532784,73.08373673017022,23.947546919756807,6.300757437545111
613,4.735190460807336,73.11200995056835,24.209686307019386,6.785213788681073
614,5.255221678083943,73.33391610744731,24.507794614826572,7.354685876611797
615,5.8662964754606435,73.68310704153777,24.8243543967533,8.00499317671741
616,6.538861222206778,74.08981181322719,25.13224810457848,8.707362800070454
617,7.239658331522085,74.49690019133983,25.404340448388446,9.43304960890813
618,7.943154217293947,74.86656363385991,25.620168682294942,10.162756038855957
619,8.633825657689975,75.17473698967724,25.77225489648486,10.879493325446447
620,9.298085818525314,75.40631893595494,25.869910497947345,11.562401924374333
621,9.916729210840737,75.55042489758617,25.934899675830405,12.194899394877067
622,10.47842729256956,75.59912979888048,25.990395180806292,12.777455447851128
623,10.985225397401166,75.55118927096339,26.051884370333138,13.323997458120614
624,11.442463422536894,75.41380573171782,26.123625691713922,13.837037931673153
625,11.845912898969507,75.20115354900688,26.19823239196095,14.285557656050067
626,12.174722072338374,74.92849736350477,26.262636847775422,14.621644471707068
627,12.39723953117787,74.60520731408583,26.30738252329031,14.813697167463857
628,12.484705681820582,74.22927044878843,26.324625284129144,14.858179172600417
629,12.43035277863761,73.78305578123009,26.300158658166893,14.766258987669062
630,12.280398592443808,73.3078082043855,26.241866430060494,14.563894891809081
631,11.970181782749544,72.6419770342529,26.08236331165112,14.186138784329703
632,11.48216812787515,71.71995498665308,25.799222027685524,13.635766264109844
633,10.8469173255931,70.55351334524109,25.404612095809014,12.959924600597615
634,10.128508824211965,69.20545179701993,24.92833117812173,12.211207517878718
635,9.395261309291293,67.7672485361416,24.407977746962622,11.433968952651108
636,8.696709485218296,66.34304093609433,23.884099505128006,10.675961022613333
637,8.064299439573087,65.03589317922467,23.39301518972443,9.990612162073766
638,7.5296239220227505,63.93364104692003,22.96429648334685,9.423739245240357
639,7.1230436232511,63.09557964775635,22.62251260657549,8.996377115319234
640,-0.36321520609378155,-0.8983375266997995,-0.6359387445552401,-0.369057408123999
641,-0.8618067753021719,-2.0328762668958573,-1.3944790307956136,-0.7391713102304547
642,-1.5504437650074028,-3.7135843240165567,-2.4704160586866437,-1.2166898912318902
643,-2.4379350073401733,-5.963211002834304,-3.8626390659556082,-1.7943498144240342
644,-3.5121090771920427,-8.742704230949162,-5.543117590946308,-2.4571226575614227
645,-4.733526470279771,-11.953711117481884,-7.4560505352276065,-3.188486182355489
646,-6.041991358038749,-15.453457912061683,-9.522725890980483,-3.971726430687369
647,-7.370377299736977,-19.07580458256872,-11.653187096824258,-4.786427224753647
648,-8.656839227870128,-22.658990599281374,-13.76401739792606,-5.609451104952177
649,-9.855100085349967,-26.082272184720054,-15.799060776411972,-6.420186577490316
650,-10.949412588036207,-29.30848817920101,-17.753932957896644,-7.2180137178643085
651,-11.930861108362732,-32.27824531400359,-19.607336740724765,-8.011591976084581
652,-12.803169468996147,-34.94997939337045,-21.344302021860322,-8.804529529074044
653,-13.561150850528781,-37.302790989599224,-22.95110544539789,-9.575668447668818
654,-14.180997650149415,-39.33469383981034,-24.40977738190072,-10.297498306795461
655,-14.639146443670445,-41.05752686787804,-25.700795506352968,-10.969366266703709
656,-14.941245815107441,-42.495218825235305,-26.810785766330675,-11.617926740583398
657,-15.124109619867532,-43.675569801290095,-27.733653566847163,-12.267667056379418
658,-15.2299308624635,-44.61791231075197,-28.467723920609405,-12.921396144220614
659,-15.291220632259446,-45.33422659785463,-29.015223776624868,-13.564059480239694
660,-15.331531881277954,-45.83608397315634,-29.385343791930957,-14.178869365856034
661,-15.371914831080668,-46.140184547086555,-29.60081089390293,-14.76031953294475
662,-15.432318949886023,-46.266854679638364,-29.697280088904453,-15.310629641102944
663,-15.526466573042718,-46.230292826585874,-29.71297403300565,-15.829977320524566
664,-15.656704286154227,-46.03859621629685,-29.68092077344363,-16.319606887195985
665,-15.808533079843127,-45.70241376534654,-29.626059403966035,-16.792129754404463
666,-15.960269788373713,-45.23780267618507,-29.563584320331188,-17.277275205212952
667,-16.10330289016271,-44.66611747129301,-29.499384252575027,-17.814591315286126
668,-16.252899164170604,-44.016197525488145,-29.4321156528644,-18.432135311623192
669,-16.43789304805238,-43.323602506993595,-29.35660105169592,-19.131717044355636
670,-16.6794550884136,-42.62381844696142,-29.26876848937211,-19.906963114365006
671,-16.994826528170528,-41.94259107432647,-29.16528026786187,-20.76847819341906
672,-17.414478585215207,-41.29097545166866,-29.037406164283706,-21.730625094817174
673,-17.973951060618933,-40.67098429096292,-28.869242802892536,-22.78698848407459
674,-18.686884010936808,-40.079856235764034,-28.643498626315992,-23.90779548193786
675,-19.526209290648502,-39.50456582937576,-28.348848375461678,-25.053951120260457
676,-20.433938971421842,-38.92442541309053,-27.98023428538074,-26.195638012744052
677,-21.354556343595892,-38.32251980572211,-27.534178572743702,-27.3160101135788
678,-22.257188651572854,-37.68453004072931,-27.006770129281364,-28.396102777085684
679,-23.121159069612347,-36.99233308153476,-26.397697007741684,-29.400403129582074
680,-23.911528507036,-36.228105912523,-25.717444042915375,-30.28713083124568
681,-24.582543130163383,-35.37652332962335,-24.987091475878536,-31.024950662373318
682,-25.102358000371645,-34.42175306273654,-24.230978623274137,-31.589577032499786
683,-25.466636270821628,-33.353674613331584,-23.4708818586977,-31.951494769800615
684,-25.674246935543433,-32.17053718033833,-22.71948230863331,-32.07031661596177
685,-25.699831921733903,-30.871057138622785,-21.9721349386346,-31.90474284327476
686,-25.505507052341986,-29.454530003729356,-21.207911817434354,-31.426158000184056
687,-25.071147408625766,-27.92652631871151,-20.400536414693104,-30.62097841272852
688,-24.402932325116993,-26.296835350506065,-19.52849164531647,-29.481342690590793
689,-23.516007132685615,-24.57270210310616,-18.580385854809457,-28.011326932781245
690,-22.424131756495566,-22.757292344751512,-17.55463289590311,-26.255049946270262
691,-21.1421221707337,-20.863289120282804,-16.457784568163948,-24.295555995753602
692,-19.692951794793863,-18.933411001325375,-15.304703222895458,-22.226469647443256
693,-18.110731578051688,-17.028179067972598,-14.11495791019541,-20.12851777138394
694,-16.42693790822381,-15.187571750298561,-12.90786006946127,-18.05385396617776
695,-14.65943619270828,-13.427806018812857,-11.704304722859696,-16.030878202465885
696,-12.830137076974683,-11.7656485043147,-10.531667347836477,-14.087880514618401
697,-10.992648269059561,-10.221591894056559,-9.420003977691312,-12.265090275799633
698,-9.225510754992762,-8.81088469142333,-8.392403431071694,-10.597501588231601
699,-7.597804250703532,-7.537828225751229,-7.463672136414201,-9.100574995219175
700,-6.149061826186414,-6.390000041271069,-6.647012385727445,-7.782737030745098
701,-4.896140964604517,-5.346119209951729,-5.958464971750428,-6.663414928502738
702,-3.854748591701781,-4.389713470782266,-5.4166649174858295,-5.77508203555296
703,-3.0413759738986244,-3.5051986398998514,-5.0350498197273925,-5.148262051399652
704,-2.4569491953180136,-2.6760646612099563,-4.810176001509332,-4.795966126072763
705,-2.0792928148760415,-1.8981128371025722,-4.721114847784863,-4.709326370820829
706,-1.8662629200398606,-1.185564797258851,-4.737382349786179,-4.863668997031239
707,-1.7729299352660037,-0.5637691716052847,-4.824673823374297,-5.223180638744872
708,-1.7755584574929357,-0.05464844258205617,-4.946427885374637,-5.738717305654894
709,-1.8782705346206063,0.3315541221526357,-5.06811404310149,-6.350312979233782
710,-2.094195505547231,0.5848036847866944,-5.167487897563655,-6.995307664651554
711,-2.4399832424461936,0.6811682398978655,-5.2398908425917785,-7.628885296965513
712,-2.946475986168619,0.5993905076787149,-5.291074486382624,-8.247508629614929
713,-3.6423200947892935,0.3529854374886756,-5.3242465618048955,-8.875548563149795
714,-4.523542260352842,-0.007440407231972632,-5.339773774683049,-9.527355381939657
715,-5.544267138387408,-0.41103686530966865,-5.344348422266081,-10.190904921677767
716,-6.62763057580142,-0.7799901535763701,-5.347281717017952,-10.846045679546059
717,-7.680647250140109,-1.0460593485172471,-5.349989661432412,-11.480764380500744
718,-8.606349868019397,-1.165639794765332,-5.34597782853605,-12.082845930645622
719,-9.309936154880427,-1.1246635236624567,-5.324098953879874,-12.632697989488477
720,-9.70319699651207,-0.9381099572480264,-5.26728699452983,-13.105095694805275
721,-9.716858569809062,-0.6392544189322604,-5.156216228219646,-13.474991683730133
722,-9.315671739328206,-0.261279948026754,-4.978663112368527,-13.724874484598113
723,-8.50908102126703,0.1684370535633107,-4.734853872048761,-13.84327011715468
724,-7.349039154401074,0.6299018371080829,-4.430969175016034,-13.817165625151905
725,-5.903120388579326,1.1204357147488544,-4.065443765812519,-13.629239352774425
726,-4.222590761485385,1.6516317500567508,-3.6262582539406947,-13.263966773207768
727,-2.3480004610401717,2.2369495623458273,-3.0973427768863364,-12.71660701779561
728,-0.3361286578727518,2.886492998578407,-2.464106386968568,-11.993180416398058
729,1.7422084090795886,3.5991231663860592,-1.718536871054786,-11.096997999608528
730,3.815520218368331,4.357622225662194,-0.8610702633473231,-10.024963754632068
731,5.814795649953869,5.137634559975469,0.10183148068084352,-8.789257365130483
732,7.681868201030347,5.921431615178953,1.1618847958114003,-7.429864998931038
733,9.377495505908824,6.701346118941688,2.3083860825832723,-6.001520346616848
734,10.877399116502831,7.475525837661157,3.5280479310293713,-4.548840184183883
735,12.165105259848504,8.253501660379262,4.810798653098065,-3.094401656345987
736,13.234260748615913,9.066708331894938,6.147119689735978,-1.648919473368093
737,14.094290970095166,9.955284221666194,7.518632031279811,-0.2194339437302701
738,14.771343474399012,10.941189909070323,8.898179444880562,1.1875553814805468
739,15.305182038252692,12.021265967347947,10.257682945199319,2.563686311461658
740,15.742657205797812,13.175394671914239,11.57263936099097,3.896992192937186
741,16.128338053152238,14.371297309956296,12.818695758313961,5.17127036048174
742,16.492847089816415,15.564417371293919,13.963005524847722,6.360363280035169
743,16.84378774307413,16.705805829761793,14.964222980410613,7.419186683427931
744,17.177540351986867,17.759286254612213,15.788049406708716,8.300871366889924
745,17.506280260630874,18.7052944593498,16.417519255370443,8.986770602572102
746,17.852590204372742,19.530394849820524,16.849725264629505,9.491884113285792
747,18.228766794940576,20.223308810705444,17.09415186643604,9.840513852856144
748,18.64259677830627,20.774895910933452,17.169474881031356,10.040311112431697
749,19.09790616267671,21.176508823913277,17.094689886530716,10.088967141846926
750,19.580206516450048,21.422560881633338,16.88490808088106,9.991575232468563
751,20.05924091396042,21.51636303839699,16.55186894664556,9.765213594006072
752,20.510586603174804,21.466743034974026,16.101627419450228,9.429026519663207
753,20.914404105387522,21.275941798382934,15.53411552327779,8.99071678642684
754,21.229315989108823,20.94353746765486,14.852565889144296,8.45277035649675
755,21.38451086009008,20.48564002622447,14.07211768319739,7.826667776247505
756,21.306278872623654,19.93301728735996,13.219003312745562,7.140699405825611
757,20.958820872940315,19.31161865782247,12.325214631134296,6.4402096921051255
758,20.40539830732286,18.633040213846893,11.431752694607201,5.737077394782715
759,19.5779781885187,17.90501640660893,10.544044137624692,5.130516407613789
760,18.488293282768723,17.15505197285219,9.687467271279914,4.6979586225722105
761,17.205255369881847,16.42021805842428,8.89566504655465,4.4877034787146775
762,15.832134587278897,15.736622701423045,8.195161896683379,4.4958260390009785
763,14.483586230336433,15.133279361774095,7.60003115290682,4.671474786904918
764,13.262603788933122,14.631198561091136,7.11496174000144,4.951013083108841
765,12.237473786534162,14.243373618578458,6.737445811628578,5.2842969989432
766,11.438434939629078,13.972386873401266,6.461446496401272,5.6329487531568265
767,10.875259380964478,13.80935652518855,6.278101848615328,5.952852436610429
768,0.004954108505514726,-0.029091617150780097,-0.26883104208703834,-0.25096668978185793
769,-0.1754384194598308,-0.17391309115557552,-0.6601527743247251,-0.6450632958529632
770,-0.48129040034772286,-0.4192582296868558,-1.236443259108539,-1.2501819020045144
771,-0.9404441644760071,-0.7864589599876215,-2.0064750087808676,-2.087529466822194
772,-1.5656015361527496,-1.286443971024199,-2.963728130626569,-3.1398232500602123
773,-2.3463440756636653,-1.916718906869895,-4.087125703180859,-4.3581787468873445
774,-3.2578030075259536,-2.6664802041677196,-5.342681806233254,-5.685359963107875
775,-4.279302013514577,-3.525511500429452,-6.689114475015433,-7.069507651745255
776,-5.398109283992346,-4.4875406527215524,-8.087187405656413,-8.463358446609954
777,-6.597460718750339,-5.548411277437085,-9.508698051401996,-9.82048938650645
778,-7.85387922231036,-6.708452500056187,-10.947039455495256,-11.112852539569676
779,-9.148614501233462,-7.973547332368869,-12.39144546224591,-12.326447697157292
780,-10.473567009441089,-9.348399493224747,-13.831842354421523,-13.4576097218455
781,-11.828143320943076,-10.827884608717868,-15.257947984673125,-14.502826847918469
782,-13.211438007979615,-12.400051279755646,-16.66234070639854,-15.459382487296303
783,-14.608160963211278,-14.058047931305838,-18.042344466611105,-16.336430977302232
784,-15.992689043683882,-15.800989888096034,-19.399450858042233,-17.171405513851816
785,-17.350682239021527,-17.624606928822413,-20.735298745720133,-18.015509218587567
786,-18.688554722766376,-19.515295665217252,-22.048307302911063,-18.90222274427327
787,-20.018232601007742,-21.44957098072669,-23.336147674028357,-19.838244277303655
788,-21.3354718151646,-23.395677574201418,-24.597011784949775,-20.822755631067245
789,-22.628716070575635,-25.313272268497336,-25.82536893627549,-21.871194443730385
790,-23.89653969429234,-27.161332329313126,-27.008209525592818,-23.001838462349607
791,-25.139971520414726,-28.910682557382064,-28.12543516265807,-24.198761683362463
792,-26.34480365118815,-30.542563020892448,-29.151345158020977,-25.401771976413663
793,-27.474396514998183,-32.04314168727901,-30.054642663167307,-26.535907154416897
794,-28.490393996056255,-33.40494567500889,-30.804371943597104,-27.54822908538481
795,-29.37868060590539,-34.628503586610705,-31.381221552475456,-28.408157493394057
796,-30.149003357452205,-35.713776615199244,-31.777196470578126,-29.08297651047536
797,-30.809153706956117,-36.648938717205226,-31.984541489164325,-29.53733097635503
798,-31.336396568791475,-37.41257458618586,-31.997383352342915,-29.754649927052984
799,-31.690253758333327,-37.97768031753804,-31.822639851462988,-29.74486097811281
800,-31.852926755864647,-38.30696242924754,-31.479032657341357,-29.528284017854094
801,-31.834399328579916,-38.35747437617382,-30.989645755317987,-29.112650026255363
802,-31.63879762852148,-38.09720129081853,-30.377367514781625,-28.497104039408946
803,-31.245640086502632,-37.515364243906966,-29.661695336971086,-27.701520035629443
804,-30.631179895238837,-36.62441690707392,-28.855094074308543,-26.77017806060286
805,-29.79806466125775,-35.45849736628065,-27.9614634294516,-25.74647779333438
806,-28.772495969964957,-34.06865554483835,-26.980156267772657,-24.648491698748202
807,-27.58044467608442,-32.51083590681723,-25.90929176535547,-23.47077809089106
808,-26.243177998721656,-30.828724620761555,-24.747686791011514,-22.21446562889652
809,-24.785413498941274,-29.05350055798618,-23.499390992991597,-20.902862659256467
810,-23.241962054573975,-27.217422536134368,-22.177892770754287,-19.56932159091258
811,-21.66006854434595,-25.353305955422176,-20.803547343105745,-18.238226835296963
812,-20.076570808262236,-23.4857168380048,-19.394450284109624,-16.922353907764027
813,-18.49853987646056,-21.633894478705965,-17.964770495904887,-15.633146210128007
814,-16.92634030459241,-19.823824696851513,-16.53312187482127,-14.38461290265754
815,-15.38581334173534,-18.092108486605117,-15.123669957377622,-13.195655662353232
816,-13.922790705508877,-16.469372111923228,-13.757303013615376,-12.088146636581978
817,-12.567729554064721,-14.958895454188447,-12.449029003439682,-11.070243744295095
818,-11.318746683276334,-13.543783763188825,-11.211629869683417,-10.119361574553068
819,-10.165667364982,-12.215256625191373,-10.05567701649207,-9.197784065490561
820,-9.121394515580162,-10.987573844360979,-8.987619789171292,-8.286239530506508
821,-8.214169884649305,-9.894119462146044,-8.009183385087349,-7.39115146069936
822,-7.457530103052641,-8.972322866287564,-7.119299403492616,-6.535420207172113
823,-6.8412603285372535,-8.242338420183842,-6.315587071765788,-5.752183316794662
824,-6.3378845119369025,-7.706202098946518,-5.5984615213658735,-5.086062544522316
825,-5.907690668077893,-7.366934911050572,-4.977839491514303,-4.5959417610542985
826,-5.504036238498274,-7.2305379210271505,-4.471109687460162,-4.337553745439334
827,-5.074881197451108,-7.2905451597171425,-4.096753672219764,-4.339910067813949
828,-4.560186163039602,-7.515744155935868,-3.8713524925524947,-4.597216653503902
829,-3.903248076809364,-7.85899060084338,-3.8080852648105545,-5.079953712933905
830,-3.0727445965408906,-8.275833769960315,-3.9115382267374486,-5.754943892031432
831,-2.064004407673478,-8.727695119059481,-4.170245831589734,-6.585660419959042
832,-0.8877066404824492,-9.181981000299213,-4.553267316714023,-7.515013830867057
833,0.4357049554867579,-9.620546009974898,-5.012690733976429,-8.461450860068316
834,1.8864213450169067,-10.046923510556853,-5.491818102847371,-9.349333923977591
835,3.4392140873447508,-10.470337402981745,-5.937829486841812,-10.143962535970411
836,5.04853401250514,-10.878089987311794,-6.312897135633076,-10.838267269622893
837,6.657891458201149,-11.239363688915349,-6.596014798713332,-11.40912267772835
838,8.213775649925829,-11.527346563140437,-6.780372971456314,-11.807641255168024
839,9.674213724027346,-11.729702325730646,-6.8700525487697535,-11.991643789809926
840,11.010505684580291,-11.846631662576264,-6.87609871703157,-11.948419693815724
841,12.191482372673653,-11.882559320679194,-6.812117469849675,-11.685715939301637
842,13.168463176767416,-11.8383555080468,-6.686683735383726,-11.213263408612892
843,13.889833968504055,-11.714068958483237,-6.502460967806452,-10.542629626908221
844,14.33264684917669,-11.518223391584785,-6.262660375063465,-9.704216959320043
845,14.50728512826614,-11.266103598464051,-5.972002889413587,-8.747605536938329
846,14.440255099862116,-10.9679433408674,-5.634357278332972,-7.722940310645307
847,14.164074487406277,-10.616273821249976,-5.252142548365619,-6.666260477463801
848,13.714037598148481,-10.189650308054826,-4.82590086690003,-5.598651685164286
849,13.126301224340722,-9.670617470072774,-4.354132470600305,-4.5316502904156675
850,12.434128940747417,-9.05417175412638,-3.835799515580825,-3.476288304100893
851,11.65322880993779,-8.347979479931452,-3.2719121102710225,-2.453259407605251
852,10.777676194305002,-7.571594109171867,-2.664642294354279,-1.478744018938959
853,9.807025892315535,-6.7525246026271635,-2.0171095634371983,-0.5536192972542655
854,8.759611020619255,-5.919055501824814,-1.336820487561958,0.3162920439554814
855,7.658080460549386,-5.0992510550758885,-0.6397376923353707,1.1043615079189484
856,6.50945671683387,-4.326844182264569,0.04778235753764502,1.7687157652746013
857,5.301698432973115,-3.63659225301336,0.6873900279752319,2.2718799834286827
858,4.029419571678349,-3.050836466982248,1.2378911102602028,2.5943450645376616
859,2.7111312321466157,-2.571656383386074,1.671051020511513,2.735712273155301
860,1.382004405447452,-2.1870223001896782,1.9780082764608138,2.710260093823008
861,0.07003321360632725,-1.8870567934091442,2.1672665395262305,2.539064410326107
862,-1.216090639728887,-1.6663834364153223,2.2589556383039295,2.2460593791845707
863,-2.474473899134498,-1.5163596760731954,2.279364336630948,1.857031232568225
864,-3.7011383404180753,-1.422071202946082,2.258597503245273,1.399736998109202
865,-4.88162714379844,-1.3597498617116865,2.2248161964068944,0.8979487007280764
866,-5.993900694261221,-1.300794527155593,2.193190724565896,0.35651431645311715
867,-7.032982997220067,-1.2237341178178984,2.160112019121135,-0.23766146343481856
868,-8.018385748778675,-1.1245229480007453,2.111588444799698,-0.8902962775135036
869,-8.971421350717465,-1.0123229126726563,2.038661469615708,-1.5861737225182602
870,-9.89912429910287,-0.8922429109712824,1.9406356006544363,-2.307726502921695
871,-10.797082777429063,-0.7634361292324224,1.8177155349355758,-3.0474247396104923
872,-11.647255992724787,-0.6347930610406496,1.6685445078174959,-3.791930315487976
873,-12.406745710972997,-0.524178204602475,1.4953514386807791,-4.507941753834856
874,-13.00270948914312,-0.43833484602870576,1.314361433299117,-5.1446852996802255
875,-13.347471536807008,-0.37320392759522825,1.1502531817131059,-5.654581430832336
876,-13.366418156142096,-0.3326031298587283,1.0118802324663245,-6.016925242367326
877,-13.01493291550852,-0.3250251064565226,0.8914647531629027,-6.231717933638441
878,-12.278168588067329,-0.3471635858765391,0.7850562865067938,-6.2928514216421565
879,-11.156635206830964,-0.38411917410621504,0.6988486752825747,-6.1800545029711085
880,-9.660143498002178,-0.42277080573842607,0.6427456132760567,-5.873401252820759
881,-7.823356743119742,-0.45498985487809984,0.6241997343776977,-5.365940426171441
882,-5.719595286110461,-0.47314158793431094,0.6481056665977518,-4.665095164033651
883,-3.4486518334345884,-0.4661808119869044,0.7223768793444675,-3.7838738725335648
884,-1.0982371149076817,-0.40977369475272596,0.8581488276350755,-2.7357922975745494
885,1.2764037746419246,-0.26560175490379034,1.0606220805438884,-1.5429818321433446
886,3.625265410518173,-0.01936745295821382,1.3016766709012948,-0.2783806631802842
887,5.91784874769052,0.36706684659857536,1.5944136280202528,1.0342282823888602
888,8.092422667775512,0.8859957649870039,1.9349413635194748,2.350422665411565
889,10.07991994214498,1.5095685229848637,2.310630180494481,3.6205073640585015
890,11.818816491200367,2.1974252313409792,2.6999563698451983,4.788473585073766
891,13.265421539936003,2.8903339994567703,3.076454832992393,5.800936231115413
892,14.399806761820486,3.523919747764189,3.416951888326554,6.6230424609540135
893,15.22763200795764,4.056988383862844,3.711134606450237,7.250531414372907
894,15.77814779962917,4.47400659117285,3.958986460521072,7.704204217698104
895,16.09867105267456,4.766972276493059,4.156509329837807,8.008116741477053
896,-0.05554289547454855,-0.27266602215992325,-0.4511562614195686,-0.23931224423629288
897,-0.34428170975243455,-0.756732316610055,-0.9785314529983014,-0.6175091989501948
898,-0.7969639864603617,-1.5137526308948364,-1.7181836563492956,-1.2007605278745714
899,-1.4379865901195337,-2.5742945875717775,-2.671066917425221,-2.0254739462724083
900,-2.284786233817399,-3.9401895375665887,-3.821422625415798,-3.103336073004078
901,-3.3426987680422964,-5.5819591275105935,-5.138616253500025,-4.422455035620734
902,-4.600708247215687,-7.442728758894631,-6.582378599512553,-5.95646902410222
903,-6.034458808793835,-9.448326935686476,-8.109783320205741,-7.666976134660746
904,-7.620572115212504,-11.519116953801015,-9.684915721436628,-9.500499155058158
905,-9.336664926523692,-13.585103587652025,-11.294003553697479,-11.396831761351766
906,-11.146387823658888,-15.609173910105898,-12.962515230623616,-13.311424322393558
907,-13.000989009503723,-17.5644019100851,-14.70340838998109,-15.209067287073434
908,-14.853220705353015,-19.43645639000745,-16.52011492542424,-17.065305952306883
909,-16.667795108228738,-21.205190006228328,-18.39547111118209,-18.845368134950423
910,-18.417196798182253,-22.84622942661446,-20.29446578477122,-20.50511423859096
911,-20.069694703652438,-24.343988101093114,-22.180310078837643,-22.017158024591563
912,-21.592148726760662,-25.691986201198652,-24.01815584916145,-23.383970608385166
913,-22.96693028038629,-26.885387827797743,-25.766268312439802,-24.614221363404468
914,-24.20148290495575,-27.916849279013512,-27.374258227791938,-25.682655267783677
915,-25.30196012287972,-28.775079420893785,-28.789810518490555,-26.5257744460382
916,-26.235762647357344,-29.44522069308542,-29.96970070425171,-27.080704697309407
917,-26.940984255564715,-29.915341687274157,-30.890730149353885,-27.311229297127408
918,-27.36406893588737,-30.185450878395454,-31.55128358574889,-27.20713655615196
919,-27.48092686218438,-30.2637144507969,-31.965499312815375,-26.777593698112977
920,-27.288591520172833,-30.15035774072732,-32.157457968659536,-26.045827559477388
921,-26.782465545001017,-29.838362682836184,-32.155542744401394,-25.053199643639594
922,-25.963790593447612,-29.328635360699263,-31.98737478880389,-23.85915073242843
923,-24.87128122919686,-28.63292467656843,-31.676044635621853,-22.532248149611114
924,-23.582480476883987,-27.766776289467092,-31.23728279402371,-21.1384225449166
925,-22.173318641941208,-26.746590972485933,-30.67867813762436,-19.729186517888316
926,-20.685690832608575,-25.598395978202237,-30.00255031220073,-18.342519953867686
927,-19.14274301854583,-24.36036804473879,-29.20991637293974,-17.009300864802597
928,-17.581302520258326,-23.070422833200805,-28.304508807596754,-15.755544618941366
929,-16.05528289138451,-21.75803167499586,-27.29823782733521,-14.599663045339211
930,-14.613077226923421,-20.442488451692462,-26.214817169067114,-13.55284651641847
931,-13.282523761384345,-19.135029104542575,-25.09144875316474,-12.63431910606697
932,-12.085973487023564,-17.84717429627134,-23.97787254548697,-11.884037749804172
933,-11.068580567383526,-16.598224342298845,-22.927998043115252,-11.35114268936369
934,-10.287071276523353,-15.413663995580121,-21.985698593041967,-11.064605737409476
935,-9.760970139867126,-14.314061406978336,-21.17513182311549,-11.016621815330765
936,-9.457891216383693,-13.309527250451067,-20.504696405258354,-11.17223944732523
937,-9.322725473138167,-12.409589274505255,-19.973730480027815,-11.487977466963788
938,-9.309123576151295,-11.624803583321304,-19.575235761272396,-11.924325148192485
939,-9.387111978496124,-10.954265041198527,-19.298505860961345,-12.441378098472521
940,-9.527740777554214,-10.386985954511841,-19.12761473006865,-12.989985280697521
941,-9.69940680705539,-9.913064476353608,-19.040020258502533,-13.51697776869149
942,-9.878911949006794,-9.529970422680671,-19.015040603446433,-13.982836926089144
943,-10.062595452223484,-9.243796655987193,-19.042909929778975,-14.373469876936097
944,-10.265138019430843,-9.058307210672375,-19.120459121189572,-14.69025575338905
945,-10.503905123981035,-8.96695954838548,-19.243778285436548,-14.936508166848022
946,-10.78500315753475,-8.958372591338357,-19.405630405339995,-15.11568989492837
947,-11.09244775266919,-9.021617040374506,-19.593086720367484,-15.239213344678724
948,-11.394812521434108,-9.144621418224931,-19.788166003450268,-15.329482909534079
949,-11.664996927533982,-9.307734304639197,-19.971006354825846,-15.402688114016401
950,-11.884226637794303,-9.481995399051437,-20.12323751227361,-15.45352608802303
951,-12.036915520045259,-9.63512042867448,-20.232620140208237,-15.461719817922258
952,-12.111928198628846,-9.74302576899196,-20.2945327029747,-15.411537330026018
953,-12.105102095764218,-9.800796791490523,-20.306766740562175,-15.301971236752285
954,-12.0127212116394,-9.818257597789332,-20.261392620087765,-15.138640322205786
955,-11.820051581851267,-9.801756939617091,-20.143679788889308,-14.917599325638554
956,-11.498909324695072,-9.74511698334273,-19.938212429412857,-14.61327315094501
957,-11.016401134203182,-9.636903321607804,-19.636738032668234,-14.192180456168773
958,-10.346972797832485,-9.470903976175363,-19.24144177283468,-13.632764728707231
959,-9.477829270159145,-9.245944328843631,-18.756219216980625,-12.92541257550874
960,-8.406911375987548,-8.957536522193031,-18.177658827560872,-12.064137137157777
961,-7.1385413292811615,-8.600964719017757,-17.5002054388508,-11.044811442027068
962,-5.686576561000009,-8.18487228841529,-16.729583616200156,-9.875610208702271
963,-4.079740232402052,-7.7357827365242935,-15.886630905059715,-8.583150027732842
964,-2.358782895805365,-7.294203534506685,-15.000657094646508,-7.208504293987885
965,-0.5705383413580183,-6.904826517433693,-14.100771134345674,-5.80054308869832
966,1.2475815071751497,-6.600471593336367,-13.20644439829447,-4.413562241345271
967,3.074226087995026,-6.397507486106932,-12.32757660151103,-3.109971754332937
968,4.884480960550044,-6.302952459885556,-11.474720995482679,-1.9542546110011785
969,6.633651450332413,-6.313357194007239,-10.65844347786117,-0.995114500166138
970,8.258144983822866,-6.4073612065791705,-9.878775099368102,-0.248319101486742
971,9.686096820400538,-6.551464810042393,-9.127285553951294,0.3001889529697821
972,10.85241550351965,-6.717135868246277,-8.398482154841801,0.6731553065704392
973,11.708026093273771,-6.889821463182065,-7.6950783550423605,0.880019260683491
974,12.21995317626801,-7.067469973465998,-7.024346185384605,0.9120713881133182
975,12.366358094531257,-7.2574723624547905,-6.400219957653084,0.7639696111093389
976,12.135772640747463,-7.473271645735442,-5.852188133405814,0.44772509429488583
977,11.5358067537778,-7.729856892142759,-5.413718138740437,-0.011871768474866373
978,10.6035643942038,-8.037769138640272,-5.099270029994228,-0.5890113921270282
979,9.402778218009948,-8.397204552274106,-4.893688508942552,-1.2682122105583347
980,8.00315508947338,-8.798259604622402,-4.750818260042759,-2.03567451194085
981,6.455931890490178,-9.221833563034858,-4.5998271859163085,-2.8650984449655916
982,4.797677393276825,-9.636319142404792,-4.357714827706662,-3.7160344826691825
983,3.075487282441661,-10.009280066356059,-3.940949605896049,-4.540055152351224
984,1.3460801899355812,-10.326315876699248,-3.274727199735298,-5.288876193603568
985,-0.3366380902843816,-10.586950214358195,-2.302315299002697,-5.9194467038392276
986,-1.9230144119834713,-10.79078418133906,-1.0001638710215008,-6.394668221726056
987,-3.366440365071334,-10.933160326468645,0.6173838628787562,-6.683404116149281
988,-4.618012641729181,-11.005961944878052,2.5179074795750926,-6.7680370414997375
989,-5.635728111205477,-10.996308749222367,4.662538769892501,-6.653813532886723
990,-6.405474254190867,-10.889270617497075,6.996534371975496,-6.361597009672194
991,-6.94727549525507,-10.67439413890277,9.44447247380574,-5.91046637464553
992,-7.295885401089137,-10.345638962104427,11.919543902366945,-5.312171616785762
993,-7.47449790817726,-9.901774002692884,14.339152403090633,-4.588521912829293
994,-7.495613758261818,-9.351004637270062,16.62863024050145,-3.7914376801599388
995,-7.3779830232376025,-8.712273957075585,18.71456648033137,-2.9814146795790086
996,-7.153478300600992,-8.006839021111743,20.53331869657879,-2.1827808043405734
997,-6.849330876774328,-7.247173230405473,22.044238935434652,-1.379682896768204
998,-6.462380347025894,-6.437771156505389,23.22872794000006,-0.5435755870282263
999,-5.972274472695144,-5.5835082343147935,24.083443574185843,0.35035215833227373
1000,-5.3769160043546735,-4.690108752604127,24.618495174351732,1.3152964198665311
1001,-4.701302200268471,-3.754129615258917,24.859357451490983,2.3471586059829956
1002,-3.9751351728856115,-2.76826004442264,24.844501112670187,3.4257333227756672
1003,-3.2093583405740427,-1.7430537063963174,24.618104160693722,4.522093319580248
1004,-2.4031376307744834,-0.7115039381232626,24.217859425260347,5.597966500074105
1005,-1.571537109200682,0.28143214139596956,23.657777401454307,6.598454334223566
1006,-0.75782892260631,1.1904371044204802,22.933811524317164,7.470789839277365
1007,-0.0044704275092334045,1.9798531036394968,22.052897575893773,8.188585805307167
1008,0.6777796425995545,2.627000783872415,21.040328463942792,8.743130543028155
1009,1.2936011714276285,3.1155488423026223,19.927730041058553,9.130020290639067
1010,1.830880095661799,3.430898316799867,18.74398647463496,9.351689894786444
1011,2.2575041001440104,3.569357678441859,17.514006858678886,9.431312858869362
1012,2.541140590727042,3.545940747661913,16.26311178886729,9.411645541277803
1013,2.6610391416530454,3.391458975282855,15.013854909788668,9.32733725715477
1014,2.632351559259909,3.1590956998271724,13.804832968288421,9.204602756294198
1015,2.3892916885473947,2.79764242180963,12.590919277591174,9.001709032753336
1016,1.9134191892236425,2.29748045493158,11.371277415011964,8.707482314285713
1017,1.2434143385006413,1.6823553670646976,10.173281268467042,8.333861859356277
1018,0.45896941031506394,0.9962268245765288,9.034294692999186,7.907891310241274
1019,-0.35626997429074886,0.2909671955559152,7.991435450256475,7.460083873124772
1020,-1.140354833723737,-0.3835631311376674,7.078009581793204,7.0175119294353365
1021,-1.852001699228302,-0.9858988526219482,6.3205521302278695,6.605896774322014
1022,-2.451392997270114,-1.486522579835486,5.736242286218016,6.2571510942428015
1023,-2.897663915199299,-1.8683920859295067,5.329045685169402,6.0006115881723066
1024,-0.05227309044682593,-0.31791017700135926,-0.44614931195530266,-0.32257349168653315
1025,-0.22079297212491947,-0.758557551367339,-0.9783085916984919,-0.6432542776205157
1026,-0.45563381400611724,-1.4023877491210275,-1.7369829596013342,-1.078656271451635
1027,-0.7611251540586682,-2.2539222421457303,-2.7223033638511773,-1.6385623958009459
1028,-1.1469415730722141,-3.303493404951126,-3.9119033483889267,-2.3120921529859513
1029,-1.6087269596270932,-4.528054659241732,-5.264814964996779,-3.070483916557688
1030,-2.1295568476662985,-5.901867261741028,-6.734209284648059,-3.890624893998165
1031,-2.6997299972745745,-7.395548179680689,-8.273258605278764,-4.760149463864094
1032,-3.3246068462770717,-8.963473934085496,-9.835996856122247,-5.661922029959072
1033,-4.016177387187433,-10.553894838550624,-11.388564956516948,-6.567763018336859
1034,-4.778028820846166,-12.137887338250128,-12.928802490277675,-7.458509866245785
1035,-5.604466101812926,-13.679746941131294,-14.437269818734155,-8.316771503793044
1036,-6.492579138183427,-15.153488942259111,-15.89543512086979,-9.133795637031294
1037,-7.4483293069997725,-16.541964061630733,-17.28558350500724,-9.897596528172985
1038,-8.472166294806742,-17.829186765777848,-18.586606821488786,-10.59185332708751
1039,-9.537886600818894,-18.99671701702425,-19.77739864910306,-11.21241570391488
1040,-10.604152657029863,-20.03312454196429,-20.850584295983605,-11.78250182501448
1041,-11.646272618351077,-20.942951330613997,-21.818065527551322,-12.336834447078797
1042,-12.662083080695462,-21.740604363970657,-22.70176668226945,-12.888445842331507
1043,-13.650585220247045,-22.438410763119535,-23.52286159683159,-13.425431708721655
1044,-14.597740702773853,-23.041348309162846,-24.300115030965358,-13.937255396225847
1045,-15.486818690214006,-23.55001478984117,-25.0525303023284,-14.435538579106314
1046,-16.318617890343415,-23.96267417325939,-25.794604488786828,-14.945797735948217
1047,-17.10993412339109,-24.270536446968528,-26.5251952424358,-15.47629529013462
1048,-17.87121124706797,-24.463859232715247,-27.228366051205068,-16.013024997292632
1049,-18.600918826604612,-24.549761187799334,-27.887552063645963,-16.54915268234362
1050,-19.296234732506353,-24.552576407752756,-28.49044514839309,-17.10380548149152
1051,-19.965162316166438,-24.500537515045377,-29.025339606036457,-17.713396693629058
1052,-20.62992593303324,-24.42429871147549,-29.48276902965768,-18.40585949141088
1053,-21.305773627087184,-24.35466717713789,-29.858321929848653,-19.185437844644344
1054,-21.987295128129528,-24.30669046070579,-30.154283680271938,-20.04026153208002
1055,-22.663952680203582,-24.27896281231946,-30.382309926922215,-20.95412642913895
1056,-23.342536565498612,-24.26879272907929,-30.559559804737987,-21.91178594292128
1057,-24.045404304585304,-24.27157538099277,-30.694758775196355,-22.887570950654844
1058,-24.78319316669483,-24.274491295691835,-30.780360776023024,-23.834776477828882
1059,-25.539713784334385,-24.261097836510793,-30.798515265788698,-24.69845079085691
1060,-26.272572152776455,-24.2144265517055,-30.72817223910052,-25.43317079724194
1061,-26.924650539508598,-24.114711920170183,-30.551672717947795,-26.01015448367297
1062,-27.442148060062845,-23.940316552323907,-30.26186976835198,-26.410472871275665
1063,-27.784398237010265,-23.673505615689848,-29.861379688088793,-26.614547037996054
1064,-27.91994426404519,-23.307572499212224,-29.35711097878282,-26.60127818554798
1065,-27.81330030297577,-22.847285592709788,-28.758593592600494,-26.358444075929363
1066,-27.433797678416042,-22.30210329147353,-28.077233919005973,-25.894517312029233
1067,-26.778942841118322,-21.68357896821522,-27.325638569028374,-25.22599869985275
1068,-25.87648058691875,-21.000646065200964,-26.519230729196384,-24.35308707024528
1069,-24.76491456622927,-20.252312524964676,-25.674971935657528,-23.263961661968988
1070,-23.47871286628133,-19.439076854466375,-24.806918173293642,-21.959104291508357
1071,-22.05486761336003,-18.58427571331618,-23.923675400437663,-20.460752105814276
1072,-20.53808806207655,-17.731893790988657,-23.028377530381665,-18.802500529214687
1073,-18.977106455615047,-16.918645271481854,-22.122141991985362,-17.020006806177012
1074,-17.41382177422517,-16.16034186719698,-21.21168982662442,-15.157105075393066
1075,-15.870707850908264,-15.46487387191969,-20.316045493731394,-13.277376058012917
1076,-14.361231961887592,-14.834368534057818,-19.462798524905498,-11.456266256982811
1077,-12.91559721117243,-14.253999348089398,-18.674265715106465,-9.758306604391862
1078,-11.589953610318975,-13.696042535684985,-17.95687354509357,-8.219800862403925
1079,-10.43465749589931,-13.133944139519144,-17.301406108525114,-6.850470543947453
1080,-9.45402979390775,-12.54964169579043,-16.691559316400557,-5.654341288330571
1081,-8.622239214508506,-11.934424521028475,-16.113481802857592,-4.640677681852638
1082,-7.929235594370942,-11.290502318164584,-15.557043702017664,-3.8159624804654526
1083,-7.3844840852382285,-10.635721330564857,-15.011388406584906,-3.166837524763133
1084,-6.982629300263746,-10.000851714961469,-14.465630453221909,-2.659855747640401
1085,-6.68855506366365,-9.418381331907963,-13.912070080518122,-2.2722803087605086
1086,-6.456494822511903,-8.920835580263677,-13.348595254741998,-2.0071296181578173
1087,-6.256794342526698,-8.542510844639057,-12.782320988607633,-1.8762768754127015
1088,-6.087553336344046,-8.300338656356404,-12.229396807085973,-1.884801098725032
1089,-5.957321832178744,-8.174799722059058,-11.708161360263064,-2.0270342460700927
1090,-5.862958258410576,-8.127998780633515,-11.237744950261995,-2.290962755633751
1091,-5.79860699539896,-8.13593641602478,-10.844893245206023,-2.6655324136430703
1092,-5.782184558185722,-8.19150755685807,-10.5583848148679,-3.1453329216832073
1093,-5.848850482984608,-8.290660976925048,-10.394048015268165,-3.7225623469932883
1094,-6.011241286093942,-8.433338819188466,-10.349280128253021,-4.370661911956159
1095,-6.240925559493487,-8.624266256017608,-10.404229660545198,-5.043614405853687
1096,-6.488415070761753,-8.865235097994331,-10.524647949210701,-5.697437580695645
1097,-6.719679128928453,-9.156227999851403,-10.67016282829779,-6.310308866769233
1098,-6.925713140499154,-9.49878737025196,-10.805296142889476,-6.877791919491159
1099,-7.09544209780805,-9.892702255061787,-10.902432139899679,-7.397484235207041
1100,-7.2097024098364,-10.328258091961953,-10.938778806781148,-7.858664513323354
1101,-7.257937613033396,-10.78486304367419,-10.901542885298404,-8.252003424081419
1102,-7.245399872567452,-11.2391663949324,-10.79740321346336,-8.58542595984991
1103,-7.188824601902279,-11.663779974029355,-10.64698633484134,-8.87343699627101
1104,-7.102363382134884,-12.017530855507477,-10.466182916997958,-9.121971018126283
1105,-6.985190000332516,-12.250260517056882,-10.253767232966627,-9.323412166408525
1106,-6.818201786847011,-12.322657174493601,-9.993017408642809,-9.460869859979052
1107,-6.580176942589586,-12.214253511868153,-9.65964474599929,-9.519600769823656
1108,-6.2604976552853175,-11.906729436131599,-9.222697859238815,-9.484465927518515
1109,-5.852024432956248,-11.377581847565025,-8.647551210824528,-9.326847135021373
1110,-5.3469565494153075,-10.619081661340298,-7.911910347517683,-9.007076756848745
1111,-4.736509164418755,-9.647276268081008,-7.017450038521487,-8.502123581550332
1112,-4.022036331170798,-8.497277115154814,-5.992500977549521,-7.823695290171038
1113,-3.230772141573903,-7.219523234252135,-4.886494605001502,-7.0073120966487545
1114,-2.4114653985998173,-5.870276558422103,-3.7564194563769098,-6.091177236954154
1115,-1.6096679882633553,-4.4993691790413965,-2.655458750070437,-5.101024571673221
1116,-0.8469375531329832,-3.144494954427223,-1.6272296833874385,-4.06827021310347
1117,-0.1305900393200611,-1.8324741627003418,-0.7045556302549894,-3.0578507065444804
1118,0.5274211296662846,-0.5840344278110622,0.09220394579507676,-2.1520358595517317
1119,1.103788485684389,0.5854291578344177,0.7629236704995819,-1.4062481795018953
1120,1.5750716336977015,1.6637071289323608,1.3291142903442676,-0.8339795692589601
1121,1.9351445539415142,2.635598176225527,1.818318778819277,-0.4263363998455448
1122,2.1880494311045613,3.4827609042876464,2.2517076708698665,-0.16837182463774017
1123,2.325105895237146,4.188040657077863,2.644382999565725,-0.04192514033326533
1124,2.3167933842174353,4.73764176915541,3.008049865389417,-0.021354486851969876
1125,2.1360552435898614,5.117249551845049,3.348283172711879,-0.07924156394038814
1126,1.7831904052732752,5.305918664109669,3.655592183936762,-0.20400168365168117
1127,1.2727276630169357,5.284727603567252,3.9058302937098572,-0.41245318008846305
1128,0.6028545339966964,5.0517242414331385,4.07633966110791,-0.7447356813507665
1129,-0.24292375383204307,4.620819203527714,4.158487195483312,-1.237249076319307
1130,-1.2624818995931395,4.021043620085816,4.1555746691557855,-1.9043238793901653
1131,-2.4200204298921895,3.3026698568066175,4.077782373664561,-2.7404915312047113
1132,-3.662325799802682,2.5256064863733494,3.9432319772217084,-3.7269797798507835
1133,-4.946757627833031,1.7388560793637176,3.7791338581906233,-4.827336928772357
1134,-6.249603793243665,0.9786184487542974,3.6194227512048007,-5.9668634474046724
1135,-7.541080638193905,0.2772855351460562,3.503778020822936,-7.036985442678289
1136,-8.76923580262798,-0.33734662702329804,3.4766116645890888,-7.927598477316188
1137,-9.870175100804383,-0.8504291632116631,3.5733944803315403,-8.55261070458537
1138,-10.789529752722936,-1.2638141209106455,3.805861509473484,-8.867343205605689
1139,-11.492895276180096,-1.5854180493937586,4.1701316460314635,-8.86444788361849
1140,-11.945349496470527,-1.808523168243032,4.663273988736117,-8.551644289427072
1141,-12.093547605947244,-1.9114451890461592,5.282546494886945,-7.939135737351339
1142,-11.972724528201232,-1.9046861867474572,5.96062383346407,-7.121386240246428
1143,-11.407320376311919,-1.74411508720871,6.762556699082247,-6.014884480987288
1144,-10.364159008357152,-1.422909242660741,7.699813104254258,-4.625716135611684
1145,-8.895106158363859,-0.9605841430377071,8.745558544217106,-3.010554844490696
1146,-7.104795598607946,-0.3917449903283848,9.846846097671605,-1.258087297306372
1147,-5.1418033087020385,0.23745623158364754,10.940021715315362,0.517404496714452
1148,-3.180061141801438,0.8668828575002151,11.962942213509928,2.195945892245735
1149,-1.3872029510722512,1.4335291715886795,12.86137692193091,3.6765704020563663
1150,0.10874339935183913,1.893839697575797,13.596271852360966,4.890534286262519
1151,1.2383694458906882,2.228072567004439,14.147498651481635,5.801598347410452
1152,0.022135278071379272,-0.19463713248373293,-0.259127130217002,-0.08122064658720643
1153,-0.05907503119346988,-0.4551758652908695,-0.6116153297126328,-0.29069416583499164
1154,-0.18378284062075415,-0.8988015267628514,-1.1378176910447628,-0.6130820378899831
1155,-0.3834601849592325,-1.5770375941220351,-1.852267116518957,-1.068491240529701
1156,-0.7043669457396231,-2.517545089637189,-2.7523192732054644,-1.6574505066920944
1157,-1.1831167047348452,-3.7161832474598433,-3.82235701868379,-2.3677090403039993
1158,-1.8393787893278801,-5.139696710108361,-5.04139150675432,-3.2003275200278742
1159,-2.6858967476451974,-6.735330002182064,-6.386870839254802,-4.169942043711501
1160,-3.7348943257638636,-8.445755709192342,-7.835458251471587,-5.285543259419748
1161,-4.987931786642583,-10.218772684314025,-9.367506227171981,-6.5453505747512555
1162,-6.4176754081167235,-12.009816055750644,-10.977044545426779,-7.942502295847192
1163,-7.969341280047536,-13.761929807141925,-12.64659684598412,-9.468409874887666
1164,-9.586440816267471,-15.434719829729136,-14.36004476707669,-11.108553528599519
1165,-11.23032074864666,-17.01390912824635,-16.100994205530867,-12.828779603032952
1166,-12.864719328785332,-18.509876393298516,-17.85060716229659,-14.57782354486387
1167,-14.446723959075443,-19.950918770635365,-19.58910668017603,-16.307165346243014
1168,-15.949603479614954,-21.37166239434532,-21.299512409066473,-17.98280595605653
1169,-17.384782954382086,-22.801214129735996,-22.967659192280443,-19.583839766397777
1170,-18.795427159380306,-24.252046575121664,-24.58023526896445,-21.095509395381697
1171,-20.213101400549352,-25.71677513304019,-26.12769547829961,-22.506339093484463
1172,-21.629081889928738,-27.175427175042657,-27.60455620690546,-23.80569625651877
1173,-23.010209169257323,-28.600119994240053,-29.000664108868676,-24.989470964576114
1174,-24.322315409793703,-29.958528010285033,-30.292377954657187,-26.069357853698286
1175,-25.532735018345512,-31.216362004459494,-31.443362959386445,-27.051161723617515
1176,-26.59564443603254,-32.3370663413739,-32.411379808358596,-27.914820422433355
1177,-27.450899653787037,-33.28515308587591,-33.15381810327466,-28.626168231706952
1178,-28.050940571330564,-34.034085294161564,-33.63660877899408,-29.153857297799636
1179,-28.389352652158646,-34.57913105295737,-33.84517234952405,-29.486468437527023
1180,-28.497646049412353,-34.93220619896193,-33.78423670995723,-29.632489400458216
1181,-28.418998953292753,-35.096387870165,-33.46943185440627,-29.599022542081237
1182,-28.191441323573642,-35.066615414866455,-32.92364320702785,-29.38431912731744
1183,-27.84630568581028,-34.85199245325961,-32.17873154076299,-28.990120969816985
1184,-27.416003503460743,-34.47460316542219,-31.272766572733527,-28.430902373056004
1185,-26.93257217874206,-33.95092557652015,-30.241466649858758,-27.73122199470467
1186,-26.416093979967307,-33.2853414720776,-29.11194043962749,-26.91497003127906
1187,-25.862508982734386,-32.48107923178706,-27.900598233041354,-25.998523699566384
1188,-25.238616625703045,-31.55547456328521,-26.61466807730139,-24.999595721499478
1189,-24.507978918430442,-30.543418739319858,-25.2602473645526,-23.94664003082834
1190,-23.656696101400485,-29.48720799633816,-23.853451466763016,-22.87170625565185
1191,-22.694231255374465,-28.421977841381757,-22.422904020673815,-21.789615750972597
1192,-21.64810483938084,-27.368428120869314,-21.004319793507197,-20.699435061917285
1193,-20.55412007541875,-26.334516803129805,-19.636575106981002,-19.620625592593537
1194,-19.45496750109253,-25.32199293671,-18.360164675758703,-18.606051929764497
1195,-18.405386435031136,-24.336152423984377,-17.210873249115007,-17.7111960027951
1196,-17.466368834859047,-23.381630683475816,-16.20586528324963,-16.959120736835473
1197,-16.686755489691617,-22.448502340852777,-15.339988260140025,-16.33742034672737
1198,-16.079593593254334,-21.52007015128228,-14.5976268084856,-15.828761655668163
1199,-15.620366256075062,-20.585638425783863,-13.963173127729492,-15.428303017865666
1200,-15.27042786540349,-19.63662989491845,-13.425357596219001,-15.132163262682125
1201,-14.999553739707983,-18.667430990640373,-12.977201829576968,-14.923247478336336
1202,-14.782520164887462,-17.685251719898353,-12.61500259786328,-14.76565185702968
1203,-14.58095724222823,-16.70888582360679,-12.337305176817049,-14.616840196652536
1204,-14.35693685410546,-15.760091172328556,-12.14365473465858,-14.447937445578956
1205,-14.109155514279704,-14.861795434218203,-12.031859128965522,-14.247225252627265
1206,-13.873970139775597,-14.039541470118992,-11.99180696379065,-14.008855033090493
1207,-13.687803858603484,-13.322541131411967,-12.003740671935736,-13.727486644879002
1208,-13.564464764626468,-12.738629078260777,-12.045134882650228,-13.400955180387456
1209,-13.498210600067402,-12.307297911132757,-12.099323287132146,-13.036355663855177
1210,-13.47767070347487,-12.0379658557194,-12.156505223519952,-12.653066424028356
1211,-13.49475643404776,-11.920869335105042,-12.209519873268185,-12.268796133012705
1212,-13.530253294896028,-11.915235770088419,-12.252086153560562,-11.89028654456559
1213,-13.545216938067691,-11.959459146101398,-12.279917544537936,-11.519325454679672
1214,-13.49925366488646,-12.000701762956203,-12.291983497070547,-11.156782394678654
1215,-13.37433863301978,-12.007894977138577,-12.288038526373676,-10.80405261553108
1216,-13.173070293233623,-11.959393940278407,-12.263002811113903,-10.451837653630516
1217,-12.887568045739144,-11.837537986903214,-12.203855544471892,-10.068204943829183
1218,-12.480711577643868,-11.635392939978313,-12.09233584089068,-9.606475739527628
1219,-11.904741249153986,-11.356157171892864,-11.910814123922089,-9.025460358113456
1220,-11.134253153542703,-11.002787329845713,-11.646622295863377,-8.307053185399859
1221,-10.173415750350237,-10.575227619120897,-11.293907491843157,-7.449798380926677
1222,-9.033667271711161,-10.076198713842404,-10.851153606127967,-6.457712522174751
1223,-7.721785179480623,-9.513689730591178,-10.316567472278491,-5.342435047770081
1224,-6.247719523364342,-8.902610176359428,-9.689732465350769,-4.130805819770531
1225,-4.64067712802629,-8.264894372412844,-8.976129308162049,-2.8751232473028603
1226,-2.9607476268469464,-7.624707144513592,-8.186653295811603,-1.6365169247808287
1227,-1.287189029648469,-7.0034308801992875,-7.335395341777632,-0.44532198615917884
1228,0.31438451879755913,-6.424088398174965,-6.438729073106569,0.7078918890921191
1229,1.8146953093863702,-5.918359805036157,-5.514827088082851,1.8410925893609407
1230,3.2074061375341767,-5.516263922692271,-4.584546344408238,2.956094229521276
1231,4.486433842490623,-5.2265992462492425,-3.671164809256254,4.043586696785005
1232,5.637898603815547,-5.026551933418131,-2.7972904633560653,5.0963806988685745
1233,6.6443558266668035,-4.866890115429921,-1.9829642855991592,6.107383085118776
1234,7.493015459432797,-4.692251482923567,-1.2461960283875115,7.054995667212359
1235,8.168080788239886,-4.461015300804095,-0.6052093313170969,7.899095873520129
1236,8.645052415354458,-4.156379201148093,-0.08022933062815604,8.591399425250085
1237,8.904853162639919,-3.7899545744091547,0.31009970230394734,9.092282707664122
1238,8.946632651538813,-3.3931666246013212,0.5541105419040703,9.381601307283127
1239,8.791023420036678,-3.003869396064279,0.645423429396776,9.445141044852104
1240,8.46980705518981,-2.6646277094172977,0.5774850307836596,9.262097837483578
1241,8.00975274073388,-2.4204764215865318,0.35150807069597517,8.821398604004242
1242,7.428497597056649,-2.302552364357626,-0.007230695050316482,8.145552866638743
1243,6.751579267295221,-2.3149050426033666,-0.4518889416592252,7.2888930990462795
1244,6.026561238178763,-2.437030312283489,-0.9331616067599605,6.30422075845424
1245,5.299946994459513,-2.631017311597239,-1.411726293968291,5.224157249776616
1246,4.583517679326818,-2.851269443143458,-1.8578720977421557,4.078060852959647
1247,3.8564685377990977,-3.0597584224976377,-2.2482122131684963,2.910078284359452
1248,3.097953201990134,-3.2346637703315535,-2.5671711510182793,1.7761712845752367
1249,2.305040447040885,-3.379107988254381,-2.809219745771091,0.7247642437083555
1250,1.4865527600257686,-3.5292750993650372,-2.9757415693517415,-0.21464843153287055
1251,0.6514503540613527,-3.735587743624238,-3.0686603546517968,-1.0300429653584493
1252,-0.19262795247627584,-4.0321374526178975,-3.0845366218012784,-1.7183999613467404
1253,-1.0271269553632427,-4.4202837289540176,-3.0116124735285124,-2.2719314486865434
1254,-1.8214946566865775,-4.865145127216132,-2.833807156215573,-2.6792197998395015
1255,-2.543258600744196,-5.304794084682229,-2.5383362731747674,-2.9408424017661465
1256,-3.1634264321516734,-5.663181662418129,-2.1175520375986534,-3.071458539634501
1257,-3.6577748983021197,-5.860234587514921,-1.5650700056619344,-3.082113036578452
1258,-4.005028301654134,-5.827708931720536,-0.8770163878597222,-2.975343283378948
1259,-4.184377668909382,-5.534989961193356,-0.06246251615243892,-2.761830153496954
1260,-4.175517233722495,-5.0060275424432605,0.8522661585477108,-2.464575634658411
1261,-3.975577888856083,-4.3027414696846105,1.8307336246559691,-2.1080060739366453
1262,-3.609555589176106,-3.487435424353231,2.8355843536663263,-1.706688281623252
1263,-3.1074212930312286,-2.601550795475344,3.8349434228185126,-1.260609069693543
1264,-2.4825574972942777,-1.6693303601138247,4.802918509653653,-0.7620866487476594
1265,-1.73403204600478,-0.7088758718161693,5.718951561016361,-0.21138949661837775
1266,-0.8645585559193604,0.2673286937391117,6.569434174874069,0.3684059433777636
1267,0.10075039270107486,1.2574908959619715,7.347488712080382,0.9383436904158561
1268,1.1084142357110176,2.2666093352542793,8.050024149601917,1.4652263243813624
1269,2.0931452957606216,3.3001424987185155,8.676536977981879,1.932652432747948
1270,3.0298256332153355,4.3649254528411685,9.246099060861887,2.3570411313757846
1271,3.8369198021152937,5.44537654637933,9.717127174018295,2.66133555325861
1272,4.458445953826623,6.497971727221691,10.0675146279681,2.8069075519629654
1273,4.865134384092739,7.47072315241053,10.290781556511995,2.792826237165645
1274,5.05745042817328,8.317454596958365,10.391494302737643,2.6439059791115835
1275,5.065312321632934,9.008338512742348,10.382182736098505,2.396569567589507
1276,4.936299230085379,9.538662964027198,10.28373904578885,2.0917070384721046
1277,4.719234828073014,9.929195863130694,10.126449745299707,1.7724531482949069
1278,4.46194735213785,10.210509408954882,9.94540883437522,1.4783656914375398
1279,4.21945829119359,10.400851890885148,9.772500251141034,1.2381506477341733
1280,-0.3880740308367885,-0.5525917391557154,-0.39821859529497505,-0.3838383637136611
1281,-1.1269533745674,-1.1451960962772667,-1.0444232938569336,-0.9865146556107836
1282,-2.2571168976978484,-1.9646505149881714,-2.0157414292943447,-1.8920987131665057
1283,-3.7998506256555693,-3.0122958923725767,-3.3261901097633793,-3.1253686321613925
1284,-5.742345716591409,-4.27457618545509,-4.953055305976093,-4.667832422172257
1285,-8.0242155379252,-5.718419841077897,-6.838888603611496,-6.458925096015156
1286,-10.540511674619498,-7.295537544338873,-8.902179932687044,-8.413964094842946
1287,-13.16440188734371,-8.957907733243982,-11.049144841941944,-10.439037260006918
1288,-15.775964432103356,-10.66637440859536,-13.187214613983127,-12.443511713378903
1289,-18.282092294168013,-12.39308215153341,-15.244201666113431,-14.353000377546673
1290,-20.63413438228516,-14.134207655537056,-17.19366172059277,-16.12396079276093
1291,-22.776860343759022,-15.856625743355732,-19.015431812568718,-17.717002531066928
1292,-24.680145626451043,-17.522758109814053,-20.69843159788968,-19.11619493938325
1293,-26.347677450859578,-19.09380890865552,-22.237043723970988,-20.321216995170694
1294,-27.78723207833019,-20.534257914848027,-23.63057381194559,-21.337979410800525
1295,-28.977558364259878,-21.819499692896095,-24.87805012873727,-22.175882027079084
1296,-29.88112988162214,-22.932339369491558,-25.974991786415146,-22.848379077415245
1297,-30.473778422159203,-23.858269791134738,-26.91395849730506,-23.37646912202102
1298,-30.75631078495308,-24.595557538685807,-27.68906035339155,-23.782450856760512
1299,-30.751251733696577,-25.163772886678363,-28.29971995577301,-24.077572308663946
1300,-30.488430385828973,-25.59753489289895,-28.751445658518488,-24.257633610045758
1301,-29.99153197041362,-25.936946284036235,-29.05675986732859,-24.312910123671475
1302,-29.286209261021707,-26.22410683411826,-29.233769677284585,-24.24212368902256
1303,-28.410280750228036,-26.49321359616302,-29.301152850549663,-24.048140603366782
1304,-27.413692788906886,-26.75354310814484,-29.27562994505451,-23.731285319516214
1305,-26.34479672247077,-26.992394719128125,-29.17303799048661,-23.29523778758458
1306,-25.230223227006114,-27.196297971498954,-29.007857129572198,-22.758350988434213
1307,-24.081815490069005,-27.360411088098886,-28.792035361762643,-22.16469316089634
1308,-22.914440832629065,-27.481168706559085,-28.536310656399525,-21.577040330427675
1309,-21.75083590405595,-27.551872958444175,-28.25228273837491,-21.048270573273832
1310,-20.610168352559825,-27.569940085903113,-27.952778005655944,-20.6022545037862
1311,-19.497939334489175,-27.543317687005935,-27.651498849215404,-20.25056410959404
1312,-18.426848465569513,-27.490116439862497,-27.35993371309728,-20.0155857975946
1313,-17.427799354299125,-27.434469782085053,-27.080051256428018,-19.917409321125458
1314,-16.53194484904092,-27.395478101179418,-26.80293480921374,-19.93937346818125
1315,-15.75582377618078,-27.37572491467114,-26.515047987426055,-20.02478367315409
1316,-15.090036367625723,-27.35880910684947,-26.204209219701696,-20.116775316994104
1317,-14.513635218275935,-27.31858252110308,-25.863292302717163,-20.19444176141934
1318,-14.02894071272311,-27.233805001008097,-25.48980116976751,-20.266153119499325
1319,-13.660552061218185,-27.09147318640666,-25.084524940226267,-20.340759350511526
1320,-13.418620048134361,-26.881715045868983,-24.654266988357385,-20.41888582254598
1321,-13.271883007041401,-26.604605105154143,-24.213918281417428,-20.503165134867785
1322,-13.16315445104266,-26.279393267559172,-23.782354017944883,-20.603547029273646
1323,-13.051856784839384,-25.931015760601205,-23.373530517095674,-20.72978810563049
1324,-12.925047533191922,-25.56868315985346,-22.988462751731504,-20.870928953348212
1325,-12.76517026289453,-25.185380101176122,-22.612298063066337,-20.981302236345723
1326,-12.528850783595173,-24.773762382978557,-22.217573856904018,-20.99729500530889
1327,-12.166337165637069,-24.333430391774183,-21.77194102592067,-20.865814640786546
1328,-11.655390534160626,-23.865526788880157,-21.244801828685077,-20.545637019725138
1329,-11.008214748126079,-23.366478356748573,-20.608482158214706,-19.98639252730516
1330,-10.244224099444445,-22.82435673505033,-19.839328608687545,-19.135776071694437
1331,-9.366965674306366,-22.219332850622624,-18.922794666291182,-17.975295819107146
1332,-8.371392489582353,-21.532232106192815,-17.858610658019227,-16.533641446922392
1333,-7.265046223784739,-20.756963872138346,-16.665855807824798,-14.86741511448964
1334,-6.071039065993528,-19.898463803290586,-15.380184290757674,-13.037604958182067
1335,-4.808520779889322,-18.959129354003018,-14.042127613479833,-11.103892423089313
1336,-3.487904618824804,-17.938420543876965,-12.689867856368721,-9.12597471174989
1337,-2.125109944097073,-16.842881747687468,-11.356185269902324,-7.1645265302776275
1338,-0.7575300823423176,-15.685983367756487,-10.066903095685813,-5.287326548100366
1339,0.5490899515721112,-14.478149009469702,-8.84414524043581,-3.559056964580923
1340,1.7185170884146315,-13.227801330659684,-7.708388880564054,-2.0183920642454654
1341,2.6857360686949834,-11.954038563696663,-6.675570357871558,-0.6736360713158674
1342,3.4063553982333685,-10.684977989168372,-5.755601144754516,0.47238408640988055
1343,3.8493105576277893,-9.445642185534743,-4.95395226597186,1.3997542843406736
1344,3.991245611866359,-8.258679097954595,-4.273851601630168,2.081755271063904
1345,3.8312011590620343,-7.152569778446638,-3.7186622671537988,2.499234791364741
1346,3.3998740896415804,-6.163628741281078,-3.2941905045681508,2.645476987184043
1347,2.7546192477821045,-5.328796447243675,-3.0089098072569502,2.5265958767546133
1348,1.9597681054211469,-4.670264202041551,-2.8672920978572565,2.1581457259175134
1349,1.0644781631936182,-4.181743536017501,-2.8605387178290935,1.5674007358172568
1350,0.09820629238109138,-3.8300318014218395,-2.966353255173057,0.7970753289845466
1351,-0.9145655830995315,-3.5741012308467894,-3.1574337768819523,-0.09443465848611896
1352,-1.935700107412406,-3.382833361470488,-3.4105473398836534,-1.0417744062051029
1353,-2.9202289129756616,-3.2309821012358264,-3.707551845008831,-1.9881085024336715
1354,-3.8427473899878284,-3.0874755106699423,-4.0286992680580775,-2.887670252085199
1355,-4.706702609361083,-2.9243141913775217,-4.352384645271984,-3.6936143800602053
1356,-5.51488982489517,-2.735230715968114,-4.66281203366846,-4.357448585368374
1357,-6.2414226363926,-2.536775445229564,-4.953132108770769,-4.853414377120124
1358,-6.848157989564561,-2.3549268697883434,-5.2239039195246155,-5.195324604098075
1359,-7.316695771355592,-2.2120139821855713,-5.479714747134709,-5.415956122036178
1360,-7.6520728926133685,-2.119360309729251,-5.721370463623496,-5.533049132390472
1361,-7.858230939305969,-2.0728742718845234,-5.938862914762457,-5.542889556884791
1362,-7.928834814649005,-2.0521342596485783,-6.111447222200952,-5.43668666028683
1363,-7.859430657507634,-2.025241097366587,-6.213333234048129,-5.208913352274285
1364,-7.653342154674274,-1.9570103553423535,-6.219625729543361,-4.85609585452599
1365,-7.312706889571206,-1.8171885228717082,-6.108526820763354,-4.364142386149142
1366,-6.8210483430861935,-1.5853416092787773,-5.861349678494736,-3.7039060708380447
1367,-6.1430409245116655,-1.2525840238884791,-5.467806436947118,-2.8519087007908386
1368,-5.248356816933618,-0.822449149397337,-4.934288785470486,-1.8076269341501066
1369,-4.136055611905746,-0.3182859262037587,-4.283859824985411,-0.5972755248229105
1370,-2.8346138446365554,0.20885872086771445,-3.5502134601673943,0.7365063831473109
1371,-1.3702238660025858,0.6921128227968677,-2.7720266736914545,2.148221416299647
1372,0.26003075783474144,1.0750536494818803,-1.9863117130701295,3.5922169179691923
1373,2.0642022440763674,1.3320319536651681,-1.2214450221724626,5.017001435850443
1374,4.012928224879805,1.4683003298913027,-0.49379739533522454,6.360044990728201
1375,6.037107612279686,1.506483214343652,0.19200566993138238,7.565440677479296
1376,8.048884529239274,1.4810876265647137,0.8416591611041784,8.602614432860985
1377,9.962324137671814,1.4360970718495467,1.4661337264475738,9.457171899659812
1378,11.711681638448843,1.414491864041009,2.0721202611073464,10.11466534870273
1379,13.251710052153234,1.4399749360471974,2.656026476282588,10.552390000781317
1380,14.545954565826579,1.5043384134681277,3.206388629400307,10.748508024667068
1381,15.55879598754707,1.5765980999840017,3.7086953205267035,10.69970646034735
1382,16.26015756254702,1.6147191141999797,4.151998466268191,10.425641871063828
1383,16.639836940570152,1.579422737190335,4.524997947209278,9.956988086912263
1384,16.712605576469898,1.4617649258151475,4.803982098922058,9.322953713461944
1385,16.505898508973367,1.2853237929019516,4.964824119834265,8.552634572205234
1386,16.04474767934334,1.078965390040798,5.001653288136876,7.68485280791105
1387,15.35989528161463,0.8592865786603212,4.930203182660699,6.7791927566454895
1388,14.514691171588392,0.627088010531301,4.788723289260712,5.902254015256509
1389,13.589870867885038,0.37448360193629326,4.636252992200495,5.100412918063933
1390,12.638372667555975,0.09378799712729613,4.545333064502269,4.402460358880755
1391,11.68773910260034,-0.22843127860115858,4.591978109017939,3.8345107589473413
1392,10.769198652666493,-0.6216024988351743,4.84394926561809,3.4173890081057334
1393,9.924396864831214,-1.139804491975635,5.351359894737467,3.1487443629901977
1394,9.216968023628507,-1.879261076133153,6.137151561464401,3.0278595964136032
1395,8.754297271789527,-2.975607673590448,7.200102686822981,3.1276608396689642
1396,8.678379533778788,-4.550041051392439,8.53573367045185,3.6146132795359076
1397,9.12411392036684,-6.646376571093625,10.1312610442059,4.673876620360143
1398,10.027121053459808,-9.289327256211157,11.919987446748774,6.28279836608673
1399,11.62575844488129,-12.265348903997587,13.857213913041043,8.653095872129015
1400,13.949904328062788,-15.333894877737832,15.852155928444137,11.777506023629554
1401,16.87749409115666,-18.268402782306406,17.807700362981837,15.499343267097778
1402,20.19647119634982,-20.87559240900065,19.638032587273564,19.56879808510084
1403,23.651947431559925,-22.991381732263587,21.26416302398044,23.681342846320312
1404,26.970459241007582,-24.500516037524132,22.621667845490634,27.515068383650387
1405,29.881452740732446,-25.3723799575323,23.673379657724205,30.784166806900483
1406,32.16839692116227,-25.67370340657372,24.41228650653329,33.29911220967135
1407,33.73890899042409,-25.55572234278696,24.860897072596586,34.99513589800419
1408,-0.8261417890090463,3.816091151862846,-0.234109296815165,-0.7600541406811511
1409,-2.093983178840175,7.222248086071975,-0.5766265127642285,-1.963782526792662
1410,-3.6546052715563566,11.687120893184485,-1.0803955177023719,-3.4694500365560264
1411,-5.360867546031985,17.33605675871057,-1.7224838515524297,-5.192844037940743
1412,-7.041534606664061,24.36101657904736,-2.4952586637345915,-7.031467143777897
1413,-8.522851189597995,33.056328558372975,-3.3973086291600514,-8.874944054159089
1414,-9.650631201331962,43.826425873008134,-4.386710665201974,-10.652620871929347
1415,-10.312473660326356,57.15682099636316,-5.363830267147314,-12.364150869764718
1416,-10.459767735782883,73.57419541065984,-6.175487694494461,-14.063037899218356
1417,-10.129195991967988,93.61791532831683,-6.639986285643299,-15.830518435305265
1418,-9.46217706795951,117.8412973045493,-6.591904642155561,-17.774891780499743
1419,-8.662357221255448,146.3724862190444,-5.8834611522305496,-20.00344472113137
1420,-7.890386871409003,178.97462649157367,-4.410708734347674,-22.535933665427876
1421,-7.20156997522563,215.0489199337292,-2.1205456515327663,-25.236536388557557
1422,-6.5631424381801295,253.7119982037605,0.9881940136013037,-27.83661072957548
1423,-5.924271371608201,293.9520023207796,4.873478227713238,-30.042912538666855
1424,-5.268242716036552,334.8599797702881,9.461894554298725,-31.63915366738166
1425,-4.597216445266808,375.7289227261412,14.659665027881044,-32.51523765325449
1426,-3.899713566760334,415.92080959191827,20.35716949112876,-32.626192204438816
1427,-3.157128582273332,454.80812093885095,26.43720344745357,-31.950695613168723
1428,-2.349330890679489,491.87673751996715,32.79930167651877,-30.499595327220845
1429,-1.437717391574242,526.7643627785599,39.39182663462418,-28.3387819794827
1430,-0.36891010583212747,559.1870788842053,46.19692568559489,-25.58030834179662
1431,0.9031059316634804,588.9138286269217,53.166501959830576,-22.33869617916694
1432,2.3938756422219374,615.8007393013456,60.20445488403764,-18.702451616477525
1433,4.085193205520015,639.7840193235642,67.18911277739012,-14.746884886846216
1434,5.942188017405527,660.8446025870202,73.99005837264284,-10.558485361626875
1435,7.918313323092921,678.9761102586983,80.48187885899908,-6.237293463623626
1436,9.948721458428935,694.1578190344114,86.5479805295227,-1.8817949604005122
1437,11.94538274431076,706.3317664786581,92.07537933221144,2.425027194244979
1438,13.815876984230453,715.3906120830479,96.95537680673995,6.615530135525215
1439,15.499728196854775,721.1726022936838,101.09115365128989,10.620752553054126
1440,16.964113366275402,723.4514307928816,104.39287316885665,14.355820381824218
1441,18.173935580541983,721.9442073216277,106.77161036199404,17.73286108767321
1442,19.093045344162626,716.3533216686601,108.14973109608829,20.689690801845426
1443,19.696416601184026,706.4099368018408,108.47376181624126,23.19382150154645
1444,19.96186240525664,691.8956577772392,107.71382782682396,25.22158882378818
1445,19.861077514372056,672.6581985752636,105.85378218891259,26.75089578376233
1446,19.36028286779033,648.6296327844848,102.88828856871504,27.772928777154593
1447,18.43619473870841,619.8255037936798,98.82237808101358,28.29874104951808
1448,17.102346869497637,586.3219619890224,93.67009911550764,28.358260503993165
1449,15.41480777226839,548.2426021812234,87.46007518858057,27.995071830093874
1450,13.457634638473017,505.77511695592744,80.23308213495,27.248336319812786
1451,11.322061354280356,459.18591761626175,72.0300752692651,26.13815727635863
1452,9.100873072593988,408.81068706373424,62.89263144721542,24.67689314545654
1453,6.8972758798654805,355.0534652638619,52.87387015773834,22.880273536841354
1454,4.80837821601468,298.39160656735515,42.04106423578381,20.758918693517693
1455,2.905346505840019,239.35590687529114,30.47152168217441,18.31022084221945
1456,1.2308808143979832,178.50191697959107,18.256279102905967,15.527641841495303
1457,-0.20067348186842734,116.3986670754023,5.513862714919714,12.420739643302278
1458,-1.393584988444392,53.61932483151119,-7.602503951538843,9.019853069226327
1459,-2.373460869992759,-9.288269645651123,-20.91627366416453,5.366967994561967
1460,-3.190894379460906,-71.82763551021299,-34.24239046044519,1.5090180128256367
1461,-3.9107554542838683,-133.54287140244776,-47.391949767702165,-2.5075967931441467
1462,-4.61697531563264,-193.99525782379388,-60.17239546504082,-6.631797437706906
1463,-5.414839975734084,-252.7686226771893,-72.39524981076066,-10.796227324781798
1464,-6.406048756148966,-309.48058228103156,-83.89242921194516,-14.916539596748517
1465,-7.661157797599799,-363.784389964741,-94.52915586433325,-18.909698111730865
1466,-9.212553125555507,-415.38038395996756,-104.21028421047157,-22.720600353720435
1467,-11.06426297722523,-464.02178770321194,-112.87974531791151,-26.316512404087383
1468,-13.204440262915657,-509.5084823297737,-120.50998046344745,-29.660708055813128
1469,-15.595319392348436,-551.6825051853235,-127.09084958292183,-32.7116571077503
1470,-18.148735508628572,-590.4273368445753,-132.62554535953237,-35.43759843973846
1471,-20.73742961764449,-625.6644239152745,-137.13053092060497,-37.819059360397745
1472,-23.245039480887883,-657.33381795826,-140.63405168740329,-39.8391340722459
1473,-25.61774075488915,-685.3716572492931,-143.17483998826495,-41.478092406681846
1474,-27.85380683117308,-709.7197326044892,-144.80743821440447,-42.72031300644883
1475,-29.939993774628952,-730.3582708644062,-145.60620454029396,-43.572865826640616
1476,-31.84421948195907,-747.3223908006514,-145.66111867302104,-44.08116303634145
1477,-33.55148314409647,-760.6970763827452,-145.06999960404826,-44.316638149645264
1478,-35.07040915699007,-770.6066465197871,-143.92950669468576,-44.34458459495308
1479,-36.40831094901677,-777.2032934938952,-142.32738948159928,-44.20990370825526
