,TP9,AF7,AF8,TP10
0,-0.11089597120216005,-0.28428831665384663,-0.4489098408025716,-0.39381394414392606
1,-0.42855386560868275,-0.6581522970622622,-1.0775547450674225,-0.9604488880237525
2,-0.9295441921204679,-1.2171089972895621,-1.992717244488258,-1.7884329560087928
3,-1.6467115508417098,-1.981494495389154,-3.1940644004196868,-2.8907280309874084
4,-2.60647809517057,-2.9539843914020554,-4.659839183346197,-4.254151819552499
5,-3.806252472716873,-4.119483981454795,-6.351354581955347,-5.844830902232835
6,-5.212804354786902,-5.454248779495203,-8.216840399633632,-7.622800386524012
7,-6.780059923375553,-6.930499778179316,-10.197252007941236,-9.54707648804995
8,-8.461388716526852,-8.516831253473239,-12.234715765612208,-11.571455153099144
9,-10.21236924971548,-10.181404539746364,-14.286634927779557,-13.645191025383111
10,-11.991705205096185,-11.904089226568125,-16.348042200964763,-15.735866748865815
11,-13.75266803609995,-13.650034684327053,-18.40882257027727,-17.810736510208493
12,-15.472756387910975,-15.383479065946334,-20.45960385796633,-19.844685621023338
13,-17.150748888365158,-17.068585650297898,-22.484882375866516,-21.79994457221425
14,-18.774140361511385,-18.668735314190467,-24.462069483887852,-23.62010523669165
15,-20.309219843872796,-20.14768379195979,-26.364102690401108,-25.25460886898404
16,-21.72249158835402,-21.474887504318446,-28.165677313543735,-26.680710257702252
17,-22.99695902958689,-22.62893448458169,-29.84514876432236,-27.90095003903544
18,-24.130420772272455,-23.596740772697245,-31.38329487890817,-28.93284036869422
19,-25.116654421787853,-24.36991471024482,-32.76704517309491,-29.797320710973878
20,-25.92824630272766,-24.943243281671634,-33.99140962356545,-30.51434459536385
21,-26.526012436770856,-25.31948738369898,-35.054481930786494,-31.106672322006002
22,-26.885403666239785,-25.51172317628946,-35.9557628068835,-31.597463415531223
23,-27.006952762748703,-25.535557820437464,-36.696974538490984,-31.994570938488454
24,-26.902876505639494,-25.40498193275068,-37.28041123704064,-32.27746831502289
25,-26.587620555201298,-25.138517112359466,-37.70824222192202,-32.40495135363829
26,-26.080621268590917,-24.76302335011202,-37.980842133511345,-32.33422692438394
27,-25.412086536989435,-24.311506317679438,-38.09424787020915,-32.03322007818072
28,-24.621637912315013,-23.813547563182123,-38.04105793095131,-31.48042820240854
29,-23.745780607241525,-23.285956182791573,-37.812405658122074,-30.667427000139934
30,-22.816144857631727,-22.735513214113183,-37.39939597480912,-29.60609496688249
31,-21.86815908160541,-22.16656497536255,-36.7965749900766,-28.3391227460528
32,-20.943736822583613,-21.586173838415046,-36.00625445445076,-26.944912158606588
33,-20.087930482135878,-21.001086144567676,-35.0361539436768,-25.514389656893393
34,-19.33793462891362,-20.410326365457028,-33.89507754590472,-24.12308572545178
35,-18.71125660453192,-19.808501055979704,-32.59782781373736,-22.818225481185493
36,-18.20511219985818,-19.199602702745246,-31.170128554384252,-21.626961530360063
37,-17.809198413130048,-18.605972724265442,-29.644699353179227,-20.574449755152763
38,-17.512886494099096,-18.060107403585096,-28.054420528386522,-19.674597742254765
39,-17.301079120155958,-17.58524691061029,-26.42886581504815,-18.91107568139616
40,-17.149223602004966,-17.183744078889315,-24.79550571970337,-18.241835498663583
41,-17.02277889884445,-16.844024064008863,-23.179456784419823,-17.62429359990048
42,-16.89169099412853,-16.5516005936306,-21.598309348871016,-17.035529369728273
43,-16.7464135479412,-16.292801902373686,-20.06053629770755,-16.463051759534988
44,-16.59615195078243,-16.053619411559914,-18.567744887225214,-15.884222894664392
45,-16.45261537003492,-15.815107977365344,-17.114474236767848,-15.264817201566057
46,-16.31640944246902,-15.563347974740275,-15.695239621371444,-14.5802826783854
47,-16.180029184264406,-15.305209521355932,-14.317618509843122,-13.836352066657946
48,-16.04195920972361,-15.06305597982129,-13.00260058745314,-13.060455422726639
49,-15.914029396959062,-14.861767979159035,-11.775161760917044,-12.274544558853965
50,-15.80573731497443,-14.721126772913033,-10.660554627802052,-11.487764236525264
51,-15.705193664694681,-14.656352726963418,-9.685271690413554,-10.718425105272054
52,-15.588420018036597,-14.678067611605675,-8.87275334050313,-10.010822205605654
53,-15.443326078906013,-14.779878588574505,-8.2346879094309,-9.412901432512744
54,-15.274600980126772,-14.931014166415657,-7.7673671525729935,-8.933368460148241
55,-15.085936170362805,-15.08618084858525,-7.45477091892639,-8.539215716187048
56,-14.865282699925485,-15.201505241695118,-7.272490851048847,-8.191567809771755
57,-14.586301612198278,-15.242476786630647,-7.189598920144638,-7.861605883361469
58,-14.222768391867712,-15.18030495940188,-7.171021350622312,-7.5241559494563495
59,-13.761080924602698,-14.985697103654903,-7.182732347871194,-7.151253621601245
60,-13.191011548476064,-14.632396009591307,-7.1967858941077045,-6.712466009524705
61,-12.493274952145889,-14.108140852151607,-7.191810451571549,-6.1809318986035215
62,-11.645310164083481,-13.42269373611601,-7.153870588695436,-5.545002140065569
63,-10.640314665673433,-12.603859929107527,-7.077780921469008,-4.816786311871244
64,-9.501930759837826,-11.676793730249539,-6.961788447649544,-4.023572251419369
65,-8.267347924968263,-10.653783383826571,-6.80287477256936,-3.1963452946805893
66,-6.962006583465082,-9.547104950995122,-6.595625585677611,-2.3626451257586747
67,-5.602855003894712,-8.377617592795882,-6.331805195516502,-1.5439759847942118
68,-4.215577610209814,-7.17038709494062,-6.000918218505283,-0.7583800217110672
69,-2.8349486742681718,-5.945186485940647,-5.589651697677228,-0.012952894145736082
70,-1.4867474177231776,-4.717238945352716,-5.084509989893846,0.6994688490677912
71,-0.1816497201881912,-3.508623362636705,-4.478989913340122,1.3851410331097744
72,1.0727257868562747,-2.349917269931589,-3.7783984571143465,2.0423169653279984
73,2.2591589557730276,-1.2738633238124446,-2.9991638206147377,2.6658830822932185
74,3.346960575259708,-0.3116562813292262,-2.16719031163299,3.2517697879224423
75,4.297611138107608,0.5091962856489042,-1.3152002970444934,3.7998796091295746
76,5.077159658957314,1.1681246690962066,-0.4768034043098235,4.308986570684474
77,5.663682780957115,1.6523117258332665,0.3180675469313407,4.762554387969365
78,6.040603397926723,1.954687426246622,1.0456550805471698,5.118851510718805
79,6.1918780108112275,2.078471064664639,1.689898429878785,5.327097304526163
80,6.103804667926946,2.04417217512169,2.244920224941019,5.358941711054273
81,5.78347247945187,1.8823462047423785,2.7140362729434355,5.216404357855675
82,5.277981703996736,1.6170530810260586,3.10081272755522,4.911542683174792
83,4.65246872395357,1.2647436825024159,3.403918227619569,4.447755802086378
84,3.963066579848439,0.8459681342442595,3.6216188547987813,3.8262545179521954
85,3.2528294716654553,0.3856318182066888,3.7584077361010513,3.072137198407326
86,2.5539953288748265,-0.09518687431199917,3.824508385304473,2.245090064180333
87,1.8928717206550674,-0.5790626822483081,3.8327192404451584,1.412024188925188
88,1.2860747765539897,-1.0461169091509033,3.7998283830328585,0.6144426925753991
89,0.7294758362142374,-1.4745160171376424,3.7460102532496626,-0.13095992689558988
90,0.19738122791433044,-1.8458351702068847,3.691039692536218,-0.8158228094989388
91,-0.3360930206825837,-2.1448998803889134,3.651493444552951,-1.4317186334796332
92,-0.8698974610834641,-2.3581670720583,3.6382524099880276,-1.9750510665192351
93,-1.3795297200974952,-2.478268715658098,3.6531227924312795,-2.452372712884968
94,-1.842803560876622,-2.5092988230388955,3.6886720640267523,-2.872701094845575
95,-2.250913795056096,-2.4577578109960925,3.73387421399696,-3.23385815434334
96,-2.588537609931979,-2.3168593048229558,3.777973173473277,-3.5155390738815626
97,-2.8074825010948823,-2.0736694751547238,3.8108658031186584,-3.6896911176130276
98,-2.8448775149761616,-1.7238341681361646,3.8253997450837787,-3.731936174489733
99,-2.671720338374349,-1.268541896230362,3.8208449973321468,-3.6231433365161774
100,-2.303225322167811,-0.7117830995970765,3.802758677565421,-3.344545724950664
101,-1.7675400487005875,-0.06477945942571256,3.779373362740959,-2.876849602211037
102,-1.0860519271617768,0.6529953616829238,3.7596131369619807,-2.2184196283549724
103,-0.28007306221159145,1.4139675119295163,3.753343354394187,-1.4013316631968742
104,0.6134436838378007,2.1860604669711106,3.7718032818981158,-0.48116740905243316
105,1.5355577899608543,2.9392110093579467,3.828085197302839,0.4955860909039999
106,2.42866768968631,3.6510728240935695,3.938041014612571,1.508508582068083
107,3.2637319539778877,4.314298755855726,4.119592292455313,2.5491411497100573
108,4.033282374467495,4.932443130251475,4.385690972970866,3.6057530092462176
109,4.728486919727326,5.5052729014636075,4.733234953563571,4.656615249761062
110,5.334134244331247,6.030233305399417,5.144355274673404,5.675181571845497
111,5.850397420774787,6.512203267706341,5.5984018894727745,6.6432832792782985
112,6.306102271335279,6.955730760202616,6.075999114694994,7.558521765503811
113,6.734613995916516,7.350883446391454,6.557481343225448,8.423747105045221
114,7.139454272380076,7.6785716847595245,7.024540241840753,9.234300838628911
115,7.4916627250262255,7.928144463108573,7.462366706024146,9.981983672942958
116,7.754025837222188,8.096850102618282,7.860512261110989,10.657702698219545
117,7.896554820681033,8.17932898770414,8.21374132106042,11.249621569875455
118,7.927533376314082,8.19377708535674,8.531090919172012,11.755680567949755
119,7.796192335924755,8.098215097856533,8.795751731226598,12.130338158404731
120,7.48412207906687,7.887579368905001,9.001360899553966,12.360212480545945
121,7.013279945790398,7.581793980814165,9.149526401014576,12.460835534825225
122,6.442655732343227,7.208949989437038,9.244393021494442,12.457578031943333
123,5.845680241572478,6.796823181015363,9.288141561559359,12.369018759832745
124,5.281221912210268,6.371978974545641,9.282383769763479,12.208299324856736
125,4.786888389787979,5.961223537262789,9.234870210157622,11.99806364244516
126,4.391065842396144,5.597262680358876,9.16368145459452,11.776996666511346
127,4.114542192383008,5.3125912590976245,9.091224707690623,11.58868646912565
128,-0.4002203377718695,-0.4034355296987319,-0.4537176154144413,-0.29132385004618055
129,-0.9205257044451505,-0.8824081475790513,-1.0001631707427443,-0.6928921102548127
130,-1.6528383149262755,-1.5531879570539895,-1.7869015684872074,-1.2947762112363947
131,-2.601128950259179,-2.4087870174390593,-2.8148720404208336,-2.1169279433541432
132,-3.7517429331934458,-3.4257193307273175,-4.061379471250034,-3.1406888148255443
133,-5.055738680885459,-4.56548839348157,-5.4878568107115,-4.318979820286871
134,-6.43534554981063,-5.775217633226162,-7.048542476915816,-5.609600231111371
135,-7.811230886133679,-6.993985250722791,-8.694942886140499,-6.983972687784446
136,-9.12204371345032,-8.162305321105114,-10.378745377272699,-8.414568481508494
137,-10.330419246033301,-9.230964233745661,-12.064616332500682,-9.869774412513951
138,-11.425578450038165,-10.181936717924867,-13.752625788826577,-11.325304321835238
139,-12.380545188744973,-11.001896383423007,-15.429555849617214,-12.745682484900978
140,-13.18287727614055,-11.694953774840068,-17.081312907539044,-14.099887782356715
141,-13.841956202748644,-12.264674635816831,-18.69054677679437,-15.351547509838642
142,-14.375899432879566,-12.711837260606151,-20.23720364315031,-16.45760402438625
143,-14.800071363160063,-13.04773780245584,-21.70068094754344,-17.38897962938761
144,-15.133463106923065,-13.300485511212722,-23.06067618871453,-18.13753545270448
145,-15.40538622819714,-13.510091474117749,-24.2936134819295,-18.7018271215289
146,-15.650504626746066,-13.7160787277517,-25.371911608349958,-19.075662480004947
147,-15.892070957453692,-13.947552011076722,-26.272483230777155,-19.25537443679525
148,-16.137989405786225,-14.221395487328527,-26.984076006812124,-19.260554173679044
149,-16.39829659867169,-14.544000686967909,-27.508970443253475,-19.141680438379165
150,-16.700852040368375,-14.918535427617853,-27.86287854337127,-18.964594694691073
151,-17.082969201578244,-15.350481935113004,-28.071071838950587,-18.77755875237177
152,-17.566683869713472,-15.839724956582522,-28.161368746612144,-18.598203250345257
153,-18.151789842071835,-16.369487590800976,-28.158994754434463,-18.434083048318783
154,-18.822684303425735,-16.915195394985574,-28.085036120948807,-18.29597364780571
155,-19.55826484702603,-17.462283555727797,-27.956518355866052,-18.195858783280293
156,-20.33975025073839,-18.00184298871592,-27.78532545122249,-18.14130263529726
157,-21.147043549490547,-18.523064443341106,-27.576287290157644,-18.13059469215191
158,-21.950176101061707,-19.020967857738658,-27.32901766178993,-18.152165750044052
159,-22.703301724441246,-19.499259351983103,-27.04195241865164,-18.196121625458677
160,-23.358007778591627,-19.965434879463245,-26.714225027581843,-18.265243811715884
161,-23.882578738224815,-20.427003795095825,-26.347787729825157,-18.368942096896525
162,-24.26756446293313,-20.888485855163484,-25.95125684118688,-18.515518998055686
163,-24.519077037638706,-21.35081821416204,-25.5433624256966,-18.706701764591653
164,-24.644358135392142,-21.811311137545765,-25.15166207110082,-18.9384204626361
165,-24.650243242521437,-22.26108703736934,-24.805496993195394,-19.209099772503066
166,-24.550842199715586,-22.685334285437165,-24.52695779059657,-19.511310405392905
167,-24.36640029252122,-23.065962088465117,-24.32258342034023,-19.814725603482295
168,-24.115201193070614,-23.383267279628672,-24.18294347450214,-20.070463126897273
169,-23.808413275035452,-23.619659075509713,-24.09259721344862,-20.236220548908754
170,-23.449955339820075,-23.762777244671064,-24.03721712021475,-20.293620741327835
171,-23.045450053940723,-23.800549087051145,-23.99806548546693,-20.23820981126715
172,-22.610911486878233,-23.709258075704145,-23.944376713529703,-20.06487962327772
173,-22.15177952946599,-23.4552283294231,-23.8383051237675,-19.765679841147392
174,-21.637635092647283,-23.01533535497608,-23.647361593559726,-19.331240555943562
175,-21.018425404170333,-22.38767234765038,-23.348345022739704,-18.754855278275397
176,-20.258025968867194,-21.58223839297634,-22.926023955972965,-18.03811929091159
177,-19.34389720881821,-20.60833290689255,-22.37647341582872,-17.181849156084905
178,-18.268579484661924,-19.475806360885404,-21.70711108003835,-16.176165851090964
179,-17.012997130455144,-18.205090104227917,-20.930263410772085,-15.012939672878929
180,-15.56500927745691,-16.82968865992409,-20.05784782284669,-13.698645884713793
181,-13.950792722709494,-15.390615416666565,-19.098701774024093,-12.252751977597143
182,-12.234629598379644,-13.92752292439776,-18.0572287145356,-10.696003750546328
183,-10.48859329496396,-12.473428180591608,-16.935373102724462,-9.048886156845992
184,-8.76716503192912,-11.056729727069882,-15.738220701479811,-7.351929874344666
185,-7.117819535630232,-9.711426704283399,-14.47820489241334,-5.675543361768341
186,-5.60446259790704,-8.482591389944293,-13.171402208304187,-4.103602208950308
187,-4.2994551026132495,-7.41893586455048,-11.830401086532596,-2.707575861899768
188,-3.2554298012264864,-6.555458807725655,-10.465483410363055,-1.5278849885562134
189,-2.4907909279657727,-5.890392206841902,-9.088110426131141,-0.5808575927498358
190,-1.9996409533123765,-5.40883309163191,-7.706082208038741,0.12338608427312646
191,-1.7672531785729477,-5.135727102340408,-6.3278705776461965,0.5899864697051331
192,-1.7546921606339394,-5.133210937260817,-4.977805540783785,0.867211651852107
193,-1.8768182824883446,-5.47654611350597,-3.6959058024580824,1.0556345610591356
194,-2.0269987542027996,-6.225954052784155,-2.52651650147649,1.2753694254777823
195,-2.1257811684491736,-7.382950175209252,-1.5093956826055939,1.607107024140296
196,-2.142953327707917,-8.884346120413984,-0.6712438219121695,2.0761746600521636
197,-2.0558568440015854,-10.648625560177496,-0.010629202356570888,2.6932695661118427
198,-1.80323997018356,-12.599047470378931,0.5124135108386225,3.4913639422841056
199,-1.2595629682437661,-14.695325125939636,0.9607417160505554,4.556784407299323
200,-0.18718416273031457,-17.010839004524055,1.3947058064824918,6.059696025499335
201,1.7361203654583544,-19.68029665456985,1.8582404888646051,8.243704599292379
202,4.805263341058511,-22.76332146486769,2.3725851845849637,11.358391387157166
203,9.20465291173248,-26.188417008796797,2.9370777541011686,15.56820709540646
204,14.938435250325066,-29.742737712250236,3.5260373011707586,20.871986782319148
205,21.7762698310432,-33.084764330505664,4.09119485655584,27.060696773352774
206,29.27807105712293,-35.83746033298899,4.577824776965986,33.73430513427707
207,36.856992544572385,-37.65967726681713,4.914319973893801,40.36014694321636
208,43.83333381826318,-38.22821356797733,5.010205383670603,46.33106162064952
209,49.55689313821233,-37.26540516839613,4.814759684662162,51.05941801771323
210,53.59378011614066,-34.54111082438346,4.374574121800232,54.13182903037462
211,55.80412825847842,-29.7921028855798,3.8307677015142807,55.396810214508925
212,56.2894302789087,-22.68068235322797,3.384193364061891,54.94896519335438
213,55.30976485378424,-12.786985697657691,3.261637587912256,53.06660333135751
214,53.200537156903735,0.3931915170665903,3.6755199977257274,50.11867739148088
215,50.29839322198341,17.410064275519694,4.792689234588645,46.46388883967869
216,46.882733921433086,38.78595073755024,6.738488142227483,42.36685119967105
217,43.100366346052034,64.95341941489414,9.618986461713567,37.96411551805362
218,38.95499706197081,96.13689626045107,13.530808472785527,33.29481319214154
219,34.4234668262083,132.17209261320315,18.558973730771445,28.371099342428355
220,29.539796699390784,172.4748535507273,24.77017912301433,23.240367721431447
221,24.406443789621164,216.13713774108328,32.20410182236708,18.008139368714566
222,19.204803731848532,262.0369231674437,40.87865986094205,12.841213591350767
223,14.179153486726284,309.00454268418997,50.802525273970254,7.95914855865139
224,9.599181812520554,355.9973518351463,61.99092333753441,3.6037733362888105
225,5.728597294613521,402.16441408151167,74.47156716584341,-0.007542137624735573
226,2.7525493584862333,446.8535243382541,88.23391900892472,-2.7460101391181286
227,0.6839782770851511,489.5911828582318,103.16821597737871,-4.630802297428263
228,-0.6069187909832421,529.9931591891782,119.06987445551269,-5.800359380235542
229,-1.255514867390903,567.7245224282397,135.6815705860827,-6.4085431864538505
230,-1.3466431434207515,602.5170946097018,152.71329805301005,-6.585936181145592
231,-0.9450136164612016,634.1719713671657,169.8420277518627,-6.457573795236648
232,-0.12055346890272967,662.5550357639326,186.72377839411664,-6.137484616393584
233,1.0445991347310362,687.5897993537728,203.0046868941797,-5.701400511968899
234,2.4722641992595307,709.2508084978222,218.32264021429546,-5.182539111177039
235,4.108072445235887,727.5573030817892,232.31407228764007,-4.6061421525836
236,5.912617713317598,742.5671076773126,244.63092536284958,-4.0090872770189945
237,7.839400864743424,754.370963809444,254.96570854182767,-3.440762668383989
238,9.829055854837465,763.0872416658378,263.0719565838786,-2.9613803203593947
239,11.81320845166188,768.851871777135,268.7686490071187,-2.6310878985527073
240,13.722010509203145,771.8053593439985,271.9314082973382,-2.502905739904293
241,15.492212338282023,772.0992654735471,272.4814768370381,-2.6256486754463038
242,17.061605337051763,769.9246045677796,270.381127640048,-3.0473123749449282
243,18.364028114790678,765.526104172325,265.6376382756151,-3.80880447544347
244,19.346197295176818,759.1834385750496,258.30889488143157,-4.933669289175454
245,19.981861946664193,751.1705510751013,248.50151207264344,-6.421880171320694
246,20.375596320081883,743.52079196479,237.40184533715106,-8.165768827153938
247,20.35188574375668,733.5044680312427,223.4465801108888,-10.313837138394913
248,19.84705296933603,719.857224396737,206.27518970503877,-12.852670825940587
249,18.8911466956403,702.4424245739145,186.39259192033413,-15.660032848519743
250,17.585930984094713,681.9393031250348,164.85378719543579,-18.56782770953599
251,16.073396188995886,659.5589630469279,142.9881382691519,-21.408157813139407
252,14.500944282229089,636.7899572105949,122.17197478970736,-24.0293676088683
253,13.002014585879788,615.1748805625081,103.64119665087523,-26.299168360198497
254,11.692091627496074,596.1191084252779,88.34477644696334,-28.118216289486984
255,10.659416309081246,580.732546807155,76.84763368994075,-29.436147408724082
256,0.017578156968333758,1.505317009754208,-1.6446331755615247,-0.38439678249431186
257,-0.29166691058235567,1.3927094534057183,-3.789974682182322,-1.0810503952300303
258,-0.8585850392417432,0.17534167179249893,-6.936454863462839,-2.1734831787755042
259,-1.7561383082266755,-2.7458761621050547,-11.132392953254817,-3.71635252065865
260,-3.048597172885767,-7.9615991798881005,-16.342904797049062,-5.720831482632148
261,-4.761776610057716,-15.98320682390146,-22.45293139256129,-8.159462124712771
262,-6.877094726065958,-27.17792320391021,-29.282938367279428,-10.97637775041411
263,-9.351479145355297,-41.70874502765751,-36.614867677276884,-14.09678953575682
264,-12.136402391518965,-59.49589864680808,-44.22739349914101,-17.434578556267716
265,-15.18213661875673,-80.22313341402469,-51.94580942420611,-20.90454544825503
266,-18.43635452263035,-103.39508655211179,-59.716604105489786,-24.44860985565446
267,-21.838010081396227,-128.5015079166426,-67.43560388380828,-28.014465118393055
268,-25.34168384941914,-155.07609413649482,-75.00869430164425,-31.567090829821893
269,-28.918576442218413,-182.67319090749234,-82.34949292545724,-35.068500391754014
270,-32.52409590329517,-210.84997273032957,-89.38259756136333,-38.47110850271078
271,-36.080465225526034,-239.17731476448373,-96.04411861776464,-41.73579720841978
272,-39.50155569646284,-267.2478604112148,-102.27855116136759,-44.840784934506495
273,-42.72693661604274,-294.6845149075101,-108.03779321180187,-47.76270237976583
274,-45.721996924650234,-321.139706323244,-113.28223771835601,-50.453508219517126
275,-48.45134392816465,-346.29233938400625,-117.98018535958879,-52.84668814077382
276,-50.86569030992849,-369.8561959795835,-122.10406174897201,-54.886986873298376
277,-52.91755553746768,-391.59474259678626,-125.62809902818864,-56.544198191024606
278,-54.59163666836308,-411.32481949810807,-128.5329836955003,-57.81089949540158
279,-55.908465093063725,-428.91110542328346,-130.80820074969685,-58.698172653176606
280,-56.890950886773325,-444.2610832976674,-132.45017842380244,-59.22434013690442
281,-57.53946186401294,-457.3199510539479,-133.46352721563494,-59.40219158223073
282,-57.83888546891465,-468.06185437166084,-133.86355986374588,-59.24642461063699
283,-57.77833290282141,-476.4793034558695,-133.6737903735788,-58.79361965037876
284,-57.359750704686235,-482.5813947439018,-132.91707207049177,-58.088876231799695
285,-56.59370336067115,-486.4058890117769,-131.61159194587466,-57.1546430077453
286,-55.49959127345714,-488.0342623296099,-129.77725571375586,-55.9933888098222
287,-54.11420164304157,-487.59397879524124,-127.44203863677622,-54.61302505596748
288,-52.49599311389837,-485.25846440706533,-124.6413670123386,-53.036955953314326
289,-50.71120168629628,-481.24394455169755,-121.41526064163828,-51.29379848425796
290,-48.803497960955774,-475.78647906579187,-117.80611968200272,-49.41091898591495
291,-46.79887520655927,-469.1051300023634,-113.85621405311444,-47.41874148643696
292,-44.741346408235586,-461.3703474858002,-109.60967277041493,-45.354479755259625
293,-42.68937592899147,-452.6959083190344,-105.11801264386978,-43.26148259563285
294,-40.684231194715494,-443.14139124150665,-100.4343574992643,-41.17371101621231
295,-38.72557598127914,-432.7138093616551,-95.59867968443918,-39.09477029398508
296,-36.76889425792186,-421.3887236548032,-90.63508501519979,-37.00370028460297
297,-34.74770968667006,-409.14033729417565,-85.5661218172813,-34.88483491785406
298,-32.5988059273423,-395.96194363227204,-80.42461787029997,-32.747475865242414
299,-30.27205580606867,-381.8705207472771,-75.24967973781418,-30.615137579705916
300,-27.72642064277391,-366.9141414395151,-70.0773091967743,-28.4979694866387
301,-24.929206486564038,-351.1947783664607,-64.93612225330851,-26.388385838595486
302,-21.871903142707804,-334.8629454044004,-59.8493777470467,-24.291890177550624
303,-18.571080940299073,-318.0900206203605,-54.83740394580206,-22.242441364259168
304,-15.041898282202277,-301.04238297573875,-49.91491933099101,-20.27921639604274
305,-11.302898040606612,-283.85022291148533,-45.0877293371052,-18.420924677295275
306,-7.407004588810554,-266.5850351237543,-40.35285207411092,-16.661980364847714
307,-3.4526791505210284,-249.27003250123067,-35.70216663186804,-14.98662744701907
308,0.4340987371539118,-231.91559287852908,-31.127894932867616,-13.385180876616156
309,4.1349022635489625,-214.5367350528224,-26.627329007567994,-11.861093808459945
310,7.548204864988487,-197.1432673232012,-22.20696321354293,-10.42717717359336
311,10.572218158415277,-179.7335033558647,-17.88724098265282,-9.099576213610119
312,13.101583386508912,-162.30863813704715,-13.704469776584903,-7.894276326255449
313,15.048126889669923,-144.89524217175568,-9.702636629197897,-6.8246465255215565
314,16.374894499735067,-127.55229186675446,-5.919921123012242,-5.9003419696489
315,17.095767898739695,-110.35950540853909,-2.3792533079788614,-5.119701870676495
316,17.240502980140135,-93.39891636070278,0.9134624529215895,-4.462755875753978
317,16.85019343208083,-76.73769621069769,3.962836922497603,-3.9004552355685913
318,15.992917843157727,-60.415075422774535,6.776216813752047,-3.408294451637803
319,14.762391699193051,-44.44727004122216,9.361321392747836,-2.9659793969461035
320,13.260450604933057,-28.845490012825,11.731796338463537,-2.5424074357015463
321,11.570677788379678,-13.61803987595118,13.911803607828869,-2.0917883259263945
322,9.764346708998827,1.2304312320634607,15.929568715358913,-1.5752260111904444
323,7.933900073185474,15.68297441122556,17.804605913059966,-0.9813719668703835
324,6.182688951008323,29.694921782170063,19.54409992012137,-0.3245691717851478
325,4.590073730843565,43.21248524995452,21.15368276565932,0.38087434148460203
326,3.1997845098965447,56.199851779050874,22.64896928949837,1.1504622127679058
327,2.037664216691909,68.63245137481256,24.062344850323885,2.0309699240672474
328,1.1404931235450546,80.48302433441108,25.438394823545536,3.072581380286609
329,0.5480285842380015,91.72215565853415,26.817652404192927,4.302475168897303
330,0.2666797920560804,102.32888519392117,28.230007624945124,5.719556635073285
331,0.2537229033778793,112.30468094116611,29.700251391478865,7.313056836156228
332,0.4446309113177218,121.67360267944886,31.246193342374603,9.079081590997944
333,0.8005618162096245,130.46445415004533,32.867607377943145,11.001539325086371
334,1.3099637600764655,138.69506282582395,34.543665649471926,13.029537912000036
335,1.9514412108843553,146.36792690264096,36.2453417089025,15.088895674738682
336,2.679810527671224,153.47408508858214,37.94728826252051,17.10379919470259
337,3.4427678263014507,159.99837642568386,39.62743016559731,19.005797224878574
338,4.206864434771848,165.9168032626169,41.26255345696101,20.731584010393505
339,4.957258455876495,171.19617481718362,42.83052044266413,22.224741568585692
340,5.676711968964497,175.80947047526647,44.320588694521796,23.453534264817705
341,6.3410386683481335,179.75763816559925,45.7395327259789,24.42453634725066
342,6.9313937340984335,183.07065974076409,47.10230351346114,25.169856574439585
343,7.4433210660080285,185.7818134788117,48.41873787955532,25.717397998184467
344,7.8725470303753555,187.9194686374652,49.688751875680644,26.077717696330772
345,8.194550826891593,189.52826086436735,50.90668449963222,26.25706699001968
346,8.37653714145123,190.6819636906451,52.06814812284631,26.2729362799302
347,8.412122888183863,191.47358951434947,53.16621314818562,26.155659846824655
348,8.329494943119002,191.99396418739357,54.181269659993696,25.933232358000964
349,8.170110026086059,192.31645083778798,55.08287115889725,25.61188932888611
350,7.977321767504275,192.49900498572566,55.84243475584299,25.18193810515661
351,7.795438185460872,192.59490939412012,56.440867829187184,24.64853472199126
352,7.665124364437718,192.65447793748794,56.86512905611926,24.03841788584181
353,7.61960959613285,192.7136327071512,57.1029407681503,23.380507794164753
354,7.679267887850396,192.78167305048817,57.14609869007547,22.69922859315309
355,7.838473601417351,192.84798752251388,56.99694076328583,22.019083599759774
356,8.069979834743576,192.90016458924427,56.67332603931825,21.37247084185188
357,8.357814895629831,192.93300848437983,56.21103645730358,20.800306501532713
358,8.70944671776002,192.94746930336325,55.65398668770561,20.33966545345788
359,9.137269119021353,192.95111437209954,55.039497179792626,20.010484583593254
360,9.640317912713146,192.9666232365627,54.39261297776524,19.80747189862727
361,10.201734604634929,193.03915945539717,53.72713792320646,19.710108197662326
362,10.809741285408668,193.2256809798471,53.048307319826165,19.6980730561826
363,11.471325420913939,193.57661429718436,52.356007960791125,19.753575394494952
364,12.199943012111564,194.13540017390562,51.64898355333714,19.85366680339956
365,13.001422857762172,194.9342917971026,50.92826153268196,19.961777407998806
366,13.870168656645326,195.97754351054186,50.198177346912615,20.04317298746766
367,14.789677451499289,197.23888494931563,49.46637394096558,20.0898048199525
368,15.736183749608957,198.67153891436814,48.7438731437199,20.121138266311014
369,16.689159761088384,200.21861454918593,48.046112404016206,20.166642139498894
370,17.633552605946246,201.82035536018202,47.39377933625685,20.25016461077962
371,18.550510514228204,203.4229765746292,46.809337398663814,20.385117772399624
372,19.41192239813676,204.9851247467684,46.31124017672344,20.57508262366885
373,20.18714308729385,206.4746093515816,45.910118462286114,20.81523439402298
374,20.913487511167048,207.90723622001497,45.57974799324993,21.097472687867995
375,21.481553589613423,209.19091263736766,45.34395278063734,21.353888074185562
376,21.82444484922292,210.26419580083237,45.213397904058375,21.53695796442621
377,21.921259128451513,211.09752901541444,45.19049448547579,21.62622774540489
378,21.79510954578584,211.68510967383236,45.26561714471513,21.621657236436185
379,21.499038970984067,212.03979631337398,45.416965607440346,21.528359442760785
380,21.092663224726962,212.1893557090395,45.615195707278076,21.355802824035557
381,20.630992467989593,212.1691404217172,45.82883712701491,21.128892561572222
382,20.16762745906602,212.02180059685787,46.03005722965791,20.891473067185157
383,19.754373726209387,211.80515136226202,46.198508167958494,20.69236365045683
384,-0.2462631535852159,-2.1473475589973274,-0.32886830396552,-0.14953517712216874
385,-0.6333107874987143,-4.689235478552227,-0.8362549336487539,-0.6682626588105178
386,-1.2122312070224477,-8.279078233746116,-1.6019221272310658,-1.470827530123869
387,-2.0081583261678846,-12.896782108230921,-2.643471011643967,-2.569316537331388
388,-3.0407951744020703,-18.4262568501082,-3.973971224735042,-3.936682290432588
389,-4.308559567372936,-24.665228996095998,-5.594972736459783,-5.507956014345999
390,-5.778787041782462,-31.351993326075632,-7.477628823056576,-7.19476574243352
391,-7.396263367854401,-38.210101089120165,-9.55768154379977,-8.90916648423653
392,-9.105472407428026,-44.999787407396646,-11.742380760968107,-10.577301372498948
393,-10.8626102628845,-51.57471387283182,-13.927518337231447,-12.145923094049094
394,-12.638907653220977,-57.95142224470482,-16.02287695422389,-13.597638076008566
395,-14.388878808998856,-64.06997728926478,-17.925120058754768,-14.9496113616783
396,-16.07743809731441,-69.87515328332168,-19.54210763262274,-16.228723733567737
397,-17.690828929845196,-75.31575751894516,-20.799480378262935,-17.437628520596835
398,-19.221894157123526,-80.33456605418672,-21.64790662597126,-18.55304404616274
399,-20.650711185846134,-84.866483545357,-22.067146129221847,-19.549716414524916
400,-21.948901912070134,-88.84767497006617,-22.05966196372879,-20.41552983312885
401,-23.101569103460957,-92.22912294948225,-21.649004904590406,-21.15704631614602
402,-24.110230442712087,-94.97662763773783,-20.883099737290753,-21.788152100938103
403,-24.968534927854012,-97.05951562113263,-19.832820554968464,-22.314914623852594
404,-25.64911655568052,-98.45232196405348,-18.583091929787035,-22.742269535773854
405,-26.11576528878671,-99.14425278570447,-17.214544371405424,-23.080264251288646
406,-26.34191229837879,-99.14117692512208,-15.80266437915941,-23.341197235575677
407,-26.319947202997348,-98.46183063861291,-14.431364133631698,-23.531618686855087
408,-26.053077312109515,-97.13479324202103,-13.183693845910927,-23.63541526333054
409,-25.538872478095712,-95.2009951225327,-12.126805597209742,-23.608181646572223
410,-24.772878480482564,-92.7197121238259,-11.309550930509792,-23.40577529004759
411,-23.77184915664377,-89.77019038718734,-10.761924309771885,-23.020149427532335
412,-22.5849956179238,-86.44264241740825,-10.49125116473375,-22.47690014669011
413,-21.277735581740412,-82.82041760236005,-10.477563364689544,-21.813039551274173
414,-19.90683580374964,-78.96913547160597,-10.675978593725533,-21.071312918411017
415,-18.517555855225172,-74.95111248945098,-11.02795868088838,-20.304159983440062
416,-17.161395886710594,-70.84901488380125,-11.477373387856153,-19.570861355384388
417,-15.901644382729915,-66.75585885504549,-11.986965239085343,-18.917434551870706
418,-14.797358484439977,-62.743272097556925,-12.540187531480973,-18.35381039860614
419,-13.891312961271506,-58.85581086793105,-13.12518443049562,-17.857906300044892
420,-13.208856389638488,-55.129832418071096,-13.72807849690272,-17.406526015004296
421,-12.764430166656968,-51.60106469405584,-14.335509936378678,-16.995785752825395
422,-12.570484928116281,-48.294594210815866,-14.932524136943588,-16.631659994413905
423,-12.630289674870896,-45.21809570082239,-15.499629206151516,-16.312392773784833
424,-12.921321076367722,-42.36249479587359,-16.013645891758294,-16.020795076627078
425,-13.390154184041789,-39.70492957757071,-16.45412276045014,-15.739843907605257
426,-13.968731960775512,-37.21483081207037,-16.807287444683883,-15.473528733616424
427,-14.59414717229586,-34.862674361066176,-17.066070277313457,-15.234484024664269
428,-15.215318957002077,-32.62154662348166,-17.231799178285595,-15.009253259376644
429,-15.78447283399474,-30.460484651088525,-17.31715137638634,-14.75363798458916
430,-16.24578192350237,-28.35332582014886,-17.34825718183945,-14.431892992352328
431,-16.55334317465809,-26.297999093339005,-17.36204333339433,-14.04098457155292
432,-16.69564589340759,-24.3139941294711,-17.399026960081006,-13.60169790056619
433,-16.694571400524325,-22.42248696388467,-17.495165289005364,-13.146159414063735
434,-16.588296488463822,-20.63930139379052,-17.675359479645365,-12.709870124610038
435,-16.415698475029814,-18.982648187625745,-17.952319590703883,-12.334056695189487
436,-16.21471645024112,-17.466162190679096,-18.329759046053933,-12.064222445952256
437,-16.021868280801186,-16.081955698075475,-18.801546183655503,-11.936896609868944
438,-15.864676973670017,-14.798177414777713,-19.34678955711108,-11.961952695853777
439,-15.75289296664924,-13.572498049255723,-19.932883286644813,-12.116755248659938
440,-15.680371121415167,-12.36300573946052,-20.525146122924316,-12.365023338203587
441,-15.63878963241196,-11.123036337415192,-21.09346619836476,-12.677534279964076
442,-15.621448484735684,-9.808017066634864,-21.61532399385369,-13.039341306792807
443,-15.615887880502937,-8.398729021215877,-22.075704941353546,-13.432771645589444
444,-15.600368908659588,-6.9082877975340775,-22.46280089976048,-13.820276540021665
445,-15.544917822107564,-5.3741674404072155,-22.76313817688672,-14.165521564221253
446,-15.417601093446633,-3.853406377588978,-22.962217365888968,-14.457589473475025
447,-15.204151615517302,-2.4137028197607426,-23.047717154361806,-14.701002791330653
448,-14.912845456958822,-1.1077203983911483,-23.01029664888096,-14.891049788158158
449,-14.550894565569827,0.04460260203893743,-22.842731056125835,-15.008368662320036
450,-14.114563591147975,1.0448348589485303,-22.540644220027197,-15.031481952091765
451,-13.601705969679415,1.9003516000064895,-22.104917566869986,-14.95151061888633
452,-13.024920340795207,2.6170621261612745,-21.541393112124496,-14.781077744368785
453,-12.412151108152223,3.197331874007236,-20.857199553485145,-14.546302396430653
454,-11.790083064481296,3.6404984945768097,-20.0607035062643,-14.268883333157484
455,-11.168178890234973,3.941346656864699,-19.168501366726257,-13.950722840909744
456,-10.54036069037073,4.093500812686234,-18.20662580387092,-13.587684651915504
457,-9.899773636309037,4.093003018882725,-17.20295219898911,-13.197520784820183
458,-9.253949384456103,3.931819819866461,-16.182070562424506,-12.804038419312981
459,-8.624596819283237,3.6088958484031086,-15.160583397715504,-12.400752847280518
460,-8.031539323796695,3.164954590396205,-14.144339012681145,-11.95258392599628
461,-7.479981017391449,2.674749787951356,-13.135430715247914,-11.431618555951289
462,-6.963765088761813,2.199530516771123,-12.141465929989163,-10.83406834389428
463,-6.48231341014127,1.774183785250677,-11.176742304179644,-10.163777569226355
464,-6.052630781587019,1.4249082838335139,-10.258172580730179,-9.42558017643722
465,-5.691915605771547,1.1775130955641364,-9.403144159801416,-8.63621254005834
466,-5.392406255086469,1.0485015665493687,-8.629500396911638,-7.829219065053316
467,-5.129362692043364,1.0381679693255996,-7.95471438924337,-7.050952494748405
468,-4.884101897752128,1.14388841690788,-7.391660703462855,-6.349499899726299
469,-4.64693705007532,1.3755598604719959,-6.948347363831623,-5.758695344347423
470,-4.406874498144953,1.7570148932883976,-6.633661173858177,-5.29398299404697
471,-4.148152719331836,2.3209190522702134,-6.455740122538041,-4.967668655214648
472,-3.8611687966540904,3.1022578621411205,-6.412932945415546,-4.798898652540426
473,-3.554009600690111,4.126401709266049,-6.487459603992158,-4.793986300815296
474,-3.2491422901864637,5.398285813443995,-6.647489004108115,-4.9099254260514105
475,-2.9659220907797974,6.904965957721734,-6.8541853821777625,-5.0589587352317835
476,-2.704756974496888,8.620011127004556,-7.06929799863513,-5.158821318578809
477,-2.45021576881083,10.496813134381537,-7.262083726423113,-5.157913785897614
478,-2.1852071540605325,12.477418994254192,-7.410001507777912,-5.024629347340354
479,-1.9014710511972177,14.523821295509281,-7.493653589164632,-4.736285513345258
480,-1.5912392107384412,16.62282471096083,-7.492806917537078,-4.27796170659218
481,-1.2302874610844636,18.758405997702344,-7.389400861560052,-3.6537560937556566
482,-0.788184832124957,20.89448939692334,-7.1741606367383435,-2.894406932679839
483,-0.25848852274761047,22.98279260382394,-6.848262576497022,-2.0465118654673695
484,0.3387376196352551,24.980624383043764,-6.420317702867322,-1.152223307107432
485,0.9850561348700344,26.858264367336428,-5.90190953917899,-0.23346809065793825
486,1.672801148861538,28.59237393999004,-5.30344509968862,0.7078883696831462
487,2.388693149712628,30.161414913313582,-4.630846562817761,1.6760031050385769
488,3.1054069715158374,31.546989357400992,-3.889062402641614,2.666231882655186
489,3.786654564983274,32.73585269323022,-3.090360185141505,3.667499556947303
490,4.401375707515613,33.72426985394587,-2.253349211164271,4.669757268227661
491,4.935971355490063,34.51790833561766,-1.3970015053135185,5.658658272903099
492,5.388180679183177,35.11819369251241,-0.5393287373362647,6.609132693884169
493,5.754455489332922,35.50674080064985,0.3013840695947084,7.486293617143055
494,6.029007387195643,35.65361504269972,1.1077258710116458,8.259896688217447
495,6.205924683386292,35.540753716579616,1.8662859445145314,8.920376482459774
496,6.291342214761972,35.16652135878919,2.5664567379877443,9.474969687362892
497,6.321086419814646,34.54030060344629,3.195988654848927,9.93114831771823
498,6.346184010356533,33.687049317879996,3.740882854618471,10.287697663123225
499,6.4081596822255005,32.65195592408386,4.189382863998937,10.547958794729452
500,6.53183667979403,31.49638163740317,4.532306946902377,10.734086503622699
501,6.729239376436225,30.28746255929043,4.760980909698188,10.877835557872654
502,7.0032451752545635,29.08375455991153,4.888489573366459,11.0084660040579
503,7.368821551270038,27.936108780630214,4.868698148773525,11.109194270158843
504,7.804822554627682,26.891635808931813,4.690883145022668,11.17276994421237
505,8.275500989376257,25.988745231831988,4.372892564530577,11.208401114906213
506,8.747300598632593,25.250572433161533,3.951732393112443,11.232925604389141
507,9.193898524118373,24.68062699301922,3.473439144925629,11.25247392934106
508,9.592330432677628,24.26588943428029,2.984752279183955,11.260698467131176
509,9.92154960471759,23.986103378613223,2.5288600848212934,11.252688325271302
510,10.168307472308596,23.82290000908278,2.1425568041896677,11.232786184057742
511,10.333510414582959,23.757157822396202,1.851317383142926,11.209433226242831
512,0.05985285433449822,-0.375173480706676,-0.5798017520416212,-0.17737295742789266
513,-0.1565177047109355,-0.9364678446094641,-1.3017817338643098,-0.5674657905304793
514,-0.5472413688735849,-1.7890180872108088,-2.338287689634378,-1.1578214022647106
515,-1.148857657832915,-2.9687203328143896,-3.687879915865002,-1.9600063808394774
516,-1.9830564716385926,-4.4911397208247985,-5.316056375211675,-2.957080753151567
517,-3.039873460180354,-6.350446721019498,-7.160857878917018,-4.106733269760422
518,-4.2732646666671785,-8.523769990621703,-9.143351829352751,-5.362094708734888
519,-5.614545418106244,-10.972776038250577,-11.179450709535578,-6.688152478169305
520,-6.992271247574225,-13.643204786910557,-13.19364248143647,-8.061953791748042
521,-8.345298805946808,-16.477369022832608,-15.135190852169778,-9.46519367063536
522,-9.630986738847213,-19.439179687133898,-16.99928910949777,-10.893376410925146
523,-10.830033742859118,-22.482026836846142,-18.764827277195554,-12.352527507846936
524,-11.946439993372497,-25.568394562845988,-20.416819958233937,-13.85316799088223
525,-13.003273083115873,-28.65859416471645,-21.942348093425803,-15.387553047241033
526,-14.027020869368434,-31.700780053134665,-23.32447721793275,-16.924858598157233
527,-15.027771586289818,-34.64877695147951,-24.545687752046646,-18.415886598975213
528,-15.99151252399686,-37.483585090598645,-25.59422293877437,-19.805335104948306
529,-16.897896684062097,-40.20803534226839,-26.464371597684583,-21.05263561342997
530,-17.740119321978423,-42.83251280167534,-27.155036855143646,-22.135469947065157
531,-18.516404415127745,-45.364421488207775,-27.669963149997123,-23.03869299146418
532,-19.22185865284456,-47.80057560944394,-28.01852545705072,-23.748569145421634
533,-19.85805589545652,-50.12327352928878,-28.215289971280313,-24.26524986189805
534,-20.44218766121339,-52.298093103941014,-28.278229452579556,-24.61631625776976
535,-21.002802548238567,-54.27769885874341,-28.2248261775566,-24.83621894091263
536,-21.564413100222094,-56.00897067790144,-28.069042137378858,-24.942656476786624
537,-22.13163905458396,-57.438457601358756,-27.822536072607747,-24.941850555197195
538,-22.68228631730863,-58.51982697356012,-27.497680487079702,-24.84356532396518
539,-23.176411339127146,-59.22237783058836,-27.110131514284653,-24.66636026326074
540,-23.570258953463803,-59.53338149201734,-26.67558030197532,-24.422827293962996
541,-23.826718201746708,-59.454734095960355,-26.203368347617147,-24.106967752211787
542,-23.918535656754063,-59.00437369065668,-25.697525914866098,-23.70045830828388
543,-23.829633047886645,-58.2250971233246,-25.165087795042236,-23.191094961596185
544,-23.569252175557455,-57.17890620502691,-24.618768650050914,-22.597909149340257
545,-23.18211930093896,-55.918471388718714,-24.071706909269107,-21.96218034084225
546,-22.732375792700932,-54.47133256272412,-23.532162353693167,-21.30441782735372
547,-22.267892939501458,-52.8486467520611,-22.998443515541915,-20.61223886681245
548,-21.80009337053269,-51.05542860821644,-22.46084037292272,-19.87505377513829
549,-21.31882776140638,-49.100459914786484,-21.911148208235485,-19.111727130401018
550,-20.81101490895636,-47.00370263867412,-21.34758022258555,-18.356161527993795
551,-20.26512005943968,-44.79362879821824,-20.771672244464373,-17.628215237541554
552,-19.66867916149813,-42.50012928870224,-20.185149753807416,-16.92787565587223
553,-19.004244858137984,-40.15325144026292,-19.591154318566037,-16.252953005686177
554,-18.259095620303068,-37.787415632695954,-18.993926342571946,-15.604351930400135
555,-17.444581970396126,-35.43589067001989,-18.396187701875338,-14.97864651981449
556,-16.594913412036036,-33.11751348472436,-17.798357189180795,-14.363511817998686
557,-15.741220229928864,-30.83457461572311,-17.199295331532724,-13.736473605005882
558,-14.887368754340024,-28.58142134953199,-16.599938042418454,-13.079662356306176
559,-14.019263816372971,-26.348597388989724,-16.00486602817301,-12.390582070235466
560,-13.134852513534625,-24.116991130501457,-15.416456607062749,-11.673840541081903
561,-12.249100846732562,-21.85321238436022,-14.830499279662336,-10.928843636231749
562,-11.372937340305667,-19.52175774058276,-14.239398927979778,-10.150814011601023
563,-10.49842412790559,-17.10659566163338,-13.638209184868657,-9.348347143410253
564,-9.612359476927045,-14.619039413414484,-13.028136388169386,-8.551202861056671
565,-8.718633497930636,-12.089733551808575,-12.4126312219467,-7.801285277080289
566,-7.837357163416053,-9.558811427929104,-11.78977383847557,-7.12912386871627
567,-6.988294274106864,-7.065251697941219,-11.153996814490714,-6.5406457322803915
568,-6.1848561848557395,-4.639589777362712,-10.503957975393202,-6.033890415298245
569,-5.437783561805742,-2.304579042751004,-9.845709011780917,-5.611359684180875
570,-4.757829147649987,-0.07478400976119776,-9.190155136843263,-5.277641220090237
571,-4.156475662933672,2.0500656028923903,-8.549623732554608,-5.033358786176878
572,-3.6435520184498635,4.090033839943508,-7.9376371802118,-4.871931045192301
573,-3.2232230614903123,6.0736834280795,-7.369107546822603,-4.779909010195358
574,-2.890008276280168,8.018630850306238,-6.859847777274504,-4.748246590567431
575,-2.634520369207288,9.927065822711182,-6.425675074360553,-4.784777440061172
576,-2.4464978157245194,11.793904915768628,-6.079265015156135,-4.901518145708234
577,-2.3012045604058313,13.607809458932909,-5.82816082912237,-5.096550041767128
578,-2.1625049973592168,15.34346622398913,-5.674277750955713,-5.347899760694186
579,-2.003641860736961,16.963180956023386,-5.6146375729505005,-5.6219698511743506
580,-1.816145062703204,18.43020672888577,-5.644740380727013,-5.8878697062811005
581,-1.6084540635462232,19.718360629865586,-5.757816865826556,-6.111872441710216
582,-1.4023199981193675,20.820044961786873,-5.939734406779192,-6.239802701426068
583,-1.2204270761966556,21.752474117181443,-6.16566103931179,-6.201477222062901
584,-1.065401594551389,22.547148107652283,-6.401388431375477,-5.944301482255709
585,-0.9162150150115315,23.226270197650503,-6.608398033891859,-5.457807079548855
586,-0.7505935343251549,23.79075838937566,-6.748454210609648,-4.761282882301418
587,-0.5707040803136417,24.229033317088266,-6.786865862764551,-3.881796834386203
588,-0.388382793549545,24.521875906740856,-6.698798249930958,-2.8510484716731117
589,-0.1857330065040847,24.63514408343811,-6.47650813195965,-1.7143273397025451
590,0.07499667369219482,24.534935527864114,-6.129474868546171,-0.5351321083420324
591,0.4068650781061083,24.22042343507613,-5.6787609115806825,0.6176437028807502
592,0.7852530105842326,23.725260912152095,-5.15019979522044,1.6939127767350495
593,1.17419036532349,23.095334565993344,-4.570018952502047,2.6684360097174458
594,1.5489109406698518,22.381134985772363,-3.964519105566748,3.5221314175525102
595,1.890970076231551,21.638855461420793,-3.3611590547889625,4.228328589268162
596,2.176125685969301,20.922606568248057,-2.784311157518861,4.761924107459859
597,2.374405166841613,20.276458916252338,-2.2453838037200473,5.121408649440885
598,2.4646093266753635,19.731976562901412,-1.742901684243344,5.333706772307327
599,2.4487797934421387,19.299679180536028,-1.2725879231360788,5.432364329979241
600,2.3428970752730898,18.95777624976742,-0.8330893752413902,5.437498298298832
601,2.1518492024055482,18.658489116598535,-0.42752473817407227,5.357060898000391
602,1.8700060080599685,18.352999570909038,-0.06514560930198719,5.199484635920366
603,1.5102241922524988,18.012497810208263,0.23761601425923623,4.980231615848521
604,1.1199103319866026,17.62805125777075,0.4624704875461854,4.7179727387254795
605,0.7579311096602958,17.20181562341268,0.5994320776378823,4.427618917784009
606,0.4489819101673986,16.748995049359372,0.650060236764228,4.116085247172179
607,0.17835318682058984,16.293578304244466,0.6208614220510678,3.7864222195837436
608,-0.06654518865283895,15.854430297381196,0.5172762608131928,3.4454059926542784
609,-0.2771749854721912,15.450278152721543,0.3430081930678295,3.0989684285251706
610,-0.444949393093705,15.106046389396004,0.09647591772338593,2.742407063596522
611,-0.5853756452571204,14.837107521155048,-0.23236176606839565,2.3592193580404124
612,-0.7312545178842093,14.636873824112953,-0.6525897585660559,1.9353812308723926
613,-0.9033504676817736,14.483220444439898,-1.1595561113529234,1.4747628711042289
614,-1.0967372208779251,14.348827418259669,-1.7351243748847727,0.9912341529671966
615,-1.289753774271265,14.203137352419372,-2.353263000689796,0.49355511455599754
616,-1.45653653414342,14.017883524740398,-2.98203832423278,-0.012632609965200383
617,-1.5758818374126216,13.779600886803685,-3.584815631686491,-0.5101668719463657
618,-1.6398028228787525,13.491877292488493,-4.1215657987404715,-0.9575817987836615
619,-1.649175496658646,13.166367664647716,-4.552912040763263,-1.2918611822278896
620,-1.5979731957636965,12.813701441505259,-4.846446862358243,-1.4557368398034187
621,-1.479569015875732,12.443096255079645,-4.980320153187288,-1.4287035553650234
622,-1.3011593612857328,12.067114486933775,-4.944195293651106,-1.222037867138907
623,-1.0767524081551771,11.698027904183737,-4.737918956377046,-0.8496247870284994
624,-0.8186826872065842,11.340221994889069,-4.368201829169509,-0.320498809247559
625,-0.5386918415704828,10.984094570767372,-3.849134398609038,0.3384246145465868
626,-0.2538687060252779,10.599380745928196,-3.204162649685573,1.063074370886108
627,0.014584198982112946,10.148576110854176,-2.458460298614791,1.7763615531611892
628,0.2542653362364298,9.618391336317094,-1.629560183483537,2.4292342358322547
629,0.4676133315119636,9.031218559836816,-0.7333924656388758,3.006713993953108
630,0.663950825180789,8.449730191821883,0.18941294628953942,3.5061095072796546
631,0.8736914218832649,7.8500466282142565,1.1215496306019193,3.928412592473998
632,1.1039104789656564,7.229918843465996,2.0304757030342993,4.284247956539689
633,1.3519497118381607,6.604254671839008,2.8833219225635913,4.599889819944776
634,1.6163978227699434,5.997235380310745,3.6529344762076885,4.90281024632173
635,1.9004622115287333,5.434697980668043,4.319222571417647,5.204187867968628
636,2.202781133337076,4.93858171385911,4.870229891042172,5.4930320026764115
637,2.500914749582258,4.522890800355443,5.303075443571016,5.748774895047752
638,2.7590354699794104,4.193492061670022,5.621596613091397,5.960252194646653
639,2.955238084531014,3.949618204479034,5.833481180424673,6.124388665783989
640,-0.12538328522514725,-0.5067272037280888,-0.5635869443714878,-0.37263215585831894
641,-0.4637924120653801,-1.0871669922434677,-1.28203840531766,-0.8696080001645068
642,-0.9911902256351832,-1.874714651180034,-2.3336176461685367,-1.5996068429667152
643,-1.7015036097302216,-2.854742643294526,-3.7305380913994743,-2.5731123252582653
644,-2.562412835473367,-3.997519288270752,-5.448370931362084,-3.77300816760137
645,-3.518952788277338,-5.257864403464991,-7.427849283891775,-5.15719702556825
646,-4.500331684267451,-6.580534872064982,-9.586849232385859,-6.668749811529093
647,-5.429408935331502,-7.911094577845416,-11.835405169939435,-8.249825044155827
648,-6.234315324139282,-9.204062180958715,-14.09079472397794,-9.851974460438642
649,-6.8617408916252165,-10.42967496277069,-16.293862390102603,-11.439024219921539
650,-7.294769893016206,-11.594853915890788,-18.431176001058684,-12.988762026611262
651,-7.532839307415842,-12.706624147770343,-20.471975249742755,-14.459579363753468
652,-7.594468946646516,-13.773802145946487,-22.388886336349167,-15.82227262076102
653,-7.510681707600225,-14.797666783539439,-24.156893521692815,-17.059201558012212
654,-7.3065959096788395,-15.779812827219075,-25.7516277864848,-18.147967782639494
655,-6.994858385683597,-16.729073962847895,-27.14952045554664,-19.060693482784092
656,-6.592858796364846,-17.660394920900586,-28.330814307238985,-19.774785136838414
657,-6.135074401087678,-18.590512222991983,-29.28116992817972,-20.282758511804612
658,-5.675932542926041,-19.536382750812773,-29.990939106342214,-20.593125214289547
659,-5.2861333994672055,-20.51063639987892,-30.45557251019397,-20.724154491185853
660,-5.037855381791511,-21.50795314809126,-30.678537415836097,-20.699474674753684
661,-4.986441879213159,-22.509666846988914,-30.673792825450107,-20.545748635071238
662,-5.161505154229627,-23.50990611712276,-30.463766616729654,-20.285538933677692
663,-5.569544229927219,-24.51445928516178,-30.072737396184404,-19.926667545601557
664,-6.204366174337407,-25.516283083821747,-29.52092429871448,-19.46189699301605
665,-7.043948283740943,-26.495631804741144,-28.822872949089202,-18.88083873324358
666,-8.033479213169244,-27.43752669681912,-27.991553064814532,-18.187626503186205
667,-9.094898175855583,-28.33330438322706,-27.04366221780365,-17.413362290759245
668,-10.158136400410305,-29.16933559310938,-26.000764150944107,-16.60774684828176
669,-11.181718145902911,-29.926912601691313,-24.88728019733549,-15.815470561338975
670,-12.152159969249881,-30.591631087624243,-23.728963307683905,-15.06896116917004
671,-13.0728067454338,-31.15350061158973,-22.552794486097675,-14.408828184012261
672,-13.96128400604001,-31.602671568243494,-21.388476066028275,-13.89278387317297
673,-14.845718324747647,-31.93006284726037,-20.27100819261626,-13.567638206329312
674,-15.755176362567848,-32.127705563598184,-19.236098935790267,-13.43746074981394
675,-16.70738373223483,-32.18794793784035,-18.310511023163016,-13.460669184070191
676,-17.695554237433466,-32.10605450984181,-17.510452766981544,-13.578123303213578
677,-18.692632566272984,-31.888054775244495,-16.8453300722345,-13.747941156841318
678,-19.673019117569073,-31.543379648851094,-16.316637845475338,-13.95070722243714
679,-20.627242452332965,-31.061418451181705,-15.915212748117199,-14.169790452886156
680,-21.54813703409975,-30.417863410298576,-15.623140535619973,-14.379901716995617
681,-22.40811908307327,-29.609938303494715,-15.418970900055795,-14.556198941094042
682,-23.165289952103656,-28.665614886039698,-15.281960073723413,-14.691098860501732
683,-23.797514421864445,-27.622111819245454,-15.191560442252735,-14.798529255538568
684,-24.317566527445447,-26.513973214292275,-15.125458171999998,-14.896574503371482
685,-24.741466243770855,-25.374333017527377,-15.062714310776826,-14.986352070029223
686,-25.05779811724189,-24.235448138754986,-14.98878753706289,-15.05436331256399
687,-25.239017487497392,-23.128048801397455,-14.896397158605,-15.086770835148824
688,-25.263960095211466,-22.07931191590563,-14.78170093331636,-15.072020647933996
689,-25.118751440998178,-21.105537925868635,-14.63732443480559,-14.989711639840673
690,-24.789225300031106,-20.200587738257635,-14.445380422733672,-14.808587826255918
691,-24.25953881884764,-19.34303784300896,-14.184109549009213,-14.506745560763228
692,-23.51867313833895,-18.518817863037825,-13.84547793834888,-14.081983745598492
693,-22.571370132916595,-17.725925197180672,-13.435816343759514,-13.545006183032104
694,-21.43378123330761,-16.963989948129147,-12.96364030889115,-12.908696131367986
695,-20.11516482736758,-16.228994596468787,-12.435819510663555,-12.184177883687662
696,-18.613415336884216,-15.524884991401978,-11.858575803884257,-11.390942219566972
697,-16.930977133033245,-14.873089507242042,-11.238001614241917,-10.56389177056331
698,-15.093322205341073,-14.297654364844284,-10.579895533811563,-9.744842586513354
699,-13.144637893962638,-13.808556774619992,-9.888897580470527,-8.963488057068416
700,-11.119379333581533,-13.397576841043831,-9.169222309027734,-8.228601525629808
701,-9.025258296623564,-13.03997648746055,-8.425346496372663,-7.534120742593806
702,-6.862698711064664,-12.70000420835113,-7.663410198597593,-6.873260347137814
703,-4.657997916637226,-12.339534893752441,-6.894196088907295,-6.2466652111945065
704,-2.464926481510596,-11.92296397713051,-6.134831506798008,-5.653799624505081
705,-0.33914389251453764,-11.416258327611011,-5.407687178694444,-5.091977253643891
706,1.6693695389735668,-10.786947787752604,-4.737771702827906,-4.565737186389473
707,3.5109411120568113,-10.016667340965823,-4.151371563320363,-4.093621349260016
708,5.140018091033668,-9.113234889672041,-3.6708636541250255,-3.7086303528101454
709,6.514164361692109,-8.097626855912246,-3.307318173492229,-3.4405312838927467
710,7.5870669111987965,-6.992922276008773,-3.0631048004411205,-3.2938464253320494
711,8.32192510522303,-5.829903213953151,-2.938020822346042,-3.2464939062768945
712,8.721354742927529,-4.647080074249465,-2.928631837603304,-3.2741315762014915
713,8.826136557122387,-3.483069319028208,-3.027258990530604,-3.3735259257842514
714,8.686710351098329,-2.3638580585273092,-3.2225069403070696,-3.5521431245299038
715,8.35130488827985,-1.3008372508539778,-3.50048023335957,-3.8034578635363507
716,7.8689288842766025,-0.30099509592048534,-3.8477739643406914,-4.103516044070714
717,7.286229206104469,0.6346850675631578,-4.2521726119759276,-4.427878466050438
718,6.635247534599794,1.5114916558842517,-4.701318270768411,-4.76959952545621
719,5.935015482042806,2.334016180453177,-5.1800791795705035,-5.133126893436667
720,5.198978194653478,3.108907352223871,-5.666336914348139,-5.509620402982691
721,4.426331103797597,3.845220506184506,-6.131286351933955,-5.8717733327983
722,3.6039723190487427,4.5438477477727055,-6.547372158499819,-6.187787534658907
723,2.7203846107651874,5.191199352253313,-6.896218013012305,-6.433020332922027
724,1.7740662697316665,5.77357418161868,-7.166859510211305,-6.59314270230281
725,0.7822711859450251,6.302299806294868,-7.3475997133705295,-6.658413470272623
726,-0.21006079161839197,6.808330088418826,-7.4214440998873625,-6.620542201286566
727,-1.1337006822483784,7.310577046826819,-7.367110484934669,-6.480631435976875
728,-1.9162286006935303,7.804503552002027,-7.164872989077566,-6.250869723540877
729,-2.5067530868679446,8.274386283200952,-6.804305571931304,-5.942102180743467
730,-2.875006661566214,8.706948130084822,-6.28801866100516,-5.551096757407195
731,-2.989770768257543,9.094977565819319,-5.629790171092923,-5.062218154241995
732,-2.8241063834857303,9.434312931996125,-4.849728241009642,-4.461127242599189
733,-2.3793415452602678,9.724554332114998,-3.972154180221118,-3.747647951834495
734,-1.6897291646126933,9.968543231982261,-3.0266243777976074,-2.9497213250522685
735,-0.8117214148801963,10.172581966464957,-2.045591180326795,-2.1155769912515976
736,0.19740059186749348,10.353239079995284,-1.060803526094872,-1.2881485123504743
737,1.301303328020363,10.534987936010817,-0.10527989113057579,-0.5079473993896297
738,2.487006713923296,10.734033211830438,0.7842608975073171,0.17293408250460807
739,3.744874248087011,10.944476992406969,1.5750893990943668,0.7038903480399954
740,5.045285818588428,11.142107784605384,2.249869471783514,1.060087976439635
741,6.3372961202757425,11.297856801432376,2.8051242238884293,1.2472152020830585
742,7.55910966732014,11.375569558721008,3.2396619166881373,1.2910687801545466
743,8.649533845845996,11.328962515824259,3.545814609467345,1.2207203098698247
744,9.551235832192125,11.118280950010499,3.7097694711980407,1.050088201263094
745,10.199718504435213,10.725224145924754,3.719979720018658,0.7814918462957381
746,10.534738368156713,10.151053765748456,3.575440561081401,0.42392106220726855
747,10.531185083817718,9.40806717745911,3.2877536470925928,0.0007952364706867998
748,10.2085994301088,8.515744034371675,2.8778592586851843,-0.46094908074644536
749,9.616697738291249,7.496126975133541,2.3718693182246087,-0.9457889558457855
750,8.813565079321627,6.365050525544291,1.7992963217563842,-1.4418462058982437
751,7.855945915384385,5.129287416318108,1.1932121499278894,-1.919108982410674
752,6.799729891322895,3.792969809787172,0.5882818651401627,-2.3291482865865047
753,5.694969499805364,2.3580566105342684,0.016666162100551843,-2.636652899849387
754,4.574675628968379,0.818816480403364,-0.49379412350679897,-2.8359424494733823
755,3.4532846415420146,-0.8295284751055869,-0.9176840361530221,-2.9292299858274724
756,2.3358471934959932,-2.5758470506662676,-1.2337015948131391,-2.9156244481711138
757,1.2265660820534037,-4.392565323856982,-1.4316990942408632,-2.803991712143758
758,0.14878937473327752,-6.228037436415841,-1.5488671727207506,-2.647226144050122
759,-0.8876680501183078,-8.096568994487424,-1.5388519248521384,-2.4124845698745085
760,-1.8626445795143074,-9.95850441080615,-1.3858878203151987,-2.0911165827996028
761,-2.7485778869794224,-11.742659912754727,-1.0956715277050393,-1.6834983026232624
762,-3.508793866651283,-13.375813438459216,-0.6925343606237052,-1.197130501153793
763,-4.109917475028452,-14.799842284102272,-0.21699265922629332,-0.6601804431609115
764,-4.54888602604098,-15.976277800192625,0.28281979245474087,-0.11944182798901398
765,-4.851481973460877,-16.887900757160434,0.7613324228737953,0.37877348594560023
766,-5.046486444689501,-17.539795494795477,1.1809955101038738,0.8048118937392983
767,-5.1537600061886435,-17.955642902530037,1.5142051594279418,1.1447692074299352
768,-0.3938300698166886,-0.7313719828575465,-0.4629446439324645,-0.32596713150208967
769,-0.8396348588643492,-1.56485844430851,-1.026400571738148,-0.7963554234037307
770,-1.452578928586782,-2.7665602595466754,-1.8376193275448887,-1.4690796898094318
771,-2.250192233101741,-4.356220366891381,-2.906591615958569,-2.3483894963564715
772,-3.248130486600991,-6.3153325530785285,-4.224160937599857,-3.417233970261437
773,-4.439265421953197,-8.586716171024928,-5.764801777022656,-4.643922345375325
774,-5.79013018274397,-11.085188601304672,-7.4905841631068935,-5.995687576060527
775,-7.256025206258773,-13.710519812496553,-9.356285259530091,-7.450196079850625
776,-8.800649409539599,-16.358369830809554,-11.31790989405403,-8.99284269234493
777,-10.405270354421093,-18.93868897750924,-13.34364398233159,-10.609599240537369
778,-12.068894278746733,-21.41206166330415,-15.42755095730656,-12.29707269552449
779,-13.761313242723876,-23.72280992141374,-17.539663323989643,-14.043756685593237
780,-15.442207406951102,-25.835538013313844,-19.643667646649263,-15.829057991509174
781,-17.071126189925682,-27.737310344317823,-21.702610590660804,-17.605814572782574
782,-18.619000244374107,-29.433970855001856,-23.683643815655707,-19.306056435079718
783,-20.0706424853033,-30.94867018413338,-25.56011917303074,-20.864742437385438
784,-21.421441524829802,-32.314440276882515,-27.314547403707657,-22.24168798792367
785,-22.68428304100898,-33.55622427891654,-28.936030470358048,-23.432534774582706
786,-23.88713934675001,-34.676245265508484,-30.41221908951443,-24.451132782950626
787,-25.04599041852719,-35.653470399349345,-31.727690292688564,-25.31315817178764
788,-26.14935639728299,-36.45645704753774,-32.86855145345808,-26.03796116089466
789,-27.16329780818147,-37.0528188698363,-33.82377762190242,-26.64649511258708
790,-28.049630467537355,-37.41244106217481,-34.58546249123031,-27.15771253746114
791,-28.779989899900663,-37.51234380070871,-35.152190460125844,-27.577921290110076
792,-29.32898561879496,-37.34516255774973,-35.53044111450223,-27.88814907897742
793,-29.664116750984043,-36.92801227212217,-35.733637463419655,-28.0522012159053
794,-29.745667441062896,-36.30046633499728,-35.77941813490113,-28.037209432294674
795,-29.545289436811878,-35.50936232430564,-35.68616795336507,-27.82508490210353
796,-29.06249551023216,-34.59337418218652,-35.46837550203201,-27.406195372006888
797,-28.324445072307547,-33.57679218963681,-35.12986410786707,-26.77172858400716
798,-27.376109311330257,-32.46884176338389,-34.66379865305839,-25.91967324859335
799,-26.261838898288936,-31.271027330155768,-34.0604311282789,-24.867128047715074
800,-25.022863513274913,-29.990449190212395,-33.31280650526682,-23.65728984378944
801,-23.71557303221621,-28.639987223634314,-32.41687056983399,-22.34880802006419
802,-22.416940190341215,-27.23003221391979,-31.37345479625945,-20.9953674667395
803,-21.19864294966184,-25.774070931086058,-30.195175831420062,-19.637703697405655
804,-20.100551070771196,-24.29967705227125,-28.908260736920713,-18.30978074319359
805,-19.13509618663236,-22.845020311266023,-27.545451382062875,-17.041064936582046
806,-18.303147060432725,-21.446573065352222,-26.138365665283914,-15.852540815904737
807,-17.59967448790409,-20.131185233547374,-24.715169787577146,-14.751710133189823
808,-17.002615018827957,-18.911139593644386,-23.299182623930882,-13.735767577178011
809,-16.466472566003603,-17.780667832749486,-21.912078125431034,-12.80634081101766
810,-15.946123170231214,-16.72125044046581,-20.58267292223751,-11.974838378879904
811,-15.429705509917365,-15.71379794713491,-19.343181284773827,-11.258703888843579
812,-14.944327173371532,-14.744629135185109,-18.215580732555168,-10.67116928439879
813,-14.525260372988583,-13.802620160461412,-17.204049405183124,-10.207479094150179
814,-14.184206290764642,-12.88105656908919,-16.299473738791633,-9.856581010732413
815,-13.910241975104043,-11.988518832783804,-15.489657582218435,-9.617446062067383
816,-13.690899667203377,-11.151561846086942,-14.761035760823686,-9.487153598014167
817,-13.52036128271071,-10.400856089899534,-14.097435886749274,-9.44444676589865
818,-13.379933478799034,-9.758589690692013,-13.483051634190803,-9.4538134826436
819,-13.221809492475352,-9.239667584129302,-12.904681824965145,-9.481962377755755
820,-12.988840735741995,-8.85142877586307,-12.351270513909384,-9.509831510767768
821,-12.65095670729595,-8.582303602059127,-11.813319721488158,-9.539655402463499
822,-12.216408926782261,-8.400232247007516,-11.284591679725702,-9.58753432900071
823,-11.713976214610359,-8.263016699244655,-10.763986108992107,-9.660217513304916
824,-11.175742786910421,-8.123508542692297,-10.25352043009327,-9.740834591134494
825,-10.630547488227881,-7.936762099626337,-9.75167448680675,-9.798494267982372
826,-10.107444899012771,-7.672634430732534,-9.250406243556432,-9.806152253532943
827,-9.634407484043416,-7.318950175762922,-8.738666681801172,-9.741405916829432
828,-9.224948683459887,-6.8751177993517905,-8.207235686488698,-9.57917509454256
829,-8.871448106483257,-6.352629463568544,-7.654518436257897,-9.29807376954283
830,-8.549305492246729,-5.78017687315082,-7.086436320504917,-8.899112672723836
831,-8.239785088178166,-5.198191573220359,-6.508645461657088,-8.409560207468175
832,-7.948023031946388,-4.642815586946916,-5.920683275211339,-7.863922070381964
833,-7.686546650945172,-4.135672679524944,-5.316675737072347,-7.2913466018833555
834,-7.457139039522708,-3.689775632667094,-4.690695159845295,-6.711425086596809
835,-7.24936441056458,-3.3209217242668476,-4.042042253334556,-6.135286001795294
836,-7.054090176235566,-3.0478201811583614,-3.3788806146969437,-5.57390087405853
837,-6.871803774311927,-2.8815828123501674,-2.71918430865963,-5.037783687958112
838,-6.700433166232891,-2.822436469898567,-2.088831171442509,-4.527100484179921
839,-6.526779692129596,-2.863117931177328,-1.516408549321581,-4.026924770052017
840,-6.330000225572799,-2.9873976691011315,-1.0285500690264204,-3.5271416153415003
841,-6.093738413037878,-3.1718398709684745,-0.6495467231738059,-3.049620012876706
842,-5.816295411172819,-3.3906865259143664,-0.39473461172779306,-2.636311189322539
843,-5.510190181814722,-3.615971898542952,-0.25970855285934397,-2.3115456127026865
844,-5.187133104597884,-3.81785059545694,-0.2200023761345437,-2.07065720053761
845,-4.835550559366727,-3.9749265107327525,-0.24374429301149983,-1.8990356065431637
846,-4.435099779531874,-4.085814255974364,-0.3073310166888931,-1.7859158579396808
847,-3.99823028307002,-4.163478646116658,-0.3984127531389867,-1.721343235216317
848,-3.5678278086730533,-4.221063198390642,-0.505421242354949,-1.685832446298926
849,-3.1712002807310147,-4.261289409339592,-0.6088128240213687,-1.6423106604474678
850,-2.797345054830819,-4.276984045719924,-0.6863360878706122,-1.5534123069517762
851,-2.420122612262757,-4.257908573578604,-0.7244187187130866,-1.410950063495461
852,-2.0218690038374465,-4.18852604899405,-0.7199201635757115,-1.2341208299913395
853,-1.5941917446692873,-4.044004795862185,-0.6753645603657722,-1.0417550200278292
854,-1.122566604485569,-3.7963908214716846,-0.5953482114851102,-0.8366117496286384
855,-0.5753506461554987,-3.4245416628328256,-0.4826490854050185,-0.6103142121446485
856,0.08089930643117238,-2.920462968316998,-0.3382391977237217,-0.35247962979114245
857,0.8592392749111329,-2.295082407840691,-0.16591808224434482,-0.049256213956716366
858,1.745414077687706,-1.574996959128024,0.02832544963627797,0.32836510288330567
859,2.70394987224936,-0.7900375799052859,0.2377259140639486,0.8149652304077466
860,3.685845836909705,0.03258387941102828,0.4491475937689348,1.417390979330711
861,4.632701402305714,0.8663064740160763,0.6444891940443606,2.104234773501842
862,5.479542359775362,1.6830923401811728,0.8124408509817593,2.8242280106650255
863,6.16721445030206,2.464554444824904,0.954284455371283,3.526010301454672
864,6.666422680679125,3.211480119381927,1.0798521898280007,4.165161600199948
865,6.978832756531127,3.9289523695320296,1.1970092784799806,4.701070535009671
866,7.113102724083981,4.61147282693584,1.3015175246254802,5.093069356880992
867,7.071645871780762,5.24842788656146,1.3814621713617454,5.304428306334098
868,6.855303690737991,5.837622235133884,1.4325895371073256,5.325272863056943
869,6.4824001302896495,6.385014078979038,1.4644738365003185,5.184774490226022
870,5.999516402820242,6.894450905327606,1.4932371178443857,4.936032400316657
871,5.471025449182246,7.365992050805408,1.5319003724854132,4.63084586390536
872,4.9575988832361615,7.797673872953922,1.5868105357893465,4.292902054112338
873,4.502995450828794,8.18940876042359,1.6615840022609532,3.92500184810801
874,4.13904790442862,8.552389380531991,1.7648133545364757,3.5378506678774113
875,3.8899965607869325,8.91037165077239,1.9112694782771893,3.1498607236153755
876,3.772145898392014,9.28799281109536,2.1137775015744884,2.7733444983616353
877,3.7895528261179425,9.701658545945579,2.376618655570515,2.413532440768437
878,3.926316770806908,10.161150716473244,2.6980683093008166,2.0759635372419543
879,4.142598336386203,10.67405549072976,3.0752170266883594,1.7708220674733326
880,4.382764807345261,11.240303124520072,3.5038833887147076,1.5103727148010868
881,4.59726481637295,11.840111751373804,3.976715508765797,1.3022736239067891
882,4.757321335119496,12.435798456814119,4.483167730403861,1.1418235883213008
883,4.856220274819748,12.987375454668936,5.0137493542221065,1.018913534178042
884,4.913379842061035,13.460083243643615,5.561861160898252,0.9346304203946073
885,4.975637107416109,13.821734801316707,6.118892785086315,0.8995862117406982
886,5.036294676490848,14.090885013577784,6.659923032300594,0.909494019428861
887,5.25552967094069,14.169669141848997,7.185426863871275,0.9516555892060602
888,5.7034891825209275,14.022987829060147,7.689749681215051,1.012048154738513
889,6.387079592115725,13.66474397274443,8.165292577856059,1.0907624535892604
890,7.275246743308235,13.141737593503585,8.601109091832178,1.1951699414121706
891,8.310538775722916,12.514008340657526,8.983896940500095,1.3167731239285467
892,9.41200337487279,11.842014741091166,9.301409297991565,1.4336642410728608
893,10.480908368744561,11.185384217899028,9.546907970610022,1.5327219692684413
894,11.418101170838753,10.60036493875452,9.723143960442066,1.6125545663351823
895,12.148592017116826,10.131272009399845,9.840128806145763,1.6737222772557232
896,0.10087254197705059,-0.5068454490300598,-0.4186239445247554,-0.27965771588507793
897,0.1340292233075598,-1.1240636232025079,-0.960912069897686,-0.7424050287736269
898,0.10798458555256801,-2.006838824677935,-1.7420570337859815,-1.4418915857877497
899,-0.04404007500838675,-3.161490445060318,-2.7711497252003143,-2.414611862692512
900,-0.39579117764828176,-4.576030510552075,-4.039563620858375,-3.6648576423635015
901,-0.9960489407329709,-6.221225677751348,-5.51957814479388,-5.158045300842559
902,-1.859543413515722,-8.05462682078979,-7.168805196681341,-6.833119366550464
903,-2.9831485695352282,-10.030724178336305,-8.941031670520804,-8.619358711120865
904,-4.355280417626953,-12.105306302709717,-10.79313789106128,-10.447068349620174
905,-5.944407850117098,-14.236103640606927,-12.689972082833073,-12.254004382413225
906,-7.682317500276592,-16.401480490108202,-14.61998935529107,-13.998314086217704
907,-9.46983169112657,-18.55782115984341,-16.55586153826245,-15.641721193747983
908,-11.202965941819903,-20.659745008995106,-18.46657630614313,-17.168309115389725
909,-12.80355268246851,-22.654481656062007,-20.313317870006124,-18.576565732212146
910,-14.226649697236335,-24.482432384689634,-22.052413948500426,-19.863585445433188
911,-15.440851404731927,-26.090942484035736,-23.643757713557815,-21.021665326136127
912,-16.425897294407815,-27.449984212432465,-25.058576489995847,-22.04623830922403
913,-17.18881948739926,-28.555755610120986,-26.283114581334633,-22.941861276222422
914,-17.763779000891383,-29.425717896231276,-27.315931169090263,-23.71088071894009
915,-18.195108591264816,-30.09418442469207,-28.162712724493552,-24.335749197128933
916,-18.523927339620073,-30.603528488230285,-28.835298069984876,-24.78510099594891
917,-18.783939348967742,-30.99525803301782,-29.352516370878845,-25.046734500966842
918,-19.008394756300316,-31.30933705056159,-29.738583537151058,-25.143993957127908
919,-19.23167649349671,-31.579948335907286,-30.018074828642757,-25.116449431482668
920,-19.471370569756473,-31.820482589092084,-30.209263514644185,-25.000376092503576
921,-19.720157686949925,-32.0116762550911,-30.321982996195484,-24.822885414110264
922,-19.95737174374098,-32.12142301400813,-30.36412691527738,-24.609066835453255
923,-20.167200753092384,-32.13668771152704,-30.346845893917866,-24.3917673685137
924,-20.346542474911566,-32.057270621103065,-30.27724059643702,-24.1960127179527
925,-20.496363940527825,-31.87549882346153,-30.150708598014834,-24.01253713953958
926,-20.61012444098345,-31.57879328312996,-29.955929160379338,-23.802781211096114
927,-20.66348125234803,-31.161745311615856,-29.681591680406648,-23.52753635995568
928,-20.624715789538527,-30.631234705576592,-29.31726542459055,-23.15998100958465
929,-20.47723532201517,-30.002149788922658,-28.85378234695878,-22.684600510492555
930,-20.22327269533155,-29.291625207655176,-28.28455501348276,-22.09258941042746
931,-19.87087395928963,-28.515370888411404,-27.607113812751244,-21.37500314862119
932,-19.420815681761315,-27.686251498013867,-26.823758838889066,-20.536939025968017
933,-18.874184247459855,-26.81728534388952,-25.94262406243031,-19.616938944700927
934,-18.25425412926192,-25.92352724806261,-24.979693856407017,-18.668072822368035
935,-17.60783540650882,-25.01730901430842,-23.956427151023867,-17.722178752644545
936,-16.97756647314825,-24.10851225476031,-22.894265039788056,-16.781199538612107
937,-16.38254458790168,-23.214257981376576,-21.8141221110161,-15.84059715506042
938,-15.824748157890332,-22.36118721755965,-20.73906873654549,-14.912017895238577
939,-15.305555574065513,-21.571058803687105,-19.690326075053854,-14.014009858198369
940,-14.838065397905254,-20.838456431792405,-18.67724141561995,-13.146055490156982
941,-14.430037920533902,-20.13636013445416,-17.695756490144863,-12.28344295976377
942,-14.058439589799319,-19.448515977596823,-16.741341222167573,-11.396032069699007
943,-13.682600158153344,-18.774881564556196,-15.817966494515996,-10.46252046764237
944,-13.280684915193158,-18.11216920431118,-14.931627362274238,-9.476683672757208
945,-12.863610970859305,-17.44529847694848,-14.083852917531567,-8.450393649298528
946,-12.444635311527767,-16.75409023104829,-13.273993299247271,-7.407600656840565
947,-12.00858484907406,-16.02326584594257,-12.502567428605024,-6.379553102859026
948,-11.523188929754152,-15.24451189709646,-11.770650916603117,-5.406634255953644
949,-10.967632064967495,-14.415183564087695,-11.078428360508793,-4.5291013515269505
950,-10.346477795847154,-13.538562344600125,-10.42578131704923,-3.7649207673061102
951,-9.67090577038506,-12.62218688851038,-9.812421670020752,-3.1112042162222484
952,-8.931343169671171,-11.676640666353217,-9.237631542342912,-2.5669359240200187
953,-8.109678824151525,-10.718013362584445,-8.70501262231724,-2.1381451881872406
954,-7.210889671581076,-9.770519841382033,-8.228096563924613,-1.829889002884937
955,-6.2653694930507555,-8.859333629701249,-7.823302805723386,-1.633052289598084
956,-5.307444062308802,-7.993788170797503,-7.499812705905326,-1.521997023680072
957,-4.3587158843971014,-7.160548490630167,-7.260037636914131,-1.4744418830445156
958,-3.433679040200599,-6.336909204475492,-7.101273241019557,-1.4829226493614445
959,-2.561154691292593,-5.5060225058358885,-7.015161190670137,-1.5516177716073063
960,-1.780823844281928,-4.663541524988532,-6.986922073205115,-1.6829068150997906
961,-1.1149122287412792,-3.8213648057098615,-6.997307388386241,-1.855084508954466
962,-0.5600372621369563,-3.005473111862632,-7.027221984938098,-2.0155126503614467
963,-0.10512167286986382,-2.2483069804593523,-7.055912822848911,-2.108228077191038
964,0.24871817561553186,-1.580286870721928,-7.059331306572632,-2.1097028738839283
965,0.4904453340299593,-1.021655135835579,-7.014904660121641,-2.0300070883848234
966,0.6165707617951242,-0.571185443197234,-6.904200022982768,-1.8898290227005632
967,0.6395320815773254,-0.196866849954672,-6.711262140429471,-1.702883230629832
968,0.5845577286387087,0.15470676439971692,-6.425138608139925,-1.479471811524187
969,0.4718897655172707,0.537463459602275,-6.047140029533621,-1.2395045342859876
970,0.3119722376255446,0.9976664449274029,-5.588386578768895,-1.0079787002076388
971,0.1224631923981529,1.5758301023044694,-5.058304012521162,-0.7954153033055829
972,-0.06520281286399954,2.3004514636251807,-4.4649295273800735,-0.5899300631052427
973,-0.20362129616209054,3.168628374518314,-3.8265220006337324,-0.3718287137891452
974,-0.2440686713903945,4.134243957416469,-3.170549535104265,-0.12405141410829537
975,-0.16559607208563468,5.127610752591581,-2.5213825840058925,0.16727379252657365
976,0.019660115805087468,6.087393580100444,-1.8938055764497999,0.5129607635542381
977,0.28166796564319263,6.974165899937313,-1.2940153308387106,0.9197121529781391
978,0.5882450563432862,7.767920319062613,-0.7255717379206215,1.3769615957731303
979,0.9114286801276821,8.459130356669641,-0.19354699316812474,1.8491292677357818
980,1.2187078595455354,9.043223153008885,0.29572396851253,2.294534473404402
981,1.4583321840245387,9.524162088339748,0.7364298627943986,2.6954227208033066
982,1.5785266563094937,9.915642865217627,1.126777587280545,3.0620539456497804
983,1.5670142496397104,10.229645321775747,1.4669535024927551,3.4004527614123505
984,1.4530861721861905,10.461121305146817,1.753474747520198,3.69089689747241
985,1.277091846730221,10.593761220119454,1.9805718773227814,3.9025119398084254
986,1.0669443206682685,10.618337841468268,2.145233735805519,4.020956388820683
987,0.848010181545977,10.536045002485626,2.248786442063103,4.056500499316436
988,0.6581484945024433,10.350879080807815,2.296153419557042,4.02713022349665
989,0.5322490623653644,10.06786205613345,2.2970691684593505,3.9454418187644884
990,0.47914810829767107,9.698534541931455,2.266132631669335,3.8184350697516334
991,0.48088488510829575,9.266425192772822,2.217483398298775,3.6541047971467915
992,0.5096971999728728,8.803795497318447,2.160189707417558,3.465927729112404
993,0.5374984851146221,8.337702265939285,2.098183924233687,3.2701689236540905
994,0.5391044383321233,7.884602707781092,2.0319324368997496,3.07705022545236
995,0.4968955529263216,7.454571801539607,1.9593603785210403,2.884564744530911
996,0.40075127581688874,7.050956551562916,1.8751595334885862,2.686916544380181
997,0.245978236616546,6.667664593237863,1.770330378798118,2.4822881019742598
998,0.04125479015865856,6.288426466408432,1.6358385937663493,2.27127183213182
999,-0.19042913572419806,5.889934631155681,1.4655468066062525,2.0474876282815337
1000,-0.44037237302611426,5.4463408850689135,1.2543260182976164,1.7871290112688276
1001,-0.7226817323691099,4.946195103904465,1.0046539996542347,1.465636096985881
1002,-1.047639262532291,4.409574701057307,0.7372070567682447,1.0819151030711656
1003,-1.4063521821108416,3.8748005318121908,0.48714813692383624,0.657769947265921
1004,-1.7809653387724225,3.374918412394912,0.2898833051292361,0.22184989964960378
1005,-2.1753442243682484,2.926928865181361,0.16675934402545028,-0.2065729668480397
1006,-2.625054932303396,2.5327815600788495,0.12079774537018668,-0.6225004471137714
1007,-3.161472842766894,2.188229728005749,0.14346521076017366,-1.0277427577040037
1008,-3.7747091107813655,1.8912362883959222,0.2204513278089135,-1.4184087114130894
1009,-4.409297349748054,1.64065824232791,0.33355850036942297,-1.7875780187342687
1010,-4.988966843228155,1.4318364544597917,0.46265740465927196,-2.138125606177822
1011,-5.45563972772154,1.2592747636534152,0.5886107411675172,-2.4833621256329623
1012,-5.7899679042432215,1.1203114404770136,0.6954485656125435,-2.8342196574199043
1013,-5.991571608699948,1.0186458024438942,0.7726522204111876,-3.1845493982254416
1014,-6.057721597053411,0.9375150890919717,0.8132248894580941,-3.5287570607891983
1015,-5.959206624920066,0.9347948615193611,0.8152727585845716,-3.863628970676767
1016,-5.707603628577684,1.040527195726663,0.7855659412234324,-4.179266668824182
1017,-5.345863126786382,1.2653763766466573,0.7390714053212464,-4.448743931893156
1018,-4.925302191307591,1.5996272300188423,0.6932613235884284,-4.640088712424928
1019,-4.496492883636576,2.0038976616258743,0.6565981316827474,-4.745993673674355
1020,-4.108827016470361,2.420367866304047,0.6267373606877986,-4.7887453607573125
1021,-3.8005706636473384,2.802811750287338,0.5999299669896966,-4.797315723131193
1022,-3.5837903037620333,3.127893257606031,0.576264895398688,-4.7885772983797175
1023,-3.4406771875774615,3.385999918383643,0.5580321552203461,-4.76689618735663
1024,-0.17605564976096225,-0.3204629052160458,-0.4924432509801187,-0.16433954338470802
1025,-0.4171469760589934,-0.7886412924768603,-1.198232242878572,-0.537053069233536
1026,-0.7468200539513203,-1.4542364191974437,-2.211494088441005,-1.1342310513736689
1027,-1.1740636333925303,-2.3189753047054578,-3.5263913804442812,-1.9941693243007461
1028,-1.7185830279553187,-3.3726126878399416,-5.110247010057092,-3.1225461634970424
1029,-2.404950524610469,-4.588198478442565,-6.908419625052198,-4.492726808530032
1030,-3.25412586720105,-5.925421178785537,-8.852000407469815,-6.064351390766568
1031,-4.280428461444027,-7.345291423396451,-10.86889951809688,-7.798621382599802
1032,-5.493699093691021,-8.815616186525123,-12.894252733743455,-9.6582356196367
1033,-6.890892150821287,-10.30447940129683,-14.87973022322111,-11.60362730759393
1034,-8.452157906431474,-11.796897578254633,-16.816808087399757,-13.59970938118501
1035,-10.128469930588336,-13.285781442708684,-18.697839060663892,-15.608661617024142
1036,-11.865318845453407,-14.776663383741282,-20.51985657745857,-17.596297336525158
1037,-13.618591542596315,-16.264747601441545,-22.270270966299808,-19.523674949738954
1038,-15.348960231577129,-17.732254356775922,-23.92781718462456,-21.339126857200338
1039,-17.017302748672606,-19.16268713493894,-25.471602496437672,-22.990310138852077
1040,-18.597105235035386,-20.544449864635805,-26.885374792614435,-24.441981944435092
1041,-20.085676333853883,-21.86805799501861,-28.16037602081456,-25.678696635962627
1042,-21.497963838215053,-23.122683314662947,-29.295777780240286,-26.691852480203806
1043,-22.85025895698267,-24.286672323786537,-30.291750158822413,-27.476149338933954
1044,-24.14379256984207,-25.32124891423364,-31.14246216127175,-28.044741748579902
1045,-25.347737138820836,-26.18273005542444,-31.83791912209476,-28.43450303323049
1046,-26.408467862544484,-26.84876046638637,-32.37182256177777,-28.691564017656265
1047,-27.27639070903872,-27.318241386911666,-32.74306349976267,-28.84730388459198
1048,-27.919150765880847,-27.58747267197833,-32.95318554556526,-28.906567996105323
1049,-28.32048985301633,-27.6523542928054,-33.008333207956994,-28.858632120389846
1050,-28.479451029136868,-27.53111978506316,-32.923516057925596,-28.69992478414457
1051,-28.416522755136196,-27.261099051923498,-32.71895091211364,-28.452175757131023
1052,-28.171545843819924,-26.871400080826483,-32.409088221047575,-28.15117088477219
1053,-27.796090035137343,-26.380066135544514,-32.00207775406627,-27.819595686333322
1054,-27.338941363489905,-25.81130290369151,-31.5071603161418,-27.458855713904846
1055,-26.83391359977627,-25.19712449328305,-30.93612126526383,-27.072643685448075
1056,-26.304622864195267,-24.570010922239707,-30.301946567379257,-26.688866294301693
1057,-25.764528457344532,-23.956755149674212,-29.615168173076746,-26.339829190120405
1058,-25.21203870609621,-23.373431099020802,-28.878527900971857,-26.033328961929556
1059,-24.636179039706455,-22.82396605374374,-28.08890664099968,-25.746641932847695
1060,-24.02429557842664,-22.308432049515787,-27.245595351419336,-25.440769356835254
1061,-23.36684474710322,-21.83280445877692,-26.353279348294198,-25.07986717835662
1062,-22.6648774155081,-21.40050428507629,-25.415408416129797,-24.63126785429753
1063,-21.92183853535838,-20.993850883009888,-24.426429107766946,-24.05610662519272
1064,-21.120788266094042,-20.576717803980397,-23.37533949663866,-23.315515633619572
1065,-20.22752879573369,-20.123215871685133,-22.25732249063172,-22.385857572848106
1066,-19.21179142146521,-19.62834178546027,-21.079592112311275,-21.26766267627272
1067,-18.056571913663692,-19.094914480022855,-19.861220217382858,-19.985841375725602
1068,-16.754311545613465,-18.532948718078472,-18.630839151603098,-18.5760069193665
1069,-15.296627838860491,-17.963227917321277,-17.42286082793172,-17.074874388896493
1070,-13.674677056902055,-17.409180845653573,-16.272833903187298,-15.53399082472007
1071,-11.889696390729585,-16.886747266099732,-15.211511326012626,-14.020976582437887
1072,-9.959149176483889,-16.40408378277939,-14.258732835811056,-12.595083485457925
1073,-7.916489899919352,-15.96375919861503,-13.419036220942433,-11.282716933025204
1074,-5.8073460676404105,-15.55833578006552,-12.683843288305896,-10.076715539217266
1075,-3.68097467160713,-15.172722188867095,-12.038962873603014,-8.960838211649422
1076,-1.5778834569311893,-14.79665631609081,-11.466676673240737,-7.9219318557025735
1077,0.47164656109940095,-14.422431437982269,-10.94403672046,-6.942014979257107
1078,2.433943865524317,-14.027851698755232,-10.446632380937306,-5.991499427825091
1079,4.261443522426928,-13.580650373750158,-9.95557308123386,-5.03937150542066
1080,5.898691289086817,-13.063643062819548,-9.464704250390922,-4.079387712613507
1081,7.294114100640988,-12.48754279248774,-8.983258762279368,-3.142560770436329
1082,8.403326072931764,-11.880336445082206,-8.526766297555474,-2.283236033868299
1083,9.18943990195748,-11.27016738507059,-8.105017867726605,-1.5547884478541132
1084,9.630430920621448,-10.680365287806291,-7.719160028140029,-0.9864313836340689
1085,9.73074027036611,-10.130395624656416,-7.365144135760306,-0.575880777320733
1086,9.528127806376045,-9.635382041350027,-7.036961188986945,-0.30761944956574444
1087,9.087419694538507,-9.20990365295192,-6.7287754067337655,-0.17054345340361934
1088,8.482829710139816,-8.862957093458704,-6.432693191159381,-0.1473634064939582
1089,7.784243549968439,-8.582780241368523,-6.134282531511318,-0.20149047441977685
1090,7.057693165871748,-8.341316086970558,-5.814228329871501,-0.2853267651790657
1091,6.365717609061327,-8.116283527985155,-5.453611141015268,-0.35509775243008346
1092,5.7540354880340345,-7.900198817125012,-5.037973800865511,-0.38168311940037714
1093,5.238476825416409,-7.689702279691359,-4.560555229241958,-0.35040827635108346
1094,4.807359545309982,-7.478780437822211,-4.024068675965238,-0.25256751450438497
1095,4.435388226167466,-7.271101061226084,-3.4380628456790854,-0.08283885871309807
1096,4.096908986561171,-7.083779278554828,-2.815006679082132,0.15809461741496122
1097,3.765406626463377,-6.9331154301419975,-2.170428125353728,0.4621649639144991
1098,3.404896628841957,-6.827699868081509,-1.5211947072240282,0.8140778296847562
1099,2.9776491396610583,-6.769983134328705,-0.8815344898432655,1.1968955792974476
1100,2.467001790970378,-6.755828684397101,-0.2630613976678279,1.598332054393985
1101,1.889224071398739,-6.767375196111143,0.3262760053203266,1.9992077593552853
1102,1.2786451733859763,-6.777185964814759,0.8842048977578916,2.358545812910185
1103,0.6629478644464573,-6.769015392054425,1.4096400813447498,2.629085502321936
1104,0.05128873878048244,-6.74134636467717,1.899849438150713,2.7917951424592293
1105,-0.5526640050188134,-6.697146152483024,2.352162019128367,2.867605076334221
1106,-1.1262526095158303,-6.646219202176248,2.759934773095625,2.89096861463319
1107,-1.6400701633170813,-6.603266577011106,3.1096962908715104,2.8832949757406365
1108,-2.0893673609041676,-6.571490189038505,3.384951324520167,2.850299638269288
1109,-2.4951387030259236,-6.536928478531838,3.5700955758725996,2.79096034310707
1110,-2.8857232956304255,-6.483862662486057,3.6537272439054087,2.7067605303023625
1111,-3.2785249472359808,-6.413046744015979,3.6313526037414237,2.597551401135785
1112,-3.674646962468397,-6.338564134639386,3.5070784552643834,2.4547960675086213
1113,-4.0667030282145475,-6.269559772607632,3.2948427658009822,2.270351179624463
1114,-4.444437524071796,-6.202956870046974,3.017998669711276,2.0512884515319283
1115,-4.786225247432053,-6.12797611217538,2.7042371033784103,1.824379670076099
1116,-5.056079457444227,-6.032033342295875,2.377460010191954,1.6261808376437532
1117,-5.223336311839087,-5.906007137353063,2.054155906245142,1.4850438741129623
1118,-5.278583571789478,-5.745357749070609,1.7452625807155187,1.4152985646841587
1119,-5.229077911725899,-5.5448210402141065,1.4583443443495152,1.4301354062400085
1120,-5.081872312135221,-5.2864746942201455,1.1999941280519544,1.5426047240966252
1121,-4.840359234377443,-4.940320141844295,0.9771959550623265,1.753024812345949
1122,-4.519637448289859,-4.486658138614528,0.7934448191629132,2.0405764960082085
1123,-4.1598128769121265,-3.9263814459223227,0.6464691206623766,2.364979242456221
1124,-3.8130000367875785,-3.273298728937364,0.5343096071114634,2.6894616937958546
1125,-3.5072862240377534,-2.5493210220319433,0.4613480940737681,3.000956854117347
1126,-3.2355007267931857,-1.7849342515615108,0.43492640602806276,3.3059540758941934
1127,-2.9711083161855245,-1.0176929629021902,0.45771281250847096,3.6105533522264257
1128,-2.690712348323387,-0.27804435517906545,0.52514475082499,3.903084674413037
1129,-2.3931261210873784,0.4207009165479527,0.628504465201879,4.161680551558594
1130,-2.0952505089954654,1.0749528499307295,0.7589982582013771,4.370930123032197
1131,-1.8206631490312923,1.686503073846861,0.9087569653664127,4.529478467011788
1132,-1.597473701543994,2.2659873211891672,1.0701367929932832,4.642990547713586
1133,-1.4616184480925378,2.8313917819061105,1.235037766986636,4.709200921304695
1134,-1.4538480911277136,3.4009175476740707,1.3949035132950283,4.722506628680745
1135,-1.6061522927383338,3.9888481038697083,1.5416326722869507,4.692471738598291
1136,-1.9278856677868423,4.604972915543526,1.667807297492559,4.649760449999621
1137,-2.395810093051743,5.2525026804205845,1.7654727540366366,4.628412984270627
1138,-2.9569687464462895,5.922613543798398,1.8239272757689808,4.642386589681878
1139,-3.541904010830348,6.5983244327509825,1.834230014437006,4.689198673278159
1140,-4.079368357426631,7.270402321175752,1.7991037784987116,4.775931225441687
1141,-4.5039491238967955,7.938975705259374,1.732562569133705,4.925580842290395
1142,-4.770738864890746,8.580438242611596,1.633982740886045,5.144034137666395
1143,-4.821323366485699,9.209867402000649,1.5395157902358934,5.40655653677443
1144,-4.660812044037741,9.830944199660037,1.4769564605346568,5.682785708248025
1145,-4.33493300521122,10.439847858103477,1.4660780217270637,5.956409154440886
1146,-3.8975816813694535,11.022116728508315,1.514838198449161,6.222064647678262
1147,-3.400254087286102,11.556209360552803,1.6176403866105982,6.466722445146431
1148,-2.898347233520152,12.021349061912147,1.758442832723278,6.6679909672624875
1149,-2.4457112101342755,12.400233065920018,1.9166428936652196,6.8095493560102005
1150,-2.0818772297612846,12.681904921990109,2.0709752021608216,6.894977546465874
1151,-1.8237146455637374,12.867198090574055,2.202322597508946,6.9424127314009585
1152,0.04783073391550102,-0.2615940096496861,-0.4217128084687435,-0.1910828257264602
1153,-0.07012874145250164,-0.5853611055597503,-0.9433620278563939,-0.5685855795684258
1154,-0.3085901751620219,-1.0847420163270032,-1.6927491847651988,-1.121110522195655
1155,-0.7113093962839417,-1.7916116231033223,-2.6769491116323594,-1.8508117496403211
1156,-1.3207692497593007,-2.7144071162385597,-3.8816476252356855,-2.738986644886953
1157,-2.1496541852985303,-3.8357129112320645,-5.27254009917226,-3.74775744358595
1158,-3.177826603171697,-5.124598480633734,-6.802736065133417,-4.830340237893988
1159,-4.372095180749271,-6.541163680705942,-8.420072407282772,-5.947340439187169
1160,-5.697329516072302,-8.034400810179942,-10.07409161801483,-7.075068171007162
1161,-7.118073566145669,-9.552362849853543,-11.728519860056746,-8.207732165251505
1162,-8.600148695119394,-11.061770521727516,-13.379320442379537,-9.362720447206874
1163,-10.105629127649284,-12.521616106522597,-15.009753209468249,-10.5709289988586
1164,-11.607991359966007,-13.900952346488399,-16.6055882781859,-11.869289696546552
1165,-13.097928620238962,-15.184690096525966,-18.15670177685648,-13.272259670688722
1166,-14.565131597457452,-16.373682602541127,-19.657554247939963,-14.753544202315636
1167,-15.993691192456573,-17.476221558741248,-21.105845709046434,-16.260678461123003
1168,-17.369555902713348,-18.50098638493631,-22.501626280397844,-17.738541963293166
1169,-18.677679266032893,-19.45587745664471,-23.84916780257287,-19.14227614410342
1170,-19.89391253279577,-20.347379764351505,-25.150844022137445,-20.430293998780886
1171,-20.976275558520072,-21.175690764988204,-26.39671181195547,-21.553751345194776
1172,-21.866055937576554,-21.930213665269658,-27.565004357670027,-22.465200317836313
1173,-22.504721691625544,-22.597163554155944,-28.628535461703024,-23.13446732166992
1174,-22.857543136276572,-23.164403843719263,-29.557813231926062,-23.559398866911444
1175,-22.913387728956618,-23.617401346929505,-30.32318438881911,-23.76378067964772
1176,-22.66365049662533,-23.94453541036906,-30.90208742163555,-23.7799796956635
1177,-22.10189248026453,-24.14788298396681,-31.28604740429787,-23.632471669106714
1178,-21.239330671199653,-24.24417425438474,-31.479842094398087,-23.344766623569363
1179,-20.111420217008646,-24.25945797820241,-31.496416020983258,-22.956601737831175
1180,-18.769326833384355,-24.22556898964465,-31.353909656222054,-22.51321072177781
1181,-17.26336465379463,-24.17183368143048,-31.07021795766483,-22.039316125585646
1182,-15.632517084216007,-24.111879213974657,-30.65396215659716,-21.536041441665088
1183,-13.905174421563052,-24.045469787503915,-30.10774374987314,-21.0064882901443
1184,-12.109453936095797,-23.973765569569608,-29.441631157393992,-20.4738502414728
1185,-10.284051809870963,-23.898152036294125,-28.674608239675802,-19.960356375455124
1186,-8.485592885843774,-23.804586365027376,-27.824688437127698,-19.465311322044954
1187,-6.782327573983896,-23.664010954147233,-26.908916724457725,-18.97029707976729
1188,-5.23586657347895,-23.451861426303775,-25.952863820942753,-18.453390693121626
1189,-3.8924400388366975,-23.16575578338239,-24.98739736556915,-17.895320626409628
1190,-2.783842343103046,-22.821493236062153,-24.037100229780442,-17.275007605987177
1191,-1.930061423300688,-22.43578811687596,-23.116208929827437,-16.56652701598527
1192,-1.3396924791013194,-22.018645169479527,-22.22780573777903,-15.746621550094684
1193,-1.0044658493673524,-21.57622050226161,-21.363635200340774,-14.809463865754196
1194,-0.8942449087004917,-21.11602915764352,-20.50781779611775,-13.774691662755059
1195,-0.9584414215893093,-20.643769184523126,-19.64507636952474,-12.677244824048788
1196,-1.1329050721280864,-20.15461733366983,-18.765231698495008,-11.542905461468942
1197,-1.351402282295486,-19.633203561978544,-17.861444647755068,-10.385997217075586
1198,-1.5590526194146783,-19.06035891864114,-16.933571341322583,-9.237185947187042
1199,-1.7160076733413787,-18.423575246760553,-15.994802632198398,-8.153145144687608
1200,-1.7929580726263783,-17.724062102633344,-15.068092753149305,-7.19574881356803
1201,-1.7693541921438465,-16.967760329962378,-14.175005435512249,-6.406597157924239
1202,-1.6317475806798714,-16.16110859609297,-13.331171950004926,-5.801007548478158
1203,-1.3703996504863123,-15.320409581607468,-12.54975397571875,-5.379290319278803
1204,-0.9774565264431113,-14.470153123318202,-11.843956075714686,-5.1360072029089245
1205,-0.45768623038920464,-13.62551175552894,-11.222308751353019,-5.071573212484407
1206,0.1617600818990221,-12.780740436391133,-10.681166853800054,-5.188062839338795
1207,0.8416308490238897,-11.919426645456593,-10.207386990856545,-5.467621324787731
1208,1.5444397698920433,-11.030203021732909,-9.787626763668325,-5.867832828690751
1209,2.239792509203944,-10.110262776267064,-9.41178088656053,-6.337309837191807
1210,2.9002984079282834,-9.165291018832045,-9.072355469712733,-6.835629452676279
1211,3.4924839887793064,-8.212902586472884,-8.762297804872222,-7.332835507249288
1212,3.9807885737551527,-7.280769664089814,-8.47213519963105,-7.79288451556619
1213,4.341795654248238,-6.398592048229725,-8.191175063501069,-8.173283900297864
1214,4.568680646384366,-5.596125854200309,-7.914287820565409,-8.440466211492572
1215,4.664180650684897,-4.908450881091355,-7.6458215123752655,-8.577826134476851
1216,4.630026301676827,-4.3662873039539685,-7.393440590299882,-8.580333279001865
1217,4.465341208523617,-3.9733720822428324,-7.162634900156925,-8.448564173236594
1218,4.1748982143503435,-3.70613199681814,-6.956765579151807,-8.189224000849876
1219,3.7714709125258183,-3.5312738179220173,-6.77887539917744,-7.824848811818192
1220,3.2676445953327597,-3.4148396578422116,-6.635431041812891,-7.403852029370592
1221,2.6616822290990796,-3.3262408257978935,-6.533563831101953,-6.9902324138651775
1222,1.9317131447546387,-3.2460686433469843,-6.473883641214289,-6.634051325407899
1223,1.058832767986713,-3.173345319224708,-6.451635913077725,-6.355172764903176
1224,0.053295104321268605,-3.1188538276918796,-6.4584943805921995,-6.1609502818500586
1225,-1.0505716540573293,-3.095640900208116,-6.478108968094766,-6.060510532711086
1226,-2.2246929102103703,-3.122062340481881,-6.4900037363390215,-6.057164849010723
1227,-3.4796359471860474,-3.2180543759024256,-6.480624109907628,-6.139314212482228
1228,-4.845953635881554,-3.393759901204153,-6.446624908096139,-6.284887594155133
1229,-6.322897306629907,-3.649920093936958,-6.393708880000958,-6.48384000796098
1230,-7.877168863479775,-3.9872264717241017,-6.333521464375195,-6.745247858260656
1231,-9.470323204763767,-4.401893937964446,-6.276883869304097,-7.070607501264028
1232,-11.064192597740616,-4.870398706672562,-6.22935346056151,-7.427121037440533
1233,-12.613957618019397,-5.3540763156798405,-6.1916596132139725,-7.755381636121601
1234,-14.066999158400765,-5.820513225301691,-6.163241422847859,-8.003039052866479
1235,-15.374594235693419,-6.25011772663392,-6.142913965439261,-8.151356151361112
1236,-16.500211399059566,-6.627531082333184,-6.124199485567444,-8.20554771326693
1237,-17.41639885678935,-6.938824166155123,-6.092070925997376,-8.160777144763081
1238,-18.10147777621726,-7.174588422935003,-6.028098203100132,-7.994866968782644
1239,-18.54030079586433,-7.332754928060468,-5.922516976946095,-7.697031391249812
1240,-18.735578724642906,-7.419192197949681,-5.77801187060854,-7.294156462824001
1241,-18.72572246916191,-7.4479773220315275,-5.600913943606961,-6.839558538461114
1242,-18.575230358941653,-7.43481931077569,-5.3938757078929,-6.379963039796712
1243,-18.332286455549735,-7.38096687354536,-5.153902354248705,-5.943219494181628
1244,-18.00310868439897,-7.2705597152032615,-4.873621391298601,-5.54113099312752
1245,-17.575267402457538,-7.085616083041435,-4.54722010347737,-5.176340549042192
1246,-17.067183156604102,-6.817533409945123,-4.173811656224009,-4.851285205621178
1247,-16.53223779126297,-6.46599845748228,-3.754500146785965,-4.568591087742607
1248,-16.01051132874984,-6.035834369515318,-3.2903000610763664,-4.3340753432736125
1249,-15.5039462430041,-5.541135570519022,-2.783882769007198,-4.160968218020001
1250,-14.988286443829033,-5.004725862955873,-2.242599381580429,-4.062666871514669
1251,-14.434279507362533,-4.449475225212212,-1.6770090664632455,-4.042382236495232
1252,-13.82426271733952,-3.894467668898159,-1.0944577722629059,-4.08381336666946
1253,-13.154596749445927,-3.3596162761772232,-0.49658040823135496,-4.151376102633609
1254,-12.43237472989458,-2.8692109027818162,0.11721424914902001,-4.210060187817329
1255,-11.67403739727018,-2.438095422689155,0.7466791016194321,-4.240090527827679
1256,-10.900183434853059,-2.0556956130028743,1.3901719834313946,-4.23119444871671
1257,-10.134828032627619,-1.691818936582168,2.045231930833705,-4.1657354396483335
1258,-9.40964167639951,-1.3270411125386898,2.703651711953551,-4.0187217445803745
1259,-8.751320749864046,-0.9994538685969787,3.348000854243618,-3.7809477591745297
1260,-8.168171991609269,-0.7947410771843478,3.9625034356180606,-3.46136765413709
1261,-7.656042787565279,-0.7784702957013379,4.553691066746837,-3.071360412778879
1262,-7.176057010106398,-0.9801219365211096,5.134849066754927,-2.598951717790604
1263,-6.656211333315481,-1.4142456652673272,5.669851500533552,-2.0110498693363885
1264,-6.079768564378006,-2.0708177102249885,6.056775935371771,-1.3153979587078894
1265,-5.457779304999425,-2.9440113801135954,6.191563453942739,-0.5430120833473768
1266,-4.686814561857899,-4.100920085954777,6.051004685729597,0.3600869739450141
1267,-3.5359130075548086,-5.659914731623432,5.70725864368408,1.5601217557304106
1268,-1.7363158018195355,-7.698388695401402,5.285708877396576,3.2904130894789407
1269,0.9600188797627276,-10.226392195670142,4.919368702961719,5.803501950482011
1270,4.723092783024716,-13.347347382680834,4.689784889759687,9.22243113650019
1271,9.758220539703935,-16.874611822461585,4.682630994899196,13.802561058499693
1272,15.930234500147751,-20.57195944017251,4.933722050802351,19.470131668979203
1273,22.87142949978845,-24.201277505286253,5.434111139842397,25.928063381930507
1274,30.08487744909721,-27.539668110256986,6.1351476117228065,32.74173203040752
1275,37.041931552538294,-30.382043460097048,6.955326125927638,39.41532966704977
1276,43.25648526503772,-32.556094995870744,7.790120776648796,45.47382474385924
1277,48.33642529398599,-33.965141136805094,8.522516629520487,50.53238108555141
1278,52.04123827249081,-34.647944477044405,9.045306234185324,54.338511424989484
1279,54.32641285142153,-34.76722958748061,9.30347081242668,56.806014685032565
1280,-1.9750808554857997,-0.7395447198798182,-1.3052172834686013,-1.8966188201318124
1281,-3.393192200236914,-0.8755853313223816,-1.840717282675651,-3.4496337615829105
1282,-5.158437725131423,-0.48613505993324546,-2.178984700957365,-5.436095541367607
1283,-7.250111894185171,1.0215870092983188,-2.1271497748941326,-7.8104162115431075
1284,-9.639450349522104,4.463758048154976,-1.496376476493576,-10.492166314399661
1285,-12.264680637890473,10.785432346995183,-0.11161697014204641,-13.358440746380882
1286,-15.023337886551639,20.930585559733764,2.1910023571741806,-16.260445997666995
1287,-17.796648669353615,35.70403963916116,5.5603802246082665,-19.05379853661473
1288,-20.47588699632042,55.64877914182082,10.11736087496541,-21.615793687559794
1289,-22.981858003120408,80.95858157836116,15.942104946051597,-23.860286861246767
1290,-25.293973957111373,111.44252929216223,23.06096513029029,-25.778894962472513
1291,-27.232744940479947,146.5747019539861,31.575309270290887,-27.25119520895812
1292,-28.565718553581046,185.564921525662,41.59667558769949,-28.126612591077077
1293,-29.104425466969623,227.46175704153123,53.17235045541947,-28.279326794286334
1294,-28.746380306638763,271.2157431874139,66.27031758273203,-27.64421503949031
1295,-27.467201190198757,315.71640462898864,80.79289020714147,-26.20703860862957
1296,-25.313471255515406,359.9365212725056,96.5728566561333,-23.995907993655187
1297,-22.39408575917415,403.1175636002878,113.36587060241833,-21.094269843684234
1298,-18.86162614293254,444.7714099663723,130.86240107814461,-17.63326211332865
1299,-14.874662259068295,484.49761062633826,148.72457302101674,-13.751222236204235
1300,-10.569758640153358,521.9177809275914,166.61411022158384,-9.564945630836805
1301,-6.072941628127019,556.7227968642596,184.2064338073951,-5.183188409489126
1302,-1.516385575545794,588.6755685652882,201.192907168509,-0.725567181436578
1303,2.966834693378658,617.6042817036608,217.27130819862458,3.692051569467189
1304,7.262333624983815,643.3901960784161,232.14214887220763,7.979617143039118
1305,11.28085413665431,665.9510490225836,245.51362684073104,12.063337130718903
1306,14.941857418285911,685.2545747866059,257.10175871051257,15.856037078200508
1307,18.166702009930937,701.3566473364632,266.63005343549287,19.247398406892415
1308,20.890045507377973,714.3990121358005,273.84593993862666,22.12995087492604
1309,23.075780165043103,724.5583447229734,278.54069963649374,24.436231149464923
1310,24.717431548517492,731.9947980141427,280.5536702284876,26.14779365257916
1311,25.83535770464609,736.8114677979937,279.774238340969,27.271608014735744
1312,26.482081578735706,739.0069248653904,276.148986022806,27.818728772874007
1313,26.728463536662694,738.4316519508443,269.68711559006147,27.804775143478633
1314,26.637114183690194,734.7678085249241,260.4586746802735,27.264232242098526
1315,26.255353895651574,727.5410704657266,248.5868999481436,26.252225785275936
1316,25.622209320733397,716.1727881006021,234.24117534201923,24.82017486273771
1317,24.7544271314119,700.0528771478722,217.63064195466973,22.998038254584444
1318,23.633626441927944,678.6062652949726,198.99580738918706,20.80486270068943
1319,22.217092743965516,651.3647019584926,178.59949630695877,18.267698720174135
1320,20.456110607423213,618.0572160113452,156.71967497953636,15.426520798298052
1321,18.32108809080345,578.6700010492024,133.6403052561016,12.317913906052492
1322,15.808064087386851,533.4278796338392,109.6391098802747,8.965365548353885
1323,12.924870332834407,482.73277563559645,84.98089979215776,5.395553338380024
1324,9.686403993720182,427.10904396026143,59.917380791584364,1.6490411145803991
1325,6.12300362844721,367.1755198306502,34.68575253863494,-2.226014910859189
1326,2.292382824202119,303.6336219350576,9.505938518937224,-6.183377416548142
1327,-1.725554495006598,237.23809602604103,-15.41877704212078,-10.187131275556965
1328,-5.853432907237583,168.75444544189924,-39.90169068498139,-14.211399157910728
1329,-10.04066339410064,98.93431096881318,-63.77526873025909,-18.229088693613413
1330,-14.254656381339954,28.509379628163906,-86.88735340329009,-22.20528369551513
1331,-18.44761387546284,-41.819021936056174,-109.09384232341642,-26.10032378672706
1332,-22.55557690138052,-111.39386620771458,-130.25937660218037,-29.875098325296804
1333,-26.522507610144288,-179.61498507666582,-150.26352368893058,-33.488767021695345
1334,-30.3036174449053,-245.94612388202594,-169.00444127049488,-36.890255038908926
1335,-33.84689314550525,-309.90405568779204,-186.39916702625138,-40.022430614809096
1336,-37.09143710895669,-371.0589313005446,-202.38448397798567,-42.83834236778238
1337,-39.987024835494445,-429.06117099681524,-216.91878230350252,-45.3134161587972
1338,-42.50953932873423,-483.6453756211189,-229.98002281718755,-47.440484753261146
1339,-44.65907654276158,-534.5841113470973,-241.5561038441628,-49.210989906172465
1340,-46.43851729774286,-581.6499118806784,-251.6359729360346,-50.60850775657914
1341,-47.84591919747817,-624.6359736157119,-260.21562849371753,-51.6187220052778
1342,-48.8858237280491,-663.3954813802288,-267.3102416591481,-52.24330375604051
1343,-49.58199777517184,-697.8616571613679,-272.9601580118697,-52.51820627911973
1344,-49.98303762023066,-728.052034203845,-277.22866691941607,-52.50118358161458
1345,-50.14262490160514,-754.0605680880661,-280.19166927416524,-52.227531601533464
1346,-50.09249770505579,-776.0284877240359,-281.9306245030603,-51.7021200700996
1347,-49.83620221786154,-794.1033224687874,-282.5309727283829,-50.928253234671786
1348,-49.36313897144687,-808.4126795881199,-282.0834500168114,-49.92598737743558
1349,-48.665267694105665,-819.0610286523578,-280.68579792251467,-48.72955626356438
1350,-47.7445250732738,-826.1417602395418,-278.4369230721699,-47.37695396794211
1351,-46.61245722685939,-829.7452963471976,-275.4300172043982,-45.903729645424136
1352,-45.2880925734215,-829.9706295428452,-271.7552803452375,-44.34771186862123
1353,-43.8014038811028,-826.9479862932685,-267.5026237009849,-42.76039731471378
1354,-42.195475059179316,-820.8451079403519,-262.75346313179506,-41.195197468832845
1355,-40.52028371196537,-811.864805046102,-257.5726285931039,-39.68158595747022
1356,-38.8221854614101,-800.2499203742781,-252.0120342285181,-38.22510094031001
1357,-37.13511255982243,-786.2861307111909,-246.1192030461405,-36.8225229097577
1358,-35.48424447420872,-770.2913261634048,-239.93512372310744,-35.47111972391466
1359,-33.89189367625004,-752.584365074309,-233.48610619061142,-34.17126864829863
1360,-32.36989508929911,-733.4494104248555,-226.78672085128593,-32.91502254427119
1361,-30.90626905819476,-713.1189202668252,-219.8504872734379,-31.677221754540998
1362,-29.46703024837917,-691.7809632201312,-212.69623852026845,-30.434300496089847
1363,-28.019733500838534,-669.5974369216931,-205.34756781301172,-29.17702340028316
1364,-26.554501051461347,-646.7272939343953,-197.83160753398585,-27.90259873636795
1365,-25.086133702587652,-623.3401992496241,-190.1821047678706,-26.610382953088358
1366,-23.63591504388498,-599.6080278244976,-182.44139281431487,-25.304019559668262
1367,-22.214548509923397,-575.6897054537576,-174.65855165091008,-23.99968553171788
1368,-20.825079378388974,-551.7295595605568,-166.88762061102256,-22.728521481443945
1369,-19.4756582917386,-527.8621383573318,-159.1825657900015,-21.524019193751027
1370,-18.185679642348685,-504.20495680512596,-151.5877761008212,-20.405893184413376
1371,-16.97756287362169,-480.8642140034874,-144.13652075446348,-19.38052573283674
1372,-15.868651632499649,-457.96287468152786,-136.85953531727642,-18.45594817113268
1373,-14.87001064570263,-435.64875256017115,-129.78716658750932,-17.640232174596086
1374,-13.988497660352632,-414.06858530201276,-122.94043035681531,-16.92760444818909
1375,-13.226305204088499,-393.33222437181934,-116.32516894796892,-16.289540651786986
1376,-12.570001149320515,-373.49903268962,-109.9346127242522,-15.67069024746625
1377,-11.988700267377217,-354.5871177075766,-103.75152806158829,-15.003905270251252
1378,-11.447592351049776,-336.59117417864485,-97.75165354605502,-14.241570392597545
1379,-10.914431905209225,-319.5111435285399,-91.91296198359136,-13.372393359254936
1380,-10.355560477733844,-303.3664113780746,-86.22305822569943,-12.402152497074654
1381,-9.733399522144266,-288.16975969766264,-80.67735414246006,-11.32580920610937
1382,-9.007557298424612,-273.89393693132484,-75.27343723645883,-10.129193085650247
1383,-8.14014032190239,-260.4768049605273,-70.01382226434534,-8.811745375898354
1384,-7.1152247411335345,-247.84515540386428,-64.91413963176785,-7.401432641403328
1385,-5.955790143495768,-235.92337233129174,-60.00193950321621,-5.945375055297509
1386,-4.720946107459743,-224.63226327032982,-55.307069997905096,-4.494277257952455
1387,-3.48209870238926,-213.89151031564774,-50.85597841436837,-3.096470321338934
1388,-2.2910334887386923,-203.62283753391617,-46.668146855106706,-1.7947348815583737
1389,-1.179301811961434,-193.7501324197721,-42.74916502276797,-0.6221969923858635
1390,-0.1794216235226091,-184.21030354311637,-39.08895594816622,0.40410752888287477
1391,0.6841276615977301,-174.9734197356658,-35.66883945605789,1.294368203404253
1392,1.4263385314460604,-166.04985543346316,-32.46643826066457,2.091792707378387
1393,2.0977808987958806,-157.47890196340282,-29.453557728020893,2.853474299256838
1394,2.7550015600039863,-149.30848388153757,-26.595062747550678,3.627202120965115
1395,3.440978286941907,-141.57379160581507,-23.852544381613285,4.452742006007602
1396,4.169694127418178,-134.27506281938318,-21.18762958084012,5.369200113843575
1397,4.926754556632788,-127.36878360976431,-18.56342594335932,6.40825394847692
1398,5.620213928358021,-121.04776886401193,-16.043109063268602,7.526871665436196
1399,6.3325236075198585,-114.838009099701,-13.467640581726252,8.725787942943088
1400,7.089207539291838,-108.56230830492223,-10.795656822602838,9.965733527376557
1401,7.87849745475174,-102.23650749173446,-8.063757839746465,11.19877255425743
1402,8.680359960362436,-95.99778250135043,-5.3574196161185625,12.376400541483612
1403,9.48010830518339,-90.05414746922825,-2.788687358893468,13.449907030312668
1404,10.258115609113647,-84.63528447495274,-0.4730004311529252,14.376522158046267
1405,10.977984059233341,-79.95042854726687,1.4915479370148428,15.12805593251436
1406,11.598699113169411,-76.15717409471638,3.0383240599539385,15.696045634969655
1407,12.100786718060279,-73.34032992403355,4.14244493280213,16.09046339362728
1408,-0.029427495637561585,-1.9958803532379286,-0.7510840388837525,-0.08821935400660297
1409,-0.029261156682805642,-4.434817265080925,-1.6558672187915788,-0.48353728675074104
1410,-0.002083603410816183,-7.904488546790849,-2.9575124338720378,-1.1077042525860916
1411,0.04707362157318573,-12.406654922891548,-4.667042324846321,-1.9797139896455747
1412,0.09495685314586895,-17.85272814575449,-6.7522699080590005,-3.085975322383569
1413,0.11183940325916547,-24.06220118609447,-9.14043238860783,-4.37977279075408
1414,0.06754878699038494,-30.782790606475793,-11.733593408300688,-5.793541234897391
1415,-0.0710998535610157,-37.731158794452995,-14.424115250071116,-7.249324676745079
1416,-0.34440252713810293,-44.644673780489164,-17.109780436669038,-8.664668143774138
1417,-0.7912969701467238,-51.34383660874168,-19.714108222801165,-9.964261472473163
1418,-1.4309468474861124,-57.81419729344007,-22.218664187502267,-11.099541604025855
1419,-2.2587985368293317,-63.9974387923226,-24.58814275605387,-12.059011145080317
1420,-3.25573980118934,-69.85483323555786,-26.798466198061092,-12.859938053764575
1421,-4.394107451340103,-75.35243022116379,-28.83218968958182,-13.53577105428779
1422,-5.637994630138286,-80.46088913177586,-30.67618866515162,-14.12767525970772
1423,-6.941739772194589,-85.1634815045124,-32.321308653179834,-14.6735531205179
1424,-8.258514329080121,-89.45003337290147,-33.763257333815915,-15.206278991413463
1425,-9.561061226610011,-93.31405102142506,-35.00416898136359,-15.766500228827358
1426,-10.846604568519208,-96.75412923635578,-36.04828968636446,-16.38982541801057
1427,-12.1162087170033,-99.76223365696053,-36.897614713199985,-17.074324850309
1428,-13.35416736490986,-102.3140495415307,-37.553913130530866,-17.77868002185349
1429,-14.525376233894312,-104.39310594889466,-38.02243718374135,-18.449282917967743
1430,-15.591062942197846,-106.03106893028627,-38.311588314039255,-19.04115430169664
1431,-16.526948802301447,-107.30726746791028,-38.42647978841838,-19.5201454648171
1432,-17.332410131628215,-108.31582074473923,-38.3699396052213,-19.86592252556609
1433,-18.01970655378569,-109.13929181985118,-38.151507873098495,-20.08091127603623
1434,-18.592740852594588,-109.84707541402246,-37.789652565249156,-20.192344813533765
1435,-19.052480983623386,-110.50801594098415,-37.30436514225769,-20.24293374954557
1436,-19.412677846145236,-111.17594829502407,-36.70658671058728,-20.274882481756936
1437,-19.698708195072435,-111.86166326951486,-35.998681580610445,-20.313395779911694
1438,-19.934228540045012,-112.53298232645511,-35.18256917979259,-20.35933624983561
1439,-20.12429903284316,-113.1341946329352,-34.265090466504994,-20.399316035417016
1440,-20.255564358371213,-113.60301809032691,-33.26479164374733,-20.421448786362134
1441,-20.30729995612892,-113.88270603130637,-32.21267887745754,-20.407087668548566
1442,-20.2580823476425,-113.92739221325098,-31.13825880014326,-20.304726987320958
1443,-20.08974192855031,-113.70003241055915,-30.05892153229245,-20.043429405090002
1444,-19.78946431925301,-113.17392267634679,-28.984492382284916,-19.583955770164298
1445,-19.363530304048112,-112.33920192122483,-27.92265152098182,-18.937161131878156
1446,-18.85440558403327,-111.20142248371018,-26.877224817901254,-18.141569141914996
1447,-18.33157690500373,-109.76563425283068,-25.844153268898342,-17.24308902123009
1448,-17.857225690891955,-108.03458993962688,-24.812940801925137,-16.286056812962396
1449,-17.455950575812082,-106.02963598772115,-23.77198808599821,-15.314591223768705
1450,-17.12430718755939,-103.79209981454822,-22.711246001437132,-14.376619299179355
1451,-16.864649731997822,-101.35961343583861,-21.62537229581479,-13.520257991784888
1452,-16.685018134199545,-98.74286112719508,-20.517951258873904,-12.779852690780663
1453,-16.56999373788512,-95.9275059424132,-19.403671738871854,-12.160095050906003
1454,-16.47431204550014,-92.90550929320662,-18.306333839035826,-11.641575675859263
1455,-16.348732749966672,-89.68723360591572,-17.252028087672443,-11.197924213289633
1456,-16.16870404958239,-86.2756911536436,-16.2626560903722,-10.801996435730675
1457,-15.936635275901066,-82.65054431609805,-15.34928886275172,-10.42205383395425
1458,-15.656027007615888,-78.77985288666096,-14.508543445295984,-10.027198201011567
1459,-15.310927329869203,-74.63444461425856,-13.729647922653903,-9.605693806376426
1460,-14.878260981561446,-70.19814571365228,-13.004708153734514,-9.170485536770844
1461,-14.355136869231785,-65.4764193998894,-12.329008033294233,-8.753398474537022
1462,-13.761647373461717,-60.49789970851223,-11.695165598214052,-8.390682899590017
1463,-13.11832798064758,-55.30789660134682,-11.094097630750689,-8.10287116341581
1464,-12.436492337627355,-49.962013611562206,-10.520453205258455,-7.894927712986261
1465,-11.734604599117965,-44.527543063211745,-9.975033570073307,-7.767189898618863
1466,-11.055138070465492,-39.08213933267968,-9.462077317164331,-7.716820252538452
1467,-10.457169793720775,-33.70087903998695,-8.985053419352182,-7.728341782298567
1468,-9.984346808223854,-28.448031512554607,-8.546073139586396,-7.766339990020536
1469,-9.642639722944619,-23.377571411174273,-8.147939682940605,-7.782050043627117
1470,-9.407668103852089,-18.530758439722856,-7.795853826867103,-7.738960255379392
1471,-9.244529879308987,-13.936271600869699,-7.495573100705311,-7.637841346290012
1472,-9.124986446653823,-9.613100619077212,-7.249757093947868,-7.50163540867936
1473,-9.026737802702884,-5.572512909671258,-7.057255731692271,-7.350261929457906
1474,-8.928447158478098,-1.8208078815940119,-6.915212140326696,-7.202717731312092
1475,-8.819505558631613,1.6405155848999946,-6.821407538312985,-7.085298544013925
1476,-8.711603407578743,4.810750587634189,-6.77410225591078,-7.028692112845974
1477,-8.634131334277965,7.691653721053436,-6.768197367722135,-7.051733572889952
1478,-8.61550024007171,10.30293572961231,-6.794128017342143,-7.1407090772478945
1479,-8.672541012513276,12.685169262212,-6.842791570610528,-7.252416144925258
1480,-8.808526222385012,14.881722479948385,-6.906558179526555,-7.349224878910066
