,TP9,AF7,AF8,TP10
0,-0.3857053036490058,-0.73043550644754,-0.5240824956303384,-0.7407761349481652
1,-0.975635771279628,-1.4973453157169168,-1.2063346440575844,-1.5539354255593858
2,-1.8414985578038234,-2.575404356057666,-2.211930569604971,-2.6793988712426673
3,-3.005461040662764,-3.968464560975172,-3.561794651663158,-4.090469901103696
4,-4.448515769294476,-5.648730973387173,-5.248201695094415,-5.72688339817028
5,-6.109566562198724,-7.558391830886353,-7.233041353226119,-7.518578043237141
6,-7.90692703923838,-9.616806508862103,-9.44902115038527,-9.396739775194469
7,-9.757297534508913,-11.729824762419025,-11.808103005246009,-11.290868906557238
8,-11.584188937780267,-13.80674106567787,-14.2180121892162,-13.129146553241657
9,-13.321225956333947,-15.788821101892209,-16.60575485134466,-14.861861284061428
10,-14.934438604746987,-17.680659475646415,-18.945130751374734,-16.503014781977242
11,-16.404391162636777,-19.47123993014153,-21.198853625863457,-18.057599010996874
12,-17.738546792598623,-21.153330870732372,-23.326911002704044,-19.519701053745557
13,-18.947640284651147,-22.71859246680512,-25.287374129493386,-20.861323825034308
14,-20.016804432976944,-24.163105371953833,-27.047258468014718,-22.05275515169587
15,-20.9143088374251,-25.49716377144588,-28.588694350657175,-23.084709822150398
16,-21.62887841235772,-26.746815822046756,-29.905094473717334,-23.964369202460183
17,-22.174877573723872,-27.942076045124086,-30.9935918949957,-24.696761351440546
18,-22.564645138163353,-29.094931676830793,-31.850512387798616,-25.281098648729703
19,-22.794245622969793,-30.185251670787277,-32.47352250107553,-25.724138209790617
20,-22.857557481753343,-31.17598936697192,-32.868295639783405,-26.04360609710055
21,-22.769316127174406,-32.036635576191536,-33.04752899534459,-26.257953366538388
22,-22.570138625000833,-32.75089435972782,-33.02249058162761,-26.370991265728147
23,-22.299826022125472,-33.31596558250467,-32.80037792814796,-26.368960295089963
24,-21.973755857217423,-33.740053003440096,-32.38847339687563,-26.239228769040754
25,-21.5943961342576,-34.039323382854526,-31.797113693048775,-25.982416240165488
26,-21.16995043824696,-34.2314502772821,-31.041130058266933,-25.606124603438136
27,-20.71381539593958,-34.33384711350317,-30.14243693429563,-25.113542950910794
28,-20.23712411939863,-34.36468508777463,-29.13395871710829,-24.507365936229686
29,-19.74374465145146,-34.33575565246856,-28.06089558985092,-23.80202765087964
30,-19.229122250626443,-34.25647970701312,-26.975889806250496,-23.02953165387971
31,-18.693261828088744,-34.14449096911036,-25.931456906590785,-22.24124650414695
32,-18.147810407954772,-34.01535073076891,-24.97217638059454,-21.487972483017355
33,-17.60529572135131,-33.86913789368521,-24.128796843576385,-20.796828320575404
34,-17.070166701498128,-33.69443898564814,-23.415589948756477,-20.173253954297024
35,-16.53178904497945,-33.48612226972937,-22.83264669672663,-19.610231396780062
36,-15.974095465507347,-33.26012090485614,-22.371350694534552,-19.09292035575533
37,-15.394933516914154,-33.04026862746966,-22.012749766485342,-18.596179831947683
38,-14.804973280484917,-32.83098242668535,-21.7240846998129,-18.07945854305714
39,-14.212763639801548,-32.61410329237969,-21.46552734249843,-17.49505121145473
40,-13.618917461473742,-32.36344278871,-21.200155561617386,-16.811305800624503
41,-13.03486799144974,-32.05653570048206,-20.896723719622237,-16.027624246626633
42,-12.499672406856938,-31.6741775872972,-20.52947141997607,-15.169806538776406
43,-12.071461060111616,-31.18752586556127,-20.079433301337804,-14.280223861216246
44,-11.806995694089565,-30.55460685481672,-19.53367526067892,-13.407110013355144
45,-11.740392197871113,-29.74280959148247,-18.885298927808087,-12.599019871385464
46,-11.879048032653575,-28.768412574892835,-18.13446967357565,-11.904328412162098
47,-12.218827627886766,-27.703366791998747,-17.28968807320074,-11.358147216242113
48,-12.747050660498946,-26.633806724118056,-16.36974605182159,-10.95309623334308
49,-13.424700331751113,-25.622678324903454,-15.400881547490373,-10.631718468370966
50,-14.178530564282807,-24.70125457468694,-14.410124911539443,-10.323680063688856
51,-14.927064994284411,-23.872446095131796,-13.420335007308914,-9.980896654592188
52,-15.623640992783628,-23.115117485332405,-12.4472231974385,-9.582287331152573
53,-16.264609817701782,-22.3862051740987,-11.49759484838757,-9.128483203174158
54,-16.85903389572672,-21.629611663397984,-10.574322214354268,-8.639850657006011
55,-17.41594640359526,-20.794261213830023,-9.685364530806991,-8.155223302815637
56,-17.956946135064094,-19.84278162167441,-8.841792209950018,-7.723630742061807
57,-18.52047853201285,-18.754155571422363,-8.047331115045735,-7.389997256261375
58,-19.139308393146738,-17.529258692316485,-7.294733740446435,-7.17881937229839
59,-19.810465645067378,-16.19596340754521,-6.569245842747674,-7.081919184986174
60,-20.484217984336258,-14.813597557380483,-5.8546916368861615,-7.0599831660944545
61,-21.07608664753414,-13.463534186837828,-5.140980381960927,-7.055906741344687
62,-21.498140097287745,-12.221797803119342,-4.4269799090072555,-7.0069653724781125
63,-21.680504440901352,-11.13058041099366,-3.719240968575981,-6.850518966066794
64,-21.576428635023746,-10.189486838453357,-3.033015160078372,-6.538666029139672
65,-21.168306210608726,-9.376073652324004,-2.3921623668858865,-6.059896818604136
66,-20.470198599596724,-8.670472070279555,-1.8303467482500138,-5.451787013088894
67,-19.531347842802347,-8.061325636220818,-1.3941470665760582,-4.794603113929402
68,-18.429803312365586,-7.536522634935613,-1.1328955526379103,-4.177561055650321
69,-17.24526352391812,-7.0734914904392285,-1.0812150474393079,-3.6681100364248103
70,-16.040672528435962,-6.639778928459908,-1.2511912004278491,-3.3076449702664292
71,-14.861262142001996,-6.201746350199479,-1.631480433140447,-3.1237098290493184
72,-13.741802121816466,-5.733379834828063,-2.189304658483521,-3.1437168900866372
73,-12.714493194817965,-5.219926547917474,-2.8772299047509784,-3.3884604638544005
74,-11.804354322355278,-4.657886868710473,-3.6390300058827636,-3.8526062798636165
75,-11.01866221087417,-4.051202730319992,-4.410430551093173,-4.497256572850843
76,-10.341855307019484,-3.410811605412455,-5.126837793806651,-5.267575618164705
77,-9.744922244027292,-2.757346029719804,-5.739079906266735,-6.115768567566471
78,-9.20809530108713,-2.1130312627667633,-6.219659844205711,-6.999997860659392
79,-8.728888534079337,-1.4860057298347442,-6.558551282510356,-7.873636551512221
80,-8.30256757936395,-0.8627242201721425,-6.758191925024927,-8.687204186882413
81,-7.9055605067114225,-0.21705005146372305,-6.828304783337238,-9.401137850602243
82,-7.503258083641768,0.47420816508867547,-6.781455375703546,-9.99511782374432
83,-7.06862835889271,1.226088503199976,-6.629850793443808,-10.463718938473331
84,-6.593502840827104,2.049116179774352,-6.380811529691715,-10.804012672862296
85,-6.082056701134595,2.946319624554024,-6.039875351590429,-11.01433685191848
86,-5.539414221487992,3.9040552701943345,-5.619291016019363,-11.112046406528764
87,-4.97640329073781,4.890695951617008,-5.137520670890527,-11.13740913129522
88,-4.419960805121689,5.865192643219788,-4.6166566141616885,-11.128193978187367
89,-3.9065187503582557,6.786842097764612,-4.081029389159201,-11.094759564942956
90,-3.4571631169356927,7.623233946269835,-3.552417770499454,-11.022795181164977
91,-3.063352254057773,8.358396828107141,-3.0469939900412584,-10.896443209930286
92,-2.7042438286978583,8.992110757152851,-2.576440468393985,-10.707693337800855
93,-2.3698273789425603,9.532612669804763,-2.144829751889611,-10.44762110880542
94,-2.061659615292807,9.996402894846057,-1.7398090872762377,-10.093602987895483
95,-1.77077775458921,10.405586167752933,-1.334576174388501,-9.61230998549577
96,-1.4640230411083066,10.77648774789219,-0.9004944210308312,-8.98040369749572
97,-1.1024446277723314,11.111206632919346,-0.41559806364204166,-8.200227653193915
98,-0.6661530436020991,11.396837051341809,0.13163237520715002,-7.306022235021754
99,-0.15762018371871084,11.613320787052247,0.7418645100847516,-6.349613044541826
100,0.41065294139875924,11.747486881293993,1.407716693113577,-5.374156518200384
101,1.021757865029093,11.803615771848726,2.11565043850119,-4.402890166864928
102,1.6511052942932214,11.799246915503172,2.8460393147519576,-3.451253763290065
103,2.262046884811376,11.763433771273846,3.5737121408021597,-2.547254577697556
104,2.810960322213644,11.746369249023799,4.272084429587481,-1.7243574754094864
105,3.2645606240550387,11.804464292527339,4.921434993153932,-1.0041480309225659
106,3.610027007523555,11.96822425678191,5.51097369147911,-0.3984297006694862
107,3.854830368667174,12.22790255113655,6.030897627353517,0.08627567099098842
108,4.0148251736239695,12.533946315447336,6.466935212237331,0.4483929338932747
109,4.1028746877037925,12.815315843300228,6.802973129311508,0.691527296530292
110,4.137035308584838,13.012976665070259,7.027019440874078,0.8264742977991223
111,4.140410648652659,13.097090653051639,7.135199084451512,0.8732817759084767
112,4.129328913875138,13.065025671878725,7.129807115840993,0.8549244805407393
113,4.110173588231666,12.935509289974503,7.015091317054779,0.789194927748628
114,4.088799986423574,12.739826414184522,6.797374726573844,0.6918814999083231
115,4.08589865783929,12.518063174421261,6.487452386626363,0.5886497839272189
116,4.138478314642925,12.317971549511004,6.100137195906412,0.520294023057855
117,4.29312550976064,12.18194489126132,5.649702014385055,0.5178329849357844
118,4.516800183432106,12.121585411722153,5.145754393092677,0.5315003872852497
119,4.9910774506224005,12.135262543040072,4.596532840103644,0.604031563714577
120,5.794911207212785,12.20497872912248,4.027414742512579,0.7650559942316513
121,6.928048661837574,12.293526495210209,3.470673801315932,1.031347358505947
122,8.328701610333214,12.355810048744535,2.9530262960107967,1.3914754108396596
123,9.886741429187174,12.370263094002613,2.493045779097096,1.8114930996912648
124,11.461798056432668,12.346451025108252,2.1071908242065724,2.253946429220065
125,12.912294453935301,12.30756517803764,1.8095217031263895,2.6857670469868475
126,14.129419750259286,12.27648239965816,1.6055370844885681,3.0774633397441464
127,15.051312429129743,12.264675609658154,1.4879821734970002,3.4007799491045856
128,0.04169824647177536,-0.3937768061684057,-0.4465018039208051,-0.21887987924421032
129,0.09651777944750661,-0.8645681595928467,-0.9755212719616368,-0.5750079765850036
130,0.12344880398548064,-1.5252530275701475,-1.7395702447699413,-1.1445609098464153
131,0.061338121239975035,-2.3733539347959898,-2.7443224882264237,-1.9649172191294535
132,-0.14083942794176166,-3.393738931268369,-3.9732032070371686,-3.042011674392436
133,-0.5098466584487756,-4.563854819226566,-5.3887412942660085,-4.349612367309523
134,-1.0512927143397293,-5.856149837498714,-6.937784202742552,-5.838536204778729
135,-1.7596780024910839,-7.237084779503566,-8.558979187540704,-7.444930738394541
136,-2.617987519989832,-8.664395410036182,-10.191777897702282,-9.09124097779475
137,-3.589887589342879,-10.093285026001265,-11.7897829122783,-10.690691825143055
138,-4.621137665558656,-11.497713247449147,-13.342144453451763,-12.175452750498419
139,-5.648328309677392,-12.84831262910884,-14.830594863826962,-13.504969166661231
140,-6.612337489042616,-14.107584482177996,-16.24612787577362,-14.658340097257684
141,-7.470883865999237,-15.227485614336384,-17.580790297224485,-15.624574983037157
142,-8.195493693966615,-16.17223587323402,-18.828192012973943,-16.415915472934095
143,-8.763898279388425,-16.931421472574105,-19.988321401945985,-17.073625327208664
144,-9.174429717001418,-17.517512424395832,-21.065362542205904,-17.659575536945024
145,-9.456229803627481,-17.96213708637449,-22.064113112420532,-18.232065490300695
146,-9.651064809518404,-18.315205557758922,-22.988482521328823,-18.817799600880658
147,-9.790472141896537,-18.64488364922277,-23.840455954551867,-19.406569576959797
148,-9.889549151370481,-19.024776790090673,-24.620525923195057,-19.97414889578334
149,-9.964945558436183,-19.511878112537506,-25.330016324271018,-20.50628931534885
150,-10.053145883298788,-20.131844254125433,-25.970872139923713,-20.995060881857135
151,-10.212821346233692,-20.874825890847927,-26.542327325230307,-21.423584644924752
152,-10.504595569469862,-21.70047003827206,-27.04206288691067,-21.767108450842205
153,-10.961687438126559,-22.556814797015907,-27.472676386912532,-22.013501829427916
154,-11.591354584152286,-23.4018344074112,-27.84350706909781,-22.182651457263194
155,-12.390503182863839,-24.202445231869,-28.16492621631241,-22.31173243675539
156,-13.35106382728704,-24.92333555511515,-28.441011371138266,-22.41944051206101
157,-14.455572987840718,-25.529817258902145,-28.66778570348771,-22.497120837220436
158,-15.665181079979964,-26.00319137860942,-28.839889350925425,-22.531403240420218
159,-16.929377178491954,-26.349143988333857,-28.95366205444363,-22.520352812829508
160,-18.210861226818267,-26.58503734980881,-29.00416708490176,-22.46802297421833
161,-19.485325758086894,-26.723490042887896,-28.98638465487259,-22.37010491674522
162,-20.719220479876594,-26.770096283317553,-28.89725175008781,-22.20951767960846
163,-21.856361300275267,-26.724709131999482,-28.73332315713564,-21.973558287511025
164,-22.836618530749703,-26.575660999468628,-28.487661571786177,-21.665653394136992
165,-23.62952075368214,-26.305212709464207,-28.150242173926326,-21.292768973107712
166,-24.239965934792117,-25.90986655995806,-27.712222095546387,-20.847670971044984
167,-24.671726843620498,-25.405853979646814,-27.167983299216903,-20.308225674702445
168,-24.89283581774362,-24.81499075461407,-26.51322792196003,-19.652062225471347
169,-24.850015969475905,-24.162613510913122,-25.745041679731802,-18.8623042735158
170,-24.508994834682817,-23.489582819367058,-24.863059763390126,-17.92426950225202
171,-23.872176784825363,-22.836647192752118,-23.870599770689992,-16.824012888758304
172,-22.96992935686874,-22.219242628897625,-22.776884706883667,-15.554789559050006
173,-21.85031725789497,-21.635092853127322,-21.600931493937725,-14.138160553791698
174,-20.57666900492666,-21.07692863612407,-20.375906239613798,-12.632926672061116
175,-19.22371665310271,-20.530632930867622,-19.142773601743272,-11.119429449639561
176,-17.858996516882215,-19.97273666804197,-17.935448805130616,-9.672719742712736
177,-16.515908661287018,-19.37837633887229,-16.773470507796794,-8.343342268808465
178,-15.192443615978359,-18.732873170048908,-15.66467076516852,-7.161709387120817
179,-13.876101628779804,-18.031600924991963,-14.609519465112731,-6.152649314178423
180,-12.560134373633282,-17.274047235759703,-13.602453675366231,-5.345037198403421
181,-11.236431898191864,-16.472167375275124,-12.63555774133509,-4.759137145070708
182,-9.884172487646495,-15.662990659695224,-11.70356169599369,-4.384292364760959
183,-8.467529768366179,-14.89740400085846,-10.804785507777071,-4.179012398949829
184,-6.939503792971712,-14.225891941624942,-9.946955049484107,-4.095952140324582
185,-5.277014956691147,-13.696680638593536,-9.157828433452718,-4.1147846056762285
186,-3.513625774741081,-13.342180682675632,-8.47858939762557,-4.247548806695749
187,-1.7269918414328376,-13.153296242897415,-7.94306752196668,-4.514982771147038
188,-0.004699681838775255,-13.081019023264549,-7.5670056666656,-4.925252634936408
189,1.5914360896200461,-13.074187485557605,-7.350944913303654,-5.472377674681355
190,3.024993553615399,-13.096630431846403,-7.285636801481667,-6.14276929263943
191,4.256153645062617,-13.113385885240113,-7.349402492552697,-6.912342009003209
192,5.231684669951081,-13.089881463695296,-7.505785567171137,-7.741273822275581
193,5.9004680872060336,-13.003502702933874,-7.712905972809812,-8.57439817735956
194,6.239728793727166,-12.84384173826025,-7.932995689658747,-9.35364090626821
195,6.258539253516534,-12.60486645784252,-8.1350695677769,-10.030392697486375
196,5.978288817245921,-12.288221964676133,-8.29756046435659,-10.55997972850767
197,5.420205981669671,-11.908684816289853,-8.410934968909494,-10.894210803666311
198,4.614443729241347,-11.485453037967375,-8.4749264104353,-10.993730323122447
199,3.619798190703018,-11.028613199377107,-8.493221146759241,-10.858052803378945
200,2.5105723678798846,-10.536311069289875,-8.468518538321334,-10.533676445462019
201,1.333575288775723,-10.001936618045619,-8.394220652926135,-10.083118299327879
202,0.1041593690018438,-9.415245880443232,-8.249281622920448,-9.550646412584667
203,-1.1546264850605148,-8.758178644281323,-8.008263372212834,-8.95590453674315
204,-2.4031002913324055,-8.021418379515598,-7.659654275580719,-8.309679885171635
205,-3.60684683962151,-7.233296938581886,-7.21138911951472,-7.629249208240856
206,-4.756584807044285,-6.456812608803345,-6.68439710773598,-6.94286325823637
207,-5.873055243196354,-5.751892357928332,-6.1085443070995105,-6.276690251434203
208,-6.973649684156558,-5.139315337264196,-5.515286516121863,-5.635391161255116
209,-8.036028878603053,-4.607029475969464,-4.924507488800564,-4.995226633496895
210,-9.000454106045302,-4.140866386651023,-4.342864639390063,-4.320278355600419
211,-9.80279091386881,-3.7390215120007055,-3.7715789758062095,-3.582185609702833
212,-10.403736708533145,-3.4005825696445275,-3.2105289781091377,-2.7607372856270933
213,-10.785375378942154,-3.098410088083395,-2.660707692593875,-1.8480781772275758
214,-10.94373348224321,-2.776525983896432,-2.1258467123120055,-0.8699599320617865
215,-10.898782956752544,-2.3740233289620174,-1.61089742388652,0.10961893691725827
216,-10.70112204086085,-1.8447583934603549,-1.1161516005222143,1.0159774467405411
217,-10.412516246759196,-1.176604669654478,-0.6268374905439659,1.7959121938339773
218,-10.061155084119443,-0.4298046028106777,-0.13236503291399898,2.4453673141598706
219,-9.640122199978363,0.28662952780597895,0.32974589435119217,2.992673144967708
220,-9.153636951033057,0.9166921811461993,0.6907783338084965,3.4467608001447223
221,-8.62349740795107,1.4634494213750566,0.9127689813050242,3.8005090025794988
222,-8.05537773924745,1.9072043196543607,1.0032163128065708,4.07482883294743
223,-7.406472104142865,2.1589302212057646,0.991087275079095,4.361309737387026
224,-6.571719022070888,2.111105894138219,0.9071074107797487,4.837653824878135
225,-5.415448487012385,1.7404266231272891,0.7889896056800276,5.702947681626392
226,-3.8334994227594104,1.099909520205609,0.7070279908031171,7.085016927401548
227,-1.7914670413908835,0.20715123913602662,0.7564049728320419,9.020811227425597
228,0.6436179401317002,-1.0578345325114475,1.015766107557131,11.448078305669966
229,3.3835825348442974,-2.9488661694326677,1.5137695607226704,14.265715087981063
230,6.502797063347254,-5.733920266926535,2.2195262662804507,17.502231046212962
231,10.185059235537778,-9.626195211743587,3.0651952371404567,21.293303852632807
232,14.5153424056192,-14.824332854930704,3.9839064795436845,25.698416950121835
233,19.414352339483045,-21.49824526499325,4.947680422138385,30.62433720603758
234,24.666957065111546,-29.636161998684774,5.9484248936933275,35.84862026822901
235,29.959864448614837,-38.96648930983011,6.933580529471101,41.057834101317695
236,34.92636092948509,-49.09264689014535,7.841644646915955,45.87512250168168
237,39.22359740827662,-59.54811224063402,8.677356344371809,49.95286576732845
238,42.6018752398317,-69.69114105096789,9.514125010417105,53.06595331040697
239,44.89759425143771,-78.65039919874124,10.471222707153835,55.08264558188778
240,46.00295635914749,-85.38371903476705,11.688770517060835,55.908282541762475
241,45.87206204134672,-88.81770380304344,13.305657416968092,55.47196345270289
242,44.55908918045436,-87.97799222231433,15.42221290922186,53.77045415107247
243,42.239440726729505,-82.00914822918915,18.05179811487334,50.93625116954396
244,39.18623172959606,-70.13960570754111,21.139571282795007,47.22451505181331
245,35.72599153684915,-51.75513365166303,24.634789053121025,42.922879220607804
246,32.112257999697334,-28.86752697795478,27.80553798995123,38.416486329796015
247,28.524516982039433,2.2596313244788426,31.81751074244477,33.424720594983846
248,25.02082217969124,42.25899552038766,37.21886592781669,27.80975915441679
249,21.72165726645676,89.62743363485944,44.062546382407014,21.692545621435777
250,18.812974667054128,141.53152205456448,52.0468693436268,15.399798803502298
251,16.42905999201119,194.41560369177353,60.67804022422957,9.295730811260382
252,14.637789915302582,244.60588369557635,69.42689365207406,3.7241209276237353
253,13.454214233667441,288.9396780083996,77.78739139843903,-1.0064400205510557
254,12.830801646484172,325.1648745903941,85.24731981014811,-4.676688273037417
255,12.645915282947767,352.031561409965,91.33374314138861,-7.232350517460413
256,1.4527232625320379,12.276673951162499,6.343630214834808,-0.27132647310478375
257,3.304984057428391,27.08368213202337,14.653310424738923,-0.36503682385459074
258,6.061779405749638,48.433379846287146,26.929518101195193,-0.37917833105491916
259,9.770765788827632,76.47551606685856,43.388380460423676,-0.2710327754631048
260,14.402198585411785,110.78230111461896,63.88460597946308,0.01042768181297185
261,19.859775822977916,150.37580266192347,87.89046918047461,0.510733609473726
262,25.973710346256535,193.83963421073557,114.52691721728588,1.241108108641079
263,32.497731991167285,239.51549130549802,142.66126013773416,2.1701894228558953
264,39.13658661887286,285.79157538782465,171.08173734790893,3.2436689034839663
265,45.61613232668371,331.5182153115066,198.75104944959716,4.397480448527575
266,51.78255854129091,376.54174817485415,225.12286544582068,5.5520296794255914
267,57.43976778628263,420.33611385507174,249.44648005407385,6.620041285004689
268,62.40973031096275,462.4641450533878,271.07023289242034,7.521443393079116
269,66.54219326568229,502.534925600196,289.4738191227209,8.198502828026932
270,69.73299493585144,540.1497541148186,304.27409892349357,8.60623212843424
271,71.9331915348623,574.87050750236,315.2195652901522,8.689016915900655
272,73.13090256651803,606.1909460677673,322.1769336283406,8.368897601498663
273,73.3272553106766,633.518453098973,325.10757369777525,7.5648711310152095
274,72.53119683304067,656.1759918919353,324.04035055916023,6.2280941299947745
275,70.76483054204681,673.4374440670434,319.054245285992,4.348802602845021
276,68.06172522866113,684.595899711694,310.26630606254736,1.9353483980622133
277,64.46030946669886,689.0260337805379,297.82177554602754,-1.0022669381108502
278,59.99620430326054,686.2360408292034,281.8966428596082,-4.437623960649077
279,54.70981083036514,675.9128205721893,262.7011063300537,-8.300016730552624
280,48.66860880834845,657.9430356353226,240.4739025558208,-12.481233207409574
281,41.969119831145676,632.4116945087278,215.4772263391718,-16.865573262663503
282,34.716603119018515,599.5634332843541,187.99404253390546,-21.35122976148006
283,27.005418800035184,559.733591381674,158.33243611311576,-25.857065640561743
284,18.924234374674697,513.3246322432024,126.83941124040118,-30.315359064250103
285,10.58368597586572,460.8305696032288,93.90331285197728,-34.66301877804851
286,2.1224345528321784,402.8375333047648,59.94408868349392,-38.84097217820921
287,-6.322258306448822,340.01740542859795,25.404776771085146,-42.79659533138251
288,-14.64860446189022,273.1332934408061,-9.25814600385128,-46.481450906625774
289,-22.792258967285626,203.0288734433242,-43.58491644544273,-49.844304428400555
290,-30.70285295999877,130.60508710920493,-77.13011730598426,-52.829078752393734
291,-38.330593190103095,56.78319702246529,-109.4837285318322,-55.38614187668699
292,-45.62468231407706,-17.539021100324902,-140.28847590308564,-57.4874994046098
293,-52.54590962284344,-91.53116963324241,-169.25795892488986,-59.13645223863549
294,-59.08573399545875,-164.4588654478082,-196.18061813466542,-60.36547714344993
295,-65.25708283831004,-235.67729649325537,-220.9074265380874,-61.2260196890527
296,-71.06489677314646,-304.61834681440774,-243.33583041868695,-61.780687126305104
297,-76.49429040898012,-370.7826106154992,-263.3996022856595,-62.09982432225597
298,-81.52323697681155,-433.7309984333972,-281.07180344890685,-62.260221457917744
299,-86.13852298700539,-493.0872008879826,-296.36761036693395,-62.33409224211138
300,-90.34007619118881,-548.542379189934,-309.33583514491784,-62.36629945092384
301,-94.13376210294763,-599.852174216958,-320.0494714549017,-62.366180737353275
302,-97.52109455750339,-646.8305682398975,-328.60337224643416,-62.32635412199569
303,-100.50216845456363,-689.3417096518617,-335.10970940605284,-62.23756464213052
304,-103.07873675603034,-727.2842283061694,-339.6911304972389,-62.081878337285346
305,-105.24528908738097,-760.5859861740341,-342.4785307851217,-61.82348792500903
306,-106.98406031163945,-789.2029756518391,-343.6049556295154,-61.41657973871102
307,-108.26510253122947,-813.1083171329823,-343.19693366822224,-60.82905826752987
308,-109.06162181612251,-832.3026124978354,-341.37182776460577,-60.05512209299916
309,-109.37244718178536,-846.8385604760014,-338.235911351588,-59.10264879398148
310,-109.22110481049071,-856.8348701754949,-333.8822324918599,-57.97846386512861
311,-108.63673789182539,-862.4770984449917,-328.39891051841306,-56.6886111449352
312,-107.64191375015606,-864.0220082782387,-321.8841540490844,-55.2511391480006
313,-106.26476875011119,-861.8084468673641,-314.45172054700583,-53.709406559684616
314,-104.56010084100379,-856.2426579058445,-306.2251984209876,-52.12466177346302
315,-102.60884981124454,-847.7600246329866,-297.32620139004223,-50.54444238847343
316,-100.48035520274149,-836.7706625794909,-287.8620301852976,-48.97716722022692
317,-98.19114660323135,-823.6037870487684,-277.9196213831004,-47.38803302759438
318,-95.71721206805829,-808.495465390463,-267.56805074741953,-45.71023970397401
319,-93.03646042372156,-791.6096254031481,-256.8637115451443,-43.863046480454294
320,-90.14255785207638,-773.0481911946891,-245.85332897917644,-41.765765786612775
321,-87.03051499352891,-752.8578939429111,-234.5781358502294,-39.353645227842215
322,-83.69194162642655,-731.067280497398,-223.08266601036098,-36.597105576191765
323,-80.12641504484317,-707.7287356135729,-211.42581800564926,-33.508608802310974
324,-76.35458156045392,-682.9313842311336,-199.68179889937423,-30.138556756664993
325,-72.41924229122318,-656.8097373659801,-187.93003895810816,-26.563999856643132
326,-68.36308059604823,-629.552026535589,-176.2482331483069,-22.869813418475154
327,-64.21526948243995,-601.3879420530635,-164.7116023963437,-19.134890556737705
328,-60.003387624713646,-572.5706214247696,-153.39044511212035,-15.434338679413429
329,-55.764165495033524,-543.3580007533607,-142.34646409119478,-11.847953850771852
330,-51.54097508090966,-513.9801974942492,-131.630733725273,-8.446501571886344
331,-47.362327209644484,-484.6099499134364,-121.27846774588538,-5.2664274021652755
332,-43.22638226417858,-455.354139385345,-111.30427072402043,-2.3095635032698403
333,-39.12298882630909,-426.26041462260724,-101.71410854416261,0.42621593355756576
334,-35.070420255452596,-397.34658756826326,-92.52793802188323,2.9162449191636206
335,-31.124927180835638,-368.6324767899884,-83.78412423171615,5.116400345977829
336,-27.358702686683866,-340.1503884619846,-75.52558686864649,6.993970747166403
337,-23.83714442486009,-311.960236411792,-67.78920186962202,8.542448265702104
338,-20.605464403581223,-284.16135272148193,-60.60252261387027,9.77147545935378
339,-17.687949547895258,-256.87925289170033,-53.979178555995794,10.689759700153033
340,-15.100132490346644,-230.23833703050087,-47.90845651630106,11.307226544998546
341,-12.855012038229312,-204.34724809636347,-42.35765513952456,11.649758669695055
342,-10.944801587108246,-179.3027565021615,-37.29154468819256,11.763312140194662
343,-9.317903858658148,-155.1848200363474,-32.67739854528515,11.697503056316679
344,-7.891371966231576,-132.05190832892785,-28.476687521055688,11.488494689127682
345,-6.5771030715982945,-109.94733337743466,-24.641324225114133,11.17248158257799
346,-5.29884591967246,-88.89802633884506,-21.1140213095608,10.809412828784119
347,-3.9956779749040576,-68.91809376425978,-17.835051652733174,10.47820467246726
348,-2.6141106164472387,-50.027717841506146,-14.753227556735778,10.244247278355775
349,-1.1257039628429484,-32.26822108769927,-11.831910081525411,10.134782284182348
350,0.4502464649741271,-15.696969626743973,-9.043343788009246,10.149319270321712
351,2.060408786901784,-0.3616887613550128,-6.356653451509148,10.287769526189352
352,3.6465032234014103,13.731685719686311,-3.7333493075478112,10.55790652588381
353,5.16125172197844,26.62576648485862,-1.1398574306236287,10.953339376248739
354,6.563173626685914,38.391077164634346,1.4356870517304339,11.436956689086415
355,7.805535061328007,49.11863538220503,3.9870504745876625,11.960164372219191
356,8.84751672495513,58.92115133884513,6.505160789717824,12.498380371664892
357,9.682485666717465,67.9260728643762,8.98505912672091,13.058618329896621
358,10.34499426366353,76.27381313084446,11.427241609551798,13.662894186977109
359,10.889809074507538,84.10153291651689,13.841199298363774,14.332993801721285
360,11.362803238874745,91.50285691077055,16.243611402690945,15.076540142460974
361,11.78931339603701,98.5067831698323,18.64866539959132,15.889743945306652
362,12.196218532581957,105.09373034899203,21.067767023229948,16.7719522593378
363,12.628475317495244,111.22225501874013,23.514842094996865,17.729425098728907
364,13.133903652581179,116.85057095416853,25.99918218839758,18.76431853244609
365,13.735918855436791,121.95517664409005,28.510863627603555,19.859199566780966
366,14.428573245453292,126.55163135658759,31.01864876102036,20.98132535516397
367,15.198796374287188,130.71802499011545,33.480451951325584,22.0985666294863
368,16.038712698906423,134.58998985872938,35.848174906313844,23.187132818381876
369,16.94507384874916,138.31745402132597,38.06702311853482,24.22414633480231
370,17.909762633179795,142.01849103025825,40.08132722639819,25.174595825856247
371,18.904058629765807,145.75436003844828,41.84978859547089,26.00138253060195
372,19.879391754961972,149.52076343582274,43.35269864459606,26.678253336827755
373,20.78387489163606,153.23510655908308,44.58347555648793,27.186554282552617
374,21.581530116996657,156.96317702883277,45.557264408800066,27.53319516276084
375,22.237444336328274,160.11183332460655,46.28017287802888,27.65622500637567
376,22.72931166408062,162.28019434255677,46.77879307808815,27.546233966484262
377,23.054890939914078,163.27925322373008,47.09367138909615,27.243246569018588
378,23.237538064700686,163.12249891687378,47.27020038855401,26.81745015302638
379,23.31718753644146,161.97658558769987,47.348519421302804,26.334609166462336
380,23.32776098168164,160.1125505653657,47.357654049862674,25.83898807932325
381,23.292281106123113,157.8655779295236,47.32049204660447,25.365426390248455
382,23.234620999559333,155.58728122017675,47.262001780584804,24.95745883605472
383,23.181490664739357,153.58886408645893,47.205228484157345,24.656903958433794
384,-0.027243407992706192,-2.6663706982679063,-0.8239550584762708,0.004556241813694406
385,-0.3266515920143899,-5.810949205471781,-1.9290182803487506,-0.2654699450718265
386,-0.8275940426027129,-10.32717965850039,-3.5310315170413187,-0.7464371116133126
387,-1.562536616326587,-16.246426068483558,-5.631427133792563,-1.4841982656373003
388,-2.552713865390942,-23.4799465718495,-8.209347813939612,-2.497701904506062
389,-3.78204626033129,-31.83111212297486,-11.215526813376343,-3.7746589371838755
390,-5.195904353838538,-41.030468712232924,-14.552526077187743,-5.280517331750826
391,-6.722125074578747,-50.783297991306426,-18.07613244578127,-6.964865133913389
392,-8.288590493161514,-60.820969834839005,-21.614837976655938,-8.761540820051733
393,-9.834240622798818,-70.95496812266575,-25.004517809215955,-10.589646034705114
394,-11.318588821558253,-81.14736235745859,-28.135616313696524,-12.367979305247951
395,-12.708842276502068,-91.20947939788344,-30.875296412638214,-14.036402316312783
396,-13.995928111716584,-100.93297307921966,-33.10944533126178,-15.560386926058685
397,-15.186423096897954,-110.11345521285685,-34.74940037747155,-16.91914375038989
398,-16.272878012945963,-118.55438223664137,-35.74318627650404,-18.094705664346424
399,-17.226320029283627,-126.06725029570671,-36.07637479622201,-19.068279142118556
400,-18.013932730801685,-132.47946946929787,-35.760320865404324,-19.823976766019676
401,-18.620816725080036,-137.65643794370632,-34.83779952440274,-20.35599071953781
402,-19.05271170494407,-141.52929998058872,-33.392925304411875,-20.6637635437801
403,-19.31790648793956,-144.09197067868018,-31.54142501396748,-20.741358059045275
404,-19.419953640782104,-145.37231186453386,-29.408498402736903,-20.58045574039008
405,-19.368874799964942,-145.4224949264515,-27.103189828294283,-20.18559973935954
406,-19.197804392060828,-144.3157821220249,-24.71797089443984,-19.58619946625448
407,-18.95797931329325,-142.13549000690665,-22.350037034317342,-18.827639419999997
408,-18.6943707766228,-138.97655598185474,-20.097783141479344,-17.95232296950486
409,-18.434598704727662,-134.94752982914858,-18.045543690991213,-16.991257984706426
410,-18.188393591379175,-130.16490438030604,-16.259325036286818,-15.970917770562608
411,-17.95357503900472,-124.755020962665,-14.784988721036614,-14.921823025140279
412,-17.728359241956912,-118.84843466986501,-13.645167406761999,-13.87004380180826
413,-17.515867233836996,-112.55512779115888,-12.835682696095814,-12.824433349449333
414,-17.315708859963898,-105.95508182788903,-12.328050350940392,-11.781383070910136
415,-17.112335717222706,-99.11983887195846,-12.07979924139915,-10.749813253406192
416,-16.880953443318454,-92.12833853632803,-12.047847770227554,-9.77096068108588
417,-16.607507197466,-85.05948834944688,-12.201977990103412,-8.906387630554944
418,-16.29967349655144,-77.97698054962666,-12.520677250821063,-8.211061543845819
419,-15.974259397556514,-70.92339071480336,-12.973620046283349,-7.718491622524875
420,-15.637354031802582,-63.938077694765255,-13.524108219947578,-7.449991593622015
421,-15.288771607008487,-57.08434168785352,-14.138682662969124,-7.427923452345615
422,-14.938171984842187,-50.44273155156382,-14.784774906378745,-7.659258543905515
423,-14.607520378575579,-44.073622432170126,-15.425569038988426,-8.105892063726758
424,-14.317745704320933,-37.998958382796275,-16.020422763430474,-8.684665054064235
425,-14.070317042812604,-32.20787658419955,-16.5322610381749,-9.307733344220061
426,-13.854258406970603,-26.672022665034536,-16.935024853341442,-9.92188847437794
427,-13.67210698827428,-21.370448592897226,-17.214534570775303,-10.505531271644903
428,-13.543164638970913,-16.29746116629604,-17.365226839637938,-11.04636611361073
429,-13.481234784819922,-11.452150779206354,-17.38700195204863,-11.539326659886974
430,-13.479021066633624,-6.839196145366087,-17.283690361943414,-11.995627782533703
431,-13.518079364374648,-2.4774370985004666,-17.06215365503431,-12.439440786071705
432,-13.589511467479515,1.6049245748935634,-16.732018609460805,-12.892144720727202
433,-13.695753092621409,5.384898450788308,-16.30798840335858,-13.354854248670305
434,-13.831335950492045,8.847766379455292,-15.810338567240663,-13.807828660479172
435,-13.9782241834791,11.979466700287965,-15.26053149201266,-14.22905796178198
436,-14.117145392252574,14.766095999352057,-14.676047026155382,-14.606535427613892
437,-14.234279910909086,17.20421535704573,-14.06900820021534,-14.934179713043243
438,-14.31341532751634,19.306702058906946,-13.447376569626037,-15.20012321540426
439,-14.319419411531594,21.09633924834438,-12.815703612018357,-15.3848176083168
440,-14.203532679096384,22.596741487866332,-12.175978281311982,-15.471428831847975
441,-13.924098993241738,23.82604923735007,-11.528764307449576,-15.454141445771981
442,-13.45723644317212,24.79903554044206,-10.872914529223333,-15.338609586469902
443,-12.79034612407829,25.534715708025022,-10.202061113743675,-15.127705032885197
444,-11.904792980142204,26.06212732545361,-9.503899696301373,-14.811898510637548
445,-10.780465079000159,26.42568481298702,-8.769962432552518,-14.377319680748679
446,-9.422038538228799,26.67972249499603,-8.005509469744363,-13.818391183650256
447,-7.867891674052512,26.873363102089364,-7.23005719153512,-13.154958007375386
448,-6.171180115417133,27.03935146167508,-6.470880033032592,-12.429632447450551
449,-4.380214415688282,27.18770758884134,-5.754004223891213,-11.679854028548798
450,-2.531917519925286,27.30927016938763,-5.098884787324642,-10.921819788218327
451,-0.648195657223009,27.39100328025666,-4.51883470924547,-10.161481513593822
452,1.2519439262100378,27.426857846367557,-4.022556432063335,-9.410965606337237
453,3.129683677947237,27.41803130068967,-3.6116130459676614,-8.684669297973382
454,4.920261994140358,27.36892018791502,-3.2769184724910043,-7.987382589110985
455,6.549016640555035,27.28290991427464,-3.000850374460329,-7.3128350388976955
456,7.952457796641727,27.164455065794723,-2.7650812320284013,-6.660939628462494
457,9.083852072169778,27.019814095656052,-2.5552915375190657,-6.063580954091123
458,9.906476123517288,26.85166825890166,-2.359749625623245,-5.5703214592828845
459,10.387718119766099,26.658747440321502,-2.1668006337369063,-5.203594518242053
460,10.505715789703777,26.44170442745932,-1.9628743430124003,-4.949848800185651
461,10.266496771415797,26.199524333286387,-1.7379680252426557,-4.78898686778455
462,9.70565332254418,25.917398790345956,-1.4942453744725168,-4.712290274370589
463,8.865910313588472,25.578081293966022,-1.2434814179068199,-4.710637983244245
464,7.778743154236159,25.19075549402443,-0.998628034034653,-4.754441233289662
465,6.471094974062877,24.801442829218274,-0.7676079891346725,-4.795697365605522
466,4.985581530071993,24.481845214625864,-0.5497242105234925,-4.796041303973679
467,3.3881375283552515,24.31237519303552,-0.33522354920610653,-4.740112934357124
468,1.755142827783157,24.366689378680782,-0.10787158334737605,-4.623524163785571
469,0.16575241547149142,24.701381629022574,0.15062858985115724,-4.440133347748311
470,-1.2895188372941264,25.352438469941422,0.4558611631713419,-4.179199727680753
471,-2.5183229575414585,26.332976795399038,0.8171743105605821,-3.827154477028393
472,-3.4551738362839552,27.627790970332743,1.2366986880496422,-3.3763044941592177
473,-4.079017687941519,29.188117330134254,1.7090179553274916,-2.8376187851597776
474,-4.413973597173411,30.940571616328373,2.223109618401574,-2.2301796556094056
475,-4.505931693380267,32.80439101168076,2.7660366480310787,-1.5664494190523133
476,-4.3916338487373725,34.70022813096837,3.3215623587946332,-0.858639761962821
477,-4.095315532796964,36.55917876767162,3.8663479658483997,-0.12450401742457742
478,-3.646057179088376,38.33585533161923,4.372360914630104,0.6134760885868373
479,-3.082827044964758,40.021577348543765,4.817821649869266,1.3367188706227178
480,-2.440173462630393,41.64386830933134,5.193366551047501,2.0392492703474954
481,-1.7359205918750087,43.24285367708187,5.493534108044417,2.7217062764601603
482,-0.9755118947948493,44.85321705610393,5.7059418569032925,3.3766489465140044
483,-0.172801356207466,46.49787538206489,5.815909961379901,3.977500132065066
484,0.6360238819492099,48.18011054975464,5.8198301013501785,4.488000078107182
485,1.3953754346994436,49.87743720911088,5.726897363953053,4.880861994534687
486,2.043084066919093,51.545805273917715,5.553268224566196,5.143797638291176
487,2.5321483824974282,53.133134109129195,5.318833835359386,5.2694647495770734
488,2.8379172517826565,54.58926914584241,5.046020851685505,5.2438265119993845
489,2.9486253444216297,55.870799336783946,4.75792647244233,5.059330180778747
490,2.8593179099923183,56.94621172921192,4.47449430564317,4.741298060587375
491,2.5824707487865757,57.79952579233941,4.208612660458472,4.341445555018295
492,2.161565527373343,58.42694299404591,3.961358702460449,3.903211645261538
493,1.6496037448788106,58.83504878892779,3.7214586323126753,3.4447104318730335
494,1.082698792898996,59.04387302036551,3.473039697252387,2.9746502894288565
495,0.4788651555538946,59.08765051568899,3.2030884847406185,2.5178674518572093
496,-0.1576251790095569,59.01310440292887,2.904980733090032,2.111362282767211
497,-0.8290240350162796,58.87047037698779,2.5789710004153865,1.775722390999508
498,-1.5392723408533573,58.703221694531564,2.228576401549312,1.4962640026177894
499,-2.2937059994279108,58.544180693459765,1.856900596325999,1.22959100286545
500,-3.0865924215161282,58.413530891081145,1.4681269531124437,0.9326751932083692
501,-3.879392421667824,58.32158213839851,1.0696354500773786,0.5842347413318293
502,-4.675785352571091,58.31912934941929,0.6484363700957764,0.1603117329822349
503,-5.274335651129441,58.295473744889776,0.2667117747959437,-0.297474568698285
504,-5.562230327210651,58.17543633457859,-0.029454819047194526,-0.7506579461012003
505,-5.500626744066618,57.91554921433969,-0.2142644607196348,-1.157661556612526
506,-5.096269417166854,57.50400165190305,-0.28178461366860924,-1.4791742467333007
507,-4.390987723130541,56.960366317012266,-0.24228574914696446,-1.691392789287848
508,-3.4691968557556847,56.330085386775636,-0.11789762010364055,-1.7884223114291655
509,-2.4610863073471942,55.67401352990529,0.062357227022095785,-1.7764954870175034
510,-1.5152496744425268,55.06001642282597,0.26777655262355643,-1.6727300420696953
511,-0.7475224858592245,54.551080810566425,0.46906120215409136,-1.5073525736315383
512,0.0071243599845245,-0.13021481791630568,-0.325982596138245,-0.11460225278954586
513,0.009076486043243584,-0.3567233489914718,-0.7224644514699992,-0.3952848016860936
514,0.010297201436396994,-0.6765389667270858,-1.2717071909480744,-0.8427610470233117
515,0.002650408508238944,-1.0941058373392865,-1.9602827771238767,-1.4980421592380884
516,-0.03883063279357157,-1.6133691391822251,-2.763056156093322,-2.3785003150591573
517,-0.15066473029800906,-2.2306736955564785,-3.6491071444003755,-3.4607019219263018
518,-0.36064411364196125,-2.9391098177684563,-4.59006241922425,-4.694269120493343
519,-0.685523325108284,-3.7435379871502996,-5.568505966848393,-6.032672157590446
520,-1.1473525121092463,-4.661043356324815,-6.58040224157756,-7.445883232262246
521,-1.7781368618369784,-5.711364089697656,-7.634515301250091,-8.913643198595148
522,-2.6039765154734287,-6.915045016122282,-8.75904953467424,-10.416416393629728
523,-3.622794549267554,-8.282678737708851,-9.967930806724036,-11.927639655852955
524,-4.799866928738562,-9.810486141998501,-11.265231374089115,-13.433228316546506
525,-6.086143936330641,-11.465283766492053,-12.63900387334137,-14.928066120500773
526,-7.443111819546466,-13.183661000449641,-14.061701302576246,-16.399634396779657
527,-8.841534997877297,-14.89014242407577,-15.49660355403233,-17.820878670373155
528,-10.2428933319235,-16.51793131546489,-16.90244110461499,-19.167865922058258
529,-11.607651002328774,-18.019123769852033,-18.237253666440395,-20.429536751248424
530,-12.916838701254006,-19.363533445093324,-19.469918231052418,-21.593098339469318
531,-14.17501027617991,-20.53450032729857,-20.59042236222341,-22.6357924906865
532,-15.397308712256901,-21.526560128176257,-21.606619324388408,-23.532570630961683
533,-16.59411351503588,-22.344720219313157,-22.53597573307651,-24.274991412355902
534,-17.768933965359405,-23.010172529923658,-23.39722342979873,-24.880736265200685
535,-18.9319002790767,-23.564053456915914,-24.202159305162755,-25.378687181436625
536,-20.1015429295691,-24.04880800181804,-24.952561366446783,-25.7815699697747
537,-21.274627657442753,-24.49008174120685,-25.643489617050157,-26.077326471243747
538,-22.403033599266912,-24.904209090048134,-26.26893061853757,-26.250202702977152
539,-23.419251205973612,-25.30625732983594,-26.822095428676874,-26.300747475616447
540,-24.280401102134146,-25.70412690707188,-27.291792694467098,-26.244683487929752
541,-24.976985573938084,-26.092503621522134,-27.664098376438538,-26.089184007630273
542,-25.50706200037539,-26.454008553856333,-27.929776600990934,-25.81916405584834
543,-25.857950437298072,-26.762568438963108,-28.08996001539133,-25.41306348093248
544,-26.01318246534029,-26.989192962975174,-28.153164103031244,-24.860358744387785
545,-25.97225155438251,-27.111813639693843,-28.127786011245323,-24.162197852318062
546,-25.746598881279226,-27.11733901112245,-28.01975197434562,-23.319458204317808
547,-25.3340047923756,-26.994014784708074,-27.831239395558523,-22.333405571523688
548,-24.715507930195145,-26.729333528951187,-27.559970315010087,-21.22022285449652
549,-23.872457606497537,-26.318971502456403,-27.205154839016185,-20.019619642050348
550,-22.79881633430886,-25.770821138066843,-26.77191661359479,-18.79085187117589
551,-21.4995202801887,-25.09402256414626,-26.2685428154381,-17.59225946349217
552,-19.98173545803569,-24.28901194687822,-25.703985648499454,-16.46017997769969
553,-18.254875133451936,-23.357165029753745,-25.086598649184225,-15.413300343719087
554,-16.34375751707125,-22.3208384045043,-24.424791125327154,-14.474996722892106
555,-14.30255502680381,-21.222735586817056,-23.730205458178506,-13.677868021423173
556,-12.201373504336953,-20.10841820605532,-23.016709059235527,-13.04092185540057
557,-10.095193451762265,-19.02367530845742,-22.296240384697885,-12.54928499622633
558,-8.012369488911636,-18.022614164082913,-21.574217160226734,-12.157293139809774
559,-5.958729980059207,-17.164550566631306,-20.84643763365167,-11.814253949671299
560,-3.933289199880206,-16.50107920411165,-20.101802492360196,-11.487013324012649
561,-1.9483704190366375,-16.06518366195052,-19.329697889168692,-11.156168804528964
562,-0.03994381569775193,-15.866502051416449,-18.529235320543393,-10.80462769575142
563,1.7420199864635972,-15.895374615659787,-17.71189771324552,-10.415362637653187
564,3.3599565389633033,-16.135009147553973,-16.895628499256876,-9.97530924045922
565,4.790743263230832,-16.568352893248594,-16.099870571090705,-9.480081323488672
566,6.004724002903533,-17.176614132586508,-15.342013471850835,-8.932967070685917
567,6.957582703189285,-17.938588688456477,-14.636448397604795,-8.340602709837343
568,7.602822817289469,-18.833193711306162,-13.998224390990075,-7.715890816690534
569,7.914246823778934,-19.845547029034325,-13.44411459758246,-7.087729693209943
570,7.890032076796037,-20.96945253074424,-12.98766383334386,-6.502617478091324
571,7.537690629953613,-22.201774105248546,-12.634049300443309,-6.0083862247251165
572,6.869024070800772,-23.53600067020631,-12.377481612979876,-5.637405148453487
573,5.914839882538587,-24.959786592059707,-12.201786918825867,-5.40561516708843
574,4.741626598886618,-26.45507790415999,-12.084880277139716,-5.318628693322337
575,3.432985655046052,-27.996415606825707,-12.002788864883243,-5.373930400339166
576,2.045674650466856,-29.554431146448085,-11.932182847650147,-5.5561861696639525
577,0.6020539376015341,-31.104873412982457,-11.84932725643661,-5.827588546664494
578,-0.879102596131572,-32.62913737663665,-11.728619838807868,-6.130983715458567
579,-2.370639422366644,-34.109303092219726,-11.545852753534273,-6.411784011089766
580,-3.8537721053820877,-35.527071941672226,-11.28292141994425,-6.633937224645454
581,-5.338666132336431,-36.86569612816821,-10.933986530534137,-6.781856009204771
582,-6.8602381141536375,-38.1045869219095,-10.507643151033895,-6.851657904591259
583,-8.43860504639503,-39.21032016365079,-10.022637402259939,-6.839616160173359
584,-10.054906204936792,-40.13996081970396,-9.504394241201588,-6.746309187393262
585,-11.66610469158738,-40.853192643132175,-8.980559842833731,-6.587521434497313
586,-13.22781400962096,-41.31846488953188,-8.473660957336614,-6.393860619836968
587,-14.701906894793112,-41.50984780163558,-7.998099960942465,-6.193364476133509
588,-16.046035038944716,-41.40884925969612,-7.561384675370125,-5.99222498409898
589,-17.21263929591285,-41.0134108466697,-7.165100225646024,-5.778866389895906
590,-18.161859630378807,-40.341630346930586,-6.807813299576341,-5.543086224036229
591,-18.88235446256403,-39.42537739792315,-6.488011054199801,-5.288910161385217
592,-19.401454622314482,-38.29948544371613,-6.202800839016018,-5.029203040071354
593,-19.753852087946452,-36.99672119436584,-5.94527972478743,-4.768629855297022
594,-19.960826567223812,-35.54552492185521,-5.708857458086214,-4.493113608326409
595,-20.040610495643318,-33.97115823561829,-5.496960117036993,-4.184654870525555
596,-20.007348250328782,-32.300758565259926,-5.32270901017864,-3.844625115185284
597,-19.85906153343362,-30.56297880616282,-5.198126687983857,-3.488743034931304
598,-19.568787713208103,-28.78531696453807,-5.127238361175552,-3.1315242183937064
599,-19.088750377947793,-26.99854902474087,-5.107169638778014,-2.7788556820129626
600,-18.36995368157397,-25.246341064039726,-5.128910916341763,-2.4261280310376803
601,-17.382591225165644,-23.58016853346245,-5.173278134318722,-2.0605911942457604
602,-16.121036351941953,-22.04149007124724,-5.21195643408563,-1.662739919903859
603,-14.590956708638341,-20.64940547219908,-5.2126041405260155,-1.2071392512277068
604,-12.794718060070506,-19.394944408923873,-5.138046757291807,-0.6671030395912075
605,-10.736876699529667,-18.24227249297037,-4.951419217838022,-0.03390386734721121
606,-8.449167878109654,-17.141846660359022,-4.629599058632208,0.6697854947902934
607,-6.006108751189353,-16.050317986090494,-4.167711750192289,1.4045026630442925
608,-3.5106561820304085,-14.938222088984148,-3.577303197398258,2.1349865236538057
609,-1.0575351686220578,-13.787717145727111,-2.8844370983719876,2.8348506850006046
610,1.2823919077014685,-12.588620643759262,-2.1238577562731633,3.477434232260952
611,3.4456981632227683,-11.336964460179031,-1.3294878580479135,4.032201594307211
612,5.369501157090213,-10.042405175546893,-0.5248405577691131,4.475627743343827
613,6.993814449522296,-8.726532383485099,0.2780965065974502,4.808940557498038
614,8.270199614042106,-7.405653574538422,1.0719756700705398,5.056306570751757
615,9.180986105687232,-6.087447681038078,1.8491602245350214,5.236578096234581
616,9.74140271219025,-4.780841215253851,2.599015661068207,5.344098415678872
617,9.984390541080165,-3.4917968028507267,3.3055724653894623,5.3532256115173125
618,9.952026724650231,-2.2191245633802557,3.947793717066573,5.2399036398012235
619,9.699721365036382,-0.9600119499241492,4.504463027939863,5.00546464187175
620,9.30181199979049,0.2916280625057431,4.960265398094394,4.678205230947625
621,8.834065789998416,1.5514156811749615,5.305960537608643,4.293980121968235
622,8.349185436273656,2.8391795359437633,5.539368050824751,3.884670883399731
623,7.877479501851856,4.166804577784138,5.674848583064454,3.4881117621336597
624,7.442548746537403,5.545229636598171,5.746193765881181,3.153073746489611
625,7.072480095127963,6.994856967097125,5.796747140861245,2.9281758002442664
626,6.795317417512889,8.533933249773815,5.873073283816802,2.84621613958608
627,6.624383488109755,10.168007270622601,6.011919756973388,2.910818808894896
628,6.5486174075693055,11.893408742859249,6.220026096595822,3.0976969341827414
629,6.537501809086721,13.705305115955767,6.478449480910431,3.372115476020712
630,6.5584077163146155,15.544505172925907,6.7032055434344775,3.7081337790076003
631,6.563818172108079,17.45471872237446,6.964160163230483,4.089881011106558
632,6.517877188399162,19.406758014903474,7.293297836134107,4.491577513402409
633,6.399911824093057,21.34341490516899,7.697796325409956,4.892354002952735
634,6.216871876222669,23.201482030866654,8.168893551523302,5.279665244335903
635,5.99697745467057,24.91437394079738,8.684791852896074,5.639994686569287
636,5.767499158012185,26.419768378871478,9.214829284324505,5.95520820724744
637,5.542335448937049,27.665718388120208,9.726506769255975,6.208360159137562
638,5.3286523877749294,28.615494461416866,10.190738107370908,6.392413436826616
639,5.143156696056599,29.2596759010841,10.58488906261676,6.515557131713542
640,-0.16108287497306178,-0.3686824711126482,-0.054514856287336884,-0.24555447423321652
641,-0.46785913631193676,-0.7919984570115781,-0.052356629494520926,-0.7332589531840739
642,-0.9333170224335994,-1.3748931633463088,-0.0038253635193608304,-1.4568336802404667
643,-1.5629023389841172,-2.1197740994651273,0.08578646966674089,-2.4288476702779938
644,-2.3599759513972183,-3.0119688827328748,0.18366190142003985,-3.642013299879977
645,-3.312604723171278,-4.016535388683837,0.23150490099669385,-5.062064916812005
646,-4.368316498448259,-5.084226121091484,0.15341669266566005,-6.624441446294474
647,-5.444679310340825,-6.162211292221925,-0.1297853031580749,-8.243623059135686
648,-6.46985935127666,-7.201346317364927,-0.6866631794583817,-9.833653609997333
649,-7.409101568408819,-8.163424037341793,-1.5636586674477329,-11.325262805532992
650,-8.268927240987047,-9.032459075602508,-2.7753964386091066,-12.675790285579959
651,-9.055858396768832,-9.777778596649632,-4.30205996781259,-13.85240655902844
652,-9.783469908040473,-10.36215793826287,-6.094528717222325,-14.862828281490524
653,-10.484953802038195,-10.754987572650274,-8.080083457324028,-15.742467408418225
654,-11.21130978359337,-10.944686273021317,-10.167478898503514,-16.519368155081107
655,-12.009352999642697,-10.934256623604497,-12.2564675372809,-17.207604643398668
656,-12.897394217198936,-10.739979294342431,-14.256416043249223,-17.831399886754163
657,-13.86804768415056,-10.398377018784421,-16.111340905431717,-18.425920627801265
658,-14.908244766886604,-9.96095712804721,-17.800716664570462,-19.01797610219741
659,-16.00037313635713,-9.472293301935954,-19.3142748059684,-19.61544232421197
660,-17.10685338392957,-8.959944766540884,-20.644521873949135,-20.205512992347405
661,-18.174180633846774,-8.444667917428127,-21.793536993926995,-20.76008912678576
662,-19.159469939823218,-7.9502547810905115,-22.77395938380487,-21.250463580886663
663,-20.054199898227115,-7.509073742074035,-23.606466875275338,-21.67240622842473
664,-20.876877936016452,-7.161330967721213,-24.315356944866497,-22.044357630405997
665,-21.633124773032787,-6.938049936585493,-24.91992577957129,-22.37627924994686
666,-22.300034317446748,-6.831099975071719,-25.427833760338313,-22.653691674277084
667,-22.848226489446795,-6.807641973229245,-25.838552861199254,-22.855069034316777
668,-23.26413119723812,-6.864485339082763,-26.148756123463514,-22.97438838371932
669,-23.550672125484613,-7.0295666064657905,-26.35314938665688,-23.009793435201626
670,-23.70700974893477,-7.323072700160207,-26.445635187953002,-22.947434479623837
671,-23.7181338184886,-7.741104027451816,-26.423848290490305,-22.765461999265547
672,-23.564473773992475,-8.26528416941121,-26.295248203568605,-22.448593139284252
673,-23.241168078117788,-8.877215614865033,-26.08070616931597,-22.005381511146158
674,-22.7663036548832,-9.551904905449138,-25.81152797277266,-21.465341629791997
675,-22.169475036551468,-10.243705497236839,-25.52369699071256,-20.861276142438545
676,-21.47968344045976,-10.894150605510974,-25.250898044386325,-20.2157168486504
677,-20.715370203220854,-11.449980286023026,-25.019536635890095,-19.547299631934422
678,-19.885747980252116,-11.868576798379323,-24.84425082080228,-18.88763704106284
679,-19.004389131152013,-12.112238372027418,-24.71987756339154,-18.2707617064379
680,-18.09822581411828,-12.145100991860613,-24.625428072736142,-17.70579578468229
681,-17.19800601491139,-11.952169472575887,-24.540055882143477,-17.175595327791083
682,-16.318923064261735,-11.571431992554398,-24.454024890060296,-16.670518151094658
683,-15.4673746931104,-11.099490118638702,-24.370181505304497,-16.210915905567454
684,-14.658616418446197,-10.65271781131702,-24.295053441061405,-15.822555047853223
685,-13.915025398566197,-10.302296076925659,-24.229796122930697,-15.496925875945276
686,-13.253209101970304,-10.062592860782626,-24.169450521429695,-15.189008381893398
687,-12.673660199794408,-9.938240312016866,-24.105917513994537,-14.855151185099881
688,-12.166382350558218,-9.938475762731942,-24.029839183959776,-14.478608087705977
689,-11.726360731507805,-10.061612245628044,-23.92862000263479,-14.060710823500068
690,-11.361520149593497,-10.288022645979963,-23.78300791630778,-13.599208430982763
691,-11.080871294659254,-10.587797500997091,-23.56703638481624,-13.08242534316685
692,-10.882691182916096,-10.942427160717783,-23.252317896628593,-12.50639840009432
693,-10.76365785070179,-11.350674163402726,-22.814706178915326,-11.886547323146754
694,-10.732974122016241,-11.815271579019997,-22.2406396019459,-11.253891578531599
695,-10.808932419838614,-12.336024398206597,-21.532931879983984,-10.637675599708407
696,-10.992164633907157,-12.909825422457534,-20.715644167829776,-10.051175420658813
697,-11.249927114073197,-13.529839799424595,-19.82892398420336,-9.505306066454557
698,-11.538541924282594,-14.180812340423968,-18.915395611067805,-9.022592325998797
699,-11.837268646976824,-14.830940013786204,-18.011554615145897,-8.624930896844205
700,-12.144294005282658,-15.434439831871627,-17.143377879104484,-8.31091497261654
701,-12.442666302775411,-15.946290760444123,-16.32613450164136,-8.053543983813775
702,-12.693704667237544,-16.337228806117743,-15.570329700399409,-7.826539968030637
703,-12.859256786112333,-16.6057774065821,-14.882335555228385,-7.619148646362074
704,-12.921528951043532,-16.77154856137846,-14.259226379547293,-7.42309049337434
705,-12.88398240621765,-16.854346051676448,-13.69068138083533,-7.221211505141405
706,-12.755808718018226,-16.867786925253018,-13.167418633660347,-6.989615783583522
707,-12.537020784253528,-16.825976677746354,-12.685776176383346,-6.700177495466809
708,-12.212996172259716,-16.74338012830456,-12.247806429873853,-6.335240376193569
709,-11.768013321860114,-16.62721717246843,-11.861498445128923,-5.907667262673314
710,-11.199130709052072,-16.473598974746764,-11.539490280996297,-5.4522540496428435
711,-10.519071902533062,-16.26812263303666,-11.29540659359972,-4.997882743512983
712,-9.745987073180249,-15.988335880368735,-11.138714495002928,-4.546047924103966
713,-8.883776027551606,-15.609306553184538,-11.069443151991088,-4.08240357237981
714,-7.929922864593234,-15.113376503774923,-11.078310497612563,-3.5973135940508416
715,-6.893950132361681,-14.500819584309673,-11.148278672131326,-3.078601783284383
716,-5.795144227062341,-13.791340296661515,-11.252390176851534,-2.5067762617850264
717,-4.660196860939278,-13.012827335059574,-11.35694843443724,-1.8661040952144254
718,-3.5273133452787366,-12.19988143767273,-11.428627438741826,-1.1579646069323424
719,-2.4438339075460775,-11.402850749266053,-11.439447469767197,-0.41265512459879067
720,-1.4575113117511094,-10.67517934050877,-11.36818158921703,0.3205002021057254
721,-0.6090468228657506,-10.054188752441757,-11.196654147171017,1.000892498727435
722,0.07678201829649305,-9.55871547458243,-10.901448804588696,1.6123955057526986
723,0.6027054978982834,-9.187042998059704,-10.462220090078379,2.14950003156995
724,0.9895695974772367,-8.912554835265254,-9.890336993570754,2.5861163180150903
725,1.242741987673099,-8.68709741703903,-9.230099264890109,2.8757235797053786
726,1.3363997357236257,-8.457108143042795,-8.532751346350238,2.9874511987377406
727,1.2473178384650314,-8.181513051651248,-7.835603751549609,2.919543183694052
728,0.9947973714857916,-7.8368283993214725,-7.151161879184756,2.6760990270790574
729,0.6286835471245709,-7.4176290906996,-6.466478112029656,2.2496424588368558
730,0.18906214846573535,-6.934744630277706,-5.748344921626988,1.6338977304551188
731,-0.3011333864874514,-6.405500320731439,-4.949516138043965,0.8538049837072762
732,-0.8083009073547058,-5.840747741562607,-4.017061714378782,-0.028946764136839276
733,-1.2779850126673806,-5.239983164366696,-2.9036394601521573,-0.9403515801874275
734,-1.654503613948224,-4.600955841484113,-1.5792374970701129,-1.811496577852582
735,-1.9020885416211903,-3.925160015106706,-0.028810240646260366,-2.5791429468195664
736,-2.010634961310942,-3.2020379629995674,1.7598584124138683,-3.1812549014483853
737,-1.9877310502986247,-2.405496701800683,3.785975634342791,-3.5672917148870797
738,-1.8485974758757335,-1.5148636757324438,6.014575188926019,-3.7241264668942957
739,-1.6162042074713379,-0.522966767234254,8.372948646797877,-3.684722717264772
740,-1.3352651550798218,0.5662782436148186,10.764472180878911,-3.5071499247967117
741,-1.0687238288773089,1.7344452033720827,13.092514164761107,-3.240862937839022
742,-0.8624112699307642,2.9517273795934296,15.269261486722389,-2.9095834374579663
743,-0.7117599894080836,4.190070841163118,17.207130102246932,-2.5172640800277795
744,-0.5640035420888103,5.432202261091994,18.825739994412903,-2.065023758541973
745,-0.35864466343767776,6.664672289902007,20.064846015135924,-1.5693825153238081
746,-0.056535893709311225,7.866197359689216,20.889590134396958,-1.0546888425109744
747,0.35934344210174995,9.009677946778137,21.29534323736853,-0.5353693938834724
748,0.8868777476889063,10.068519520615268,21.307548040472305,-0.01553683023527537
749,1.5117156823015314,11.014897918016452,20.97642188139199,0.49960728560682843
750,2.2068699217812378,11.815845494530747,20.369658905326776,0.992704018359698
751,2.927380880222428,12.447691042358334,19.562737617246672,1.443838475639001
752,3.6166637756798012,12.92352283486609,18.624444577392307,1.8483577254345698
753,4.21933407348059,13.287469523191026,17.597192994267036,2.2217293419274706
754,4.696623868477627,13.582499167711722,16.495938910228816,2.5888508734499833
755,5.0283454037575,13.839120902350983,15.329736868970611,2.970049805021235
756,5.203367371696743,14.081277256882183,14.112350180230244,3.379821471102953
757,5.236100824126461,14.328909965659507,12.865758491233475,3.8356317170580856
758,5.152829903001361,14.602193036678592,11.654717042633875,4.355190939846625
759,5.0898330115001675,14.895648547110474,10.455288157848372,4.960679918164767
760,5.12878364078841,15.18924588946546,9.27210652629954,5.62991596597116
761,5.28744194373757,15.456130995247348,8.126700756038408,6.321621389349968
762,5.54184635463276,15.675338195801174,7.051321554513993,7.002107184054682
763,5.864013150988677,15.837565334028074,6.080552166328142,7.646522427594359
764,6.234354680889839,15.942023543352889,5.242612728384304,8.220983893377852
765,6.629605140773559,15.993596949053504,4.555722424967659,8.687023159573702
766,7.0107320221568745,16.00465784118969,4.028093170820487,9.022982309199419
767,7.332594233778847,15.995818396073563,3.6572939690803827,9.23582570313886
768,-0.36841977473867404,-0.4474235801748158,-0.5313652594809559,-0.0011110485279613447
769,-0.8599485841867152,-0.7686716800209702,-1.1316096884213747,-0.20473929711161637
770,-1.5922562806441203,-1.189771286778013,-1.9637297078127283,-0.5375825255212943
771,-2.5805223591212543,-1.7191699336910378,-3.017009645213739,-1.0282067475661611
772,-3.8318363706329457,-2.3608277912155344,-4.256515168836986,-1.7063531596462378
773,-5.338788351486662,-3.114054649644281,-5.625344836543121,-2.5933641528951776
774,-7.06914828380799,-3.9734747784241966,-7.051343960027564,-3.696296761993612
775,-8.963571323912992,-4.930719214649762,-8.45917110103172,-5.006987741759447
776,-10.951313927952453,-5.978894096581001,-9.784011998776707,-6.504683104886254
777,-12.979070821054878,-7.11886617271937,-10.985409018680787,-8.160130693396374
778,-15.031115573230938,-8.366068606211966,-12.067411235558804,-9.94214466870549
779,-17.071255441896827,-9.696713454087723,-13.02660517865801,-11.822904650932905
780,-19.05351779479081,-11.070167499911749,-13.866759774248417,-13.771990918248083
781,-20.93195812083339,-12.452640498808945,-14.593973689558855,-15.746035600708796
782,-22.665140075589708,-13.825866205255785,-15.215582698264587,-17.687666805004564
783,-24.216605646198058,-15.180658868528399,-15.74219854563181,-19.537378991019413
784,-25.56951699677313,-16.51059831599215,-16.18941911723096,-21.248690995502283
785,-26.731381264256576,-17.805086856418736,-16.57600475410301,-22.800647489861277
786,-27.72218193056639,-19.047641059206622,-16.921396573778384,-24.20405585678176
787,-28.557594614271167,-20.226660318941594,-17.243150774658865,-25.486148096906078
788,-29.231339042309912,-21.343426877732153,-17.55300622612399,-26.66348040188698
789,-29.71327305308815,-22.401758610444336,-17.854675760944744,-27.7255814547417
790,-29.964097700892,-23.390330942271984,-18.144958752944273,-28.64671648226337
791,-29.94995141601728,-24.288244899898807,-18.41789407951463,-29.411465727645826
792,-29.64548185736292,-25.089315769122344,-18.670283812027552,-30.015821133738942
793,-29.0280981895752,-25.802158296995813,-18.902155981906656,-30.450467207239733
794,-28.077594882322245,-26.43162142254082,-19.112704507173987,-30.69211499292724
795,-26.786610490914196,-26.975379211430635,-19.297564929286384,-30.715175408925163
796,-25.167115071914075,-27.430960804567828,-19.44834791364225,-30.51261168917763
797,-23.248391946664277,-27.795060840571097,-19.5573814954029,-30.102001504819455
798,-21.0799519016559,-28.057200547363056,-19.62427293808092,-29.514785815026553
799,-18.735444575412824,-28.20399373973986,-19.655922800128174,-28.779032467949953
800,-16.307957852971494,-28.231761490200647,-19.662792065805682,-27.918581776123872
801,-13.891123668124928,-28.152312059533127,-19.657455224046213,-26.967893381979714
802,-11.56402825503733,-27.98998551168239,-19.650577526823817,-25.96527688413691
803,-9.396904542011818,-27.770928240137277,-19.643154028807018,-24.922059080524882
804,-7.458164834015932,-27.510315118524296,-19.627421196392753,-23.819658060401192
805,-5.812840098520077,-27.21435486525681,-19.59832557757143,-22.641695720353873
806,-4.513194704724567,-26.897985626821736,-19.558319013486116,-21.396838407892506
807,-3.5893430969997593,-26.592904371925005,-19.509880972673937,-20.120241324426765
808,-3.0486109375751513,-26.33043955928205,-19.448769617021355,-18.852545627214667
809,-2.869705560031518,-26.11042694164575,-19.36230243463978,-17.62751211026775
810,-2.992392622518805,-25.895666349909217,-19.23455773469593,-16.483843259587506
811,-3.3260536354356343,-25.64268463697158,-19.057440325332298,-15.466434404622664
812,-3.778054285653469,-25.319060465029317,-18.83200120721509,-14.613928490011187
813,-4.286205086207107,-24.89791738579604,-18.559633196013483,-13.940608489826532
814,-4.825436817925847,-24.364168482047898,-18.237035018040736,-13.422539526217255
815,-5.378239777346695,-23.728147847863312,-17.85652561164252,-13.001655975945203
816,-5.910316589493286,-23.022304313346215,-17.408590827420433,-12.609031601999948
817,-6.379822962381056,-22.284194798369125,-16.88706212902135,-12.18843712920663
818,-6.765032005504297,-21.540625530548056,-16.294127595449407,-11.697596741994635
819,-7.083659582492204,-20.79748025399689,-15.64088624197731,-11.11054785419135
820,-7.381933386792447,-20.0409376403268,-14.944962864783971,-10.43033221676566
821,-7.700231739301666,-19.24998360665675,-14.22742122691023,-9.69371869379179
822,-8.052135110254065,-18.404465822508868,-13.509095411303381,-8.962851516953325
823,-8.42559747200849,-17.48156420603365,-12.807497617286218,-8.303576200471243
824,-8.788021665642782,-16.45467169223785,-12.136002658252512,-7.759076423164943
825,-9.089614495568775,-15.304616400620793,-11.50477527106243,-7.337051877268195
826,-9.273818196707051,-14.036802571250108,-10.92012748327978,-7.025763286379351
827,-9.294330592692443,-12.690350322917574,-10.383387664779715,-6.8133776179672925
828,-9.117765921289124,-11.324599869088274,-9.889081416503444,-6.68088233286504
829,-8.713098937639348,-9.99403322139645,-9.42392727652145,-6.584579136161156
830,-8.056236217991861,-8.738819376571854,-8.975606522418015,-6.459509007441523
831,-7.142364429448223,-7.585690857522207,-8.543360316798909,-6.255976314338516
832,-5.987225963796897,-6.544137862218246,-8.137148882799965,-5.973843873890216
833,-4.623217743566491,-5.606397737512099,-7.771680784381915,-5.646372968008351
834,-3.093838407551929,-4.755390309908534,-7.461962701398728,-5.300850667894997
835,-1.4530580492406868,-3.9720413076486603,-7.21806012811658,-4.951261417546158
836,0.22966946977570615,-3.244034647363524,-7.0417570421145905,-4.61385644242812
837,1.8780965468957334,-2.5718827246168283,-6.928609268765059,-4.311905631118821
838,3.4295529396979805,-1.9627483698200738,-6.869633580649176,-4.065288343380044
839,4.836819683506211,-1.415735072421457,-6.850891525808085,-3.8736846634977566
840,6.057813010123281,-0.9109768651853107,-6.855066529415625,-3.7158345597414986
841,7.05722505002947,-0.4184400635942961,-6.865920917835217,-3.5688551070377112
842,7.814582816247363,0.08648403395712781,-6.872909629038474,-3.4180974520496554
843,8.32736942589308,0.6179414235602761,-6.871195309388259,-3.250593505789098
844,8.607852070205176,1.1811507976311053,-6.858923372534485,-3.0409954140472477
845,8.682061103319903,1.7719289078388236,-6.836891707750126,-2.756544803725653
846,8.591624471405163,2.3728078865623474,-6.809322657999659,-2.3841682843593834
847,8.385992965404336,2.9578461875743356,-6.780406066410797,-1.9423671734690358
848,8.10584824434147,3.503263140726365,-6.747511608136325,-1.4714129102691111
849,7.766700454216373,3.991656922835234,-6.702546082201876,-1.0092532733018051
850,7.359464094270009,4.413460926369931,-6.636899824557519,-0.5784334922577711
851,6.873136575324718,4.769380961259186,-6.538478634326673,-0.19582677965467715
852,6.313398051455334,5.071056000233299,-6.394109994060158,0.12152806256581088
853,5.701938548893402,5.3415787785860305,-6.200335710497909,0.35456730118336893
854,5.058692013667441,5.61403612850936,-5.9652929189965045,0.48654793070111374
855,4.38088674223322,5.921031165638842,-5.700817559251855,0.5162999525956412
856,3.652692756612313,6.276738776854988,-5.416263883865252,0.4674271729155559
857,2.8789292153790815,6.66521372762681,-5.120075020988955,0.3771345583799828
858,2.084256796326408,7.050569052967412,-4.82467128835542,0.27290945360585583
859,1.2859074789616796,7.399537132541528,-4.545483379706824,0.16959518663956974
860,0.4903484169181712,7.6901582184313275,-4.296089095219813,0.07614661782633678
861,-0.29647693155792365,7.9122101346867195,-4.0850237901483215,-0.0037330884734624384
862,-1.0667661803083903,8.070069139070624,-3.9143200441109443,-0.07002105626762434
863,-1.8144038015848576,8.181174996738806,-3.7805715327622798,-0.12066765815664329
864,-2.534839027175517,8.269601643464293,-3.676472591825968,-0.14485449618379515
865,-3.21974566979703,8.358187874754623,-3.589481359402793,-0.11633243473411822
866,-3.8505348251249014,8.46306278937076,-3.5026249245859025,0.005645359464441224
867,-4.392500026976482,8.587553479005559,-3.4032110227706793,0.24905910360655115
868,-4.808132782462318,8.716084344198247,-3.2936094134828484,0.6044152082157475
869,-5.082108662234558,8.820452674715204,-3.1905097633918356,1.037708224513954
870,-5.227077658425386,8.877000470800926,-3.114360193719431,1.5172802680547708
871,-5.269455377757675,8.876856603541937,-3.0847638934714183,2.0217974684274633
872,-5.231933811869886,8.821669130281828,-3.1226738160430227,2.5268147607037763
873,-5.135812199106719,8.714506521992007,-3.2483299646373727,2.9987039236316866
874,-5.0208841146418886,8.558851428618137,-3.473116472248786,3.410629575695143
875,-4.947476125325655,8.360263489589778,-3.7921400882482352,3.764097336992241
876,-4.963508901129389,8.124070125242964,-4.185017332090681,4.08650613277334
877,-5.074816751809756,7.855761055336852,-4.622945362231671,4.406887836078797
878,-5.254145856068318,7.558156643594193,-5.073630344934814,4.746004777079613
879,-5.4621331664892745,7.223835024204313,-5.504527831356482,5.116659522283035
880,-5.660289426669258,6.836297178447872,-5.887302647238901,5.524010059423278
881,-5.811702508779539,6.379922302481865,-6.2036636515737404,5.971969252281543
882,-5.873701318486546,5.851306494632073,-6.449599117940632,6.465288966768587
883,-5.811312118918184,5.264689474135588,-6.63506969019899,6.997386327404929
884,-5.625014247415612,4.648197780720532,-6.778134854664869,7.54182564914354
885,-5.349551231166502,4.034929358139597,-6.895208267314407,8.069490024815739
886,-5.042159336292253,3.477400326672643,-7.025554659499892,8.576467633641128
887,-4.736093541572422,2.9215987512790997,-7.1266827516914,9.00331404803336
888,-4.466073598846468,2.335613462263495,-7.174333868899139,9.303591041192657
889,-4.269115264280791,1.7099308125179744,-7.157562626016296,9.451942268802988
890,-4.17137483832128,1.0589888677189119,-7.074645195149799,9.44883173988008
891,-4.168676248249077,0.41227647680304136,-6.931013883986041,9.316513372265414
892,-4.226569377766643,-0.1992469794815789,-6.739186297299468,9.089536637293298
893,-4.305766702448903,-0.7497344782344955,-6.517848102988521,8.80907385535481
894,-4.384692709578714,-1.2196001083956554,-6.289691723321895,8.52042105163741
895,-4.455997092136407,-1.594216522781426,-6.079275842436137,8.26847050702828
896,-0.41995732982800227,-0.07310541564949119,-0.5532699759678901,-0.1930977596693988
897,-0.8555144049368943,-0.3320563649548456,-1.2818159111268796,-0.6368587966150467
898,-1.4620889684901404,-0.765067192897755,-2.3428900413388143,-1.3275037607117244
899,-2.229077056501052,-1.4021890841098015,-3.7485315454602786,-2.276166503767493
900,-3.1378421825441905,-2.263280654715309,-5.482361418359393,-3.4720368905299392
901,-4.166917488259073,-3.346745038341453,-7.493234811433408,-4.8772370708481585
902,-5.281481066755394,-4.620528961226597,-9.699720791305245,-6.428786180969191
903,-6.4208759939554545,-6.028313120779999,-12.004739650071674,-8.048983765134784
904,-7.511502598205768,-7.505430856854946,-14.31257857852092,-9.661737597791797
905,-8.50106286839122,-8.993205676242825,-16.547700428300587,-11.20891473021216
906,-9.392137434833325,-10.453185780069006,-18.68176612566614,-12.661269729322969
907,-10.190600136481706,-11.860742963931628,-20.677569260033252,-13.984896546316715
908,-10.896618068199485,-13.207718532709354,-22.512254160549364,-15.160130191910435
909,-11.506364234078909,-14.493465880334156,-24.174755373379792,-16.20314439103251
910,-12.036351665730475,-15.72453005782793,-25.661195802104874,-17.160373528448936
911,-12.534152740656738,-16.914891193361424,-26.971296268020453,-18.072319509122053
912,-13.056078028189827,-18.079458153899342,-28.106556002057037,-18.953793117550926
913,-13.628455337896535,-19.227132120741096,-29.06853331088809,-19.805278256657022
914,-14.244048504290825,-20.359658944049446,-29.857254202719442,-20.61977890996711
915,-14.891454209106481,-21.467467660645706,-30.46957643987156,-21.382806794780315
916,-15.5679534046473,-22.518567393390537,-30.896831733692274,-22.070107390328722
917,-16.261364312323824,-23.464926567803868,-31.126036766607918,-22.6434252213465
918,-16.93750210228371,-24.26910758368979,-31.149386917352313,-23.059844379783847
919,-17.557730136595335,-24.924544368861017,-30.96848069054906,-23.28365416087125
920,-18.101862184466558,-25.45015523707064,-30.589652254150515,-23.292900273325372
921,-18.571512276815874,-25.872326371712695,-30.026135347334225,-23.0829829929786
922,-18.968649909512813,-26.219026721338352,-29.304785967687874,-22.665947061793474
923,-19.28016168963477,-26.5179353841806,-28.463219786518295,-22.07073439346404
924,-19.49065987253673,-26.788641011553413,-27.539018975462028,-21.34399322016059
925,-19.60525786762753,-27.0394713629985,-26.565322066589705,-20.541295708146222
926,-19.648861884548182,-27.272022887422693,-25.573101604659424,-19.703226374929415
927,-19.638471670591898,-27.484492974730284,-24.58932543566087,-18.84388453738915
928,-19.574627392934453,-27.669862092892128,-23.63365522435215,-17.96952602516742
929,-19.460898303041702,-27.81523380036846,-22.718970101992856,-17.099516549368875
930,-19.32064771211568,-27.905015244616692,-21.851585644764832,-16.27015717744435
931,-19.18530809741965,-27.923109744839714,-21.030521666410994,-15.519819069110438
932,-19.066151653842766,-27.853078624779542,-20.248885047522332,-14.870222070528811
933,-18.947233826078673,-27.682263242279483,-19.49879359357467,-14.323474890959888
934,-18.795834893792133,-27.407042910943282,-18.777284052622328,-13.877834982656184
935,-18.584464790852053,-27.03376189049362,-18.086721791905862,-13.541059846643613
936,-18.307277124736395,-26.572159724757363,-17.431933068118045,-13.327377536999737
937,-17.971702729770136,-26.0277120913795,-16.818503567004303,-13.245163962724614
938,-17.5815149610004,-25.403840362701366,-16.247727505935373,-13.283780092579967
939,-17.127524356405267,-24.70727779109618,-15.711581200598761,-13.41917288159397
940,-16.602681957512562,-23.95337612120218,-15.196621884823148,-13.630714263980337
941,-16.022392610103044,-23.17014768074562,-14.692065028539737,-13.898645810088025
942,-15.426307205861393,-22.390292495147946,-14.191463223827116,-14.19109782174808
943,-14.86204784732003,-21.632615179198325,-13.689712235038975,-14.466361998180338
944,-14.36164364755602,-20.89331466829311,-13.183498906784019,-14.694347952365124
945,-13.940683813240444,-20.15697689337902,-12.675168110869528,-14.874865479308928
946,-13.611381875646547,-19.41288109568363,-12.173852201635881,-15.023828257474754
947,-13.385639002596857,-18.660550224291402,-11.691629082302324,-15.14839584901229
948,-13.265534089283797,-17.90581736228148,-11.237598864830021,-15.245238137225924
949,-13.228119622973898,-17.16497900955526,-10.817158347994486,-15.31319282586109
950,-13.23167388118397,-16.472577526290344,-10.436241245937167,-15.359384491987305
951,-13.244398618896485,-15.867719602328002,-10.099159112382365,-15.39347714666943
952,-13.256942135421577,-15.371705203101335,-9.803963949396302,-15.417321935261795
953,-13.259727722844996,-14.985885662808592,-9.54048483555688,-15.413244302137935
954,-13.224121350878404,-14.7030954512169,-9.288400854927515,-15.338669919162454
955,-13.124053240817714,-14.509962108226496,-9.022042035482258,-15.145569126159051
956,-12.964425978775672,-14.381406344428205,-8.7177812332496,-14.803394305011462
957,-12.774692853337132,-14.279509502269923,-8.355893066252094,-14.296215112364916
958,-12.574642264424496,-14.160876763323872,-7.921706755689586,-13.617919807819135
959,-12.351099517362515,-13.989284966256626,-7.411459493168764,-12.785514082060375
960,-12.076390365420373,-13.748860871385979,-6.839324561782255,-11.845243336524366
961,-11.743338163860692,-13.451201155348008,-6.235820257180951,-10.854481657951725
962,-11.366801771742633,-13.126096746621718,-5.638062287843629,-9.856931928042458
963,-10.958211216637192,-12.807784401365245,-5.080049875135851,-8.876067202949388
964,-10.51658825209432,-12.530419004788932,-4.590137641085499,-7.928893150413102
965,-10.0392016030124,-12.325543420061681,-4.1947572893575105,-7.032901582080665
966,-9.534413946950332,-12.212672305697005,-3.91569684526125,-6.204452462256021
967,-9.022832860474242,-12.185851174056994,-3.7594978308442197,-5.452397294708762
968,-8.519882892058373,-12.215748984519209,-3.7149577651394394,-4.766947248103229
969,-8.02574572736864,-12.266776887525227,-3.7607290694233444,-4.12398902105099
970,-7.534788250407474,-12.303584003586137,-3.870688239633864,-3.5076351503975136
971,-7.050154408673736,-12.29259565141684,-4.017338910715975,-2.933349706744197
972,-6.5806379086826245,-12.20823624851633,-4.174453537399089,-2.4351927369122737
973,-6.123490891074634,-12.03313025328873,-4.316298286383775,-2.0242937138920123
974,-5.664887654678915,-11.755928252571456,-4.41791686626239,-1.6806342918176667
975,-5.190383641876565,-11.372840687649639,-4.457113351881945,-1.3775465229771047
976,-4.696549166573262,-10.88965255008935,-4.415271199723443,-1.0948697390123125
977,-4.197834451298099,-10.318657064771395,-4.275582237338952,-0.8133817706116836
978,-3.714666470504515,-9.671409402331616,-4.022999603192217,-0.5142455440662196
979,-3.2625670760995575,-8.954991589149637,-3.6502981967398718,-0.18855822804973052
980,-2.8488524710190872,-8.170795862564358,-3.1615592195085185,0.15240724279405096
981,-2.475789015018784,-7.313704940545298,-2.5700437334006003,0.4720000119909818
982,-2.1528477156438335,-6.373743339802463,-1.8952784657556752,0.7216242067352214
983,-1.9007964354493512,-5.34698113651903,-1.1617746279676378,0.8656023509391296
984,-1.7294452006532963,-4.250295171335857,-0.39874412088013617,0.8961188679839679
985,-1.6098007253837687,-3.119028433409921,0.36157682520241663,0.8220203933171578
986,-1.4846917430483504,-1.9923978150151853,1.0853847644352306,0.6531642703880791
987,-1.302602052222723,-0.9030352307894902,1.7407944017244366,0.4068934032313186
988,-1.0388764649583786,0.13147340053925505,2.3051499547852123,0.11886695990063752
989,-0.6861461123479053,1.1154726185091268,2.771349828567019,-0.16320827780886674
990,-0.22891913569326744,2.069767149091083,3.1493928044644766,-0.40096305065676185
991,0.3512173345060696,3.017352776671519,3.4597194284230754,-0.5743310990284703
992,1.0476637485412124,3.978483776048762,3.7224786306804645,-0.6691990770645543
993,1.822626419618756,4.974844335126849,3.9525648428752027,-0.667609566320138
994,2.630163343179176,6.0256974795713285,4.15873979166496,-0.5532642900425454
995,3.432823457600448,7.133014522554648,4.339528895044046,-0.32376346218119834
996,4.196685619605949,8.269818827100963,4.480335093298147,0.006210326010451017
997,4.8828676994464075,9.380815941493024,4.559898218825986,0.4149853829142574
998,5.44899535776845,10.397200540984596,4.560482686823394,0.8875488834611243
999,5.871528012807929,11.259300609369053,4.473881501946254,1.4161339609940236
1000,6.162080908860157,11.929573332578643,4.302929010740762,1.9895885276337364
1001,6.349910914472882,12.396484990175985,4.058174809078845,2.586456075481667
1002,6.451555000699311,12.66847923928304,3.753472170580516,3.175646271801539
1003,6.466683167217791,12.760960987578907,3.4056491222831653,3.7323443425088825
1004,6.403960119227357,12.694411701427496,3.0325131084132453,4.249271486785234
1005,6.292063084571587,12.49494065665068,2.6470371588866493,4.72990411228919
1006,6.163438284236283,12.18368901599602,2.2552521308252698,5.176387605162116
1007,6.0296770902497325,11.767507034533999,1.8613895030824366,5.575395264029054
1008,5.879913453920064,11.24445602908635,1.4762810245998446,5.8998129866741085
1009,5.706072159971323,10.611211842972258,1.1215720607892248,6.1247867806933405
1010,5.509335388381796,9.863141095575072,0.8248605296735125,6.240256742246284
1011,5.289010363964149,8.998347051100838,0.608123685288611,6.250451562066849
1012,5.035113557830261,8.02758482119337,0.48062236351982024,6.160042110737772
1013,4.728872825886915,6.9796978204946205,0.4420145164475646,5.96917301701274
1014,4.338960170233165,5.9022015871036295,0.44610504609719337,5.647824408552819
1015,3.874263728913084,4.833113927464894,0.5472701902410455,5.259390523497713
1016,3.364028233760386,3.814586180200601,0.7610711010224095,4.859930826319344
1017,2.8380159941587815,2.887674969554108,1.0764730842413677,4.494020478188755
1018,2.3212979294172063,2.0904775072327677,1.4665042259700276,4.195422625539694
1019,1.8425189905713313,1.451493235129905,1.8979321197977843,3.9903706796658187
1020,1.435107476231718,0.981215082773653,2.337997394624858,3.8923446870173506
1021,1.1277779930727125,0.6676494394889885,2.757020288648966,3.890559878620983
1022,0.9305489248678738,0.4802270036861184,3.1305574143694006,3.9524319591331145
1023,0.8306947138984105,0.38279862180019364,3.440267022921759,4.042468762489044
1024,-0.41530755404488984,-0.5345404716385269,-0.4297257228132132,-0.06359293110941451
1025,-0.695839684521803,-1.177613511689523,-0.9764019387132514,-0.14686506711523828
1026,-1.0487296597067464,-2.0689447679481874,-1.7656821312366873,-0.25564065225860266
1027,-1.4615591380618118,-3.187231435540307,-2.803931368867187,-0.3970140067620595
1028,-1.9125732058787697,-4.49788620278229,-4.080707087048587,-0.5947631754475834
1029,-2.3730070853721017,-5.963440021440956,-5.568539115550115,-0.8754657810578088
1030,-2.8110858687339944,-7.5453831535505,-7.224932529125182,-1.2526800301360472
1031,-3.1973979193112854,-9.200819286678655,-8.99660849278073,-1.7222132985614937
1032,-3.5113654625382194,-10.88480293194523,-10.82794022375295,-2.271903777450138
1033,-3.7485590774505733,-12.568894378664464,-12.677526693408211,-2.8961735172814214
1034,-3.935686502824259,-14.270283015108353,-14.54099842588641,-3.6012252402409244
1035,-4.076683282836144,-15.99312948102315,-16.4031541033568,-4.3872962353659295
1036,-4.142602544189533,-17.736775966232617,-18.249329395814833,-5.247323131262438
1037,-4.092375589060148,-19.491366267714557,-20.063960085090024,-6.177751031252873
1038,-3.9177481135128307,-21.235416923603477,-21.8296401608995,-7.186234636853967
1039,-3.6549121670340305,-22.933042946387264,-23.524693661477922,-8.280743416248132
1040,-3.363472174928654,-24.537872502047872,-25.124593191364784,-9.46516615911884
1041,-3.109585769021069,-26.011022624908563,-26.60818066493117,-10.747564756926652
1042,-2.9584143865727888,-27.333807489290603,-27.96154418277975,-12.142941799435064
1043,-2.9701653370271046,-28.50224246828021,-29.17612406511281,-13.668749412594554
1044,-3.203402800950559,-29.516993520066034,-30.245937787326366,-15.327033777040054
1045,-3.708468948152034,-30.374356912525787,-31.168112826645423,-17.092911425591957
1046,-4.510128596074503,-31.064729482738056,-31.944426123338857,-18.927073975165534
1047,-5.593521612454278,-31.579844257252084,-32.580325710339444,-20.78856825553295
1048,-6.902133848145766,-31.920564882329263,-33.08217500903963,-22.632256080847863
1049,-8.34968505290645,-32.09701997674616,-33.453825200130034,-24.39624702964532
1050,-9.8383148082933,-32.118205715707106,-33.692392515893836,-25.995776305823497
1051,-11.269215638361615,-31.98118540371267,-33.78718156184619,-27.336739754959144
1052,-12.548028573948052,-31.673814485330812,-33.72605383014983,-28.34243541235305
1053,-13.606993077056831,-31.185441875357036,-33.50282796649623,-28.971033223499994
1054,-14.417853982614194,-30.50680191867717,-33.117875990663194,-29.20996346468354
1055,-14.97988225277897,-29.62724609883933,-32.57710521416193,-29.063983976506783
1056,-15.30185269908634,-28.541648397916084,-31.892830463404344,-28.55390224383882
1057,-15.381032320469878,-27.260787508094378,-31.081902610252296,-27.719865979434804
1058,-15.208726048361564,-25.815814401353478,-30.16095937917767,-26.618557316023125
1059,-14.796179209214035,-24.24917677111611,-29.14053112324284,-25.30851177958553
1060,-14.181974690760486,-22.602709741493644,-28.021459836208543,-23.82905438946242
1061,-13.41487111167177,-20.914402716699133,-26.79738889052202,-22.203052389009876
1062,-12.540800257364076,-19.21802959377286,-25.46036082182627,-20.459957477090715
1063,-11.607766361106574,-17.546969283871906,-24.007002505791085,-18.640713884569678
1064,-10.664550833238803,-15.942188374162107,-22.445491084840228,-16.788713062741298
1065,-9.750277170082546,-14.44971956309997,-20.79816617779949,-14.946879945711732
1066,-8.885047165396886,-13.107565351491196,-19.096686398493453,-13.160576918640318
1067,-8.068519734238306,-11.937550582618165,-17.380050936878895,-11.480505285213443
1068,-7.289517193129229,-10.950034164474776,-15.697809729347002,-9.964168013658398
1069,-6.537852253187192,-10.155132087639409,-14.10186029238933,-8.66928081608756
1070,-5.807591429188112,-9.563380884702317,-12.630894541218638,-7.641383292183936
1071,-5.080672178584159,-9.178577947621948,-11.307694954754204,-6.89869257384862
1072,-4.31118919465501,-8.993655120394566,-10.14389896425427,-6.41764487727146
1073,-3.451740674792168,-8.98809864460785,-9.14160117669383,-6.144177512940527
1074,-2.503642461086234,-9.131398734343422,-8.294157664101645,-6.023687936789524
1075,-1.521808134128931,-9.39026839958838,-7.589648928145043,-6.012655391812521
1076,-0.573018670392768,-9.730401002477794,-7.017593542978336,-6.074913094064624
1077,0.28756545076311313,-10.116621344473975,-6.573188394558216,-6.183318715394551
1078,1.0140018377142421,-10.513947161005431,-6.25351473639213,-6.325812547897071
1079,1.5662259995585872,-10.888122715225736,-6.055280111387367,-6.512309926571636
1080,1.911714087929158,-11.210255365063842,-5.979805203102833,-6.7688857913922575
1081,2.031504065649367,-11.4551980350275,-6.033830467000778,-7.117014623626281
1082,1.9260478329903887,-11.59712037273704,-6.2246923412764374,-7.560034766716565
1083,1.6167252614034555,-11.619270836673726,-6.557033952521065,-8.09007790539056
1084,1.1377769413185204,-11.521356653817996,-7.026999924882294,-8.70332789875227
1085,0.5222112148643273,-11.311196661694474,-7.611874204025094,-9.392233510927971
1086,-0.20204585672031858,-10.993089536153693,-8.275190808237804,-10.125975710620992
1087,-1.0027393114566971,-10.571332292159985,-8.9870150957945,-10.852260169017953
1088,-1.8395295742036177,-10.06434895959548,-9.725727057622166,-11.524089075089533
1089,-2.6851872172495552,-9.503311731790895,-10.466304461079867,-12.130521709868805
1090,-3.5391941694552767,-8.91800922903493,-11.18097740454488,-12.68958294551173
1091,-4.406352153679016,-8.32614879175604,-11.843568646154784,-13.20627463393566
1092,-5.280946933330635,-7.732794024140834,-12.428335924165097,-13.652459683631474
1093,-6.149656190299668,-7.141251991562352,-12.909398411966942,-13.990862202318707
1094,-6.9986344794421775,-6.564568635924714,-13.263286757826473,-14.202314776558925
1095,-7.824698596345053,-6.020623599966738,-13.472276122384919,-14.282247765141447
1096,-8.645897358160353,-5.514926538061429,-13.522945109591845,-14.221970083308396
1097,-9.487435702931283,-5.03619347318956,-13.401285057497853,-14.009308244747233
1098,-10.352185219766056,-4.5713284668618,-13.096898886293841,-13.652237958325896
1099,-11.220119505790388,-4.124686315564642,-12.614519126276976,-13.189339412270419
1100,-12.067946090334393,-3.715291788664148,-11.977787775491842,-12.6734836377023
1101,-12.882454260792404,-3.3579578502445195,-11.225132328978557,-12.149044291522399
1102,-13.65046135908534,-3.0593341677565755,-10.403506966352593,-11.645430367422238
1103,-14.340922528588212,-2.825487056746588,-9.558614747094605,-11.185926792434516
1104,-14.921451758933644,-2.6617065303934075,-8.72322460240482,-10.789190550221038
1105,-15.384413017813264,-2.565450054520129,-7.915069360549298,-10.4631232038358
1106,-15.747953607779252,-2.5264265973608646,-7.138468527288391,-10.192998136980878
1107,-16.03784531015715,-2.5320742578714306,-6.391053136416133,-9.940148837063107
1108,-16.275936500734904,-2.571332509523841,-5.681835980322805,-9.670927509722976
1109,-16.48957999290428,-2.6371610617799153,-5.030949792701766,-9.382552710514403
1110,-16.717899820499447,-2.7267370953671475,-4.451723133773486,-9.093582313830074
1111,-17.001602405031697,-2.8428068898314747,-3.939579325435658,-8.816142918095219
1112,-17.36687269596964,-2.9960272997908857,-3.471013640866764,-8.55088868001822
1113,-17.81769888597168,-3.2007853855334765,-3.0081590514325076,-8.301023688449161
1114,-18.345894700072655,-3.4673500780130073,-2.5030201412034354,-8.081879011705059
1115,-18.953903913203188,-3.79785778791205,-1.900449274928488,-7.9249719538217835
1116,-19.65407455068547,-4.178573931851724,-1.1422262824757317,-7.863751275772815
1117,-20.437881925880873,-4.5723848013654385,-0.17559213200276275,-7.912982055995025
1118,-21.264851460902,-4.928786072946108,1.029427693106169,-8.066521637815589
1119,-22.083645850013802,-5.197420119006015,2.4781985664041857,-8.315333782124998
1120,-22.863233481250752,-5.330839354690844,4.170082418487764,-8.669491302565405
1121,-23.59575510244754,-5.2883988899578025,6.093370516969859,-9.14796167282015
1122,-24.266414231015414,-5.0454849999355655,8.206679070794172,-9.743120256548382
1123,-24.838187413511278,-4.595336022339393,10.438164132109243,-10.403832658708215
1124,-25.258749189188443,-3.942064983145946,12.697000409967817,-11.057981928596059
1125,-25.477691781748145,-3.098528208889968,14.890512167040306,-11.64432939216275
1126,-25.46308771229057,-2.0871760033427065,16.927722422790303,-12.114283196544353
1127,-25.207547680827094,-0.938311127435284,18.71214872848174,-12.424562470466288
1128,-24.720735963089602,0.3133108251896477,20.153132065211683,-12.538641304271712
1129,-24.011823788879827,1.6316427271504264,21.183354746829703,-12.429178830627523
1130,-23.08556531169028,2.977212967557717,21.766729959703166,-12.081015039173048
1131,-21.954021181976533,4.311020818038801,21.90340043263808,-11.486789578015658
1132,-20.647745721870308,5.610297375180146,21.63145981584541,-10.633389629997453
1133,-19.20481987206773,6.867119064202182,21.021839542875412,-9.505994193383689
1134,-17.647897163977166,8.067159540194636,20.166715899670262,-8.112883849061658
1135,-15.989118855594167,9.186275336148473,19.167928022046883,-6.4919068389274805
1136,-14.248981153800779,10.205315676590148,18.12455397215121,-4.694616807461691
1137,-12.463936896470162,11.114307238095881,17.109358625911515,-2.7653854358618917
1138,-10.67515602987122,11.912008430790994,16.16303899915577,-0.7376984687327623
1139,-8.910703397577333,12.61200596573106,15.316144419111195,1.3353045462491724
1140,-7.194665624344945,13.237392347895808,14.591738135914115,3.3606395966068003
1141,-5.56315168214925,13.805044425354083,13.995822589566327,5.231481425415266
1142,-4.0638400366791005,14.328931730987827,13.548490737030784,6.873877381437321
1143,-2.7247162430148464,14.777466309520968,13.18580245366009,8.244132668866667
1144,-1.5577626313163384,15.131675723078317,12.862566864377225,9.326158294156897
1145,-0.5671663233874984,15.383320132557174,12.547158340753858,10.118882438997723
1146,0.23660708454756535,15.534564302530317,12.221201270659304,10.638414704704225
1147,0.8439006502930239,15.597485595543105,11.87963404028626,10.92145351998084
1148,1.267114645707744,15.589810827714146,11.528922577541039,11.021127052612819
1149,1.5420273660182722,15.526935516020263,11.18446483375038,10.995136204990224
1150,1.7089849007633173,15.422452569674604,10.867974731122676,10.89677539469971
1151,1.7920959228613924,15.29661978507266,10.604125271936589,10.774030825429453
1152,-0.7207551186138472,-0.16809689612308343,-0.6493735367337101,-0.4710720587651654
1153,-1.4040459375807677,-0.5307810204830066,-1.4666407112502862,-1.1771496097267775
1154,-2.3567875579394313,-1.1044940961177856,-2.664093297347793,-2.23114323659398
1155,-3.571839991448474,-1.9011229007619153,-4.262273410153059,-3.627849093198422
1156,-5.0159649523455005,-2.913844767040251,-6.2637350150198445,-5.331960522719411
1157,-6.641099748836185,-4.115938474467915,-8.642025194132325,-7.2819124751211515
1158,-8.39843558811746,-5.455260539177173,-11.325891910074343,-9.387433863640878
1159,-10.240095583201189,-6.860382473645368,-14.20055743011624,-11.534340943915371
1160,-12.114396839939348,-8.25958435722994,-17.123577091410684,-13.608631664150451
1161,-13.97965115102725,-9.602961985263866,-19.95295436545679,-15.53490575822353
1162,-15.836188043061126,-10.880988709241029,-22.585342446661766,-17.303665629797358
1163,-17.649813023646026,-12.097136235175482,-24.893186664254408,-18.89959029730413
1164,-19.37803216480736,-13.27595851873548,-26.766753370468045,-20.314586637628306
1165,-20.977569246619332,-14.45296809373523,-28.127020468072672,-21.55119731016371
1166,-22.417496411895147,-15.65579873780454,-28.933756075189578,-22.629145265518417
1167,-23.68397891424812,-16.890724736985234,-29.18436372364245,-23.572023189190432
1168,-24.770346933048074,-18.142396840448512,-28.90471799606609,-24.381651090404198
1169,-25.664913880279933,-19.381113728919736,-28.146900595557575,-25.03799314089101
1170,-26.344970729341252,-20.568356281718845,-26.98760509103035,-25.52718370639487
1171,-26.793847177957925,-21.662889738544557,-25.516013855440633,-25.8575396922795
1172,-27.018869529581256,-22.628495864550295,-23.817393669923746,-26.047677159901685
1173,-27.044969174754915,-23.43752112736926,-21.960281006088447,-26.110202622282777
1174,-26.90028476953666,-24.072725206525185,-20.004178385183266,-26.051377378221023
1175,-26.60314532229589,-24.531670957285638,-18.018406495785356,-25.886370444347925
1176,-26.16708960351111,-24.82990296952955,-16.079822669823194,-25.650844051518067
1177,-25.6215493327759,-24.998458839637912,-14.260454737981426,-25.39227269435463
1178,-25.016296205685332,-25.071971158713872,-12.622683179659841,-25.14630775332837
1179,-24.396534631459744,-25.073944571446788,-11.217257486153144,-24.925023880699843
1180,-23.778653992797103,-25.010828962120108,-10.079474034801805,-24.727109884161536
1181,-23.155706321787324,-24.872677439367763,-9.224080838572977,-24.547255925209026
1182,-22.51807425746079,-24.639315195261343,-8.645378404827749,-24.37623742065333
1183,-21.86689807242952,-24.29134790517639,-8.323069350309561,-24.190713719561366
1184,-21.202670773644627,-23.814708732121225,-8.230167819264823,-23.946918363019304
1185,-20.508492339768253,-23.196696386193274,-8.340289032130087,-23.59392877289111
1186,-19.762586727172877,-22.432927083719985,-8.62916134003051,-23.092696158665824
1187,-18.964957197047166,-21.540792212585355,-9.072587862554766,-22.430216487677665
1188,-18.145274070809634,-20.55210887071298,-9.647633710394166,-21.615660327408886
1189,-17.339144814947264,-19.49738574709286,-10.331851940148544,-20.665998638140955
1190,-16.566537831910647,-18.40814671097546,-11.097031153673273,-19.603397498689247
1191,-15.835658539129478,-17.326613315590322,-11.90774541833549,-18.46087288291453
1192,-15.155977930447914,-16.298532605365374,-12.729885111249374,-17.28632734068793
1193,-14.54424906626116,-15.354160698701328,-13.536273260817456,-16.13255669095591
1194,-14.014764230999598,-14.496022198409335,-14.30345215367825,-15.039645824644161
1195,-13.569753191218568,-13.703547077903373,-15.008040960056896,-14.028844141748174
1196,-13.203369994570707,-12.950470137388661,-15.62680106456088,-13.11656112757674
1197,-12.917673529032339,-12.215657491357154,-16.137495786458707,-12.331080429066514
1198,-12.728719532402542,-11.485315397166039,-16.51975993706039,-11.70396812849607
1199,-12.652625423896687,-10.75322313105011,-16.75377439744023,-11.249839057219324
1200,-12.692196269874268,-10.019007409663924,-16.816020422989872,-10.956479440217963
1201,-12.833727839255168,-9.2933409399412,-16.684620359954042,-10.801821404739107
1202,-13.06140894480208,-8.609260008058435,-16.351959592239922,-10.777548580242792
1203,-13.366327433001622,-8.011335002458663,-15.82755086678117,-10.872816808730674
1204,-13.734655185899687,-7.52573442977854,-15.130502534214349,-11.041452259051274
1205,-14.137920478613545,-7.153684616435307,-14.286779620865895,-11.20571995360378
1206,-14.534153433108218,-6.890808181266834,-13.334619917712024,-11.2954777210895
1207,-14.886289204515945,-6.73805953844657,-12.324454652537618,-11.274732183998754
1208,-15.178230736020064,-6.68795432987231,-11.307075957816203,-11.12850772991782
1209,-15.411255566352256,-6.713925329838583,-10.316141543616778,-10.836146475632914
1210,-15.58319289493983,-6.781146281699497,-9.367262129090404,-10.371444402823595
1211,-15.66392177486492,-6.858527220268677,-8.473762621903019,-9.729044779242233
1212,-15.610423317336439,-6.925740845150583,-7.651332342818814,-8.93789292600087
1213,-15.400122389027887,-6.978655271149588,-6.912342872472077,-8.048294727286537
1214,-15.03198453801661,-7.02692160341536,-6.264067005783485,-7.10387837521767
1215,-14.517266537564282,-7.08441032932405,-5.711874545794662,-6.1271409169804745
1216,-13.884728060419958,-7.161896597513793,-5.259984765686533,-5.1409161929468015
1217,-13.181915305219322,-7.263374093205971,-4.909649706133167,-4.190414159633037
1218,-12.46486285500299,-7.3814107599558465,-4.6575077430996235,-3.3300593371560856
1219,-11.779112829466378,-7.490408889491409,-4.4886254405455475,-2.589882184192276
1220,-11.137010833085721,-7.549957111551872,-4.374301363027706,-1.969387226266861
1221,-10.513269290844908,-7.521665997658107,-4.2821566647929625,-1.4661294236321236
1222,-9.861142395621306,-7.380707352606132,-4.185942903552099,-1.0874837179073928
1223,-9.129972512695858,-7.119488039844916,-4.065227945328357,-0.8375010954557044
1224,-8.268135662026815,-6.742774595241191,-3.900611859983155,-0.706874106570446
1225,-7.217288580519134,-6.261330411985615,-3.6781479810581827,-0.6750624834787589
1226,-5.925646128006517,-5.699987824100172,-3.399505658391963,-0.7209156239139093
1227,-4.372664746365143,-5.099677635257496,-3.080389120571913,-0.8309975865362923
1228,-2.5818339190231767,-4.508719359974115,-2.737682193858778,-1.001913610241822
1229,-0.6109851554970016,-3.9778115346291694,-2.3856847465117808,-1.2301301904142194
1230,1.4785040442728068,-3.5517885381642027,-2.040731413385834,-1.497148964895212
1231,3.632690412155662,-3.26000634507246,-1.720461429274069,-1.7669554639647462
1232,5.79909969417963,-3.1125503074827185,-1.4408501600518366,-2.002257810720176
1233,7.933004303656237,-3.1032517666065966,-1.2121564348512757,-2.1807996697218304
1234,9.991107562082412,-3.217950163066303,-1.0350656994684921,-2.283352490869789
1235,11.913023958065802,-3.436566133298722,-0.9015893274695626,-2.286310523099233
1236,13.631610491249736,-3.7266170328546346,-0.7985315280847368,-2.1771413534997976
1237,15.102683991138324,-4.05057462277147,-0.7154290047089854,-1.9632372473745745
1238,16.307838167949654,-4.381751580990366,-0.6526590105788601,-1.6696463580418128
1239,17.237278010216638,-4.700560349294451,-0.6151613708781556,-1.3250779916707047
1240,17.884055933471203,-4.980173737354444,-0.6018325410554727,-0.9445596584944999
1241,18.253124083974445,-5.188942699365915,-0.6092185368806083,-0.5244727578533324
1242,18.373041782236076,-5.309820517641506,-0.6359936632249198,-0.05239734649153652
1243,18.29051296269159,-5.345434393112283,-0.6785435460723424,0.47729182698692074
1244,18.049402478814336,-5.302881473689439,-0.7305226074972608,1.0652939283144545
1245,17.671786500188276,-5.187511492665665,-0.786993576304815,1.7253901199787836
1246,17.161316868305406,-5.008358255455179,-0.842866461314763,2.4853011062357573
1247,16.52403705241999,-4.782417489793827,-0.8876242023712959,3.353466510909287
1248,15.771089913656931,-4.534446976785952,-0.9068304052480833,4.288763431382327
1249,14.908317911704803,-4.289959666187548,-0.8887591360847396,5.220278395265752
1250,13.933555643068086,-4.067999654971752,-0.829781242734153,6.091935434855057
1251,12.850219235502616,-3.879905459958573,-0.7368253758561684,6.874628898993068
1252,11.688165332682585,-3.7348129440759728,-0.625088882906442,7.543460612642929
1253,10.493381872949204,-3.6474997923205263,-0.5128089954136603,8.062428343216023
1254,9.29228286216436,-3.6317866237210152,-0.416102748789525,8.39791576361157
1255,8.082807793527387,-3.6817748286884973,-0.3432713438928746,8.542562268099871
1256,6.865867249193062,-3.7745916017068515,-0.2950870971261781,8.521657849744752
1257,5.666761380121194,-3.8929683044904775,-0.2767518300709309,8.369272435966163
1258,4.519627176551436,-4.030672849955238,-0.3020000132225566,8.105668399745626
1259,3.4440324344008117,-4.181657539170349,-0.38235562682649327,7.742740846791368
1260,2.438466461752229,-4.3393950201119145,-0.5212651931079803,7.294921421903349
1261,1.4965473096304764,-4.505895353867508,-0.7134182057917209,6.7783487425444315
1262,0.6227515669714645,-4.688931674268275,-0.9442914641725493,6.204761495881086
1263,-0.16900750728619848,-4.8906714817167884,-1.1938887964175275,5.578679574670496
1264,-0.8685505392905737,-5.109541917775794,-1.4434588787722993,4.903820290188012
1265,-1.4786240595568447,-5.343395505185267,-1.6774020406622012,4.1978390812054025
1266,-2.0067333490128627,-5.580374550353393,-1.879419151204579,3.490432403724194
1267,-2.4573264431491264,-5.796836971565299,-2.0334598048035404,2.8041396852264433
1268,-2.8359374643590853,-5.96629240558548,-2.1278783489717172,2.149071570942585
1269,-3.1557542319605405,-6.067461977484579,-2.1562674988827273,1.5302755308618237
1270,-3.4749536453100087,-6.080869555616527,-2.129962420606311,0.9256272198937954
1271,-3.7337767484461435,-6.027829387725504,-2.040572250241991,0.40208559716724607
1272,-3.87917775835403,-5.931979000719517,-1.896810062239123,-0.0019447405789551888
1273,-3.883161722578801,-5.818825749692817,-1.7187452432622476,-0.2819163106608359
1274,-3.7559431813017152,-5.713372497427546,-1.5292893179533364,-0.4509380043210771
1275,-3.5344572800092737,-5.637120343014905,-1.3454200016315403,-0.5213447528358571
1276,-3.255740217649833,-5.6059347615092285,-1.176286094178127,-0.5036226491186528
1277,-2.946446317318903,-5.626570803683256,-1.0275882495781523,-0.4161837539333601
1278,-2.630684273531326,-5.691567149972135,-0.9039051148400373,-0.2861240994551895
1279,-2.339920140659662,-5.781136628524687,-0.8089668190541465,-0.14524803250568094
1280,-0.40550766468472915,-0.5639462819885848,-0.4496873364736513,-0.34492497039711545
1281,-0.7990852601521128,-1.2168979257853634,-0.9410155921679088,-0.6998696873484772
1282,-1.3652217663893613,-2.1424855806173646,-1.6402221905624823,-1.2069236531058558
1283,-2.110742022793356,-3.3481363332845344,-2.549196365858611,-1.870638251156791
1284,-3.0161391039380283,-4.836376313994027,-3.6609151794692782,-2.69510247420538
1285,-4.055297760856622,-6.597714174288297,-4.960308952852789,-3.684710343783882
1286,-5.207118735265539,-8.600640590605948,-6.416898289143262,-4.830235832649131
1287,-6.449022236507136,-10.790860359581718,-7.9822222068778625,-6.0961505518556915
1288,-7.743573981678728,-13.099322613635202,-9.602454109637453,-7.434217442596065
1289,-9.047189571461784,-15.45854372032322,-11.241653415513353,-8.816678200866988
1290,-10.341514864706534,-17.827002928492867,-12.901097788744309,-10.25142205563281
1291,-11.60387286723493,-20.131711816254704,-14.562909741011351,-11.724872728272382
1292,-12.81605153914011,-22.294450099993888,-16.20555196983166,-13.208221334177225
1293,-13.95730554994108,-24.23523602145849,-17.808294870408208,-14.67173164663757
1294,-15.011588433327757,-25.886556131634727,-19.352403609823014,-16.102883918008427
1295,-15.978534259860883,-27.216308572894064,-20.820254666387306,-17.50915433310742
1296,-16.87118997851636,-28.230390804590975,-22.195865529812725,-18.90424984729309
1297,-17.69335745304481,-28.95763176611267,-23.463639859900663,-20.289999243581857
1298,-18.41957967676474,-29.445057308913796,-24.608703897090617,-21.650980660400645
1299,-19.011490713510433,-29.7537164161389,-25.620561613210807,-22.96249150447235
1300,-19.452891217288162,-29.93967580780088,-26.49202190463095,-24.196071320955173
1301,-19.751126065493864,-30.038031255980822,-27.21331555597892,-25.311974326330443
1302,-19.910388085329632,-30.062183830864708,-27.773110976554438,-26.258137362679587
1303,-19.922111210556093,-30.01370302795923,-28.166095857353756,-26.989864266553543
1304,-19.77555108797783,-29.89072012110092,-28.396935863525343,-27.485280337400656
1305,-19.47459472088369,-29.68905169542499,-28.477194131661406,-27.739407636818
1306,-19.04136673069859,-29.402167764240353,-28.41938085515483,-27.746202357392704
1307,-18.50100643130711,-29.023161416147396,-28.234336829069427,-27.495111502641638
1308,-17.871951696411433,-28.548309333023614,-27.930656849220217,-26.986437788511456
1309,-17.16709570997029,-27.978651298933922,-27.517718453500123,-26.240261193725594
1310,-16.400988723712675,-27.320252894937,-27.01237934408364,-25.293985473952564
1311,-15.597494174039749,-26.579907671926048,-26.439465876456296,-24.18671348168997
1312,-14.793100972176235,-25.75402297509656,-25.823859679796126,-22.944721602289288
1313,-14.02839498746051,-24.832912020842667,-25.18309590063238,-21.589964706366995
1314,-13.331612607699165,-23.82357645389991,-24.528874239979057,-20.160888736471556
1315,-12.723454860894174,-22.75768837057242,-23.870283820946952,-18.721289193594497
1316,-12.225475744392858,-21.67595504098702,-23.211159950190954,-17.343036195618303
1317,-11.843556299948679,-20.615784410986553,-22.54834330248618,-16.081867305058616
1318,-11.558766120263506,-19.609731555207222,-21.874219708328823,-14.965876165471283
1319,-11.33667691110356,-18.68296523840091,-21.180522809924188,-14.000288232538443
1320,-11.14216380544999,-17.84913785121968,-20.462409348067617,-13.174286836505205
1321,-10.957630617095376,-17.10721485537526,-19.7188467635506,-12.45942885858237
1322,-10.786381155992075,-16.443161659905677,-18.944429302400025,-11.808550684601865
1323,-10.632344276954292,-15.833500328685115,-18.131986810228483,-11.157653794179632
1324,-10.480010328191975,-15.24584266278932,-17.28920348302875,-10.446924695380034
1325,-10.305144262539601,-14.644599833414649,-16.43943073858817,-9.651543071609792
1326,-10.100346557513248,-14.001632602236437,-15.605234445422978,-8.775294859994402
1327,-9.877504930199146,-13.302580178477655,-14.791765268174203,-7.822058963836807
1328,-9.64753548521895,-12.54782748979751,-13.983631535747927,-6.7961057402513205
1329,-9.405516132254396,-11.755601078390262,-13.154148505807258,-5.723105562602319
1330,-9.140755553553271,-10.962962771009561,-12.27304463917799,-4.652772960017298
1331,-8.859959394545086,-10.208682772872834,-11.308612126285798,-3.6391391140896467
1332,-8.59018589626113,-9.510033410125471,-10.22772997458085,-2.7193561520844263
1333,-8.353382961885996,-8.863680297725365,-9.001284959928633,-1.9074243678679144
1334,-8.150402478591339,-8.263147535615662,-7.615989953762895,-1.2036297951137052
1335,-7.977185122002642,-7.703932814089106,-6.077129014602529,-0.6075167304293518
1336,-7.843955082744303,-7.181078423081091,-4.397895154940954,-0.12781810023520793
1337,-7.7708944465777545,-6.68862081697116,-2.5957976055849192,0.22548650417193802
1338,-7.765309940283099,-6.214963827727353,-0.6978947370032769,0.4524753082630143
1339,-7.808561999046333,-5.744577258261673,1.2539672403550113,0.5604617821073601
1340,-7.870994748212349,-5.26949704725591,3.2009612192254417,0.5547962449370805
1341,-7.936469999743754,-4.792783146415518,5.078935074674633,0.4348880064206441
1342,-8.003904896593474,-4.320395826294288,6.829872531317655,0.20898610746480445
1343,-8.06674094502231,-3.850026754027701,8.401763951786872,-0.09907753584943707
1344,-8.105580776996955,-3.364762353037256,9.751656491431403,-0.4631893379874543
1345,-8.094100510400953,-2.841499023911936,10.848112617091177,-0.8573096588188602
1346,-8.00995589991675,-2.2661063433356365,11.669434240150798,-1.247716464707185
1347,-7.845652714964998,-1.6358987999008336,12.205450762887663,-1.5941837670411827
1348,-7.6027458015054314,-0.9575695409431324,12.461280291058843,-1.8573381048362705
1349,-7.284163151447368,-0.25264126665627135,12.459161256712362,-2.011120147854508
1350,-6.898494505093864,0.44526046068024294,12.235039900265681,-2.0569308062365046
1351,-6.469240451714571,1.1028645000402844,11.831816815059009,-2.026400779370868
1352,-6.03080706539633,1.69090154921795,11.293097381491556,-1.9641766229954363
1353,-5.6114856500474115,2.184616648669518,10.653730187082829,-1.9014654856321471
1354,-5.223888755828452,2.571391995904397,9.933970113532697,-1.847740007375011
1355,-4.861818375111877,2.8549829157188915,9.145603145404015,-1.8097717002207079
1356,-4.511270788595225,3.0508246452798913,8.299312075932807,-1.807009539398709
1357,-4.167423251138585,3.180230452353541,7.409411066372995,-1.8592301075317756
1358,-3.831639141159516,3.2657282937256817,6.492446828990567,-1.9640617946430456
1359,-3.5059136239488873,3.3240300452891427,5.5596894922967115,-2.0938243030849275
1360,-3.1979240909704982,3.360809376370192,4.612356289001461,-2.2194957177810504
1361,-2.9224554711608572,3.3713280928657,3.642112244625553,-2.3329843845356124
1362,-2.6967491486687827,3.348638854782214,2.6416327761683265,-2.4450482234080533
1363,-2.528966391995886,3.2944902282783013,1.6154971719656068,-2.568045567196541
1364,-2.4034832591139286,3.220670452887506,0.5810421406164589,-2.7041123243696803
1365,-2.2834182953353674,3.1426422520913904,-0.4352511152486568,-2.848411173888087
1366,-2.1252791755789846,3.075506585358837,-1.4017041834727402,-2.9956280557810553
1367,-1.8842901162975196,3.025895520924374,-2.285687648974142,-3.139683267469557
1368,-1.5146389604719512,2.9813612802123455,-3.058658572227456,-3.2724502481802724
1369,-0.973848288744704,2.914722661758035,-3.702669076462847,-3.3873228373467237
1370,-0.2356244011713292,2.7963499481910024,-4.215107817208651,-3.483015374860807
1371,0.699706317115719,2.600922338440059,-4.606368532380461,-3.564035562422932
1372,1.8058570990622806,2.3128158893315374,-4.892479634477348,-3.636113078992408
1373,3.0387572024557,1.9334488805535592,-5.091122926707613,-3.6946655413218017
1374,4.355740987783061,1.4850561799342803,-5.223575433482622,-3.723930020067634
1375,5.723387231218211,1.0049021959994542,-5.3145548159790925,-3.710144301040863
1376,7.110151509263397,0.5368936787479087,-5.3852990936699054,-3.649237300166006
1377,8.480013157792454,0.1310878919217806,-5.444915597004221,-3.547162994256016
1378,9.782095053820631,-0.15706764697041845,-5.487964151510231,-3.4109006629309286
1379,10.951771952153234,-0.2771244643885827,-5.5024549693693245,-3.2366496736521446
1380,11.931140946743124,-0.19596853686013677,-5.481802251215756,-3.00887505036878
1381,12.684455727305096,0.09114324247450928,-5.42539253061593,-2.7148618577431045
1382,13.196896679039646,0.5504994986947647,-5.331340545242123,-2.3606390541525473
1383,13.466162043388808,1.1165265370853443,-5.1976503290088445,-1.9639442808756606
1384,13.495258808327227,1.7212745558940628,-5.027342519207715,-1.5386368394859822
1385,13.294642012552789,2.3208122579451094,-4.828479874557162,-1.0933144063915785
1386,12.892045049018579,2.8927036526240992,-4.6112899015028175,-0.6394056832991619
1387,12.328410487312784,3.419383412178637,-4.385323334357515,-0.19851106963892245
1388,11.636583177802128,3.888591069093341,-4.15801793828377,0.19687264347233058
1389,10.822420620208964,4.304415318321582,-3.935834559155086,0.511821491120352
1390,9.875673471262424,4.6845379676968175,-3.7258621196007784,0.7174878916047952
1391,8.802259322701733,5.047107823798184,-3.534149598577394,0.7912237246091846
1392,7.628709441798035,5.404937672951964,-3.3629855695581163,0.7167985566774536
1393,6.384094382794861,5.766112872192796,-3.2126172545892895,0.4903009595265184
1394,5.096279325508451,6.133436376526588,-3.0836395824921135,0.1338760294747784
1395,3.800777050822304,6.50391193410434,-2.9729751453440723,-0.29768598383652595
1396,2.5378972620075926,6.870499964356561,-2.8666927929702752,-0.7389755806136576
1397,1.3391459258384073,7.221741016331772,-2.7459144142196616,-1.1415049094992649
1398,0.18295711980431542,7.533182838422621,-2.6225448864369105,-1.517713485354003
1399,-0.8395037860509971,7.7828567151258925,-2.4862862254543963,-1.782041428308552
1400,-1.6622225336477785,7.967243729670165,-2.338845469906586,-1.8790991190148232
1401,-2.245785130096461,8.09208659854265,-2.185051204261407,-1.797165807783924
1402,-2.5825653576621677,8.161390137464632,-2.0300537659512146,-1.5645439986387404
1403,-2.698814308660496,8.178335287866059,-1.8810266051118907,-1.2303951275243068
1404,-2.643459626353666,8.152846683925308,-1.7458094720111719,-0.8480459723016296
1405,-2.4663676474875325,8.099580717237622,-1.6307769861049157,-0.4656499117183389
1406,-2.2104063794374396,8.02996593226738,-1.5398392570967179,-0.12270911030659241
1407,-1.9212609265288414,7.953257773517387,-1.4741992092206193,0.15070348238103612
1408,-0.03096519492139565,-0.627753433487694,-0.4690593067705299,-0.22136935088666293
1409,-0.016409177836372413,-1.34296450353609,-0.9395648149582128,-0.46149171971541003
1410,0.028707478661092245,-2.3434413520925035,-1.5876752123335356,-0.8413744291726907
1411,0.08177926223678755,-3.646952726829423,-2.4332328296066543,-1.364129131414909
1412,0.10821828842159814,-5.291188043413915,-3.505196379345705,-2.0011414818513957
1413,0.07870688817430595,-7.303617812090682,-4.820262809060713,-2.662057116921059
1414,-0.02289069112267765,-9.58678135520525,-6.358290224883038,-3.213125871126444
1415,-0.20567000496845125,-11.953158140227863,-8.05649169735995,-3.55009821929354
1416,-0.4798959675603334,-14.298535074004482,-9.78848731665713,-3.637259994011245
1417,-0.8534543858870667,-16.646304050561824,-11.423961391088088,-3.4993369468084805
1418,-1.3233868947405594,-19.08189840983608,-12.976610779782847,-3.187915213218647
1419,-1.8737442900637526,-21.636757576104273,-14.55172850912817,-2.698216267624261
1420,-2.474129994852403,-24.261645674275073,-16.24840323294403,-1.9835885033780007
1421,-3.081182794550422,-26.864049017190496,-18.09890032624981,-1.0075669172528356
1422,-3.653218949533301,-29.39626466288556,-20.076829008637265,0.21738694385456092
1423,-4.1687046909829055,-31.851721296693178,-22.132209802312165,1.6309390538724249
1424,-4.641453930517273,-34.23795915016353,-24.205203125895714,3.1555483319387116
1425,-5.12106033721628,-36.60748903601339,-26.215451873473903,4.723306164715675
1426,-5.650169532214429,-39.021852605903256,-28.055324721549994,6.2911023605272955
1427,-6.2366589838790025,-41.4101173552432,-29.590034144908913,7.811555116324623
1428,-6.913129555417473,-43.549192968013905,-30.66718412589171,9.155121553674132
1429,-7.735955203308815,-45.283151958257065,-31.133085538896648,10.142358188845362
1430,-8.683633620219982,-46.62877873940007,-30.889576738770483,10.67448036100483
1431,-9.644364050654445,-47.634237560732814,-29.981856030489286,10.769647771759367
1432,-10.480848471799352,-48.14121641651661,-28.54186408437177,10.535500650640154
1433,-11.066251545402151,-47.609919138162006,-26.712688967869468,10.131306268604604
1434,-11.302674041594098,-45.231529335452294,-24.664991206026638,9.707465313570355
1435,-11.134699846877172,-40.15045806051589,-22.467576446692853,9.368010323136122
1436,-10.546459284805602,-31.551510053830274,-19.986311798615752,9.15643627308465
1437,-9.562463816045831,-18.698500603106602,-16.972657011016828,9.052087263186703
1438,-8.269913043614828,-0.9951331393062297,-13.114540420803477,8.972602276863867
1439,-6.815366673089906,21.95053961723137,-8.022604361379868,8.789512179267257
1440,-5.357757281848878,50.25117317507877,-1.2528312150167409,8.372127748420072
1441,-4.018752530473846,83.68168498488856,7.646050153391529,7.6330405110793285
1442,-2.8480814253863747,121.71467621214875,19.07773721291368,6.541123813229424
1443,-1.8183412124155955,163.55400173505421,33.34389908419108,5.116113869420765
1444,-0.8332521580426643,208.14028381911646,50.6153868889857,3.4491455241390514
1445,0.2736302622584156,254.30916269551912,70.922014725361,1.7376817725436824
1446,1.6942210535564395,301.07788919006464,94.16402681528542,0.23475994344747547
1447,3.5503622877294885,347.74106956638275,120.14664854290403,-0.8813916210896395
1448,5.885066189064685,393.6721870280652,148.6336786355975,-1.5178608598329526
1449,8.730367378303665,438.21357685919304,179.36909210644586,-1.5770880801577665
1450,12.0991197631339,480.77182038969335,212.06230785634767,-0.9650633805212225
1451,15.943694159235886,520.9057575666621,246.45691228724908,0.3515744732957732
1452,20.168422072178277,558.3124824117657,282.3204768632657,2.331325668941884
1453,24.656763421458386,592.7526911060838,319.2976769841001,4.870136070097561
1454,29.287883092818024,624.0361345308731,356.8908142390732,7.838331371641955
1455,33.95508695809755,652.0251913027215,394.52912176254745,11.125808988978921
1456,38.57632641666006,676.6247092378466,431.59969940398855,14.653504559066345
1457,43.08298944135163,697.8165996596182,467.46023381316,18.338465430387615
1458,47.40345109990384,715.6805813677049,501.4579061715417,22.068194748116657
1459,51.45334157418204,730.3590929981397,532.950963244397,25.716178533458308
1460,55.136147951156644,742.0065934508629,561.343284661038,29.17026118350792
1461,58.35593800609457,750.7397923864012,586.1111760644907,32.340569868624904
1462,61.03252523576254,756.602823662661,606.8043298706027,35.14481538070759
1463,63.108172038504684,759.5474954205051,623.0555681145444,37.50067528382393
1464,64.53526783283888,759.4079045597724,634.5796191608827,39.3255130830217
1465,65.27022321052196,755.890470655524,641.1653163618346,40.541693193420706
1466,65.28702505947248,748.595533774784,642.6786266898753,41.094391186799974
1467,64.58236561419706,737.0575207066976,639.0562898507644,40.96141311947767
1468,63.16912056748192,720.7963659136431,630.291728931401,40.13984561393092
1469,61.062657499823274,699.3805394101452,616.4284268786006,38.635174437709146
1470,58.27215991014009,672.4986652588209,597.5652325462172,36.47079867987852
1471,54.81210190305403,640.0138605332235,573.864304990773,33.69767762626005
1472,50.72179878166971,601.985530818805,545.5629329875733,30.392877005199246
1473,46.07428794534631,558.6624676245648,512.9813661890507,26.644668801734632
1474,40.955252389772646,510.4255384871841,476.50359479026446,22.529423839637964
1475,35.43711781140418,457.721186244645,436.55218962304525,18.10910017814708
1476,29.582905183874555,401.0622721203559,393.5798682307114,13.450926006488457
1477,23.465452684908485,341.0398854418943,348.06030854627784,8.635154374010806
1478,17.177695110912435,278.2861203647693,300.47786035105497,3.7381271428638643
